Criado como novo conjunto de dados;"e0108.spp","-4278044.7 Secs"
cm-1;Abs
10000.000000;1.104576
9999.000000;1.103098
9998.000000;1.101625
9997.000000;1.100157
9996.000000;1.098694
9995.000000;1.097235
9994.000000;1.095782
9993.000000;1.094333
9992.000000;1.092891
9991.000000;1.091448
9990.000000;1.090023
9989.000000;1.088539
9988.000000;1.086959
9987.000000;1.085445
9986.000000;1.084352
9985.000000;1.083726
9984.000000;1.083091
9983.000000;1.082360
9982.000000;1.082190
9981.000000;1.083033
9980.000000;1.084435
9979.000000;1.085759
9978.000000;1.086972
9977.000000;1.088122
9976.000000;1.088720
9975.000000;1.088410
9974.000000;1.087750
9973.000000;1.087567
9972.000000;1.087837
9971.000000;1.087851
9970.000000;1.087182
9969.000000;1.085909
9968.000000;1.084232
9967.000000;1.082540
9966.000000;1.081530
9965.000000;1.081529
9964.000000;1.081890
9963.000000;1.081738
9962.000000;1.081154
9961.000000;1.080885
9960.000000;1.081055
9959.000000;1.080965
9958.000000;1.080198
9957.000000;1.079148
9956.000000;1.078346
9955.000000;1.077870
9954.000000;1.077538
9953.000000;1.077182
9952.000000;1.076701
9951.000000;1.076287
9950.000000;1.076466
9949.000000;1.077308
9948.000000;1.077780
9947.000000;1.076766
9946.000000;1.074760
9945.000000;1.073599
9944.000000;1.074274
9943.000000;1.075754
9942.000000;1.076337
9941.000000;1.075560
9940.000000;1.074301
9939.000000;1.073543
9938.000000;1.073603
9937.000000;1.074182
9936.000000;1.074554
9935.000000;1.073902
9934.000000;1.071963
9933.000000;1.069380
9932.000000;1.067234
9931.000000;1.066209
9930.000000;1.066172
9929.000000;1.066385
9928.000000;1.066110
9927.000000;1.065237
9926.000000;1.064319
9925.000000;1.063866
9924.000000;1.063769
9923.000000;1.063684
9922.000000;1.063761
9921.000000;1.064482
9920.000000;1.065829
9919.000000;1.067201
9918.000000;1.068240
9917.000000;1.069166
9916.000000;1.070121
9915.000000;1.070711
9914.000000;1.070454
9913.000000;1.069258
9912.000000;1.067296
9911.000000;1.064902
9910.000000;1.062699
9909.000000;1.061325
9908.000000;1.060806
9907.000000;1.060665
9906.000000;1.060732
9905.000000;1.061217
9904.000000;1.061839
9903.000000;1.061670
9902.000000;1.060374
9901.000000;1.058924
9900.000000;1.058510
9899.000000;1.059189
9898.000000;1.060056
9897.000000;1.060378
9896.000000;1.060031
9895.000000;1.059145
9894.000000;1.057997
9893.000000;1.057081
9892.000000;1.056693
9891.000000;1.056497
9890.000000;1.055879
9889.000000;1.054603
9888.000000;1.052862
9887.000000;1.050992
9886.000000;1.049501
9885.000000;1.049047
9884.000000;1.049890
9883.000000;1.051550
9882.000000;1.053312
9881.000000;1.054760
9880.000000;1.055550
9879.000000;1.055170
9878.000000;1.053591
9877.000000;1.051756
9876.000000;1.050678
9875.000000;1.050236
9874.000000;1.049584
9873.000000;1.048617
9872.000000;1.048162
9871.000000;1.048660
9870.000000;1.049464
9869.000000;1.049746
9868.000000;1.049475
9867.000000;1.049122
9866.000000;1.048821
9865.000000;1.048180
9864.000000;1.046741
9863.000000;1.044527
9862.000000;1.042295
9861.000000;1.041163
9860.000000;1.041553
9859.000000;1.042547
9858.000000;1.042792
9857.000000;1.042106
9856.000000;1.041625
9855.000000;1.042205
9854.000000;1.043380
9853.000000;1.044196
9852.000000;1.044528
9851.000000;1.045046
9850.000000;1.046171
9849.000000;1.047508
9848.000000;1.048191
9847.000000;1.047549
9846.000000;1.045669
9845.000000;1.043494
9844.000000;1.042150
9843.000000;1.041881
9842.000000;1.041777
9841.000000;1.040715
9840.000000;1.038413
9839.000000;1.035530
9838.000000;1.033119
9837.000000;1.032121
9836.000000;1.032845
9835.000000;1.034478
9834.000000;1.035445
9833.000000;1.034794
9832.000000;1.033146
9831.000000;1.031978
9830.000000;1.032152
9829.000000;1.033428
9828.000000;1.035053
9827.000000;1.036351
9826.000000;1.036874
9825.000000;1.036535
9824.000000;1.035701
9823.000000;1.034802
9822.000000;1.033822
9821.000000;1.032528
9820.000000;1.031183
9819.000000;1.030548
9818.000000;1.031028
9817.000000;1.032153
9816.000000;1.033115
9815.000000;1.033524
9814.000000;1.033426
9813.000000;1.032875
9812.000000;1.031817
9811.000000;1.030372
9810.000000;1.028958
9809.000000;1.028039
9808.000000;1.027787
9807.000000;1.027975
9806.000000;1.028151
9805.000000;1.027953
9804.000000;1.027327
9803.000000;1.026436
9802.000000;1.025401
9801.000000;1.024194
9800.000000;1.022764
9799.000000;1.021208
9798.000000;1.019848
9797.000000;1.019188
9796.000000;1.019677
9795.000000;1.021290
9794.000000;1.023348
9793.000000;1.024969
9792.000000;1.025767
9791.000000;1.025957
9790.000000;1.025910
9789.000000;1.025833
9788.000000;1.025813
9787.000000;1.025791
9786.000000;1.025432
9785.000000;1.024395
9784.000000;1.022901
9783.000000;1.021685
9782.000000;1.021156
9781.000000;1.020897
9780.000000;1.020260
9779.000000;1.019172
9778.000000;1.018012
9777.000000;1.016967
9776.000000;1.016031
9775.000000;1.015522
9774.000000;1.015944
9773.000000;1.017202
9772.000000;1.018435
9771.000000;1.018905
9770.000000;1.018715
9769.000000;1.018370
9768.000000;1.017957
9767.000000;1.017175
9766.000000;1.016008
9765.000000;1.014898
9764.000000;1.014213
9763.000000;1.013902
9762.000000;1.013750
9761.000000;1.013633
9760.000000;1.013402
9759.000000;1.012839
9758.000000;1.012012
9757.000000;1.011442
9756.000000;1.011620
9755.000000;1.012366
9754.000000;1.012919
9753.000000;1.012702
9752.000000;1.011845
9751.000000;1.010891
9750.000000;1.010144
9749.000000;1.009501
9748.000000;1.008916
9747.000000;1.008710
9746.000000;1.009175
9745.000000;1.009965
9744.000000;1.010250
9743.000000;1.009688
9742.000000;1.008990
9741.000000;1.009097
9740.000000;1.009901
9739.000000;1.010323
9738.000000;1.009683
9737.000000;1.008447
9736.000000;1.007379
9735.000000;1.006516
9734.000000;1.005498
9733.000000;1.004521
9732.000000;1.004287
9731.000000;1.004974
9730.000000;1.005843
9729.000000;1.006024
9728.000000;1.005312
9727.000000;1.004104
9726.000000;1.002954
9725.000000;1.002379
9724.000000;1.002676
9723.000000;1.003531
9722.000000;1.004091
9721.000000;1.003792
9720.000000;1.002950
9719.000000;1.002277
9718.000000;1.002048
9717.000000;1.002035
9716.000000;1.002042
9715.000000;1.002049
9714.000000;1.001890
9713.000000;1.001301
9712.000000;1.000397
9711.000000;0.999740
9710.000000;0.999714
9709.000000;1.000051
9708.000000;1.000159
9707.000000;0.999801
9706.000000;0.999293
9705.000000;0.999050
9704.000000;0.999136
9703.000000;0.999279
9702.000000;0.999201
9701.000000;0.998834
9700.000000;0.998270
9699.000000;0.997593
9698.000000;0.996805
9697.000000;0.995933
9696.000000;0.995169
9695.000000;0.994821
9694.000000;0.995090
9693.000000;0.995899
9692.000000;0.996839
9691.000000;0.997331
9690.000000;0.997016
9689.000000;0.996078
9688.000000;0.995028
9687.000000;0.994119
9686.000000;0.993108
9685.000000;0.991735
9684.000000;0.990256
9683.000000;0.989299
9682.000000;0.989270
9681.000000;0.990067
9680.000000;0.991271
9679.000000;0.992362
9678.000000;0.992849
9677.000000;0.992524
9676.000000;0.991719
9675.000000;0.991033
9674.000000;0.990659
9673.000000;0.990185
9672.000000;0.989207
9671.000000;0.987994
9670.000000;0.987311
9669.000000;0.987589
9668.000000;0.988408
9667.000000;0.988847
9666.000000;0.988338
9665.000000;0.987192
9664.000000;0.986249
9663.000000;0.986036
9662.000000;0.986314
9661.000000;0.986495
9660.000000;0.986346
9659.000000;0.986114
9658.000000;0.986075
9657.000000;0.986268
9656.000000;0.986621
9655.000000;0.986999
9654.000000;0.987114
9653.000000;0.986769
9652.000000;0.986285
9651.000000;0.986240
9650.000000;0.986578
9649.000000;0.986428
9648.000000;0.985229
9647.000000;0.983633
9646.000000;0.982771
9645.000000;0.982835
9644.000000;0.983010
9643.000000;0.982777
9642.000000;0.982572
9641.000000;0.982907
9640.000000;0.983396
9639.000000;0.983117
9638.000000;0.981699
9637.000000;0.979665
9636.000000;0.977842
9635.000000;0.976742
9634.000000;0.976379
9633.000000;0.976378
9632.000000;0.976292
9631.000000;0.976020
9630.000000;0.975900
9629.000000;0.976195
9628.000000;0.976639
9627.000000;0.976781
9626.000000;0.976709
9625.000000;0.976941
9624.000000;0.977476
9623.000000;0.977427
9622.000000;0.976086
9621.000000;0.974092
9620.000000;0.972944
9619.000000;0.973322
9618.000000;0.974375
9617.000000;0.974850
9616.000000;0.974522
9615.000000;0.974145
9614.000000;0.974232
9613.000000;0.974444
9612.000000;0.974191
9611.000000;0.973380
9610.000000;0.972345
9609.000000;0.971422
9608.000000;0.970845
9607.000000;0.970837
9606.000000;0.971464
9605.000000;0.972432
9604.000000;0.973181
9603.000000;0.973176
9602.000000;0.972115
9601.000000;0.970106
9600.000000;0.967854
9599.000000;0.966464
9598.000000;0.966687
9597.000000;0.968262
9596.000000;0.970110
9595.000000;0.971138
9594.000000;0.970819
9593.000000;0.969248
9592.000000;0.967016
9591.000000;0.964969
9590.000000;0.963721
9589.000000;0.963287
9588.000000;0.963303
9587.000000;0.963528
9586.000000;0.963902
9585.000000;0.964266
9584.000000;0.964411
9583.000000;0.964403
9582.000000;0.964470
9581.000000;0.964496
9580.000000;0.964051
9579.000000;0.963095
9578.000000;0.962242
9577.000000;0.962111
9576.000000;0.962700
9575.000000;0.963553
9574.000000;0.964200
9573.000000;0.964254
9572.000000;0.963509
9571.000000;0.962309
9570.000000;0.961442
9569.000000;0.961255
9568.000000;0.961180
9567.000000;0.960526
9566.000000;0.959474
9565.000000;0.958766
9564.000000;0.958656
9563.000000;0.958770
9562.000000;0.958895
9561.000000;0.959215
9560.000000;0.959623
9559.000000;0.959443
9558.000000;0.958196
9557.000000;0.956333
9556.000000;0.954922
9555.000000;0.954796
9554.000000;0.956014
9553.000000;0.957795
9552.000000;0.958867
9551.000000;0.958306
9550.000000;0.956415
9549.000000;0.954560
9548.000000;0.953898
9547.000000;0.954416
9546.000000;0.955297
9545.000000;0.955912
9544.000000;0.956170
9543.000000;0.956157
9542.000000;0.955882
9541.000000;0.955372
9540.000000;0.954715
9539.000000;0.953954
9538.000000;0.953122
9537.000000;0.952402
9536.000000;0.952044
9535.000000;0.952103
9534.000000;0.952358
9533.000000;0.952529
9532.000000;0.952489
9531.000000;0.952311
9530.000000;0.952202
9529.000000;0.952360
9528.000000;0.952813
9527.000000;0.953426
9526.000000;0.954049
9525.000000;0.954519
9524.000000;0.954483
9523.000000;0.953492
9522.000000;0.951532
9521.000000;0.949353
9520.000000;0.947985
9519.000000;0.947875
9518.000000;0.948586
9517.000000;0.949333
9516.000000;0.949677
9515.000000;0.949706
9514.000000;0.949726
9513.000000;0.949884
9512.000000;0.950024
9511.000000;0.949855
9510.000000;0.949319
9509.000000;0.948731
9508.000000;0.948464
9507.000000;0.948498
9506.000000;0.948405
9505.000000;0.947861
9504.000000;0.947070
9503.000000;0.946590
9502.000000;0.946756
9501.000000;0.947308
9500.000000;0.947587
9499.000000;0.947098
9498.000000;0.945887
9497.000000;0.944405
9496.000000;0.943111
9495.000000;0.942269
9494.000000;0.942012
9493.000000;0.942360
9492.000000;0.943070
9491.000000;0.943618
9490.000000;0.943546
9489.000000;0.942832
9488.000000;0.941874
9487.000000;0.941148
9486.000000;0.940953
9485.000000;0.941349
9484.000000;0.942147
9483.000000;0.942916
9482.000000;0.943132
9481.000000;0.942458
9480.000000;0.940963
9479.000000;0.939128
9478.000000;0.937594
9477.000000;0.936730
9476.000000;0.936387
9475.000000;0.936124
9474.000000;0.935697
9473.000000;0.935204
9472.000000;0.934774
9471.000000;0.934347
9470.000000;0.933872
9469.000000;0.933510
9468.000000;0.933450
9467.000000;0.933710
9466.000000;0.934275
9465.000000;0.935192
9464.000000;0.936255
9463.000000;0.936821
9462.000000;0.936366
9461.000000;0.935162
9460.000000;0.934014
9459.000000;0.933342
9458.000000;0.932934
9457.000000;0.932619
9456.000000;0.932659
9455.000000;0.933235
9454.000000;0.934002
9453.000000;0.934518
9452.000000;0.934877
9451.000000;0.935504
9450.000000;0.936372
9449.000000;0.936794
9448.000000;0.936070
9447.000000;0.934177
9446.000000;0.931833
9445.000000;0.930018
9444.000000;0.929380
9443.000000;0.929818
9442.000000;0.930565
9441.000000;0.930792
9440.000000;0.930286
9439.000000;0.929544
9438.000000;0.929259
9437.000000;0.929734
9436.000000;0.930643
9435.000000;0.931242
9434.000000;0.930929
9433.000000;0.929803
9432.000000;0.928635
9431.000000;0.928127
9430.000000;0.928208
9429.000000;0.928180
9428.000000;0.927560
9427.000000;0.926599
9426.000000;0.925973
9425.000000;0.926080
9424.000000;0.926662
9423.000000;0.927006
9422.000000;0.926507
9421.000000;0.925207
9420.000000;0.923837
9419.000000;0.923228
9418.000000;0.923644
9417.000000;0.924696
9416.000000;0.925838
9415.000000;0.926740
9414.000000;0.927198
9413.000000;0.927005
9412.000000;0.926093
9411.000000;0.924736
9410.000000;0.923422
9409.000000;0.922510
9408.000000;0.922071
9407.000000;0.921997
9406.000000;0.922165
9405.000000;0.922504
9404.000000;0.922959
9403.000000;0.923434
9402.000000;0.923759
9401.000000;0.923737
9400.000000;0.923212
9399.000000;0.922127
9398.000000;0.920613
9397.000000;0.919105
9396.000000;0.918261
9395.000000;0.918531
9394.000000;0.919743
9393.000000;0.921224
9392.000000;0.922360
9391.000000;0.922916
9390.000000;0.922890
9389.000000;0.922371
9388.000000;0.921643
9387.000000;0.921128
9386.000000;0.920958
9385.000000;0.920733
9384.000000;0.920018
9383.000000;0.918980
9382.000000;0.918266
9381.000000;0.918282
9380.000000;0.918773
9379.000000;0.919113
9378.000000;0.918861
9377.000000;0.918068
9376.000000;0.917191
9375.000000;0.916673
9374.000000;0.916532
9373.000000;0.916422
9372.000000;0.916182
9371.000000;0.916117
9370.000000;0.916474
9369.000000;0.916884
9368.000000;0.916722
9367.000000;0.915968
9366.000000;0.915226
9365.000000;0.914817
9364.000000;0.914412
9363.000000;0.913760
9362.000000;0.913304
9361.000000;0.913629
9360.000000;0.914603
9359.000000;0.915488
9358.000000;0.915753
9357.000000;0.915389
9356.000000;0.914594
9355.000000;0.913621
9354.000000;0.912910
9353.000000;0.912885
9352.000000;0.913430
9351.000000;0.913883
9350.000000;0.913730
9349.000000;0.913122
9348.000000;0.912561
9347.000000;0.912257
9346.000000;0.911969
9345.000000;0.911364
9344.000000;0.910400
9343.000000;0.909409
9342.000000;0.908829
9341.000000;0.908778
9340.000000;0.908870
9339.000000;0.908584
9338.000000;0.907906
9337.000000;0.907442
9336.000000;0.907773
9335.000000;0.908826
9334.000000;0.909995
9333.000000;0.910802
9332.000000;0.911249
9331.000000;0.911527
9330.000000;0.911568
9329.000000;0.911065
9328.000000;0.909969
9327.000000;0.908790
9326.000000;0.908206
9325.000000;0.908385
9324.000000;0.908831
9323.000000;0.908994
9322.000000;0.908868
9321.000000;0.908858
9320.000000;0.909163
9319.000000;0.909503
9318.000000;0.909445
9317.000000;0.908813
9316.000000;0.907802
9315.000000;0.906823
9314.000000;0.906213
9313.000000;0.905941
9312.000000;0.905630
9311.000000;0.905023
9310.000000;0.904322
9309.000000;0.903879
9308.000000;0.903665
9307.000000;0.903368
9306.000000;0.902924
9305.000000;0.902552
9304.000000;0.902287
9303.000000;0.901924
9302.000000;0.901533
9301.000000;0.901551
9300.000000;0.902135
9299.000000;0.902846
9298.000000;0.903276
9297.000000;0.903615
9296.000000;0.904161
9295.000000;0.904637
9294.000000;0.904487
9293.000000;0.903692
9292.000000;0.902783
9291.000000;0.902148
9290.000000;0.901807
9289.000000;0.901787
9288.000000;0.902184
9287.000000;0.902793
9286.000000;0.903137
9285.000000;0.903048
9284.000000;0.902872
9283.000000;0.902963
9282.000000;0.903268
9281.000000;0.903555
9280.000000;0.903715
9279.000000;0.903673
9278.000000;0.903305
9277.000000;0.902664
9276.000000;0.902081
9275.000000;0.901834
9274.000000;0.901837
9273.000000;0.901764
9272.000000;0.901338
9271.000000;0.900461
9270.000000;0.899321
9269.000000;0.898453
9268.000000;0.898336
9267.000000;0.898722
9266.000000;0.898681
9265.000000;0.897618
9264.000000;0.896026
9263.000000;0.894929
9262.000000;0.894802
9261.000000;0.895313
9260.000000;0.895939
9259.000000;0.896418
9258.000000;0.896660
9257.000000;0.896641
9256.000000;0.896496
9255.000000;0.896424
9254.000000;0.896376
9253.000000;0.896078
9252.000000;0.895426
9251.000000;0.894685
9250.000000;0.894165
9249.000000;0.893892
9248.000000;0.893645
9247.000000;0.893208
9246.000000;0.892545
9245.000000;0.891898
9244.000000;0.891735
9243.000000;0.892396
9242.000000;0.893690
9241.000000;0.895014
9240.000000;0.895937
9239.000000;0.896519
9238.000000;0.896971
9237.000000;0.897213
9236.000000;0.896970
9235.000000;0.896179
9234.000000;0.895130
9233.000000;0.894231
9232.000000;0.893710
9231.000000;0.893470
9230.000000;0.893158
9229.000000;0.892512
9228.000000;0.891699
9227.000000;0.891115
9226.000000;0.890796
9225.000000;0.890299
9224.000000;0.889420
9223.000000;0.888784
9222.000000;0.889285
9221.000000;0.890971
9220.000000;0.892822
9219.000000;0.893731
9218.000000;0.893470
9217.000000;0.892593
9216.000000;0.891670
9215.000000;0.890856
9214.000000;0.890033
9213.000000;0.889127
9212.000000;0.888249
9211.000000;0.887631
9210.000000;0.887373
9209.000000;0.887285
9208.000000;0.887087
9207.000000;0.886843
9206.000000;0.886994
9205.000000;0.887816
9204.000000;0.889017
9203.000000;0.890030
9202.000000;0.890565
9201.000000;0.890644
9200.000000;0.890228
9199.000000;0.889179
9198.000000;0.887675
9197.000000;0.886363
9196.000000;0.885858
9195.000000;0.886190
9194.000000;0.886867
9193.000000;0.887387
9192.000000;0.887568
9191.000000;0.887486
9190.000000;0.887296
9189.000000;0.887126
9188.000000;0.887027
9187.000000;0.886943
9186.000000;0.886774
9185.000000;0.886476
9184.000000;0.886088
9183.000000;0.885726
9182.000000;0.885588
9181.000000;0.885880
9180.000000;0.886582
9179.000000;0.887311
9178.000000;0.887550
9177.000000;0.887138
9176.000000;0.886455
9175.000000;0.886048
9174.000000;0.886106
9173.000000;0.886345
9172.000000;0.886340
9171.000000;0.885865
9170.000000;0.884968
9169.000000;0.883890
9168.000000;0.882972
9167.000000;0.882479
9166.000000;0.882378
9165.000000;0.882329
9164.000000;0.882064
9163.000000;0.881714
9162.000000;0.881648
9161.000000;0.881984
9160.000000;0.882426
9159.000000;0.882604
9158.000000;0.882438
9157.000000;0.882142
9156.000000;0.881965
9155.000000;0.882010
9154.000000;0.882174
9153.000000;0.882189
9152.000000;0.881837
9151.000000;0.881187
9150.000000;0.880540
9149.000000;0.880076
9148.000000;0.879731
9147.000000;0.879477
9146.000000;0.879501
9145.000000;0.879931
9144.000000;0.880553
9143.000000;0.881037
9142.000000;0.881301
9141.000000;0.881408
9140.000000;0.881248
9139.000000;0.880669
9138.000000;0.879892
9137.000000;0.879419
9136.000000;0.879428
9135.000000;0.879563
9134.000000;0.879480
9133.000000;0.879340
9132.000000;0.879518
9131.000000;0.880002
9130.000000;0.880360
9129.000000;0.880254
9128.000000;0.879780
9127.000000;0.879285
9126.000000;0.878967
9125.000000;0.878733
9124.000000;0.878410
9123.000000;0.878028
9122.000000;0.877799
9121.000000;0.877795
9120.000000;0.877765
9119.000000;0.877418
9118.000000;0.876859
9117.000000;0.876533
9116.000000;0.876710
9115.000000;0.877210
9114.000000;0.877677
9113.000000;0.877938
9112.000000;0.878001
9111.000000;0.877902
9110.000000;0.877695
9109.000000;0.877453
9108.000000;0.877169
9107.000000;0.876767
9106.000000;0.876327
9105.000000;0.876124
9104.000000;0.876270
9103.000000;0.876488
9102.000000;0.876417
9101.000000;0.876032
9100.000000;0.875608
9099.000000;0.875356
9098.000000;0.875245
9097.000000;0.875084
9096.000000;0.874669
9095.000000;0.873986
9094.000000;0.873387
9093.000000;0.873363
9092.000000;0.873965
9091.000000;0.874607
9090.000000;0.874642
9089.000000;0.874049
9088.000000;0.873340
9087.000000;0.872984
9086.000000;0.873156
9085.000000;0.873840
9084.000000;0.874759
9083.000000;0.875304
9082.000000;0.874990
9081.000000;0.874104
9080.000000;0.873491
9079.000000;0.873605
9078.000000;0.874084
9077.000000;0.874355
9076.000000;0.874306
9075.000000;0.874163
9074.000000;0.874010
9073.000000;0.873784
9072.000000;0.873542
9071.000000;0.873423
9070.000000;0.873408
9069.000000;0.873390
9068.000000;0.873426
9067.000000;0.873667
9066.000000;0.874011
9065.000000;0.874077
9064.000000;0.873619
9063.000000;0.872856
9062.000000;0.872263
9061.000000;0.872070
9060.000000;0.872084
9059.000000;0.871999
9058.000000;0.871769
9057.000000;0.871608
9056.000000;0.871673
9055.000000;0.871901
9054.000000;0.872193
9053.000000;0.872567
9052.000000;0.872989
9051.000000;0.873145
9050.000000;0.872664
9049.000000;0.871571
9048.000000;0.870337
9047.000000;0.869402
9046.000000;0.868831
9045.000000;0.868478
9044.000000;0.868303
9043.000000;0.868367
9042.000000;0.868635
9041.000000;0.868978
9040.000000;0.869341
9039.000000;0.869768
9038.000000;0.870257
9037.000000;0.870694
9036.000000;0.870981
9035.000000;0.871139
9034.000000;0.871225
9033.000000;0.871195
9032.000000;0.870945
9031.000000;0.870499
9030.000000;0.870076
9029.000000;0.869866
9028.000000;0.869779
9027.000000;0.869530
9026.000000;0.868977
9025.000000;0.868277
9024.000000;0.867687
9023.000000;0.867358
9022.000000;0.867387
9021.000000;0.867829
9020.000000;0.868458
9019.000000;0.868719
9018.000000;0.868238
9017.000000;0.867368
9016.000000;0.866901
9015.000000;0.867165
9014.000000;0.867675
9013.000000;0.867793
9012.000000;0.867459
9011.000000;0.867092
9010.000000;0.866982
9009.000000;0.867073
9008.000000;0.867241
9007.000000;0.867505
9006.000000;0.867867
9005.000000;0.868169
9004.000000;0.868231
9003.000000;0.868095
9002.000000;0.867980
9001.000000;0.867956
9000.000000;0.867746
8999.000000;0.866995
8998.000000;0.865805
8997.000000;0.864856
8996.000000;0.864805
8995.000000;0.865586
8994.000000;0.866477
8993.000000;0.866892
8992.000000;0.866928
8991.000000;0.867029
8990.000000;0.867308
8989.000000;0.867427
8988.000000;0.867082
8987.000000;0.866373
8986.000000;0.865626
8985.000000;0.864987
8984.000000;0.864361
8983.000000;0.863729
8982.000000;0.863340
8981.000000;0.863475
8980.000000;0.864067
8979.000000;0.864738
8978.000000;0.865232
8977.000000;0.865605
8976.000000;0.865911
8975.000000;0.865948
8974.000000;0.865571
8973.000000;0.865142
8972.000000;0.865305
8971.000000;0.866268
8970.000000;0.867550
8969.000000;0.868478
8968.000000;0.868721
8967.000000;0.868303
8966.000000;0.867448
8965.000000;0.866585
8964.000000;0.866201
8963.000000;0.866393
8962.000000;0.866685
8961.000000;0.866534
8960.000000;0.865954
8959.000000;0.865440
8958.000000;0.865372
8957.000000;0.865715
8956.000000;0.866188
8955.000000;0.866483
8954.000000;0.866308
8953.000000;0.865499
8952.000000;0.864235
8951.000000;0.863016
8950.000000;0.862326
8949.000000;0.862314
8948.000000;0.862782
8947.000000;0.863372
8946.000000;0.863761
8945.000000;0.863773
8944.000000;0.863441
8943.000000;0.862960
8942.000000;0.862581
8941.000000;0.862502
8940.000000;0.862754
8939.000000;0.863110
8938.000000;0.863204
8937.000000;0.862876
8936.000000;0.862402
8935.000000;0.862280
8934.000000;0.862751
8933.000000;0.863562
8932.000000;0.864213
8931.000000;0.864387
8930.000000;0.864168
8929.000000;0.863899
8928.000000;0.863851
8927.000000;0.863995
8926.000000;0.864086
8925.000000;0.863941
8924.000000;0.863617
8923.000000;0.863318
8922.000000;0.863185
8921.000000;0.863182
8920.000000;0.863135
8919.000000;0.862888
8918.000000;0.862458
8917.000000;0.862066
8916.000000;0.861927
8915.000000;0.862028
8914.000000;0.862177
8913.000000;0.862237
8912.000000;0.862178
8911.000000;0.861940
8910.000000;0.861476
8909.000000;0.861012
8908.000000;0.861005
8907.000000;0.861650
8906.000000;0.862583
8905.000000;0.863242
8904.000000;0.863417
8903.000000;0.863280
8902.000000;0.863024
8901.000000;0.862739
8900.000000;0.862563
8899.000000;0.862649
8898.000000;0.862926
8897.000000;0.863103
8896.000000;0.862997
8895.000000;0.862699
8894.000000;0.862342
8893.000000;0.861907
8892.000000;0.861338
8891.000000;0.860755
8890.000000;0.860406
8889.000000;0.860419
8888.000000;0.860634
8887.000000;0.860727
8886.000000;0.860539
8885.000000;0.860297
8884.000000;0.860419
8883.000000;0.861054
8882.000000;0.861930
8881.000000;0.862693
8880.000000;0.863213
8879.000000;0.863400
8878.000000;0.863002
8877.000000;0.861929
8876.000000;0.860682
8875.000000;0.860034
8874.000000;0.860204
8873.000000;0.860638
8872.000000;0.860723
8871.000000;0.860466
8870.000000;0.860280
8869.000000;0.860323
8868.000000;0.860329
8867.000000;0.860017
8866.000000;0.859498
8865.000000;0.859284
8864.000000;0.859878
8863.000000;0.861232
8862.000000;0.862555
8861.000000;0.862892
8860.000000;0.862075
8859.000000;0.860937
8858.000000;0.860404
8857.000000;0.860574
8856.000000;0.860914
8855.000000;0.861132
8854.000000;0.861461
8853.000000;0.862090
8852.000000;0.862708
8851.000000;0.862862
8850.000000;0.862550
8849.000000;0.862227
8848.000000;0.862267
8847.000000;0.862576
8846.000000;0.862764
8845.000000;0.862578
8844.000000;0.862126
8843.000000;0.861719
8842.000000;0.861558
8841.000000;0.861624
8840.000000;0.861809
8839.000000;0.862018
8838.000000;0.862106
8837.000000;0.861865
8836.000000;0.861275
8835.000000;0.860709
8834.000000;0.860658
8833.000000;0.861156
8832.000000;0.861662
8831.000000;0.861671
8830.000000;0.861323
8829.000000;0.861189
8828.000000;0.861521
8827.000000;0.861962
8826.000000;0.862092
8825.000000;0.861975
8824.000000;0.861945
8823.000000;0.862026
8822.000000;0.861898
8821.000000;0.861477
8820.000000;0.861187
8819.000000;0.861486
8818.000000;0.862287
8817.000000;0.863066
8816.000000;0.863442
8815.000000;0.863438
8814.000000;0.863284
8813.000000;0.863207
8812.000000;0.863412
8811.000000;0.864013
8810.000000;0.864878
8809.000000;0.865700
8808.000000;0.866277
8807.000000;0.866576
8806.000000;0.866507
8805.000000;0.865880
8804.000000;0.864719
8803.000000;0.863459
8802.000000;0.862656
8801.000000;0.862603
8800.000000;0.863283
8799.000000;0.864500
8798.000000;0.865874
8797.000000;0.866903
8796.000000;0.867335
8795.000000;0.867406
8794.000000;0.867488
8793.000000;0.867564
8792.000000;0.867364
8791.000000;0.866969
8790.000000;0.866887
8789.000000;0.867415
8788.000000;0.868210
8787.000000;0.868692
8786.000000;0.868685
8785.000000;0.868459
8784.000000;0.868315
8783.000000;0.868353
8782.000000;0.868543
8781.000000;0.868761
8780.000000;0.868809
8779.000000;0.868592
8778.000000;0.868311
8777.000000;0.868288
8776.000000;0.868583
8775.000000;0.868909
8774.000000;0.868946
8773.000000;0.868639
8772.000000;0.868145
8771.000000;0.867648
8770.000000;0.867288
8769.000000;0.867173
8768.000000;0.867351
8767.000000;0.867787
8766.000000;0.868425
8765.000000;0.869223
8764.000000;0.870090
8763.000000;0.870841
8762.000000;0.871280
8761.000000;0.871328
8760.000000;0.871070
8759.000000;0.870764
8758.000000;0.870760
8757.000000;0.871268
8756.000000;0.872114
8755.000000;0.872819
8754.000000;0.873065
8753.000000;0.873031
8752.000000;0.873181
8751.000000;0.873763
8750.000000;0.874603
8749.000000;0.875301
8748.000000;0.875540
8747.000000;0.875267
8746.000000;0.874745
8745.000000;0.874407
8744.000000;0.874464
8743.000000;0.874650
8742.000000;0.874503
8741.000000;0.873939
8740.000000;0.873389
8739.000000;0.873317
8738.000000;0.873789
8737.000000;0.874584
8736.000000;0.875489
8735.000000;0.876321
8734.000000;0.876829
8733.000000;0.876860
8732.000000;0.876594
8731.000000;0.876416
8730.000000;0.876515
8729.000000;0.876767
8728.000000;0.876981
8727.000000;0.877142
8726.000000;0.877365
8725.000000;0.877760
8724.000000;0.878379
8723.000000;0.879144
8722.000000;0.879804
8721.000000;0.880061
8720.000000;0.879796
8719.000000;0.879130
8718.000000;0.878312
8717.000000;0.877690
8716.000000;0.877700
8715.000000;0.878598
8714.000000;0.880082
8713.000000;0.881387
8712.000000;0.881961
8711.000000;0.881972
8710.000000;0.881984
8709.000000;0.882257
8708.000000;0.882570
8707.000000;0.882650
8706.000000;0.882528
8705.000000;0.882424
8704.000000;0.882501
8703.000000;0.882855
8702.000000;0.883555
8701.000000;0.884446
8700.000000;0.884989
8699.000000;0.884616
8698.000000;0.883391
8697.000000;0.882163
8696.000000;0.881852
8695.000000;0.882604
8694.000000;0.883744
8693.000000;0.884510
8692.000000;0.884643
8691.000000;0.884293
8690.000000;0.883666
8689.000000;0.883002
8688.000000;0.882660
8687.000000;0.882881
8686.000000;0.883437
8685.000000;0.883801
8684.000000;0.883761
8683.000000;0.883704
8682.000000;0.884189
8681.000000;0.885376
8680.000000;0.886894
8679.000000;0.888127
8678.000000;0.888557
8677.000000;0.888031
8676.000000;0.886893
8675.000000;0.885822
8674.000000;0.885383
8673.000000;0.885702
8672.000000;0.886500
8671.000000;0.887322
8670.000000;0.887760
8669.000000;0.887685
8668.000000;0.887395
8667.000000;0.887369
8666.000000;0.887740
8665.000000;0.888130
8664.000000;0.888145
8663.000000;0.887859
8662.000000;0.887633
8661.000000;0.887610
8660.000000;0.887676
8659.000000;0.887801
8658.000000;0.888090
8657.000000;0.888457
8656.000000;0.888582
8655.000000;0.888320
8654.000000;0.887927
8653.000000;0.887709
8652.000000;0.887629
8651.000000;0.887433
8650.000000;0.887064
8649.000000;0.886750
8648.000000;0.886720
8647.000000;0.887008
8646.000000;0.887535
8645.000000;0.888226
8644.000000;0.888930
8643.000000;0.889360
8642.000000;0.889279
8641.000000;0.888787
8640.000000;0.888320
8639.000000;0.888280
8638.000000;0.888674
8637.000000;0.889155
8636.000000;0.889388
8635.000000;0.889321
8634.000000;0.889160
8633.000000;0.889189
8632.000000;0.889597
8631.000000;0.890314
8630.000000;0.890956
8629.000000;0.891105
8628.000000;0.890763
8627.000000;0.890429
8626.000000;0.890572
8625.000000;0.891097
8624.000000;0.891450
8623.000000;0.891191
8622.000000;0.890371
8621.000000;0.889429
8620.000000;0.888866
8619.000000;0.888955
8618.000000;0.889546
8617.000000;0.890163
8616.000000;0.890404
8615.000000;0.890287
8614.000000;0.890131
8613.000000;0.890159
8612.000000;0.890346
8611.000000;0.890560
8610.000000;0.890677
8609.000000;0.890595
8608.000000;0.890348
8607.000000;0.890173
8606.000000;0.890294
8605.000000;0.890645
8604.000000;0.891003
8603.000000;0.891376
8602.000000;0.891959
8601.000000;0.892684
8600.000000;0.893140
8599.000000;0.893073
8598.000000;0.892714
8597.000000;0.892404
8596.000000;0.892108
8595.000000;0.891531
8594.000000;0.890606
8593.000000;0.889660
8592.000000;0.889173
8591.000000;0.889476
8590.000000;0.890536
8589.000000;0.891855
8588.000000;0.892712
8587.000000;0.892729
8586.000000;0.892168
8585.000000;0.891600
8584.000000;0.891362
8583.000000;0.891484
8582.000000;0.891911
8581.000000;0.892515
8580.000000;0.893005
8579.000000;0.893142
8578.000000;0.893039
8577.000000;0.892991
8576.000000;0.892985
8575.000000;0.892664
8574.000000;0.891874
8573.000000;0.890992
8572.000000;0.890550
8571.000000;0.890660
8570.000000;0.890985
8569.000000;0.891183
8568.000000;0.891241
8567.000000;0.891399
8566.000000;0.891832
8565.000000;0.892468
8564.000000;0.893055
8563.000000;0.893393
8562.000000;0.893454
8561.000000;0.893285
8560.000000;0.892895
8559.000000;0.892310
8558.000000;0.891669
8557.000000;0.891169
8556.000000;0.890915
8555.000000;0.890873
8554.000000;0.890940
8553.000000;0.890983
8552.000000;0.890913
8551.000000;0.890834
8550.000000;0.891020
8549.000000;0.891561
8548.000000;0.892134
8547.000000;0.892335
8546.000000;0.892217
8545.000000;0.892218
8544.000000;0.892550
8543.000000;0.892942
8542.000000;0.893111
8541.000000;0.893153
8540.000000;0.893271
8539.000000;0.893369
8538.000000;0.893227
8537.000000;0.892922
8536.000000;0.892753
8535.000000;0.892787
8534.000000;0.892764
8533.000000;0.892463
8532.000000;0.891949
8531.000000;0.891401
8530.000000;0.890946
8529.000000;0.890718
8528.000000;0.890838
8527.000000;0.891179
8526.000000;0.891337
8525.000000;0.891070
8524.000000;0.890716
8523.000000;0.890937
8522.000000;0.891980
8521.000000;0.893326
8520.000000;0.894149
8519.000000;0.894043
8518.000000;0.893264
8517.000000;0.892369
8516.000000;0.891775
8515.000000;0.891628
8514.000000;0.891868
8513.000000;0.892266
8512.000000;0.892507
8511.000000;0.892438
8510.000000;0.892235
8509.000000;0.892206
8508.000000;0.892437
8507.000000;0.892742
8506.000000;0.892975
8505.000000;0.893191
8504.000000;0.893438
8503.000000;0.893576
8502.000000;0.893489
8501.000000;0.893336
8500.000000;0.893367
8499.000000;0.893521
8498.000000;0.893438
8497.000000;0.892942
8496.000000;0.892326
8495.000000;0.892056
8494.000000;0.892295
8493.000000;0.892822
8492.000000;0.893272
8491.000000;0.893345
8490.000000;0.892907
8489.000000;0.892058
8488.000000;0.891129
8487.000000;0.890473
8486.000000;0.890228
8485.000000;0.890308
8484.000000;0.890633
8483.000000;0.891208
8482.000000;0.891942
8481.000000;0.892530
8480.000000;0.892674
8479.000000;0.892443
8478.000000;0.892231
8477.000000;0.892341
8476.000000;0.892686
8475.000000;0.893004
8474.000000;0.893218
8473.000000;0.893430
8472.000000;0.893608
8471.000000;0.893539
8470.000000;0.893208
8469.000000;0.892992
8468.000000;0.893284
8467.000000;0.893979
8466.000000;0.894560
8465.000000;0.894659
8464.000000;0.894354
8463.000000;0.893915
8462.000000;0.893479
8461.000000;0.893094
8460.000000;0.892891
8459.000000;0.892997
8458.000000;0.893323
8457.000000;0.893581
8456.000000;0.893561
8455.000000;0.893309
8454.000000;0.893064
8453.000000;0.893078
8452.000000;0.893460
8451.000000;0.894095
8450.000000;0.894673
8449.000000;0.894878
8448.000000;0.894582
8447.000000;0.893887
8446.000000;0.893035
8445.000000;0.892344
8444.000000;0.892136
8443.000000;0.892563
8442.000000;0.893460
8441.000000;0.894414
8440.000000;0.895013
8439.000000;0.895065
8438.000000;0.894668
8437.000000;0.894146
8436.000000;0.893866
8435.000000;0.893975
8434.000000;0.894283
8433.000000;0.894471
8432.000000;0.894402
8431.000000;0.894182
8430.000000;0.893961
8429.000000;0.893801
8428.000000;0.893730
8427.000000;0.893750
8426.000000;0.893779
8425.000000;0.893732
8424.000000;0.893702
8423.000000;0.893919
8422.000000;0.894434
8421.000000;0.894979
8420.000000;0.895249
8419.000000;0.895214
8418.000000;0.895040
8417.000000;0.894797
8416.000000;0.894450
8415.000000;0.894068
8414.000000;0.893856
8413.000000;0.893916
8412.000000;0.894125
8411.000000;0.894311
8410.000000;0.894441
8409.000000;0.894576
8408.000000;0.894708
8407.000000;0.894757
8406.000000;0.894724
8405.000000;0.894746
8404.000000;0.894964
8403.000000;0.895345
8402.000000;0.895706
8401.000000;0.895925
8400.000000;0.896077
8399.000000;0.896305
8398.000000;0.896608
8397.000000;0.896829
8396.000000;0.896867
8395.000000;0.896788
8394.000000;0.896698
8393.000000;0.896630
8392.000000;0.896586
8391.000000;0.896596
8390.000000;0.896640
8389.000000;0.896629
8388.000000;0.896554
8387.000000;0.896548
8386.000000;0.896690
8385.000000;0.896828
8384.000000;0.896762
8383.000000;0.896543
8382.000000;0.896391
8381.000000;0.896357
8380.000000;0.896239
8379.000000;0.895909
8378.000000;0.895545
8377.000000;0.895441
8376.000000;0.895670
8375.000000;0.896012
8374.000000;0.896180
8373.000000;0.896056
8372.000000;0.895763
8371.000000;0.895536
8370.000000;0.895532
8369.000000;0.895742
8368.000000;0.896094
8367.000000;0.896538
8366.000000;0.896971
8365.000000;0.897177
8364.000000;0.897046
8363.000000;0.896808
8362.000000;0.896857
8361.000000;0.897248
8360.000000;0.897575
8359.000000;0.897435
8358.000000;0.896900
8357.000000;0.896400
8356.000000;0.896256
8355.000000;0.896433
8354.000000;0.896696
8353.000000;0.896838
8352.000000;0.896790
8351.000000;0.896643
8350.000000;0.896585
8349.000000;0.896736
8348.000000;0.897008
8347.000000;0.897200
8346.000000;0.897231
8345.000000;0.897222
8344.000000;0.897304
8343.000000;0.897402
8342.000000;0.897267
8341.000000;0.896752
8340.000000;0.896025
8339.000000;0.895475
8338.000000;0.895409
8337.000000;0.895816
8336.000000;0.896416
8335.000000;0.896883
8334.000000;0.897050
8333.000000;0.896984
8332.000000;0.896901
8331.000000;0.896950
8330.000000;0.897009
8329.000000;0.896774
8328.000000;0.896140
8327.000000;0.895450
8326.000000;0.895253
8325.000000;0.895813
8324.000000;0.896919
8323.000000;0.898079
8322.000000;0.898836
8321.000000;0.898950
8320.000000;0.898513
8319.000000;0.897909
8318.000000;0.897501
8317.000000;0.897319
8316.000000;0.897137
8315.000000;0.896882
8314.000000;0.896754
8313.000000;0.896874
8312.000000;0.897048
8311.000000;0.897030
8310.000000;0.896877
8309.000000;0.896821
8308.000000;0.896879
8307.000000;0.896813
8306.000000;0.896512
8305.000000;0.896230
8304.000000;0.896365
8303.000000;0.897058
8302.000000;0.898048
8301.000000;0.898862
8300.000000;0.899141
8299.000000;0.898860
8298.000000;0.898295
8297.000000;0.897787
8296.000000;0.897527
8295.000000;0.897493
8294.000000;0.897499
8293.000000;0.897320
8292.000000;0.896905
8291.000000;0.896526
8290.000000;0.896606
8289.000000;0.897287
8288.000000;0.898229
8287.000000;0.898931
8286.000000;0.899195
8285.000000;0.899196
8284.000000;0.899154
8283.000000;0.899093
8282.000000;0.898922
8281.000000;0.898651
8280.000000;0.898410
8279.000000;0.898279
8278.000000;0.898150
8277.000000;0.897855
8276.000000;0.897469
8275.000000;0.897385
8274.000000;0.897918
8273.000000;0.898824
8272.000000;0.899404
8271.000000;0.899207
8270.000000;0.898522
8269.000000;0.898035
8268.000000;0.898124
8267.000000;0.898623
8266.000000;0.899143
8265.000000;0.899443
8264.000000;0.899510
8263.000000;0.899464
8262.000000;0.899433
8261.000000;0.899417
8260.000000;0.899259
8259.000000;0.898842
8258.000000;0.898311
8257.000000;0.897999
8256.000000;0.898092
8255.000000;0.898411
8254.000000;0.898567
8253.000000;0.898331
8252.000000;0.897854
8251.000000;0.897548
8250.000000;0.897706
8249.000000;0.898209
8248.000000;0.898650
8247.000000;0.898770
8246.000000;0.898695
8245.000000;0.898715
8244.000000;0.898943
8243.000000;0.899277
8242.000000;0.899587
8241.000000;0.899813
8240.000000;0.899957
8239.000000;0.900086
8238.000000;0.900284
8237.000000;0.900505
8236.000000;0.900551
8235.000000;0.900316
8234.000000;0.899965
8233.000000;0.899724
8232.000000;0.899598
8231.000000;0.899477
8230.000000;0.899406
8229.000000;0.899525
8228.000000;0.899769
8227.000000;0.899881
8226.000000;0.899764
8225.000000;0.899573
8224.000000;0.899440
8223.000000;0.899323
8222.000000;0.899211
8221.000000;0.899278
8220.000000;0.899686
8219.000000;0.900369
8218.000000;0.901098
8217.000000;0.901628
8216.000000;0.901728
8215.000000;0.901275
8214.000000;0.900487
8213.000000;0.899894
8212.000000;0.899904
8211.000000;0.900412
8210.000000;0.900970
8209.000000;0.901271
8208.000000;0.901370
8207.000000;0.901470
8206.000000;0.901653
8205.000000;0.901836
8204.000000;0.901894
8203.000000;0.901783
8202.000000;0.901576
8201.000000;0.901397
8200.000000;0.901358
8199.000000;0.901528
8198.000000;0.901899
8197.000000;0.902286
8196.000000;0.902356
8195.000000;0.901921
8194.000000;0.901231
8193.000000;0.900780
8192.000000;0.900764
8191.000000;0.900884
8190.000000;0.900754
8189.000000;0.900363
8188.000000;0.900017
8187.000000;0.899969
8186.000000;0.900214
8185.000000;0.900595
8184.000000;0.900938
8183.000000;0.901141
8182.000000;0.901254
8181.000000;0.901445
8180.000000;0.901801
8179.000000;0.902211
8178.000000;0.902502
8177.000000;0.902621
8176.000000;0.902606
8175.000000;0.902451
8174.000000;0.902151
8173.000000;0.901815
8172.000000;0.901611
8171.000000;0.901587
8170.000000;0.901638
8169.000000;0.901627
8168.000000;0.901485
8167.000000;0.901207
8166.000000;0.900850
8165.000000;0.900521
8164.000000;0.900323
8163.000000;0.900332
8162.000000;0.900658
8161.000000;0.901387
8160.000000;0.902362
8159.000000;0.903112
8158.000000;0.903216
8157.000000;0.902761
8156.000000;0.902284
8155.000000;0.902231
8154.000000;0.902575
8153.000000;0.902989
8152.000000;0.903227
8151.000000;0.903269
8150.000000;0.903193
8149.000000;0.903056
8148.000000;0.902897
8147.000000;0.902763
8146.000000;0.902672
8145.000000;0.902605
8144.000000;0.902556
8143.000000;0.902589
8142.000000;0.902784
8141.000000;0.903074
8140.000000;0.903198
8139.000000;0.902918
8138.000000;0.902309
8137.000000;0.901734
8136.000000;0.901500
8135.000000;0.901633
8134.000000;0.901995
8133.000000;0.902448
8132.000000;0.902820
8131.000000;0.902872
8130.000000;0.902521
8129.000000;0.902055
8128.000000;0.901941
8127.000000;0.902379
8126.000000;0.903157
8125.000000;0.903886
8124.000000;0.904258
8123.000000;0.904131
8122.000000;0.903591
8121.000000;0.903005
8120.000000;0.902822
8119.000000;0.903210
8118.000000;0.903908
8117.000000;0.904495
8116.000000;0.904727
8115.000000;0.904624
8114.000000;0.904357
8113.000000;0.904123
8112.000000;0.904034
8111.000000;0.904024
8110.000000;0.903934
8109.000000;0.903728
8108.000000;0.903554
8107.000000;0.903535
8106.000000;0.903584
8105.000000;0.903517
8104.000000;0.903307
8103.000000;0.903138
8102.000000;0.903214
8101.000000;0.903567
8100.000000;0.904030
8099.000000;0.904374
8098.000000;0.904504
8097.000000;0.904533
8096.000000;0.904622
8095.000000;0.904774
8094.000000;0.904849
8093.000000;0.904793
8092.000000;0.904710
8091.000000;0.904692
8090.000000;0.904693
8089.000000;0.904667
8088.000000;0.904702
8087.000000;0.904884
8086.000000;0.905110
8085.000000;0.905201
8084.000000;0.905128
8083.000000;0.904986
8082.000000;0.904768
8081.000000;0.904366
8080.000000;0.903841
8079.000000;0.903538
8078.000000;0.903791
8077.000000;0.904569
8076.000000;0.905474
8075.000000;0.906084
8074.000000;0.906246
8073.000000;0.906088
8072.000000;0.905799
8071.000000;0.905476
8070.000000;0.905156
8069.000000;0.904956
8068.000000;0.905044
8067.000000;0.905442
8066.000000;0.905924
8065.000000;0.906205
8064.000000;0.906220
8063.000000;0.906133
8062.000000;0.906108
8061.000000;0.906164
8060.000000;0.906266
8059.000000;0.906411
8058.000000;0.906600
8057.000000;0.906787
8056.000000;0.906925
8055.000000;0.907011
8054.000000;0.907052
8053.000000;0.907047
8052.000000;0.907024
8051.000000;0.907059
8050.000000;0.907205
8049.000000;0.907432
8048.000000;0.907658
8047.000000;0.907806
8046.000000;0.907825
8045.000000;0.907722
8044.000000;0.907613
8043.000000;0.907676
8042.000000;0.907995
8041.000000;0.908468
8040.000000;0.908875
8039.000000;0.909022
8038.000000;0.908827
8037.000000;0.908363
8036.000000;0.907858
8035.000000;0.907588
8034.000000;0.907683
8033.000000;0.908049
8032.000000;0.908480
8031.000000;0.908810
8030.000000;0.908914
8029.000000;0.908685
8028.000000;0.908118
8027.000000;0.907389
8026.000000;0.906746
8025.000000;0.906327
8024.000000;0.906143
8023.000000;0.906223
8022.000000;0.906640
8021.000000;0.907363
8020.000000;0.908149
8019.000000;0.908680
8018.000000;0.908803
8017.000000;0.908631
8016.000000;0.908433
8015.000000;0.908425
8014.000000;0.908640
8013.000000;0.908953
8012.000000;0.909218
8011.000000;0.909382
8010.000000;0.909472
8009.000000;0.909518
8008.000000;0.909522
8007.000000;0.909470
8006.000000;0.909334
8005.000000;0.909072
8004.000000;0.908674
8003.000000;0.908233
8002.000000;0.907945
8001.000000;0.907994
8000.000000;0.908381
7999.000000;0.908846
7998.000000;0.909020
7997.000000;0.908771
7996.000000;0.908398
7995.000000;0.908371
7994.000000;0.908826
7993.000000;0.909416
7992.000000;0.909715
7991.000000;0.909663
7990.000000;0.909498
7989.000000;0.909375
7988.000000;0.909264
7987.000000;0.909140
7986.000000;0.909073
7985.000000;0.909088
7984.000000;0.909115
7983.000000;0.909162
7982.000000;0.909395
7981.000000;0.909930
7980.000000;0.910641
7979.000000;0.911240
7978.000000;0.911505
7977.000000;0.911411
7976.000000;0.911109
7975.000000;0.910840
7974.000000;0.910758
7973.000000;0.910786
7972.000000;0.910715
7971.000000;0.910504
7970.000000;0.910379
7969.000000;0.910554
7968.000000;0.910952
7967.000000;0.911287
7966.000000;0.911374
7965.000000;0.911282
7964.000000;0.911212
7963.000000;0.911338
7962.000000;0.911676
7961.000000;0.912035
7960.000000;0.912125
7959.000000;0.911820
7958.000000;0.911304
7957.000000;0.910883
7956.000000;0.910711
7955.000000;0.910744
7954.000000;0.910892
7953.000000;0.911076
7952.000000;0.911197
7951.000000;0.911207
7950.000000;0.911236
7949.000000;0.911491
7948.000000;0.912011
7947.000000;0.912584
7946.000000;0.912957
7945.000000;0.913048
7944.000000;0.912936
7943.000000;0.912735
7942.000000;0.912534
7941.000000;0.912389
7940.000000;0.912300
7939.000000;0.912229
7938.000000;0.912168
7937.000000;0.912166
7936.000000;0.912257
7935.000000;0.912418
7934.000000;0.912600
7933.000000;0.912763
7932.000000;0.912882
7931.000000;0.912941
7930.000000;0.912956
7929.000000;0.912969
7928.000000;0.913008
7927.000000;0.913062
7926.000000;0.913104
7925.000000;0.913124
7924.000000;0.913142
7923.000000;0.913211
7922.000000;0.913390
7921.000000;0.913680
7920.000000;0.913995
7919.000000;0.914257
7918.000000;0.914469
7917.000000;0.914664
7916.000000;0.914792
7915.000000;0.914742
7914.000000;0.914475
7913.000000;0.914091
7912.000000;0.913753
7911.000000;0.913603
7910.000000;0.913730
7909.000000;0.914134
7908.000000;0.914685
7907.000000;0.915165
7906.000000;0.915379
7905.000000;0.915250
7904.000000;0.914843
7903.000000;0.914363
7902.000000;0.914084
7901.000000;0.914155
7900.000000;0.914467
7899.000000;0.914777
7898.000000;0.914971
7897.000000;0.915104
7896.000000;0.915195
7895.000000;0.915154
7894.000000;0.914981
7893.000000;0.914902
7892.000000;0.915156
7891.000000;0.915706
7890.000000;0.916247
7889.000000;0.916497
7888.000000;0.916401
7887.000000;0.916088
7886.000000;0.915744
7885.000000;0.915519
7884.000000;0.915497
7883.000000;0.915680
7882.000000;0.916007
7881.000000;0.916352
7880.000000;0.916543
7879.000000;0.916462
7878.000000;0.916190
7877.000000;0.916001
7876.000000;0.916107
7875.000000;0.916440
7874.000000;0.916750
7873.000000;0.916916
7872.000000;0.917037
7871.000000;0.917218
7870.000000;0.917386
7869.000000;0.917395
7868.000000;0.917267
7867.000000;0.917214
7866.000000;0.917399
7865.000000;0.917750
7864.000000;0.918056
7863.000000;0.918197
7862.000000;0.918232
7861.000000;0.918263
7860.000000;0.918293
7859.000000;0.918265
7858.000000;0.918185
7857.000000;0.918131
7856.000000;0.918146
7855.000000;0.918185
7854.000000;0.918185
7853.000000;0.918126
7852.000000;0.918038
7851.000000;0.917997
7850.000000;0.918117
7849.000000;0.918457
7848.000000;0.918905
7847.000000;0.919224
7846.000000;0.919294
7845.000000;0.919243
7844.000000;0.919299
7843.000000;0.919536
7842.000000;0.919844
7841.000000;0.920081
7840.000000;0.920202
7839.000000;0.920261
7838.000000;0.920341
7837.000000;0.920479
7836.000000;0.920582
7835.000000;0.920460
7834.000000;0.920034
7833.000000;0.919508
7832.000000;0.919247
7831.000000;0.919431
7830.000000;0.919896
7829.000000;0.920329
7828.000000;0.920555
7827.000000;0.920603
7826.000000;0.920583
7825.000000;0.920580
7824.000000;0.920664
7823.000000;0.920889
7822.000000;0.921234
7821.000000;0.921566
7820.000000;0.921737
7819.000000;0.921723
7818.000000;0.921623
7817.000000;0.921523
7816.000000;0.921422
7815.000000;0.921348
7814.000000;0.921472
7813.000000;0.921949
7812.000000;0.922632
7811.000000;0.923099
7810.000000;0.923082
7809.000000;0.922753
7808.000000;0.922484
7807.000000;0.922404
7806.000000;0.922379
7805.000000;0.922369
7804.000000;0.922544
7803.000000;0.922975
7802.000000;0.923422
7801.000000;0.923588
7800.000000;0.923514
7799.000000;0.923526
7798.000000;0.923802
7797.000000;0.924152
7796.000000;0.924269
7795.000000;0.924093
7794.000000;0.923863
7793.000000;0.923827
7792.000000;0.923988
7791.000000;0.924150
7790.000000;0.924193
7789.000000;0.924229
7788.000000;0.924442
7787.000000;0.924824
7786.000000;0.925171
7785.000000;0.925345
7784.000000;0.925420
7783.000000;0.925543
7782.000000;0.925752
7781.000000;0.926012
7780.000000;0.926334
7779.000000;0.926705
7778.000000;0.926957
7777.000000;0.926861
7776.000000;0.926420
7775.000000;0.925959
7774.000000;0.925843
7773.000000;0.926174
7772.000000;0.926776
7771.000000;0.927395
7770.000000;0.927851
7769.000000;0.928056
7768.000000;0.928004
7767.000000;0.927788
7766.000000;0.927583
7765.000000;0.927567
7764.000000;0.927809
7763.000000;0.928192
7762.000000;0.928476
7761.000000;0.928500
7760.000000;0.928331
7759.000000;0.928194
7758.000000;0.928240
7757.000000;0.928417
7756.000000;0.928563
7755.000000;0.928572
7754.000000;0.928477
7753.000000;0.928432
7752.000000;0.928597
7751.000000;0.928984
7750.000000;0.929399
7749.000000;0.929602
7748.000000;0.929562
7747.000000;0.929466
7746.000000;0.929462
7745.000000;0.929491
7744.000000;0.929435
7743.000000;0.929317
7742.000000;0.929269
7741.000000;0.929364
7740.000000;0.929600
7739.000000;0.929965
7738.000000;0.930418
7737.000000;0.930820
7736.000000;0.931024
7735.000000;0.931035
7734.000000;0.931017
7733.000000;0.931144
7732.000000;0.931490
7731.000000;0.932026
7730.000000;0.932625
7729.000000;0.933099
7728.000000;0.933340
7727.000000;0.933424
7726.000000;0.933487
7725.000000;0.933513
7724.000000;0.933386
7723.000000;0.933123
7722.000000;0.932922
7721.000000;0.932919
7720.000000;0.933051
7719.000000;0.933206
7718.000000;0.933371
7717.000000;0.933558
7716.000000;0.933707
7715.000000;0.933772
7714.000000;0.933778
7713.000000;0.933719
7712.000000;0.933525
7711.000000;0.933291
7710.000000;0.933372
7709.000000;0.934033
7708.000000;0.935023
7707.000000;0.935730
7706.000000;0.935802
7705.000000;0.935472
7704.000000;0.935234
7703.000000;0.935348
7702.000000;0.935730
7701.000000;0.936175
7700.000000;0.936548
7699.000000;0.936827
7698.000000;0.937064
7697.000000;0.937315
7696.000000;0.937549
7695.000000;0.937677
7694.000000;0.937681
7693.000000;0.937696
7692.000000;0.937885
7691.000000;0.938257
7690.000000;0.938649
7689.000000;0.938846
7688.000000;0.938731
7687.000000;0.938341
7686.000000;0.937857
7685.000000;0.937511
7684.000000;0.937438
7683.000000;0.937601
7682.000000;0.937871
7681.000000;0.938180
7680.000000;0.938576
7679.000000;0.939123
7678.000000;0.939786
7677.000000;0.940429
7676.000000;0.940917
7675.000000;0.941199
7674.000000;0.941294
7673.000000;0.941243
7672.000000;0.941112
7671.000000;0.941046
7670.000000;0.941211
7669.000000;0.941633
7668.000000;0.942103
7667.000000;0.942355
7666.000000;0.942347
7665.000000;0.942319
7664.000000;0.942549
7663.000000;0.943077
7662.000000;0.943707
7661.000000;0.944217
7660.000000;0.944535
7659.000000;0.944729
7658.000000;0.944891
7657.000000;0.945046
7656.000000;0.945160
7655.000000;0.945187
7654.000000;0.945113
7653.000000;0.944943
7652.000000;0.944700
7651.000000;0.944460
7650.000000;0.944373
7649.000000;0.944579
7648.000000;0.945050
7647.000000;0.945557
7646.000000;0.945826
7645.000000;0.945777
7644.000000;0.945591
7643.000000;0.945540
7642.000000;0.945737
7641.000000;0.946076
7640.000000;0.946405
7639.000000;0.946749
7638.000000;0.947278
7637.000000;0.948037
7636.000000;0.948790
7635.000000;0.949215
7634.000000;0.949248
7633.000000;0.949129
7632.000000;0.949108
7631.000000;0.949194
7630.000000;0.949253
7629.000000;0.949264
7628.000000;0.949375
7627.000000;0.949735
7626.000000;0.950332
7625.000000;0.951016
7624.000000;0.951597
7623.000000;0.951922
7622.000000;0.951944
7621.000000;0.951779
7620.000000;0.951672
7619.000000;0.951801
7618.000000;0.952132
7617.000000;0.952497
7616.000000;0.952813
7615.000000;0.953153
7614.000000;0.953574
7613.000000;0.953975
7612.000000;0.954238
7611.000000;0.954432
7610.000000;0.954755
7609.000000;0.955252
7608.000000;0.955738
7607.000000;0.956049
7606.000000;0.956254
7605.000000;0.956508
7604.000000;0.956817
7603.000000;0.957058
7602.000000;0.957206
7601.000000;0.957367
7600.000000;0.957607
7599.000000;0.957881
7598.000000;0.958156
7597.000000;0.958483
7596.000000;0.958873
7595.000000;0.959224
7594.000000;0.959445
7593.000000;0.959591
7592.000000;0.959801
7591.000000;0.960116
7590.000000;0.960439
7589.000000;0.960639
7588.000000;0.960677
7587.000000;0.960635
7586.000000;0.960672
7585.000000;0.960927
7584.000000;0.961433
7583.000000;0.962101
7582.000000;0.962773
7581.000000;0.963296
7580.000000;0.963585
7579.000000;0.963674
7578.000000;0.963701
7577.000000;0.963804
7576.000000;0.964010
7575.000000;0.964281
7574.000000;0.964619
7573.000000;0.965048
7572.000000;0.965506
7571.000000;0.965874
7570.000000;0.966157
7569.000000;0.966506
7568.000000;0.966999
7567.000000;0.967499
7566.000000;0.967847
7565.000000;0.968097
7564.000000;0.968416
7563.000000;0.968800
7562.000000;0.969072
7561.000000;0.969171
7560.000000;0.969300
7559.000000;0.969705
7558.000000;0.970385
7557.000000;0.971085
7556.000000;0.971538
7555.000000;0.971690
7554.000000;0.971708
7553.000000;0.971821
7552.000000;0.972113
7551.000000;0.972470
7550.000000;0.972744
7549.000000;0.972937
7548.000000;0.973168
7547.000000;0.973483
7546.000000;0.973786
7545.000000;0.974011
7544.000000;0.974263
7543.000000;0.974687
7542.000000;0.975273
7541.000000;0.975869
7540.000000;0.976394
7539.000000;0.976918
7538.000000;0.977500
7537.000000;0.978043
7536.000000;0.978380
7535.000000;0.978479
7534.000000;0.978503
7533.000000;0.978645
7532.000000;0.978943
7531.000000;0.979286
7530.000000;0.979572
7529.000000;0.979833
7528.000000;0.980174
7527.000000;0.980643
7526.000000;0.981180
7525.000000;0.981692
7524.000000;0.982146
7523.000000;0.982558
7522.000000;0.982925
7521.000000;0.983220
7520.000000;0.983459
7519.000000;0.983727
7518.000000;0.984083
7517.000000;0.984493
7516.000000;0.984872
7515.000000;0.985228
7514.000000;0.985669
7513.000000;0.986260
7512.000000;0.986889
7511.000000;0.987360
7510.000000;0.987615
7509.000000;0.987808
7508.000000;0.988129
7507.000000;0.988594
7506.000000;0.989029
7505.000000;0.989283
7504.000000;0.989386
7503.000000;0.989498
7502.000000;0.989733
7501.000000;0.990089
7500.000000;0.990516
7499.000000;0.991008
7498.000000;0.991563
7497.000000;0.992121
7496.000000;0.992618
7495.000000;0.993079
7494.000000;0.993592
7493.000000;0.994172
7492.000000;0.994716
7491.000000;0.995136
7490.000000;0.995418
7489.000000;0.995671
7488.000000;0.995886
7487.000000;0.996091
7486.000000;0.996398
7485.000000;0.996888
7484.000000;0.997464
7483.000000;0.997930
7482.000000;0.998220
7481.000000;0.998466
7480.000000;0.998825
7479.000000;0.999322
7478.000000;0.999890
7477.000000;1.000443
7476.000000;1.000899
7475.000000;1.001205
7474.000000;1.001416
7473.000000;1.001682
7472.000000;1.002087
7471.000000;1.002579
7470.000000;1.003069
7469.000000;1.003536
7468.000000;1.003969
7467.000000;1.004314
7466.000000;1.004582
7465.000000;1.004939
7464.000000;1.005547
7463.000000;1.006315
7462.000000;1.006935
7461.000000;1.007193
7460.000000;1.007187
7459.000000;1.007202
7458.000000;1.007442
7457.000000;1.007898
7456.000000;1.008422
7455.000000;1.008897
7454.000000;1.009336
7453.000000;1.009859
7452.000000;1.010545
7451.000000;1.011317
7450.000000;1.011980
7449.000000;1.012373
7448.000000;1.012497
7447.000000;1.012520
7446.000000;1.012663
7445.000000;1.013033
7444.000000;1.013532
7443.000000;1.013961
7442.000000;1.014223
7441.000000;1.014419
7440.000000;1.014705
7439.000000;1.015132
7438.000000;1.015646
7437.000000;1.016174
7436.000000;1.016638
7435.000000;1.016978
7434.000000;1.017238
7433.000000;1.017585
7432.000000;1.018135
7431.000000;1.018783
7430.000000;1.019295
7429.000000;1.019542
7428.000000;1.019574
7427.000000;1.019516
7426.000000;1.019509
7425.000000;1.019729
7424.000000;1.020279
7423.000000;1.021052
7422.000000;1.021800
7421.000000;1.022395
7420.000000;1.022911
7419.000000;1.023424
7418.000000;1.023865
7417.000000;1.024136
7416.000000;1.024238
7415.000000;1.024230
7414.000000;1.024178
7413.000000;1.024204
7412.000000;1.024478
7411.000000;1.025038
7410.000000;1.025684
7409.000000;1.026187
7408.000000;1.026531
7407.000000;1.026869
7406.000000;1.027283
7405.000000;1.027727
7404.000000;1.028167
7403.000000;1.028627
7402.000000;1.029106
7401.000000;1.029564
7400.000000;1.030029
7399.000000;1.030589
7398.000000;1.031219
7397.000000;1.031719
7396.000000;1.031909
7395.000000;1.031859
7394.000000;1.031817
7393.000000;1.031961
7392.000000;1.032273
7391.000000;1.032660
7390.000000;1.033072
7389.000000;1.033480
7388.000000;1.033809
7387.000000;1.033991
7386.000000;1.034087
7385.000000;1.034254
7384.000000;1.034557
7383.000000;1.034889
7382.000000;1.035131
7381.000000;1.035332
7380.000000;1.035617
7379.000000;1.035933
7378.000000;1.036074
7377.000000;1.035978
7376.000000;1.035896
7375.000000;1.036132
7374.000000;1.036692
7373.000000;1.037300
7372.000000;1.037764
7371.000000;1.038184
7370.000000;1.038782
7369.000000;1.039619
7368.000000;1.040535
7367.000000;1.041321
7366.000000;1.041896
7365.000000;1.042306
7364.000000;1.042597
7363.000000;1.042786
7362.000000;1.042969
7361.000000;1.043356
7360.000000;1.044067
7359.000000;1.044907
7358.000000;1.045506
7357.000000;1.045712
7356.000000;1.045731
7355.000000;1.045844
7354.000000;1.046120
7353.000000;1.046446
7352.000000;1.046720
7351.000000;1.046914
7350.000000;1.047058
7349.000000;1.047283
7348.000000;1.047758
7347.000000;1.048478
7346.000000;1.049202
7345.000000;1.049713
7344.000000;1.050007
7343.000000;1.050127
7342.000000;1.049996
7341.000000;1.049617
7340.000000;1.049299
7339.000000;1.049433
7338.000000;1.050059
7337.000000;1.050896
7336.000000;1.051741
7335.000000;1.052613
7334.000000;1.053537
7333.000000;1.054463
7332.000000;1.055366
7331.000000;1.056192
7330.000000;1.056742
7329.000000;1.056870
7328.000000;1.056792
7327.000000;1.056918
7326.000000;1.057332
7325.000000;1.057742
7324.000000;1.058003
7323.000000;1.058352
7322.000000;1.059020
7321.000000;1.059906
7320.000000;1.060830
7319.000000;1.061854
7318.000000;1.063103
7317.000000;1.064431
7316.000000;1.065539
7315.000000;1.066306
7314.000000;1.066790
7313.000000;1.067033
7312.000000;1.067097
7311.000000;1.067200
7310.000000;1.067544
7309.000000;1.068033
7308.000000;1.068430
7307.000000;1.068768
7306.000000;1.069360
7305.000000;1.070360
7304.000000;1.071538
7303.000000;1.072598
7302.000000;1.073449
7301.000000;1.074143
7300.000000;1.074760
7299.000000;1.075450
7298.000000;1.076366
7297.000000;1.077435
7296.000000;1.078369
7295.000000;1.078992
7294.000000;1.079429
7293.000000;1.079906
7292.000000;1.080496
7291.000000;1.081195
7290.000000;1.082092
7289.000000;1.083264
7288.000000;1.084559
7287.000000;1.085705
7286.000000;1.086657
7285.000000;1.087669
7284.000000;1.088972
7283.000000;1.090484
7282.000000;1.091930
7281.000000;1.093172
7280.000000;1.094310
7279.000000;1.095490
7278.000000;1.096703
7277.000000;1.097805
7276.000000;1.098684
7275.000000;1.099376
7274.000000;1.100025
7273.000000;1.100782
7272.000000;1.101717
7271.000000;1.102785
7270.000000;1.103913
7269.000000;1.105102
7268.000000;1.106403
7267.000000;1.107792
7266.000000;1.109124
7265.000000;1.110298
7264.000000;1.111420
7263.000000;1.112700
7262.000000;1.114177
7261.000000;1.115645
7260.000000;1.116918
7259.000000;1.118088
7258.000000;1.119430
7257.000000;1.121078
7256.000000;1.122870
7255.000000;1.124519
7254.000000;1.125906
7253.000000;1.127177
7252.000000;1.128575
7251.000000;1.130197
7250.000000;1.131929
7249.000000;1.133620
7248.000000;1.135249
7247.000000;1.136854
7246.000000;1.138346
7245.000000;1.139567
7244.000000;1.140586
7243.000000;1.141763
7242.000000;1.143426
7241.000000;1.145545
7240.000000;1.147855
7239.000000;1.150188
7238.000000;1.152511
7237.000000;1.154731
7236.000000;1.156687
7235.000000;1.158371
7234.000000;1.160023
7233.000000;1.161958
7232.000000;1.164306
7231.000000;1.166931
7230.000000;1.169542
7229.000000;1.171919
7228.000000;1.174095
7227.000000;1.176302
7226.000000;1.178759
7225.000000;1.181495
7224.000000;1.184364
7223.000000;1.187186
7222.000000;1.189861
7221.000000;1.192381
7220.000000;1.194817
7219.000000;1.197267
7218.000000;1.199790
7217.000000;1.202436
7216.000000;1.205323
7215.000000;1.208553
7214.000000;1.212008
7213.000000;1.215379
7212.000000;1.218500
7211.000000;1.221553
7210.000000;1.224787
7209.000000;1.228156
7208.000000;1.231412
7207.000000;1.234462
7206.000000;1.237431
7205.000000;1.240431
7204.000000;1.243473
7203.000000;1.246619
7202.000000;1.250034
7201.000000;1.253807
7200.000000;1.257862
7199.000000;1.262060
7198.000000;1.266256
7197.000000;1.270256
7196.000000;1.273926
7195.000000;1.277364
7194.000000;1.280821
7193.000000;1.284414
7192.000000;1.288122
7191.000000;1.292049
7190.000000;1.296400
7189.000000;1.301100
7188.000000;1.305708
7187.000000;1.309909
7186.000000;1.313858
7185.000000;1.317841
7184.000000;1.321833
7183.000000;1.325716
7182.000000;1.329683
7181.000000;1.334043
7180.000000;1.338685
7179.000000;1.343158
7178.000000;1.347290
7177.000000;1.351361
7176.000000;1.355651
7175.000000;1.360176
7174.000000;1.364900
7173.000000;1.369874
7172.000000;1.374998
7171.000000;1.379968
7170.000000;1.384617
7169.000000;1.389092
7168.000000;1.393581
7167.000000;1.398067
7166.000000;1.402497
7165.000000;1.406956
7164.000000;1.411539
7163.000000;1.416282
7162.000000;1.421298
7161.000000;1.426757
7160.000000;1.432524
7159.000000;1.438046
7158.000000;1.442868
7157.000000;1.447117
7156.000000;1.451310
7155.000000;1.455899
7154.000000;1.461114
7153.000000;1.466993
7152.000000;1.473228
7151.000000;1.479201
7150.000000;1.484522
7149.000000;1.489446
7148.000000;1.494475
7147.000000;1.499670
7146.000000;1.504688
7145.000000;1.509414
7144.000000;1.514176
7143.000000;1.519254
7142.000000;1.524482
7141.000000;1.529479
7140.000000;1.534083
7139.000000;1.538532
7138.000000;1.543335
7137.000000;1.548892
7136.000000;1.555076
7135.000000;1.561241
7134.000000;1.566841
7133.000000;1.572008
7132.000000;1.577270
7131.000000;1.582761
7130.000000;1.588076
7129.000000;1.592913
7128.000000;1.597521
7127.000000;1.602403
7126.000000;1.607829
7125.000000;1.613670
7124.000000;1.619454
7123.000000;1.624553
7122.000000;1.628669
7121.000000;1.632233
7120.000000;1.635986
7119.000000;1.640110
7118.000000;1.644147
7117.000000;1.647916
7116.000000;1.652034
7115.000000;1.657174
7114.000000;1.663205
7113.000000;1.669397
7112.000000;1.675184
7111.000000;1.680443
7110.000000;1.685323
7109.000000;1.690185
7108.000000;1.695461
7107.000000;1.701195
7106.000000;1.706848
7105.000000;1.711811
7104.000000;1.715968
7103.000000;1.719536
7102.000000;1.722671
7101.000000;1.725593
7100.000000;1.728854
7099.000000;1.732944
7098.000000;1.737664
7097.000000;1.742294
7096.000000;1.746390
7095.000000;1.750106
7094.000000;1.753790
7093.000000;1.757608
7092.000000;1.761508
7091.000000;1.765235
7090.000000;1.768466
7089.000000;1.771273
7088.000000;1.774341
7087.000000;1.778319
7086.000000;1.782981
7085.000000;1.787496
7084.000000;1.791530
7083.000000;1.795504
7082.000000;1.799646
7081.000000;1.803481
7080.000000;1.806681
7079.000000;1.809898
7078.000000;1.814056
7077.000000;1.819018
7076.000000;1.823579
7075.000000;1.826845
7074.000000;1.829195
7073.000000;1.831595
7072.000000;1.834176
7071.000000;1.836056
7070.000000;1.836665
7069.000000;1.836811
7068.000000;1.838054
7067.000000;1.841239
7066.000000;1.845926
7065.000000;1.851074
7064.000000;1.855819
7063.000000;1.859620
7062.000000;1.862324
7061.000000;1.864480
7060.000000;1.867080
7059.000000;1.870506
7058.000000;1.873994
7057.000000;1.876622
7056.000000;1.878580
7055.000000;1.880866
7054.000000;1.883911
7053.000000;1.887110
7052.000000;1.889677
7051.000000;1.891413
7050.000000;1.892555
7049.000000;1.893441
7048.000000;1.894530
7047.000000;1.896351
7046.000000;1.899094
7045.000000;1.902402
7044.000000;1.905587
7043.000000;1.907930
7042.000000;1.909010
7041.000000;1.909164
7040.000000;1.909518
7039.000000;1.911096
7038.000000;1.913877
7037.000000;1.917064
7036.000000;1.920182
7035.000000;1.923349
7034.000000;1.926451
7033.000000;1.928786
7032.000000;1.929824
7031.000000;1.929858
7030.000000;1.929588
7029.000000;1.929510
7028.000000;1.930021
7027.000000;1.931599
7026.000000;1.934367
7025.000000;1.937672
7024.000000;1.940484
7023.000000;1.942179
7022.000000;1.942835
7021.000000;1.943042
7020.000000;1.943576
7019.000000;1.944867
7018.000000;1.946428
7017.000000;1.947168
7016.000000;1.946715
7015.000000;1.946142
7014.000000;1.946879
7013.000000;1.949155
7012.000000;1.952005
7011.000000;1.954593
7010.000000;1.956853
7009.000000;1.958731
7008.000000;1.959598
7007.000000;1.959019
7006.000000;1.957726
7005.000000;1.957188
7004.000000;1.958173
7003.000000;1.960017
7002.000000;1.961278
7001.000000;1.960955
7000.000000;1.959207
6999.000000;1.957258
6998.000000;1.956724
6997.000000;1.958644
6996.000000;1.962759
6995.000000;1.967697
6994.000000;1.971968
6993.000000;1.974827
6992.000000;1.976349
6991.000000;1.977109
6990.000000;1.977952
6989.000000;1.979493
6988.000000;1.981291
6987.000000;1.981892
6986.000000;1.980466
6985.000000;1.978228
6984.000000;1.977391
6983.000000;1.978755
6982.000000;1.981098
6981.000000;1.982905
6980.000000;1.983785
6979.000000;1.983910
6978.000000;1.983265
6977.000000;1.982279
6976.000000;1.982223
6975.000000;1.983887
6974.000000;1.986321
6973.000000;1.987849
6972.000000;1.987986
6971.000000;1.987412
6970.000000;1.986487
6969.000000;1.985176
6968.000000;1.984281
6967.000000;1.985311
6966.000000;1.988651
6965.000000;1.992745
6964.000000;1.995510
6963.000000;1.995977
6962.000000;1.994375
6961.000000;1.991558
6960.000000;1.988807
6959.000000;1.987306
6958.000000;1.987128
6957.000000;1.987293
6956.000000;1.987311
6955.000000;1.988030
6954.000000;1.990326
6953.000000;1.993546
6952.000000;1.995939
6951.000000;1.996361
6950.000000;1.994926
6949.000000;1.992325
6948.000000;1.989330
6947.000000;1.986843
6946.000000;1.985707
6945.000000;1.986198
6944.000000;1.987877
6943.000000;1.989880
6942.000000;1.991245
6941.000000;1.991287
6940.000000;1.990034
6939.000000;1.988203
6938.000000;1.986542
6937.000000;1.985370
6936.000000;1.984774
6935.000000;1.984908
6934.000000;1.985744
6933.000000;1.986659
6932.000000;1.986871
6931.000000;1.986363
6930.000000;1.985877
6929.000000;1.986078
6928.000000;1.987041
6927.000000;1.988318
6926.000000;1.989211
6925.000000;1.989130
6924.000000;1.988115
6923.000000;1.987013
6922.000000;1.986819
6921.000000;1.987780
6920.000000;1.989281
6919.000000;1.990559
6918.000000;1.991321
6917.000000;1.991683
6916.000000;1.991695
6915.000000;1.991050
6914.000000;1.989338
6913.000000;1.986695
6912.000000;1.984064
6911.000000;1.982415
6910.000000;1.981616
6909.000000;1.980542
6908.000000;1.978651
6907.000000;1.977040
6906.000000;1.977350
6905.000000;1.979869
6904.000000;1.983175
6903.000000;1.985568
6902.000000;1.986468
6901.000000;1.986300
6900.000000;1.985503
6899.000000;1.984087
6898.000000;1.982069
6897.000000;1.980006
6896.000000;1.978837
6895.000000;1.979073
6894.000000;1.980162
6893.000000;1.980853
6892.000000;1.980452
6891.000000;1.979559
6890.000000;1.979326
6889.000000;1.980169
6888.000000;1.981516
6887.000000;1.982621
6886.000000;1.983191
6885.000000;1.983151
6884.000000;1.982266
6883.000000;1.980410
6882.000000;1.978095
6881.000000;1.976406
6880.000000;1.976266
6879.000000;1.977665
6878.000000;1.979495
6877.000000;1.980318
6876.000000;1.979558
6875.000000;1.977918
6874.000000;1.976468
6873.000000;1.975546
6872.000000;1.974754
6871.000000;1.973859
6870.000000;1.973180
6869.000000;1.972950
6868.000000;1.972744
6867.000000;1.971951
6866.000000;1.970715
6865.000000;1.969943
6864.000000;1.970231
6863.000000;1.971056
6862.000000;1.971259
6861.000000;1.970250
6860.000000;1.968538
6859.000000;1.967050
6858.000000;1.966189
6857.000000;1.965745
6856.000000;1.965512
6855.000000;1.965571
6854.000000;1.965883
6853.000000;1.965936
6852.000000;1.965102
6851.000000;1.963354
6850.000000;1.961440
6849.000000;1.960267
6848.000000;1.960125
6847.000000;1.960493
6846.000000;1.960565
6845.000000;1.960035
6844.000000;1.959377
6843.000000;1.959253
6842.000000;1.959630
6841.000000;1.959762
6840.000000;1.959061
6839.000000;1.957669
6838.000000;1.956131
6837.000000;1.954754
6836.000000;1.953521
6835.000000;1.952416
6834.000000;1.951532
6833.000000;1.950841
6832.000000;1.950044
6831.000000;1.948738
6830.000000;1.946790
6829.000000;1.944673
6828.000000;1.943398
6827.000000;1.943794
6826.000000;1.945588
6825.000000;1.947274
6824.000000;1.947173
6823.000000;1.944781
6822.000000;1.940996
6821.000000;1.937167
6820.000000;1.934127
6819.000000;1.931984
6818.000000;1.930428
6817.000000;1.929121
6816.000000;1.927900
6815.000000;1.926759
6814.000000;1.925696
6813.000000;1.924661
6812.000000;1.923608
6811.000000;1.922461
6810.000000;1.921044
6809.000000;1.919208
6808.000000;1.917101
6807.000000;1.915086
6806.000000;1.913300
6805.000000;1.911521
6804.000000;1.909537
6803.000000;1.907449
6802.000000;1.905461
6801.000000;1.903600
6800.000000;1.901838
6799.000000;1.900289
6798.000000;1.899031
6797.000000;1.897882
6796.000000;1.896631
6795.000000;1.895342
6794.000000;1.894168
6793.000000;1.892967
6792.000000;1.891355
6791.000000;1.889128
6790.000000;1.886410
6789.000000;1.883447
6788.000000;1.880485
6787.000000;1.877867
6786.000000;1.876006
6785.000000;1.875167
6784.000000;1.875287
6783.000000;1.875893
6782.000000;1.876086
6781.000000;1.874863
6780.000000;1.871910
6779.000000;1.868039
6778.000000;1.864601
6777.000000;1.862355
6776.000000;1.860911
6775.000000;1.859262
6774.000000;1.856801
6773.000000;1.853807
6772.000000;1.851062
6771.000000;1.849115
6770.000000;1.847881
6769.000000;1.846818
6768.000000;1.845388
6767.000000;1.843314
6766.000000;1.840592
6765.000000;1.837526
6764.000000;1.834691
6763.000000;1.832520
6762.000000;1.830831
6761.000000;1.829030
6760.000000;1.826887
6759.000000;1.824782
6758.000000;1.823026
6757.000000;1.821358
6756.000000;1.819459
6755.000000;1.817610
6754.000000;1.816325
6753.000000;1.815511
6752.000000;1.814524
6751.000000;1.813015
6750.000000;1.811224
6749.000000;1.809382
6748.000000;1.807287
6747.000000;1.804672
6746.000000;1.801677
6745.000000;1.798769
6744.000000;1.796333
6743.000000;1.794389
6742.000000;1.792565
6741.000000;1.790413
6740.000000;1.787937
6739.000000;1.785709
6738.000000;1.784200
6737.000000;1.783119
6736.000000;1.781705
6735.000000;1.779625
6734.000000;1.777222
6733.000000;1.774903
6732.000000;1.772744
6731.000000;1.770765
6730.000000;1.769098
6729.000000;1.767667
6728.000000;1.766035
6727.000000;1.763811
6726.000000;1.760978
6725.000000;1.757775
6724.000000;1.754568
6723.000000;1.751934
6722.000000;1.750427
6721.000000;1.749967
6720.000000;1.749696
6719.000000;1.748750
6718.000000;1.746981
6717.000000;1.744716
6716.000000;1.742164
6715.000000;1.739435
6714.000000;1.736879
6713.000000;1.734863
6712.000000;1.733210
6711.000000;1.731317
6710.000000;1.728937
6709.000000;1.726548
6708.000000;1.724767
6707.000000;1.723542
6706.000000;1.722135
6705.000000;1.719831
6704.000000;1.716646
6703.000000;1.713372
6702.000000;1.710939
6701.000000;1.709720
6700.000000;1.709346
6699.000000;1.709065
6698.000000;1.708135
6697.000000;1.706230
6696.000000;1.703403
6695.000000;1.700329
6694.000000;1.697823
6693.000000;1.696052
6692.000000;1.694487
6691.000000;1.692515
6690.000000;1.690093
6689.000000;1.687568
6688.000000;1.685138
6687.000000;1.682730
6686.000000;1.680325
6685.000000;1.678060
6684.000000;1.676031
6683.000000;1.674170
6682.000000;1.672371
6681.000000;1.670572
6680.000000;1.668655
6679.000000;1.666430
6678.000000;1.663795
6677.000000;1.660928
6676.000000;1.658253
6675.000000;1.656178
6674.000000;1.654788
6673.000000;1.653781
6672.000000;1.652780
6671.000000;1.651693
6670.000000;1.650651
6669.000000;1.649639
6668.000000;1.648393
6667.000000;1.646711
6666.000000;1.644657
6665.000000;1.642379
6664.000000;1.639970
6663.000000;1.637629
6662.000000;1.635702
6661.000000;1.634322
6660.000000;1.633183
6659.000000;1.631899
6658.000000;1.630398
6657.000000;1.628763
6656.000000;1.626892
6655.000000;1.624667
6654.000000;1.622328
6653.000000;1.620302
6652.000000;1.618696
6651.000000;1.617252
6650.000000;1.615784
6649.000000;1.614327
6648.000000;1.612821
6647.000000;1.611014
6646.000000;1.608837
6645.000000;1.606609
6644.000000;1.604698
6643.000000;1.603110
6642.000000;1.601507
6641.000000;1.599539
6640.000000;1.597151
6639.000000;1.594708
6638.000000;1.592784
6637.000000;1.591619
6636.000000;1.590745
6635.000000;1.589402
6634.000000;1.587411
6633.000000;1.585379
6632.000000;1.583889
6631.000000;1.582791
6630.000000;1.581482
6629.000000;1.579665
6628.000000;1.577564
6627.000000;1.575515
6626.000000;1.573669
6625.000000;1.572044
6624.000000;1.570598
6623.000000;1.569154
6622.000000;1.567448
6621.000000;1.565383
6620.000000;1.563185
6619.000000;1.561245
6618.000000;1.559776
6617.000000;1.558643
6616.000000;1.557495
6615.000000;1.556112
6614.000000;1.554608
6613.000000;1.553241
6612.000000;1.552049
6611.000000;1.550813
6610.000000;1.549380
6609.000000;1.547850
6608.000000;1.546334
6607.000000;1.544702
6606.000000;1.542748
6605.000000;1.540540
6604.000000;1.538425
6603.000000;1.536679
6602.000000;1.535283
6601.000000;1.534015
6600.000000;1.532650
6599.000000;1.531076
6598.000000;1.529349
6597.000000;1.527684
6596.000000;1.526290
6595.000000;1.525164
6594.000000;1.524099
6593.000000;1.522921
6592.000000;1.521657
6591.000000;1.520441
6590.000000;1.519320
6589.000000;1.518185
6588.000000;1.516867
6587.000000;1.515274
6586.000000;1.513446
6585.000000;1.511532
6584.000000;1.509706
6583.000000;1.508094
6582.000000;1.506730
6581.000000;1.505550
6580.000000;1.504427
6579.000000;1.503247
6578.000000;1.501996
6577.000000;1.500745
6576.000000;1.499526
6575.000000;1.498248
6574.000000;1.496761
6573.000000;1.495017
6572.000000;1.493124
6571.000000;1.491295
6570.000000;1.489758
6569.000000;1.488643
6568.000000;1.487860
6567.000000;1.487085
6566.000000;1.486002
6565.000000;1.484581
6564.000000;1.483068
6563.000000;1.481674
6562.000000;1.480368
6561.000000;1.479017
6560.000000;1.477624
6559.000000;1.476311
6558.000000;1.475114
6557.000000;1.473948
6556.000000;1.472763
6555.000000;1.471608
6554.000000;1.470467
6553.000000;1.469169
6552.000000;1.467597
6551.000000;1.465948
6550.000000;1.464599
6549.000000;1.463688
6548.000000;1.462917
6547.000000;1.461873
6546.000000;1.460462
6545.000000;1.458944
6544.000000;1.457577
6543.000000;1.456343
6542.000000;1.455052
6541.000000;1.453629
6540.000000;1.452228
6539.000000;1.451049
6538.000000;1.450091
6537.000000;1.449117
6536.000000;1.447908
6535.000000;1.446526
6534.000000;1.445285
6533.000000;1.444405
6532.000000;1.443760
6531.000000;1.443010
6530.000000;1.441974
6529.000000;1.440788
6528.000000;1.439692
6527.000000;1.438755
6526.000000;1.437821
6525.000000;1.436681
6524.000000;1.435241
6523.000000;1.433568
6522.000000;1.431853
6521.000000;1.430309
6520.000000;1.429065
6519.000000;1.428093
6518.000000;1.427237
6517.000000;1.426303
6516.000000;1.425176
6515.000000;1.423888
6514.000000;1.422587
6513.000000;1.421411
6512.000000;1.420392
6511.000000;1.419497
6510.000000;1.418706
6509.000000;1.417989
6508.000000;1.417234
6507.000000;1.416312
6506.000000;1.415240
6505.000000;1.414189
6504.000000;1.413252
6503.000000;1.412294
6502.000000;1.411108
6501.000000;1.409679
6500.000000;1.408222
6499.000000;1.406972
6498.000000;1.406008
6497.000000;1.405261
6496.000000;1.404576
6495.000000;1.403753
6494.000000;1.402654
6493.000000;1.401340
6492.000000;1.400080
6491.000000;1.399134
6490.000000;1.398504
6489.000000;1.397922
6488.000000;1.397100
6487.000000;1.395978
6486.000000;1.394764
6485.000000;1.393717
6484.000000;1.392907
6483.000000;1.392171
6482.000000;1.391302
6481.000000;1.390264
6480.000000;1.389183
6479.000000;1.388158
6478.000000;1.387154
6477.000000;1.386108
6476.000000;1.385054
6475.000000;1.384069
6474.000000;1.383122
6473.000000;1.382082
6472.000000;1.380914
6471.000000;1.379785
6470.000000;1.378918
6469.000000;1.378365
6468.000000;1.377949
6467.000000;1.377436
6466.000000;1.376720
6465.000000;1.375857
6464.000000;1.374954
6463.000000;1.374043
6462.000000;1.373042
6461.000000;1.371853
6460.000000;1.370496
6459.000000;1.369131
6458.000000;1.367947
6457.000000;1.367022
6456.000000;1.366304
6455.000000;1.365682
6454.000000;1.365048
6453.000000;1.364319
6452.000000;1.363480
6451.000000;1.362606
6450.000000;1.361800
6449.000000;1.361086
6448.000000;1.360400
6447.000000;1.359693
6446.000000;1.358985
6445.000000;1.358291
6444.000000;1.357561
6443.000000;1.356758
6442.000000;1.355940
6441.000000;1.355188
6440.000000;1.354474
6439.000000;1.353685
6438.000000;1.352781
6437.000000;1.351849
6436.000000;1.350958
6435.000000;1.350061
6434.000000;1.349083
6433.000000;1.348071
6432.000000;1.347174
6431.000000;1.346484
6430.000000;1.345968
6429.000000;1.345537
6428.000000;1.345097
6427.000000;1.344536
6426.000000;1.343743
6425.000000;1.342729
6424.000000;1.341669
6423.000000;1.340733
6422.000000;1.339902
6421.000000;1.339039
6420.000000;1.338143
6419.000000;1.337419
6418.000000;1.337025
6417.000000;1.336819
6416.000000;1.336458
6415.000000;1.335749
6414.000000;1.334811
6413.000000;1.333887
6412.000000;1.333056
6411.000000;1.332189
6410.000000;1.331176
6409.000000;1.330111
6408.000000;1.329212
6407.000000;1.328552
6406.000000;1.327947
6405.000000;1.327162
6404.000000;1.326207
6403.000000;1.325324
6402.000000;1.324672
6401.000000;1.324126
6400.000000;1.323466
6399.000000;1.322675
6398.000000;1.321927
6397.000000;1.321330
6396.000000;1.320809
6395.000000;1.320243
6394.000000;1.319607
6393.000000;1.318931
6392.000000;1.318232
6391.000000;1.317524
6390.000000;1.316838
6389.000000;1.316177
6388.000000;1.315510
6387.000000;1.314833
6386.000000;1.314160
6385.000000;1.313459
6384.000000;1.312670
6383.000000;1.311841
6382.000000;1.311146
6381.000000;1.310685
6380.000000;1.310364
6379.000000;1.310022
6378.000000;1.309596
6377.000000;1.309081
6376.000000;1.308415
6375.000000;1.307554
6374.000000;1.306630
6373.000000;1.305877
6372.000000;1.305365
6371.000000;1.304909
6370.000000;1.304300
6369.000000;1.303558
6368.000000;1.302888
6367.000000;1.302424
6366.000000;1.302079
6365.000000;1.301650
6364.000000;1.301039
6363.000000;1.300338
6362.000000;1.299688
6361.000000;1.299108
6360.000000;1.298506
6359.000000;1.297850
6358.000000;1.297206
6357.000000;1.296611
6356.000000;1.296003
6355.000000;1.295360
6354.000000;1.294789
6353.000000;1.294370
6352.000000;1.293976
6351.000000;1.293368
6350.000000;1.292496
6349.000000;1.291558
6348.000000;1.290780
6347.000000;1.290208
6346.000000;1.289759
6345.000000;1.289355
6344.000000;1.288968
6343.000000;1.288576
6342.000000;1.288154
6341.000000;1.287687
6340.000000;1.287174
6339.000000;1.286622
6338.000000;1.286049
6337.000000;1.285480
6336.000000;1.284939
6335.000000;1.284452
6334.000000;1.284022
6333.000000;1.283587
6332.000000;1.283039
6331.000000;1.282356
6330.000000;1.281651
6329.000000;1.281053
6328.000000;1.280557
6327.000000;1.280081
6326.000000;1.279609
6325.000000;1.279168
6324.000000;1.278696
6323.000000;1.278083
6322.000000;1.277344
6321.000000;1.276655
6320.000000;1.276155
6319.000000;1.275809
6318.000000;1.275493
6317.000000;1.275121
6316.000000;1.274653
6315.000000;1.274097
6314.000000;1.273564
6313.000000;1.273206
6312.000000;1.273016
6311.000000;1.272771
6310.000000;1.272284
6309.000000;1.271629
6308.000000;1.271008
6307.000000;1.270483
6306.000000;1.269961
6305.000000;1.269423
6304.000000;1.268985
6303.000000;1.268703
6302.000000;1.268446
6301.000000;1.268050
6300.000000;1.267512
6299.000000;1.266964
6298.000000;1.266492
6297.000000;1.266071
6296.000000;1.265658
6295.000000;1.265259
6294.000000;1.264873
6293.000000;1.264440
6292.000000;1.263897
6291.000000;1.263312
6290.000000;1.262877
6289.000000;1.262732
6288.000000;1.262794
6287.000000;1.262780
6286.000000;1.262439
6285.000000;1.261737
6284.000000;1.260858
6283.000000;1.260032
6282.000000;1.259388
6281.000000;1.258920
6280.000000;1.258561
6279.000000;1.258252
6278.000000;1.257946
6277.000000;1.257581
6276.000000;1.257090
6275.000000;1.256490
6274.000000;1.255904
6273.000000;1.255443
6272.000000;1.255097
6271.000000;1.254779
6270.000000;1.254472
6269.000000;1.254232
6268.000000;1.254052
6267.000000;1.253815
6266.000000;1.253453
6265.000000;1.253060
6264.000000;1.252768
6263.000000;1.252558
6262.000000;1.252282
6261.000000;1.251856
6260.000000;1.251348
6259.000000;1.250868
6258.000000;1.250444
6257.000000;1.250039
6256.000000;1.249647
6255.000000;1.249318
6254.000000;1.249123
6253.000000;1.249098
6252.000000;1.249203
6251.000000;1.249323
6250.000000;1.249311
6249.000000;1.249074
6248.000000;1.248634
6247.000000;1.248106
6246.000000;1.247626
6245.000000;1.247256
6244.000000;1.246935
6243.000000;1.246537
6242.000000;1.245998
6241.000000;1.245396
6240.000000;1.244880
6239.000000;1.244522
6238.000000;1.244260
6237.000000;1.243989
6236.000000;1.243657
6235.000000;1.243262
6234.000000;1.242789
6233.000000;1.242229
6232.000000;1.241657
6231.000000;1.241222
6230.000000;1.241013
6229.000000;1.240960
6228.000000;1.240910
6227.000000;1.240768
6226.000000;1.240520
6225.000000;1.240164
6224.000000;1.239705
6223.000000;1.239231
6222.000000;1.238890
6221.000000;1.238723
6220.000000;1.238583
6219.000000;1.238297
6218.000000;1.237865
6217.000000;1.237421
6216.000000;1.237038
6215.000000;1.236675
6214.000000;1.236307
6213.000000;1.235998
6212.000000;1.235784
6211.000000;1.235582
6210.000000;1.235300
6209.000000;1.234983
6208.000000;1.234766
6207.000000;1.234673
6206.000000;1.234558
6205.000000;1.234271
6204.000000;1.233838
6203.000000;1.233443
6202.000000;1.233227
6201.000000;1.233142
6200.000000;1.233007
6199.000000;1.232695
6198.000000;1.232258
6197.000000;1.231868
6196.000000;1.231656
6195.000000;1.231610
6194.000000;1.231599
6193.000000;1.231480
6192.000000;1.231185
6191.000000;1.230754
6190.000000;1.230300
6189.000000;1.229915
6188.000000;1.229617
6187.000000;1.229389
6186.000000;1.229236
6185.000000;1.229175
6184.000000;1.229183
6183.000000;1.229189
6182.000000;1.229131
6181.000000;1.228988
6180.000000;1.228755
6179.000000;1.228434
6178.000000;1.228070
6177.000000;1.227736
6176.000000;1.227473
6175.000000;1.227256
6174.000000;1.227057
6173.000000;1.226876
6172.000000;1.226707
6171.000000;1.226497
6170.000000;1.226200
6169.000000;1.225848
6168.000000;1.225528
6167.000000;1.225300
6166.000000;1.225167
6165.000000;1.225085
6164.000000;1.224994
6163.000000;1.224830
6162.000000;1.224583
6161.000000;1.224309
6160.000000;1.224065
6159.000000;1.223827
6158.000000;1.223528
6157.000000;1.223166
6156.000000;1.222829
6155.000000;1.222588
6154.000000;1.222406
6153.000000;1.222214
6152.000000;1.222018
6151.000000;1.221897
6150.000000;1.221878
6149.000000;1.221888
6148.000000;1.221820
6147.000000;1.221639
6146.000000;1.221377
6145.000000;1.221076
6144.000000;1.220762
6143.000000;1.220471
6142.000000;1.220243
6141.000000;1.220076
6140.000000;1.219911
6139.000000;1.219696
6138.000000;1.219456
6137.000000;1.219282
6136.000000;1.219234
6135.000000;1.219285
6134.000000;1.219347
6133.000000;1.219330
6132.000000;1.219177
6131.000000;1.218880
6130.000000;1.218486
6129.000000;1.218104
6128.000000;1.217862
6127.000000;1.217824
6126.000000;1.217935
6125.000000;1.218056
6124.000000;1.218063
6123.000000;1.217919
6122.000000;1.217657
6121.000000;1.217318
6120.000000;1.216944
6119.000000;1.216599
6118.000000;1.216355
6117.000000;1.216226
6116.000000;1.216150
6115.000000;1.216055
6114.000000;1.215913
6113.000000;1.215701
6112.000000;1.215379
6111.000000;1.214976
6110.000000;1.214651
6109.000000;1.214580
6108.000000;1.214742
6107.000000;1.214900
6106.000000;1.214835
6105.000000;1.214561
6104.000000;1.214261
6103.000000;1.214065
6102.000000;1.213953
6101.000000;1.213840
6100.000000;1.213702
6099.000000;1.213567
6098.000000;1.213447
6097.000000;1.213313
6096.000000;1.213136
6095.000000;1.212923
6094.000000;1.212723
6093.000000;1.212599
6092.000000;1.212592
6091.000000;1.212657
6090.000000;1.212666
6089.000000;1.212487
6088.000000;1.212117
6087.000000;1.211699
6086.000000;1.211395
6085.000000;1.211258
6084.000000;1.211234
6083.000000;1.211254
6082.000000;1.211278
6081.000000;1.211253
6080.000000;1.211122
6079.000000;1.210891
6078.000000;1.210644
6077.000000;1.210454
6076.000000;1.210318
6075.000000;1.210204
6074.000000;1.210126
6073.000000;1.210132
6072.000000;1.210225
6071.000000;1.210348
6070.000000;1.210438
6069.000000;1.210463
6068.000000;1.210441
6067.000000;1.210421
6066.000000;1.210448
6065.000000;1.210507
6064.000000;1.210526
6063.000000;1.210465
6062.000000;1.210359
6061.000000;1.210245
6060.000000;1.210098
6059.000000;1.209890
6058.000000;1.209691
6057.000000;1.209611
6056.000000;1.209661
6055.000000;1.209734
6054.000000;1.209721
6053.000000;1.209595
6052.000000;1.209392
6051.000000;1.209182
6050.000000;1.209074
6049.000000;1.209150
6048.000000;1.209346
6047.000000;1.209461
6046.000000;1.209338
6045.000000;1.208993
6044.000000;1.208562
6043.000000;1.208172
6042.000000;1.207912
6041.000000;1.207852
6040.000000;1.208022
6039.000000;1.208354
6038.000000;1.208727
6037.000000;1.209032
6036.000000;1.209197
6035.000000;1.209187
6034.000000;1.209027
6033.000000;1.208822
6032.000000;1.208685
6031.000000;1.208640
6030.000000;1.208624
6029.000000;1.208567
6028.000000;1.208453
6027.000000;1.208298
6026.000000;1.208135
6025.000000;1.208022
6024.000000;1.208024
6023.000000;1.208161
6022.000000;1.208378
6021.000000;1.208575
6020.000000;1.208667
6019.000000;1.208624
6018.000000;1.208467
6017.000000;1.208254
6016.000000;1.208053
6015.000000;1.207914
6014.000000;1.207855
6013.000000;1.207858
6012.000000;1.207886
6011.000000;1.207914
6010.000000;1.207947
6009.000000;1.208003
6008.000000;1.208077
6007.000000;1.208152
6006.000000;1.208239
6005.000000;1.208377
6004.000000;1.208582
6003.000000;1.208808
6002.000000;1.208977
6001.000000;1.209028
6000.000000;1.208954
5999.000000;1.208812
5998.000000;1.208710
5997.000000;1.208746
5996.000000;1.208946
5995.000000;1.209244
5994.000000;1.209544
5993.000000;1.209780
5992.000000;1.209919
5991.000000;1.209954
5990.000000;1.209903
5989.000000;1.209825
5988.000000;1.209798
5987.000000;1.209867
5986.000000;1.210016
5985.000000;1.210179
5984.000000;1.210287
5983.000000;1.210331
5982.000000;1.210371
5981.000000;1.210464
5980.000000;1.210615
5979.000000;1.210806
5978.000000;1.211046
5977.000000;1.211337
5976.000000;1.211616
5975.000000;1.211789
5974.000000;1.211859
5973.000000;1.211927
5972.000000;1.212055
5971.000000;1.212198
5970.000000;1.212310
5969.000000;1.212443
5968.000000;1.212659
5967.000000;1.212896
5966.000000;1.213020
5965.000000;1.212989
5964.000000;1.212899
5963.000000;1.212869
5962.000000;1.212959
5961.000000;1.213187
5960.000000;1.213552
5959.000000;1.214003
5958.000000;1.214439
5957.000000;1.214791
5956.000000;1.215067
5955.000000;1.215309
5954.000000;1.215547
5953.000000;1.215800
5952.000000;1.216084
5951.000000;1.216385
5950.000000;1.216653
5949.000000;1.216871
5948.000000;1.217091
5947.000000;1.217363
5946.000000;1.217644
5945.000000;1.217831
5944.000000;1.217879
5943.000000;1.217853
5942.000000;1.217861
5941.000000;1.217959
5940.000000;1.218142
5939.000000;1.218385
5938.000000;1.218672
5937.000000;1.219005
5936.000000;1.219397
5935.000000;1.219841
5934.000000;1.220285
5933.000000;1.220645
5932.000000;1.220886
5931.000000;1.221053
5930.000000;1.221204
5929.000000;1.221334
5928.000000;1.221400
5927.000000;1.221427
5926.000000;1.221515
5925.000000;1.221712
5924.000000;1.221933
5923.000000;1.222067
5922.000000;1.222121
5921.000000;1.222205
5920.000000;1.222389
5919.000000;1.222629
5918.000000;1.222858
5917.000000;1.223085
5916.000000;1.223354
5915.000000;1.223655
5914.000000;1.223912
5913.000000;1.224051
5912.000000;1.224073
5911.000000;1.224039
5910.000000;1.224031
5909.000000;1.224096
5908.000000;1.224220
5907.000000;1.224350
5906.000000;1.224460
5905.000000;1.224564
5904.000000;1.224673
5903.000000;1.224745
5902.000000;1.224732
5901.000000;1.224645
5900.000000;1.224557
5899.000000;1.224526
5898.000000;1.224568
5897.000000;1.224691
5896.000000;1.224914
5895.000000;1.225224
5894.000000;1.225546
5893.000000;1.225789
5892.000000;1.225919
5891.000000;1.225972
5890.000000;1.226004
5889.000000;1.226064
5888.000000;1.226187
5887.000000;1.226367
5886.000000;1.226533
5885.000000;1.226600
5884.000000;1.226556
5883.000000;1.226480
5882.000000;1.226457
5881.000000;1.226506
5880.000000;1.226615
5879.000000;1.226802
5878.000000;1.227081
5877.000000;1.227404
5876.000000;1.227688
5875.000000;1.227902
5874.000000;1.228064
5873.000000;1.228173
5872.000000;1.228215
5871.000000;1.228267
5870.000000;1.228484
5869.000000;1.228930
5868.000000;1.229484
5867.000000;1.229959
5866.000000;1.230284
5865.000000;1.230500
5864.000000;1.230654
5863.000000;1.230773
5862.000000;1.230926
5861.000000;1.231187
5860.000000;1.231540
5859.000000;1.231880
5858.000000;1.232143
5857.000000;1.232354
5856.000000;1.232551
5855.000000;1.232717
5854.000000;1.232849
5853.000000;1.233020
5852.000000;1.233337
5851.000000;1.233846
5850.000000;1.234510
5849.000000;1.235226
5848.000000;1.235865
5847.000000;1.236330
5846.000000;1.236642
5845.000000;1.236919
5844.000000;1.237258
5843.000000;1.237637
5842.000000;1.237981
5841.000000;1.238279
5840.000000;1.238607
5839.000000;1.239036
5838.000000;1.239558
5837.000000;1.240095
5836.000000;1.240570
5835.000000;1.240977
5834.000000;1.241393
5833.000000;1.241879
5832.000000;1.242378
5831.000000;1.242751
5830.000000;1.242946
5829.000000;1.243091
5828.000000;1.243363
5827.000000;1.243816
5826.000000;1.244375
5825.000000;1.244963
5824.000000;1.245553
5823.000000;1.246113
5822.000000;1.246592
5821.000000;1.247004
5820.000000;1.247450
5819.000000;1.248010
5818.000000;1.248632
5817.000000;1.249180
5816.000000;1.249593
5815.000000;1.249941
5814.000000;1.250327
5813.000000;1.250764
5812.000000;1.251182
5811.000000;1.251541
5810.000000;1.251910
5809.000000;1.252397
5808.000000;1.253027
5807.000000;1.253724
5806.000000;1.254393
5805.000000;1.255011
5804.000000;1.255590
5803.000000;1.256126
5802.000000;1.256600
5801.000000;1.257042
5800.000000;1.257518
5799.000000;1.258074
5798.000000;1.258692
5797.000000;1.259327
5796.000000;1.259955
5795.000000;1.260581
5794.000000;1.261204
5793.000000;1.261792
5792.000000;1.262308
5791.000000;1.262753
5790.000000;1.263190
5789.000000;1.263692
5788.000000;1.264275
5787.000000;1.264907
5786.000000;1.265570
5785.000000;1.266279
5784.000000;1.266991
5783.000000;1.267567
5782.000000;1.267898
5781.000000;1.268070
5780.000000;1.268316
5779.000000;1.268791
5778.000000;1.269439
5777.000000;1.270100
5776.000000;1.270683
5775.000000;1.271211
5774.000000;1.271739
5773.000000;1.272291
5772.000000;1.272872
5771.000000;1.273482
5770.000000;1.274101
5769.000000;1.274693
5768.000000;1.275225
5767.000000;1.275692
5766.000000;1.276137
5765.000000;1.276637
5764.000000;1.277257
5763.000000;1.277969
5762.000000;1.278646
5761.000000;1.279174
5760.000000;1.279556
5759.000000;1.279892
5758.000000;1.280269
5757.000000;1.280707
5756.000000;1.281219
5755.000000;1.281838
5754.000000;1.282583
5753.000000;1.283424
5752.000000;1.284306
5751.000000;1.285166
5750.000000;1.285901
5749.000000;1.286400
5748.000000;1.286669
5747.000000;1.286894
5746.000000;1.287295
5745.000000;1.287926
5744.000000;1.288657
5743.000000;1.289346
5742.000000;1.289964
5741.000000;1.290548
5740.000000;1.291101
5739.000000;1.291606
5738.000000;1.292076
5737.000000;1.292553
5736.000000;1.293068
5735.000000;1.293642
5734.000000;1.294298
5733.000000;1.295016
5732.000000;1.295695
5731.000000;1.296219
5730.000000;1.296572
5729.000000;1.296879
5728.000000;1.297317
5727.000000;1.297993
5726.000000;1.298873
5725.000000;1.299782
5724.000000;1.300513
5723.000000;1.300986
5722.000000;1.301324
5721.000000;1.301724
5720.000000;1.302264
5719.000000;1.302893
5718.000000;1.303575
5717.000000;1.304364
5716.000000;1.305279
5715.000000;1.306204
5714.000000;1.306989
5713.000000;1.307625
5712.000000;1.308221
5711.000000;1.308829
5710.000000;1.309376
5709.000000;1.309809
5708.000000;1.310217
5707.000000;1.310753
5706.000000;1.311472
5705.000000;1.312299
5704.000000;1.313132
5703.000000;1.313913
5702.000000;1.314603
5701.000000;1.315174
5700.000000;1.315659
5699.000000;1.316163
5698.000000;1.316782
5697.000000;1.317507
5696.000000;1.318245
5695.000000;1.318901
5694.000000;1.319466
5693.000000;1.319952
5692.000000;1.320432
5691.000000;1.320969
5690.000000;1.321602
5689.000000;1.322355
5688.000000;1.323180
5687.000000;1.324001
5686.000000;1.324757
5685.000000;1.325440
5684.000000;1.326096
5683.000000;1.326812
5682.000000;1.327656
5681.000000;1.328585
5680.000000;1.329430
5679.000000;1.330036
5678.000000;1.330424
5677.000000;1.330778
5676.000000;1.331242
5675.000000;1.331776
5674.000000;1.332247
5673.000000;1.332627
5672.000000;1.333044
5671.000000;1.333629
5670.000000;1.334385
5669.000000;1.335233
5668.000000;1.336134
5667.000000;1.337109
5666.000000;1.338139
5665.000000;1.339103
5664.000000;1.339851
5663.000000;1.340334
5662.000000;1.340640
5661.000000;1.340909
5660.000000;1.341244
5659.000000;1.341686
5658.000000;1.342244
5657.000000;1.342903
5656.000000;1.343613
5655.000000;1.344299
5654.000000;1.344906
5653.000000;1.345435
5652.000000;1.345937
5651.000000;1.346445
5650.000000;1.346954
5649.000000;1.347436
5648.000000;1.347895
5647.000000;1.348388
5646.000000;1.348986
5645.000000;1.349679
5644.000000;1.350339
5643.000000;1.350811
5642.000000;1.351082
5641.000000;1.351327
5640.000000;1.351752
5639.000000;1.352381
5638.000000;1.353063
5637.000000;1.353681
5636.000000;1.354266
5635.000000;1.354881
5634.000000;1.355478
5633.000000;1.355969
5632.000000;1.356389
5631.000000;1.356872
5630.000000;1.357445
5629.000000;1.357981
5628.000000;1.358384
5627.000000;1.358737
5626.000000;1.359173
5625.000000;1.359681
5624.000000;1.360129
5623.000000;1.360438
5622.000000;1.360645
5621.000000;1.360815
5620.000000;1.360998
5619.000000;1.361267
5618.000000;1.361699
5617.000000;1.362286
5616.000000;1.362929
5615.000000;1.363550
5614.000000;1.364152
5613.000000;1.364742
5612.000000;1.365249
5611.000000;1.365599
5610.000000;1.365832
5609.000000;1.366091
5608.000000;1.366499
5607.000000;1.367068
5606.000000;1.367693
5605.000000;1.368231
5604.000000;1.368594
5603.000000;1.368798
5602.000000;1.368915
5601.000000;1.368993
5600.000000;1.369027
5599.000000;1.369034
5598.000000;1.369091
5597.000000;1.369265
5596.000000;1.369535
5595.000000;1.369824
5594.000000;1.370089
5593.000000;1.370344
5592.000000;1.370606
5591.000000;1.370852
5590.000000;1.371057
5589.000000;1.371245
5588.000000;1.371472
5587.000000;1.371758
5586.000000;1.372047
5585.000000;1.372246
5584.000000;1.372334
5583.000000;1.372399
5582.000000;1.372546
5581.000000;1.372775
5580.000000;1.373014
5579.000000;1.373229
5578.000000;1.373464
5577.000000;1.373728
5576.000000;1.373956
5575.000000;1.374102
5574.000000;1.374213
5573.000000;1.374342
5572.000000;1.374446
5571.000000;1.374448
5570.000000;1.374380
5569.000000;1.374380
5568.000000;1.374534
5567.000000;1.374790
5566.000000;1.375029
5565.000000;1.375164
5564.000000;1.375182
5563.000000;1.375141
5562.000000;1.375145
5561.000000;1.375251
5560.000000;1.375398
5559.000000;1.375462
5558.000000;1.375409
5557.000000;1.375341
5556.000000;1.375371
5555.000000;1.375500
5554.000000;1.375650
5553.000000;1.375773
5552.000000;1.375885
5551.000000;1.375990
5550.000000;1.376029
5549.000000;1.375920
5548.000000;1.375660
5547.000000;1.375363
5546.000000;1.375179
5545.000000;1.375168
5544.000000;1.375259
5543.000000;1.375348
5542.000000;1.375406
5541.000000;1.375464
5540.000000;1.375539
5539.000000;1.375620
5538.000000;1.375699
5537.000000;1.375778
5536.000000;1.375845
5535.000000;1.375895
5534.000000;1.375962
5533.000000;1.376058
5532.000000;1.376130
5531.000000;1.376124
5530.000000;1.376102
5529.000000;1.376187
5528.000000;1.376395
5527.000000;1.376602
5526.000000;1.376704
5525.000000;1.376738
5524.000000;1.376810
5523.000000;1.376960
5522.000000;1.377131
5521.000000;1.377231
5520.000000;1.377197
5519.000000;1.377014
5518.000000;1.376739
5517.000000;1.376474
5516.000000;1.376317
5515.000000;1.376338
5514.000000;1.376559
5513.000000;1.376899
5512.000000;1.377161
5511.000000;1.377173
5510.000000;1.376972
5509.000000;1.376778
5508.000000;1.376742
5507.000000;1.376806
5506.000000;1.376818
5505.000000;1.376736
5504.000000;1.376662
5503.000000;1.376707
5502.000000;1.376896
5501.000000;1.377201
5500.000000;1.377592
5499.000000;1.378045
5498.000000;1.378504
5497.000000;1.378845
5496.000000;1.378925
5495.000000;1.378730
5494.000000;1.378442
5493.000000;1.378288
5492.000000;1.378301
5491.000000;1.378293
5490.000000;1.378114
5489.000000;1.377858
5488.000000;1.377783
5487.000000;1.378066
5486.000000;1.378687
5485.000000;1.379471
5484.000000;1.380206
5483.000000;1.380764
5482.000000;1.381184
5481.000000;1.381639
5480.000000;1.382249
5479.000000;1.382902
5478.000000;1.383323
5477.000000;1.383344
5476.000000;1.383104
5475.000000;1.382960
5474.000000;1.383159
5473.000000;1.383601
5472.000000;1.383985
5471.000000;1.384168
5470.000000;1.384289
5469.000000;1.384563
5468.000000;1.385020
5467.000000;1.385531
5466.000000;1.386008
5465.000000;1.386430
5464.000000;1.386756
5463.000000;1.386947
5462.000000;1.387078
5461.000000;1.387317
5460.000000;1.387779
5459.000000;1.388458
5458.000000;1.389296
5457.000000;1.390235
5456.000000;1.391192
5455.000000;1.392093
5454.000000;1.392925
5453.000000;1.393700
5452.000000;1.394401
5451.000000;1.395020
5450.000000;1.395603
5449.000000;1.396157
5448.000000;1.396599
5447.000000;1.396893
5446.000000;1.397183
5445.000000;1.397660
5444.000000;1.398324
5443.000000;1.399014
5442.000000;1.399660
5441.000000;1.400400
5440.000000;1.401402
5439.000000;1.402597
5438.000000;1.403700
5437.000000;1.404508
5436.000000;1.405098
5435.000000;1.405752
5434.000000;1.406663
5433.000000;1.407701
5432.000000;1.408590
5431.000000;1.409258
5430.000000;1.409914
5429.000000;1.410802
5428.000000;1.411970
5427.000000;1.413260
5426.000000;1.414528
5425.000000;1.415842
5424.000000;1.417421
5423.000000;1.419400
5422.000000;1.421676
5421.000000;1.424006
5420.000000;1.426231
5419.000000;1.428313
5418.000000;1.430202
5417.000000;1.431780
5416.000000;1.432973
5415.000000;1.433882
5414.000000;1.434734
5413.000000;1.435657
5412.000000;1.436616
5411.000000;1.437626
5410.000000;1.438908
5409.000000;1.440720
5408.000000;1.443137
5407.000000;1.446064
5406.000000;1.449392
5405.000000;1.452985
5404.000000;1.456562
5403.000000;1.459773
5402.000000;1.462475
5401.000000;1.464834
5400.000000;1.467146
5399.000000;1.469583
5398.000000;1.472112
5397.000000;1.474630
5396.000000;1.477122
5395.000000;1.479649
5394.000000;1.482249
5393.000000;1.484954
5392.000000;1.487900
5391.000000;1.491268
5390.000000;1.495051
5389.000000;1.498991
5388.000000;1.502828
5387.000000;1.506577
5386.000000;1.510479
5385.000000;1.514663
5384.000000;1.518966
5383.000000;1.523193
5382.000000;1.527377
5381.000000;1.531619
5380.000000;1.535927
5379.000000;1.540289
5378.000000;1.544751
5377.000000;1.549362
5376.000000;1.554115
5375.000000;1.559011
5374.000000;1.564137
5373.000000;1.569554
5372.000000;1.575218
5371.000000;1.581121
5370.000000;1.587353
5369.000000;1.593947
5368.000000;1.600752
5367.000000;1.607547
5366.000000;1.614248
5365.000000;1.620941
5364.000000;1.627737
5363.000000;1.634727
5362.000000;1.642018
5361.000000;1.649659
5360.000000;1.657586
5359.000000;1.665732
5358.000000;1.674086
5357.000000;1.682565
5356.000000;1.690950
5355.000000;1.699163
5354.000000;1.707521
5353.000000;1.716463
5352.000000;1.726010
5351.000000;1.735772
5350.000000;1.745512
5349.000000;1.755414
5348.000000;1.765781
5347.000000;1.776731
5346.000000;1.788238
5345.000000;1.800238
5344.000000;1.812511
5343.000000;1.824700
5342.000000;1.836703
5341.000000;1.848835
5340.000000;1.861468
5339.000000;1.874750
5338.000000;1.888714
5337.000000;1.903448
5336.000000;1.918978
5335.000000;1.935137
5334.000000;1.951645
5333.000000;1.968312
5332.000000;1.985139
5331.000000;2.002243
5330.000000;2.019677
5329.000000;2.037253
5328.000000;2.054675
5327.000000;2.071962
5326.000000;2.089607
5325.000000;2.108097
5324.000000;2.127447
5323.000000;2.147409
5322.000000;2.167975
5321.000000;2.189251
5320.000000;2.210921
5319.000000;2.232395
5318.000000;2.253639
5317.000000;2.275296
5316.000000;2.297768
5315.000000;2.320640
5314.000000;2.343323
5313.000000;2.365832
5312.000000;2.388511
5311.000000;2.411316
5310.000000;2.433832
5309.000000;2.455945
5308.000000;2.478216
5307.000000;2.501505
5306.000000;2.526114
5305.000000;2.551224
5304.000000;2.575351
5303.000000;2.597488
5302.000000;2.617741
5301.000000;2.636911
5300.000000;2.655804
5299.000000;2.675046
5298.000000;2.694890
5297.000000;2.714656
5296.000000;2.733024
5295.000000;2.749443
5294.000000;2.764650
5293.000000;2.779639
5292.000000;2.795008
5291.000000;2.811200
5290.000000;2.827886
5289.000000;2.842920
5288.000000;2.853949
5287.000000;2.861808
5286.000000;2.870239
5285.000000;2.881583
5284.000000;2.894431
5283.000000;2.906080
5282.000000;2.915144
5281.000000;2.920635
5280.000000;2.921782
5279.000000;2.920884
5278.000000;2.922864
5277.000000;2.929604
5276.000000;2.937187
5275.000000;2.941120
5274.000000;2.942156
5273.000000;2.943825
5272.000000;2.946942
5271.000000;2.949710
5270.000000;2.951707
5269.000000;2.954477
5268.000000;2.958300
5267.000000;2.961632
5266.000000;2.963333
5265.000000;2.962823
5264.000000;2.958706
5263.000000;2.950354
5262.000000;2.941178
5261.000000;2.937175
5260.000000;2.941387
5259.000000;2.950776
5258.000000;2.958719
5257.000000;2.961148
5256.000000;2.959779
5255.000000;2.958571
5254.000000;2.958637
5253.000000;2.957549
5252.000000;2.953664
5251.000000;2.950013
5250.000000;2.951412
5249.000000;2.958252
5248.000000;2.965194
5247.000000;2.967230
5246.000000;2.965450
5245.000000;2.963992
5244.000000;2.964052
5243.000000;2.963487
5242.000000;2.960690
5241.000000;2.956848
5240.000000;2.954792
5239.000000;2.957285
5238.000000;2.965212
5237.000000;2.975524
5236.000000;2.982180
5235.000000;2.981552
5234.000000;2.976146
5233.000000;2.970796
5232.000000;2.966952
5231.000000;2.962965
5230.000000;2.958318
5229.000000;2.954741
5228.000000;2.953742
5227.000000;2.955657
5226.000000;2.960691
5225.000000;2.968395
5224.000000;2.975903
5223.000000;2.979029
5222.000000;2.976609
5221.000000;2.972219
5220.000000;2.969990
5219.000000;2.970298
5218.000000;2.970756
5217.000000;2.970178
5216.000000;2.970067
5215.000000;2.972066
5214.000000;2.975245
5213.000000;2.976533
5212.000000;2.973641
5211.000000;2.967733
5210.000000;2.962556
5209.000000;2.960573
5208.000000;2.960531
5207.000000;2.959117
5206.000000;2.954663
5205.000000;2.949023
5204.000000;2.945959
5203.000000;2.947648
5202.000000;2.952644
5201.000000;2.957157
5200.000000;2.958566
5199.000000;2.957447
5198.000000;2.955865
5197.000000;2.954929
5196.000000;2.955069
5195.000000;2.957147
5194.000000;2.961092
5193.000000;2.964251
5192.000000;2.963443
5191.000000;2.958966
5190.000000;2.954843
5189.000000;2.954256
5188.000000;2.956551
5187.000000;2.959349
5186.000000;2.961607
5185.000000;2.963479
5184.000000;2.964880
5183.000000;2.966109
5182.000000;2.968529
5181.000000;2.972767
5180.000000;2.977016
5179.000000;2.978301
5178.000000;2.974789
5177.000000;2.966395
5176.000000;2.955551
5175.000000;2.947398
5174.000000;2.946723
5173.000000;2.953807
5172.000000;2.963698
5171.000000;2.970636
5170.000000;2.972664
5169.000000;2.970991
5168.000000;2.967276
5167.000000;2.963949
5166.000000;2.964613
5165.000000;2.970679
5164.000000;2.978516
5163.000000;2.982436
5162.000000;2.980466
5161.000000;2.974910
5160.000000;2.968436
5159.000000;2.963035
5158.000000;2.961291
5157.000000;2.964404
5156.000000;2.968916
5155.000000;2.968974
5154.000000;2.963303
5153.000000;2.957021
5152.000000;2.955186
5151.000000;2.957379
5150.000000;2.959827
5149.000000;2.960865
5148.000000;2.961598
5147.000000;2.962386
5146.000000;2.961759
5145.000000;2.958716
5144.000000;2.954336
5143.000000;2.950667
5142.000000;2.949071
5141.000000;2.949918
5140.000000;2.952901
5139.000000;2.957204
5138.000000;2.961826
5137.000000;2.966006
5136.000000;2.969561
5135.000000;2.972220
5134.000000;2.972588
5133.000000;2.969093
5132.000000;2.962591
5131.000000;2.957483
5130.000000;2.958495
5129.000000;2.965460
5128.000000;2.972656
5127.000000;2.974576
5126.000000;2.971611
5125.000000;2.968407
5124.000000;2.968251
5123.000000;2.971160
5122.000000;2.975348
5121.000000;2.977922
5120.000000;2.975846
5119.000000;2.969014
5118.000000;2.961848
5117.000000;2.960104
5116.000000;2.965202
5115.000000;2.971935
5114.000000;2.972998
5113.000000;2.966141
5112.000000;2.956017
5111.000000;2.949141
5110.000000;2.948532
5109.000000;2.952956
5108.000000;2.959067
5107.000000;2.963713
5106.000000;2.965259
5105.000000;2.963315
5104.000000;2.958497
5103.000000;2.953085
5102.000000;2.950041
5101.000000;2.950180
5100.000000;2.951008
5099.000000;2.949541
5098.000000;2.946150
5097.000000;2.944013
5096.000000;2.944855
5095.000000;2.947037
5094.000000;2.948662
5093.000000;2.950705
5092.000000;2.954900
5091.000000;2.959558
5090.000000;2.959646
5089.000000;2.952416
5088.000000;2.941848
5087.000000;2.935119
5086.000000;2.935640
5085.000000;2.940677
5084.000000;2.944942
5083.000000;2.945522
5082.000000;2.942819
5081.000000;2.938307
5080.000000;2.933690
5079.000000;2.931921
5078.000000;2.936401
5077.000000;2.947763
5076.000000;2.962202
5075.000000;2.973886
5074.000000;2.978843
5073.000000;2.975934
5072.000000;2.966272
5071.000000;2.953860
5070.000000;2.944392
5069.000000;2.941433
5068.000000;2.943761
5067.000000;2.946716
5066.000000;2.946845
5065.000000;2.944775
5064.000000;2.943194
5063.000000;2.943404
5062.000000;2.944502
5061.000000;2.945175
5060.000000;2.945383
5059.000000;2.945674
5058.000000;2.945038
5057.000000;2.940769
5056.000000;2.931813
5055.000000;2.921793
5054.000000;2.916907
5053.000000;2.920244
5052.000000;2.928889
5051.000000;2.937315
5050.000000;2.942941
5049.000000;2.946827
5048.000000;2.950094
5047.000000;2.952291
5046.000000;2.952885
5045.000000;2.951916
5044.000000;2.948961
5043.000000;2.943776
5042.000000;2.937912
5041.000000;2.933361
5040.000000;2.930080
5039.000000;2.926679
5038.000000;2.923064
5037.000000;2.920583
5036.000000;2.919532
5035.000000;2.918506
5034.000000;2.916769
5033.000000;2.915337
5032.000000;2.914686
5031.000000;2.913144
5030.000000;2.909214
5029.000000;2.904326
5028.000000;2.901535
5027.000000;2.902186
5026.000000;2.904958
5025.000000;2.907417
5024.000000;2.907876
5023.000000;2.906434
5022.000000;2.904745
5021.000000;2.904711
5020.000000;2.907237
5019.000000;2.911735
5018.000000;2.916191
5017.000000;2.917708
5016.000000;2.913855
5015.000000;2.904683
5014.000000;2.893609
5013.000000;2.885375
5012.000000;2.882376
5011.000000;2.883098
5010.000000;2.884127
5009.000000;2.882919
5008.000000;2.878928
5007.000000;2.873452
5006.000000;2.868744
5005.000000;2.866847
5004.000000;2.868509
5003.000000;2.872346
5002.000000;2.875044
5001.000000;2.873095
5000.000000;2.865676
4999.000000;2.856510
4998.000000;2.851743
4997.000000;2.854679
4996.000000;2.862501
4995.000000;2.868517
4994.000000;2.868234
4993.000000;2.862889
4992.000000;2.856399
4991.000000;2.850789
4990.000000;2.845800
4989.000000;2.841422
4988.000000;2.839023
4987.000000;2.839927
4986.000000;2.843430
4985.000000;2.846390
4984.000000;2.845202
4983.000000;2.839052
4982.000000;2.831364
4981.000000;2.827005
4980.000000;2.827411
4979.000000;2.829058
4978.000000;2.827913
4977.000000;2.824752
4976.000000;2.824066
4975.000000;2.828124
4974.000000;2.833463
4973.000000;2.833492
4972.000000;2.824738
4971.000000;2.810470
4970.000000;2.797916
4969.000000;2.792439
4968.000000;2.794218
4967.000000;2.799053
4966.000000;2.802015
4965.000000;2.801260
4964.000000;2.798421
4963.000000;2.795443
4962.000000;2.792262
4961.000000;2.787891
4960.000000;2.782299
4959.000000;2.776426
4958.000000;2.771504
4957.000000;2.768654
4956.000000;2.768262
4955.000000;2.769125
4954.000000;2.768487
4953.000000;2.764318
4952.000000;2.758052
4951.000000;2.753789
4950.000000;2.753934
4949.000000;2.756005
4948.000000;2.754491
4947.000000;2.746580
4946.000000;2.735232
4945.000000;2.725726
4944.000000;2.720420
4943.000000;2.717739
4942.000000;2.715558
4941.000000;2.714253
4940.000000;2.715758
4939.000000;2.720277
4938.000000;2.724921
4937.000000;2.725907
4936.000000;2.721857
4935.000000;2.714772
4934.000000;2.708081
4933.000000;2.703817
4932.000000;2.701310
4931.000000;2.698578
4930.000000;2.694941
4929.000000;2.691590
4928.000000;2.689353
4927.000000;2.687036
4926.000000;2.682926
4925.000000;2.677436
4924.000000;2.672851
4923.000000;2.670258
4922.000000;2.668093
4921.000000;2.664300
4920.000000;2.658871
4919.000000;2.653458
4918.000000;2.649218
4917.000000;2.646040
4916.000000;2.643379
4915.000000;2.640874
4914.000000;2.638387
4913.000000;2.636002
4912.000000;2.633856
4911.000000;2.631663
4910.000000;2.628581
4909.000000;2.624041
4908.000000;2.618629
4907.000000;2.613702
4906.000000;2.610154
4905.000000;2.608090
4904.000000;2.607431
4903.000000;2.607932
4902.000000;2.608675
4901.000000;2.608404
4900.000000;2.606634
4899.000000;2.603863
4898.000000;2.600421
4897.000000;2.595917
4896.000000;2.590370
4895.000000;2.585091
4894.000000;2.581543
4893.000000;2.579530
4892.000000;2.577234
4891.000000;2.573243
4890.000000;2.568017
4889.000000;2.563064
4888.000000;2.559311
4887.000000;2.556835
4886.000000;2.555641
4885.000000;2.555711
4884.000000;2.556083
4883.000000;2.554736
4882.000000;2.550249
4881.000000;2.543494
4880.000000;2.537027
4879.000000;2.532722
4878.000000;2.530219
4877.000000;2.527670
4876.000000;2.523719
4875.000000;2.518608
4874.000000;2.513599
4873.000000;2.509626
4872.000000;2.506422
4871.000000;2.502859
4870.000000;2.498240
4869.000000;2.493243
4868.000000;2.489284
4867.000000;2.486918
4866.000000;2.485406
4865.000000;2.484001
4864.000000;2.482958
4863.000000;2.482707
4862.000000;2.482508
4861.000000;2.480802
4860.000000;2.477035
4859.000000;2.472357
4858.000000;2.468176
4857.000000;2.464712
4856.000000;2.461343
4855.000000;2.457714
4854.000000;2.453953
4853.000000;2.450179
4852.000000;2.446398
4851.000000;2.442802
4850.000000;2.439652
4849.000000;2.436807
4848.000000;2.433709
4847.000000;2.430105
4846.000000;2.426591
4845.000000;2.424257
4844.000000;2.423770
4843.000000;2.424709
4842.000000;2.425620
4841.000000;2.424792
4840.000000;2.421366
4839.000000;2.416053
4838.000000;2.410724
4837.000000;2.407016
4836.000000;2.405032
4835.000000;2.403366
4834.000000;2.400453
4833.000000;2.395890
4832.000000;2.390448
4831.000000;2.385141
4830.000000;2.380628
4829.000000;2.377244
4828.000000;2.375047
4827.000000;2.373613
4826.000000;2.372120
4825.000000;2.369972
4824.000000;2.367253
4823.000000;2.364455
4822.000000;2.361917
4821.000000;2.359627
4820.000000;2.357284
4819.000000;2.354334
4818.000000;2.350242
4817.000000;2.345062
4816.000000;2.339639
4815.000000;2.334992
4814.000000;2.331560
4813.000000;2.329124
4812.000000;2.327206
4811.000000;2.325303
4810.000000;2.322970
4809.000000;2.320112
4808.000000;2.317141
4807.000000;2.314506
4806.000000;2.312020
4805.000000;2.308971
4804.000000;2.305089
4803.000000;2.301038
4802.000000;2.297779
4801.000000;2.295494
4800.000000;2.293365
4799.000000;2.290438
4798.000000;2.286676
4797.000000;2.283070
4796.000000;2.280623
4795.000000;2.279337
4794.000000;2.278352
4793.000000;2.276973
4792.000000;2.275114
4791.000000;2.272734
4790.000000;2.269506
4789.000000;2.265452
4788.000000;2.261407
4787.000000;2.258248
4786.000000;2.255890
4785.000000;2.253506
4784.000000;2.250619
4783.000000;2.247464
4782.000000;2.244401
4781.000000;2.241533
4780.000000;2.238902
4779.000000;2.236464
4778.000000;2.233800
4777.000000;2.230375
4776.000000;2.226269
4775.000000;2.222196
4774.000000;2.218662
4773.000000;2.215543
4772.000000;2.212606
4771.000000;2.209937
4770.000000;2.207615
4769.000000;2.205427
4768.000000;2.203230
4767.000000;2.201231
4766.000000;2.199561
4765.000000;2.197818
4764.000000;2.195369
4763.000000;2.192000
4762.000000;2.188059
4761.000000;2.184140
4760.000000;2.180810
4759.000000;2.178330
4758.000000;2.176358
4757.000000;2.174099
4756.000000;2.171088
4755.000000;2.167713
4754.000000;2.164742
4753.000000;2.162541
4752.000000;2.160962
4751.000000;2.159699
4750.000000;2.158375
4749.000000;2.156463
4748.000000;2.153623
4747.000000;2.150166
4746.000000;2.146836
4745.000000;2.144068
4744.000000;2.141679
4743.000000;2.139279
4742.000000;2.136732
4741.000000;2.134117
4740.000000;2.131469
4739.000000;2.128739
4738.000000;2.125985
4737.000000;2.123442
4736.000000;2.121316
4735.000000;2.119441
4734.000000;2.117232
4733.000000;2.114238
4732.000000;2.110803
4731.000000;2.107934
4730.000000;2.106304
4729.000000;2.105536
4728.000000;2.104567
4727.000000;2.102554
4726.000000;2.099346
4725.000000;2.095381
4724.000000;2.091471
4723.000000;2.088524
4722.000000;2.086940
4721.000000;2.086144
4720.000000;2.085001
4719.000000;2.082868
4718.000000;2.080049
4717.000000;2.077212
4716.000000;2.074711
4715.000000;2.072569
4714.000000;2.070776
4713.000000;2.069270
4712.000000;2.067722
4711.000000;2.065644
4710.000000;2.062832
4709.000000;2.059655
4708.000000;2.056853
4707.000000;2.055006
4706.000000;2.054059
4705.000000;2.053275
4704.000000;2.051744
4703.000000;2.049099
4702.000000;2.045841
4701.000000;2.042915
4700.000000;2.040910
4699.000000;2.039589
4698.000000;2.038143
4697.000000;2.035968
4696.000000;2.033216
4695.000000;2.030575
4694.000000;2.028584
4693.000000;2.027253
4692.000000;2.026258
4691.000000;2.025269
4690.000000;2.023983
4689.000000;2.022096
4688.000000;2.019518
4687.000000;2.016595
4686.000000;2.013945
4685.000000;2.011987
4684.000000;2.010681
4683.000000;2.009650
4682.000000;2.008440
4681.000000;2.006739
4680.000000;2.004557
4679.000000;2.002260
4678.000000;2.000262
4677.000000;1.998615
4676.000000;1.996967
4675.000000;1.994976
4674.000000;1.992669
4673.000000;1.990372
4672.000000;1.988384
4671.000000;1.986795
4670.000000;1.985496
4669.000000;1.984258
4668.000000;1.982837
4667.000000;1.981139
4666.000000;1.979283
4665.000000;1.977478
4664.000000;1.975808
4663.000000;1.974181
4662.000000;1.972481
4661.000000;1.970734
4660.000000;1.969093
4659.000000;1.967703
4658.000000;1.966577
4657.000000;1.965571
4656.000000;1.964489
4655.000000;1.963208
4654.000000;1.961733
4653.000000;1.960118
4652.000000;1.958390
4651.000000;1.956619
4650.000000;1.955028
4649.000000;1.953840
4648.000000;1.952942
4647.000000;1.951842
4646.000000;1.950124
4645.000000;1.947908
4644.000000;1.945715
4643.000000;1.943928
4642.000000;1.942570
4641.000000;1.941514
4640.000000;1.940601
4639.000000;1.939496
4638.000000;1.937791
4637.000000;1.935505
4636.000000;1.933221
4635.000000;1.931485
4634.000000;1.930239
4633.000000;1.929116
4632.000000;1.928064
4631.000000;1.927305
4630.000000;1.926764
4629.000000;1.925953
4628.000000;1.924528
4627.000000;1.922681
4626.000000;1.920895
4625.000000;1.919536
4624.000000;1.918692
4623.000000;1.918167
4622.000000;1.917542
4621.000000;1.916509
4620.000000;1.915205
4619.000000;1.913997
4618.000000;1.912905
4617.000000;1.911517
4616.000000;1.909581
4615.000000;1.907404
4614.000000;1.905533
4613.000000;1.904269
4612.000000;1.903568
4611.000000;1.903179
4610.000000;1.902746
4609.000000;1.902014
4608.000000;1.901086
4607.000000;1.900248
4606.000000;1.899500
4605.000000;1.898564
4604.000000;1.897422
4603.000000;1.896438
4602.000000;1.895694
4601.000000;1.894655
4600.000000;1.892909
4599.000000;1.890906
4598.000000;1.889501
4597.000000;1.888953
4596.000000;1.888796
4595.000000;1.888566
4594.000000;1.888143
4593.000000;1.887446
4592.000000;1.886330
4591.000000;1.884922
4590.000000;1.883640
4589.000000;1.882630
4588.000000;1.881513
4587.000000;1.879920
4586.000000;1.878102
4585.000000;1.876783
4584.000000;1.876502
4583.000000;1.877173
4582.000000;1.878167
4581.000000;1.878719
4580.000000;1.878362
4579.000000;1.877110
4578.000000;1.875241
4577.000000;1.872999
4576.000000;1.870617
4575.000000;1.868519
4574.000000;1.867224
4573.000000;1.866935
4572.000000;1.867284
4571.000000;1.867541
4570.000000;1.867093
4569.000000;1.865834
4568.000000;1.864194
4567.000000;1.862791
4566.000000;1.861949
4565.000000;1.861539
4564.000000;1.861293
4563.000000;1.861109
4562.000000;1.860883
4561.000000;1.860225
4560.000000;1.858731
4559.000000;1.856624
4558.000000;1.854795
4557.000000;1.854006
4556.000000;1.854138
4555.000000;1.854338
4554.000000;1.853889
4553.000000;1.852885
4552.000000;1.851987
4551.000000;1.851602
4550.000000;1.851437
4549.000000;1.850942
4548.000000;1.850097
4547.000000;1.849507
4546.000000;1.849646
4545.000000;1.850240
4544.000000;1.850586
4543.000000;1.850311
4542.000000;1.849613
4541.000000;1.848923
4540.000000;1.848580
4539.000000;1.848701
4538.000000;1.849067
4537.000000;1.849224
4536.000000;1.848954
4535.000000;1.848546
4534.000000;1.848316
4533.000000;1.848046
4532.000000;1.847305
4531.000000;1.846219
4530.000000;1.845404
4529.000000;1.845116
4528.000000;1.845003
4527.000000;1.844773
4526.000000;1.844549
4525.000000;1.844362
4524.000000;1.843824
4523.000000;1.842732
4522.000000;1.841598
4521.000000;1.841059
4520.000000;1.841039
4519.000000;1.840953
4518.000000;1.840633
4517.000000;1.840552
4516.000000;1.841101
4515.000000;1.842038
4514.000000;1.842749
4513.000000;1.842837
4512.000000;1.842372
4511.000000;1.841695
4510.000000;1.841060
4509.000000;1.840410
4508.000000;1.839549
4507.000000;1.838564
4506.000000;1.837945
4505.000000;1.838142
4504.000000;1.839070
4503.000000;1.840152
4502.000000;1.840760
4501.000000;1.840513
4500.000000;1.839379
4499.000000;1.837739
4498.000000;1.836299
4497.000000;1.835651
4496.000000;1.835876
4495.000000;1.836669
4494.000000;1.837707
4493.000000;1.838698
4492.000000;1.839299
4491.000000;1.839405
4490.000000;1.839478
4489.000000;1.840164
4488.000000;1.841419
4487.000000;1.842322
4486.000000;1.841966
4485.000000;1.840388
4484.000000;1.838513
4483.000000;1.837377
4482.000000;1.837517
4481.000000;1.838805
4480.000000;1.840571
4479.000000;1.841986
4478.000000;1.842602
4477.000000;1.842584
4476.000000;1.842386
4475.000000;1.842308
4474.000000;1.842433
4473.000000;1.842775
4472.000000;1.843269
4471.000000;1.843697
4470.000000;1.843897
4469.000000;1.844037
4468.000000;1.844472
4467.000000;1.845314
4466.000000;1.846354
4465.000000;1.847392
4464.000000;1.848401
4463.000000;1.849276
4462.000000;1.849777
4461.000000;1.849962
4460.000000;1.850383
4459.000000;1.851517
4458.000000;1.853116
4457.000000;1.854491
4456.000000;1.855362
4455.000000;1.856043
4454.000000;1.856770
4453.000000;1.857345
4452.000000;1.857700
4451.000000;1.858317
4450.000000;1.859665
4449.000000;1.861453
4448.000000;1.862892
4447.000000;1.863640
4446.000000;1.864123
4445.000000;1.864896
4444.000000;1.866098
4443.000000;1.867596
4442.000000;1.869250
4441.000000;1.870859
4440.000000;1.872174
4439.000000;1.873264
4438.000000;1.874642
4437.000000;1.876738
4436.000000;1.879367
4435.000000;1.881942
4434.000000;1.884105
4433.000000;1.885902
4432.000000;1.887413
4431.000000;1.888538
4430.000000;1.889341
4429.000000;1.890302
4428.000000;1.891910
4427.000000;1.894038
4426.000000;1.895953
4425.000000;1.897047
4424.000000;1.897498
4423.000000;1.898068
4422.000000;1.899300
4421.000000;1.901094
4420.000000;1.903150
4419.000000;1.905559
4418.000000;1.908619
4417.000000;1.912202
4416.000000;1.915701
4415.000000;1.918701
4414.000000;1.921376
4413.000000;1.924033
4412.000000;1.926580
4411.000000;1.928741
4410.000000;1.930515
4409.000000;1.932062
4408.000000;1.933306
4407.000000;1.934157
4406.000000;1.935106
4405.000000;1.937051
4404.000000;1.940263
4403.000000;1.943899
4402.000000;1.946885
4401.000000;1.949118
4400.000000;1.951372
4399.000000;1.954110
4398.000000;1.956898
4397.000000;1.959098
4396.000000;1.960795
4395.000000;1.962705
4394.000000;1.965327
4393.000000;1.968441
4392.000000;1.971432
4391.000000;1.973858
4390.000000;1.975757
4389.000000;1.977619
4388.000000;1.980105
4387.000000;1.983489
4386.000000;1.987236
4385.000000;1.990373
4384.000000;1.992451
4383.000000;1.993972
4382.000000;1.995745
4381.000000;1.998087
4380.000000;2.000856
4379.000000;2.003893
4378.000000;2.007007
4377.000000;2.009749
4376.000000;2.011738
4375.000000;2.013243
4374.000000;2.014968
4373.000000;2.017235
4372.000000;2.019775
4371.000000;2.022207
4370.000000;2.024401
4369.000000;2.026429
4368.000000;2.028449
4367.000000;2.030656
4366.000000;2.032973
4365.000000;2.034824
4364.000000;2.035758
4363.000000;2.036436
4362.000000;2.038269
4361.000000;2.041688
4360.000000;2.045314
4359.000000;2.047381
4358.000000;2.047703
4357.000000;2.047689
4356.000000;2.048741
4355.000000;2.051113
4354.000000;2.054123
4353.000000;2.056974
4352.000000;2.059379
4351.000000;2.061725
4350.000000;2.064591
4349.000000;2.067870
4348.000000;2.070568
4347.000000;2.071800
4346.000000;2.071791
4345.000000;2.071622
4344.000000;2.072273
4343.000000;2.074194
4342.000000;2.077540
4341.000000;2.082162
4340.000000;2.087202
4339.000000;2.091250
4338.000000;2.093230
4337.000000;2.093182
4336.000000;2.092399
4335.000000;2.092700
4334.000000;2.094931
4333.000000;2.097930
4332.000000;2.099509
4331.000000;2.099175
4330.000000;2.099248
4329.000000;2.102160
4328.000000;2.106975
4327.000000;2.109917
4326.000000;2.108868
4325.000000;2.106178
4324.000000;2.106011
4323.000000;2.110074
4322.000000;2.116731
4321.000000;2.123240
4320.000000;2.127764
4319.000000;2.129718
4318.000000;2.129588
4317.000000;2.128806
4316.000000;2.129080
4315.000000;2.131264
4314.000000;2.134872
4313.000000;2.138630
4312.000000;2.141244
4311.000000;2.141812
4310.000000;2.140262
4309.000000;2.137898
4308.000000;2.137206
4307.000000;2.140604
4306.000000;2.149002
4305.000000;2.160957
4304.000000;2.172830
4303.000000;2.180358
4302.000000;2.181342
4301.000000;2.177631
4300.000000;2.173590
4299.000000;2.171948
4298.000000;2.172027
4297.000000;2.172125
4296.000000;2.172695
4295.000000;2.175986
4294.000000;2.182501
4293.000000;2.189248
4292.000000;2.192701
4291.000000;2.192806
4290.000000;2.192355
4289.000000;2.193028
4288.000000;2.193962
4287.000000;2.194342
4286.000000;2.195633
4285.000000;2.199770
4284.000000;2.205861
4283.000000;2.210469
4282.000000;2.211829
4281.000000;2.212451
4280.000000;2.216283
4279.000000;2.223980
4278.000000;2.232068
4277.000000;2.237073
4276.000000;2.239427
4275.000000;2.241987
4274.000000;2.245633
4273.000000;2.248096
4272.000000;2.247161
4271.000000;2.243808
4270.000000;2.241318
4269.000000;2.242278
4268.000000;2.247141
4267.000000;2.254465
4266.000000;2.261656
4265.000000;2.266235
4264.000000;2.267703
4263.000000;2.268337
4262.000000;2.271049
4261.000000;2.276827
4260.000000;2.284846
4259.000000;2.293313
4258.000000;2.299779
4257.000000;2.301889
4256.000000;2.299171
4255.000000;2.294605
4254.000000;2.292519
4253.000000;2.294483
4252.000000;2.299170
4251.000000;2.305824
4250.000000;2.314919
4249.000000;2.325034
4248.000000;2.331947
4247.000000;2.332503
4246.000000;2.328783
4245.000000;2.326477
4244.000000;2.328599
4243.000000;2.333230
4242.000000;2.337909
4241.000000;2.342643
4240.000000;2.347588
4239.000000;2.351332
4238.000000;2.352909
4237.000000;2.353709
4236.000000;2.355956
4235.000000;2.360318
4234.000000;2.366275
4233.000000;2.373522
4232.000000;2.381278
4231.000000;2.387443
4230.000000;2.390312
4229.000000;2.391024
4228.000000;2.393247
4227.000000;2.399781
4226.000000;2.409533
4225.000000;2.418499
4224.000000;2.424137
4223.000000;2.428073
4222.000000;2.433580
4221.000000;2.440633
4220.000000;2.444844
4219.000000;2.442706
4218.000000;2.436041
4217.000000;2.429335
4216.000000;2.424964
4215.000000;2.422422
4214.000000;2.421987
4213.000000;2.427507
4212.000000;2.443306
4211.000000;2.468334
4210.000000;2.494251
4209.000000;2.509859
4208.000000;2.508134
4207.000000;2.491113
4206.000000;2.469990
4205.000000;2.458037
4204.000000;2.461452
4203.000000;2.475816
4202.000000;2.490790
4201.000000;2.500031
4200.000000;2.504313
4199.000000;2.506865
4198.000000;2.510291
4197.000000;2.515557
4196.000000;2.524228
4195.000000;2.536822
4194.000000;2.546885
4193.000000;2.545180
4192.000000;2.531774
4191.000000;2.516879
4190.000000;2.508708
4189.000000;2.507797
4188.000000;2.511759
4187.000000;2.517415
4186.000000;2.523071
4185.000000;2.529969
4184.000000;2.536158
4183.000000;2.537111
4182.000000;2.530345
4181.000000;2.517829
4180.000000;2.507127
4179.000000;2.505788
4178.000000;2.515175
4177.000000;2.532533
4176.000000;2.554387
4175.000000;2.572149
4174.000000;2.575985
4173.000000;2.568208
4172.000000;2.561380
4171.000000;2.564918
4170.000000;2.574832
4169.000000;2.577544
4168.000000;2.568550
4167.000000;2.559030
4166.000000;2.559325
4165.000000;2.566550
4164.000000;2.569400
4163.000000;2.562161
4162.000000;2.555386
4161.000000;2.562349
4160.000000;2.580930
4159.000000;2.604608
4158.000000;2.635766
4157.000000;2.670115
4156.000000;2.686505
4155.000000;2.673809
4154.000000;2.648172
4153.000000;2.624486
4152.000000;2.599395
4151.000000;2.567865
4150.000000;2.539469
4149.000000;2.531044
4148.000000;2.548936
4147.000000;2.579178
4146.000000;2.594085
4145.000000;2.581344
4144.000000;2.559868
4143.000000;2.553287
4142.000000;2.566382
4141.000000;2.588618
4140.000000;2.602792
4139.000000;2.594466
4138.000000;2.583670
4137.000000;2.595950
4136.000000;2.624289
4135.000000;2.645146
4134.000000;2.626371
4133.000000;2.575783
4132.000000;2.534710
4131.000000;2.519515
4130.000000;2.525833
4129.000000;2.534346
4128.000000;2.529120
4127.000000;2.519112
4126.000000;2.530043
4125.000000;2.577994
4124.000000;2.651814
4123.000000;2.717027
4122.000000;2.758403
4121.000000;2.801347
4120.000000;2.858013
4119.000000;2.894399
4118.000000;2.846714
4117.000000;2.749368
4116.000000;2.684391
4115.000000;2.653463
4114.000000;2.638155
4113.000000;2.632554
4112.000000;2.622807
4111.000000;2.603306
4110.000000;2.575257
4109.000000;2.537214
4108.000000;2.496933
4107.000000;2.469591
4106.000000;2.461109
4105.000000;2.463091
4104.000000;2.464252
4103.000000;2.461791
4102.000000;2.461858
4101.000000;2.471328
4100.000000;2.492330
4099.000000;2.521799
4098.000000;2.554085
4097.000000;2.590864
4096.000000;2.640523
4095.000000;2.696145
4094.000000;2.714142
4093.000000;2.660903
4092.000000;2.574153
4091.000000;2.499182
4090.000000;2.462846
4089.000000;2.476911
4088.000000;2.539033
4087.000000;2.640176
4086.000000;2.743971
4085.000000;2.763199
4084.000000;2.692305
4083.000000;2.633147
4082.000000;2.623755
4081.000000;2.633146
4080.000000;2.613936
4079.000000;2.573533
4078.000000;2.568006
4077.000000;2.640226
4076.000000;2.815776
4075.000000;3.036847
4074.000000;2.983870
4073.000000;2.766684
4072.000000;2.620214
4071.000000;2.561240
4070.000000;2.562083
4069.000000;2.573315
4068.000000;2.590982
4067.000000;2.636593
4066.000000;2.662254
4065.000000;2.647217
4064.000000;2.671520
4063.000000;2.677355
4062.000000;2.572109
4061.000000;2.455359
4060.000000;2.366055
4059.000000;2.306140
4058.000000;2.280280
4057.000000;2.273692
4056.000000;2.269015
4055.000000;2.275687
4054.000000;2.302964
4053.000000;2.340472
4052.000000;2.372615
4051.000000;2.386458
4050.000000;2.394966
4049.000000;2.417689
4048.000000;2.438342
4047.000000;2.422679
4046.000000;2.375633
4045.000000;2.340027
4044.000000;2.332677
4043.000000;2.344749
4042.000000;2.383523
4041.000000;2.482533
4040.000000;2.668473
4039.000000;2.826799
4038.000000;2.819987
4037.000000;2.792651
4036.000000;2.715640
4035.000000;2.580127
4034.000000;2.467277
4033.000000;2.408704
4032.000000;2.395800
4031.000000;2.397449
4030.000000;2.423960
4029.000000;2.539507
4028.000000;2.922627
4027.000000;3.536682
4026.000000;3.433206
4025.000000;3.092837
4024.000000;2.615683
4023.000000;2.480554
4022.000000;2.504173
4021.000000;2.671373
4020.000000;2.862366
4019.000000;2.895765
4018.000000;2.888660
4017.000000;2.876009
4016.000000;2.890876
4015.000000;3.011475
4014.000000;3.265198
4013.000000;3.143310
4012.000000;2.964435
4011.000000;3.043800
4010.000000;3.248359
4009.000000;2.987507
4008.000000;2.830838
4007.000000;3.032868
4006.000000;4.146168
4005.000000;2.966971
4004.000000;3.091801
4003.000000;3.458464
4002.000000;2.720524
4001.000000;2.501557
4000.000000;2.360320
3999.000000;2.266802
3998.000000;2.231543
3997.000000;2.253685
3996.000000;2.318302
3995.000000;2.373271
3994.000000;2.377384
3993.000000;2.367933
3992.000000;2.391709
3991.000000;2.454403
3990.000000;2.552193
3989.000000;2.649198
3988.000000;2.672055
3987.000000;2.668045
3986.000000;2.748933
3985.000000;2.973628
3984.000000;3.251193
3983.000000;3.143399
3982.000000;2.888895
3981.000000;2.680113
3980.000000;2.540715
3979.000000;2.469704
3978.000000;2.458323
3977.000000;2.480682
3976.000000;2.509584
3975.000000;2.556740
3974.000000;2.651728
3973.000000;2.778032
3972.000000;2.802576
3971.000000;2.763764
3970.000000;2.796300
3969.000000;2.814009
3968.000000;2.722562
3967.000000;2.599966
3966.000000;2.516904
3965.000000;2.498775
3964.000000;2.550729
3963.000000;2.633237
3962.000000;2.667419
3961.000000;2.677269
3960.000000;2.715097
3959.000000;2.713955
3958.000000;2.683736
3957.000000;2.766781
3956.000000;3.092746
3955.000000;3.355459
3954.000000;3.190384
3953.000000;3.312758
3952.000000;3.323817
3951.000000;3.290070
3950.000000;3.512239
3949.000000;3.273317
3948.000000;2.999450
3947.000000;2.973355
3946.000000;3.342055
3945.000000;3.449962
3944.000000;3.041608
3943.000000;3.250693
3942.000000;3.390761
3941.000000;3.078648
3940.000000;2.911033
3939.000000;2.862418
3938.000000;3.065169
3937.000000;3.420262
3936.000000;3.116578
3935.000000;2.945634
3934.000000;2.935358
3933.000000;3.007816
3932.000000;3.050541
3931.000000;2.982684
3930.000000;2.907398
3929.000000;2.997814
3928.000000;3.331068
3927.000000;3.064509
3926.000000;2.903548
3925.000000;3.047043
3924.000000;3.384173
3923.000000;3.407551
3922.000000;3.293663
3921.000000;3.644939
3920.000000;3.626291
3919.000000;3.202055
3918.000000;3.128119
3917.000000;3.106345
3916.000000;3.080480
3915.000000;3.031491
3914.000000;2.988731
3913.000000;2.937259
3912.000000;2.872742
3911.000000;2.913374
3910.000000;3.097584
3909.000000;3.144928
3908.000000;3.020728
3907.000000;2.992479
3906.000000;3.054898
3905.000000;3.188763
3904.000000;3.388655
3903.000000;3.366292
3902.000000;3.501321
3901.000000;3.839946
3900.000000;3.235857
3899.000000;3.061155
3898.000000;3.028753
3897.000000;2.968494
3896.000000;2.921054
3895.000000;2.972287
3894.000000;3.106846
3893.000000;3.016741
3892.000000;2.883662
3891.000000;2.875066
3890.000000;2.985788
3889.000000;3.115878
3888.000000;2.981896
3887.000000;2.861483
3886.000000;2.917537
3885.000000;3.006751
3884.000000;3.034025
3883.000000;2.978211
3882.000000;2.913232
3881.000000;2.915321
3880.000000;2.990220
3879.000000;3.052269
3878.000000;3.256032
3877.000000;3.384637
3876.000000;3.029617
3875.000000;3.083498
3874.000000;3.563206
3873.000000;3.725969
3872.000000;3.352282
3871.000000;3.188241
3870.000000;3.238263
3869.000000;3.352683
3868.000000;3.417056
3867.000000;3.409242
3866.000000;3.489390
3865.000000;3.598730
3864.000000;3.670368
3863.000000;3.766821
3862.000000;3.658308
3861.000000;3.356729
3860.000000;3.100202
3859.000000;2.975016
3858.000000;2.943364
3857.000000;3.011201
3856.000000;3.157801
3855.000000;3.244321
3854.000000;3.389767
3853.000000;3.739534
3852.000000;4.099820
3851.000000;4.066081
3850.000000;3.813805
3849.000000;3.709071
3848.000000;3.770244
3847.000000;3.939780
3846.000000;4.184484
3845.000000;3.798240
3844.000000;3.309309
3843.000000;3.045345
3842.000000;2.968470
3841.000000;3.087155
3840.000000;3.379756
3839.000000;3.459442
3838.000000;3.463774
3837.000000;3.815798
3836.000000;3.955868
3835.000000;3.665505
3834.000000;3.655785
3833.000000;3.811290
3832.000000;3.702350
3831.000000;3.502607
3830.000000;3.306378
3829.000000;3.073187
3828.000000;2.941199
3827.000000;2.983733
3826.000000;3.153840
3825.000000;3.275559
3824.000000;3.218461
3823.000000;3.030969
3822.000000;2.932195
3821.000000;3.058624
3820.000000;3.297672
3819.000000;3.656298
3818.000000;4.441413
3817.000000;3.557025
3816.000000;3.406165
3815.000000;3.480082
3814.000000;3.443755
3813.000000;3.365520
3812.000000;3.307606
3811.000000;3.288684
3810.000000;3.180694
3809.000000;3.035552
3808.000000;2.972650
3807.000000;3.068979
3806.000000;3.215334
3805.000000;3.213113
3804.000000;3.070798
3803.000000;2.947373
3802.000000;2.971705
3801.000000;3.100924
3800.000000;3.199344
3799.000000;3.209846
3798.000000;3.255923
3797.000000;3.513698
3796.000000;3.772506
3795.000000;3.574591
3794.000000;3.701493
3793.000000;4.034331
3792.000000;3.621383
3791.000000;3.649962
3790.000000;3.988496
3789.000000;3.695392
3788.000000;3.172722
3787.000000;2.905923
3786.000000;2.798130
3785.000000;2.780379
3784.000000;2.808264
3783.000000;2.799863
3782.000000;2.766475
3781.000000;2.776243
3780.000000;2.886905
3779.000000;3.078378
3778.000000;3.333834
3777.000000;3.537625
3776.000000;3.190334
3775.000000;2.941528
3774.000000;2.936202
3773.000000;3.058831
3772.000000;3.298375
3771.000000;3.579850
3770.000000;3.436719
3769.000000;3.271605
3768.000000;3.203943
3767.000000;3.240766
3766.000000;3.483889
3765.000000;3.818855
3764.000000;3.859801
3763.000000;3.622331
3762.000000;3.331814
3761.000000;3.193976
3760.000000;3.225968
3759.000000;3.325532
3758.000000;3.364114
3757.000000;3.454525
3756.000000;3.448621
3755.000000;3.204190
3754.000000;3.117986
3753.000000;3.303805
3752.000000;3.718347
3751.000000;3.796089
3750.000000;3.733656
3749.000000;3.785053
3748.000000;3.858100
3747.000000;4.184343
3746.000000;4.098804
3745.000000;3.979649
3744.000000;4.310841
3743.000000;4.414335
3742.000000;3.865520
3741.000000;3.497686
3740.000000;3.414441
3739.000000;3.704369
3738.000000;4.117195
3737.000000;3.398687
3736.000000;3.189263
3735.000000;3.260793
3734.000000;3.491241
3733.000000;3.944780
3732.000000;3.972978
3731.000000;3.687318
3730.000000;3.476233
3729.000000;3.372989
3728.000000;3.398099
3727.000000;3.479581
3726.000000;3.451322
3725.000000;3.260450
3724.000000;3.002198
3723.000000;2.808616
3722.000000;2.745786
3721.000000;2.802996
3720.000000;2.872223
3719.000000;2.825433
3718.000000;2.788833
3717.000000;2.832309
3716.000000;2.820699
3715.000000;2.751842
3714.000000;2.745116
3713.000000;2.869311
3712.000000;3.130234
3711.000000;3.599886
3710.000000;4.285184
3709.000000;3.661335
3708.000000;3.662158
3707.000000;3.959275
3706.000000;3.528784
3705.000000;3.150723
3704.000000;2.952094
3703.000000;2.874517
3702.000000;2.905472
3701.000000;3.066745
3700.000000;3.102504
3699.000000;2.838422
3698.000000;2.679365
3697.000000;2.682654
3696.000000;2.791102
3695.000000;2.921621
3694.000000;3.040864
3693.000000;3.154554
3692.000000;3.285940
3691.000000;3.490479
3690.000000;3.286136
3689.000000;3.068968
3688.000000;3.040087
3687.000000;3.155861
3686.000000;3.555582
3685.000000;3.530258
3684.000000;3.166991
3683.000000;3.110740
3682.000000;3.166229
3681.000000;3.285961
3680.000000;3.534449
3679.000000;3.579668
3678.000000;3.257981
3677.000000;3.068461
3676.000000;3.083755
3675.000000;3.284437
3674.000000;3.625272
3673.000000;3.975995
3672.000000;3.784208
3671.000000;3.772770
3670.000000;4.135339
3669.000000;4.245917
3668.000000;4.427490
3667.000000;4.549031
3666.000000;4.095223
3665.000000;4.168506
3664.000000;4.252194
3663.000000;3.959854
3662.000000;3.798132
3661.000000;3.411889
3660.000000;3.118456
3659.000000;2.996352
3658.000000;3.101338
3657.000000;3.243028
3656.000000;3.135115
3655.000000;3.092062
3654.000000;3.119673
3653.000000;3.133668
3652.000000;3.076036
3651.000000;3.098204
3650.000000;3.278459
3649.000000;3.483731
3648.000000;3.563667
3647.000000;3.519316
3646.000000;3.601889
3645.000000;3.671012
3644.000000;3.420569
3643.000000;3.241409
3642.000000;3.198436
3641.000000;3.251232
3640.000000;3.277279
3639.000000;3.026951
3638.000000;2.830036
3637.000000;2.825185
3636.000000;2.958329
3635.000000;3.372237
3634.000000;3.738470
3633.000000;3.422200
3632.000000;3.618075
3631.000000;3.289285
3630.000000;3.084898
3629.000000;3.252024
3628.000000;3.441600
3627.000000;3.387809
3626.000000;3.183728
3625.000000;3.125026
3624.000000;3.207301
3623.000000;3.191594
3622.000000;3.163755
3621.000000;3.180191
3620.000000;3.059062
3619.000000;2.967559
3618.000000;2.991556
3617.000000;3.208462
3616.000000;3.654066
3615.000000;3.343565
3614.000000;3.256934
3613.000000;3.358396
3612.000000;3.239320
3611.000000;3.122299
3610.000000;3.155162
3609.000000;3.449352
3608.000000;3.543751
3607.000000;3.327302
3606.000000;3.210705
3605.000000;3.176410
3604.000000;3.136683
3603.000000;3.028171
3602.000000;3.016921
3601.000000;3.144597
3600.000000;3.263772
3599.000000;3.123720
3598.000000;2.937458
3597.000000;2.859165
3596.000000;2.862574
3595.000000;2.898723
3594.000000;2.940400
3593.000000;2.977259
3592.000000;2.929503
3591.000000;2.806552
3590.000000;2.722363
3589.000000;2.728527
3588.000000;2.823874
3587.000000;2.976507
3586.000000;3.105866
3585.000000;3.085609
3584.000000;3.003519
3583.000000;2.931600
3582.000000;2.912912
3581.000000;2.955227
3580.000000;3.019288
3579.000000;3.097797
3578.000000;3.324101
3577.000000;3.507026
3576.000000;3.147282
3575.000000;2.962561
3574.000000;2.895258
3573.000000;2.896303
3572.000000;3.001036
3571.000000;3.065998
3570.000000;2.952528
3569.000000;2.866564
3568.000000;2.858412
3567.000000;2.858474
3566.000000;2.832324
3565.000000;2.762803
3564.000000;2.715177
3563.000000;2.807396
3562.000000;2.932255
3561.000000;2.928136
3560.000000;2.899925
3559.000000;2.872276
3558.000000;2.909048
3557.000000;3.049413
3556.000000;3.214131
3555.000000;3.272434
3554.000000;3.231318
3553.000000;3.119665
3552.000000;3.057711
3551.000000;3.057966
3550.000000;3.270553
3549.000000;3.935335
3548.000000;3.367702
3547.000000;3.182581
3546.000000;3.247896
3545.000000;3.299568
3544.000000;3.412551
3543.000000;3.577912
3542.000000;3.390426
3541.000000;3.291863
3540.000000;3.318788
3539.000000;3.171644
3538.000000;3.049224
3537.000000;3.023420
3536.000000;3.111696
3535.000000;3.446546
3534.000000;3.579792
3533.000000;3.153372
3532.000000;3.007173
3531.000000;3.023650
3530.000000;3.145531
3529.000000;3.468712
3528.000000;3.245231
3527.000000;2.972161
3526.000000;2.959247
3525.000000;3.230251
3524.000000;4.130972
3523.000000;3.744193
3522.000000;3.239757
3521.000000;2.912871
3520.000000;2.782308
3519.000000;2.871653
3518.000000;3.180688
3517.000000;3.229911
3516.000000;3.057489
3515.000000;3.140123
3514.000000;3.572307
3513.000000;3.891971
3512.000000;3.445920
3511.000000;3.214109
3510.000000;2.905521
3509.000000;2.725047
3508.000000;2.681491
3507.000000;2.769741
3506.000000;2.930589
3505.000000;2.936082
3504.000000;2.887435
3503.000000;2.817361
3502.000000;2.740029
3501.000000;2.734058
3500.000000;2.853902
3499.000000;3.173063
3498.000000;3.138750
3497.000000;2.908844
3496.000000;2.904210
3495.000000;3.046773
3494.000000;3.166073
3493.000000;3.033837
3492.000000;2.842602
3491.000000;2.763429
3490.000000;2.830171
3489.000000;3.095661
3488.000000;3.480948
3487.000000;3.401827
3486.000000;3.376781
3485.000000;3.604335
3484.000000;3.711830
3483.000000;3.385588
3482.000000;3.076512
3481.000000;2.864436
3480.000000;2.764677
3479.000000;2.797861
3478.000000;2.995650
3477.000000;3.498949
3476.000000;3.926110
3475.000000;3.599737
3474.000000;3.553108
3473.000000;3.568596
3472.000000;3.445714
3471.000000;3.294870
3470.000000;3.201864
3469.000000;3.073520
3468.000000;2.915835
3467.000000;2.780711
3466.000000;2.678471
3465.000000;2.629454
3464.000000;2.654378
3463.000000;2.746227
3462.000000;2.868267
3461.000000;2.977423
3460.000000;3.031428
3459.000000;3.077469
3458.000000;3.078289
3457.000000;2.981360
3456.000000;2.931522
3455.000000;2.918046
3454.000000;2.868132
3453.000000;2.829878
3452.000000;2.867367
3451.000000;2.990515
3450.000000;3.088496
3449.000000;3.012815
3448.000000;2.949955
3447.000000;3.007286
3446.000000;3.201116
3445.000000;3.431346
3444.000000;3.259274
3443.000000;3.131675
3442.000000;3.132985
3441.000000;3.248770
3440.000000;3.470888
3439.000000;3.440241
3438.000000;3.365409
3437.000000;3.283429
3436.000000;3.041157
3435.000000;2.814365
3434.000000;2.682484
3433.000000;2.628737
3432.000000;2.638692
3431.000000;2.739879
3430.000000;2.989840
3429.000000;3.590833
3428.000000;4.138863
3427.000000;3.614203
3426.000000;3.430656
3425.000000;3.272508
3424.000000;3.308258
3423.000000;3.778517
3422.000000;3.179706
3421.000000;2.881005
3420.000000;2.854682
3419.000000;2.984213
3418.000000;3.347545
3417.000000;3.580552
3416.000000;3.245249
3415.000000;3.099497
3414.000000;3.055493
3413.000000;3.060329
3412.000000;3.277557
3411.000000;3.796186
3410.000000;3.236794
3409.000000;3.073786
3408.000000;3.286970
3407.000000;3.352622
3406.000000;2.993366
3405.000000;2.903643
3404.000000;2.953050
3403.000000;3.071633
3402.000000;3.154866
3401.000000;3.217111
3400.000000;3.348764
3399.000000;3.235467
3398.000000;3.012057
3397.000000;2.858981
3396.000000;2.792592
3395.000000;2.845553
3394.000000;3.081774
3393.000000;3.693094
3392.000000;3.326725
3391.000000;3.283279
3390.000000;3.520943
3389.000000;3.194252
3388.000000;3.078806
3387.000000;3.064861
3386.000000;2.961194
3385.000000;2.882950
3384.000000;2.878746
3383.000000;2.849768
3382.000000;2.806581
3381.000000;2.865634
3380.000000;3.136085
3379.000000;3.348280
3378.000000;3.112183
3377.000000;3.062455
3376.000000;3.229187
3375.000000;3.347702
3374.000000;3.230809
3373.000000;3.601797
3372.000000;3.484853
3371.000000;3.088852
3370.000000;3.022288
3369.000000;3.087023
3368.000000;3.317041
3367.000000;3.282327
3366.000000;3.106147
3365.000000;3.099020
3364.000000;3.152109
3363.000000;3.159276
3362.000000;3.311352
3361.000000;3.622976
3360.000000;3.259173
3359.000000;3.115393
3358.000000;3.324839
3357.000000;3.894027
3356.000000;3.114512
3355.000000;2.933208
3354.000000;3.000306
3353.000000;3.363675
3352.000000;3.249959
3351.000000;2.880967
3350.000000;2.766399
3349.000000;2.787428
3348.000000;3.004908
3347.000000;3.228876
3346.000000;3.011788
3345.000000;2.853493
3344.000000;2.874295
3343.000000;3.113702
3342.000000;3.298121
3341.000000;3.105488
3340.000000;3.007221
3339.000000;2.966282
3338.000000;3.000817
3337.000000;3.120353
3336.000000;3.109407
3335.000000;3.068601
3334.000000;3.153104
3333.000000;3.244625
3332.000000;3.315015
3331.000000;3.338969
3330.000000;3.133677
3329.000000;2.948650
3328.000000;2.830730
3327.000000;2.771335
3326.000000;2.761479
3325.000000;2.772042
3324.000000;2.736442
3323.000000;2.634971
3322.000000;2.554744
3321.000000;2.555684
3320.000000;2.649503
3319.000000;2.828429
3318.000000;3.051430
3317.000000;3.272494
3316.000000;3.374285
3315.000000;3.393571
3314.000000;3.558540
3313.000000;3.379664
3312.000000;3.188051
3311.000000;3.134986
3310.000000;3.089478
3309.000000;3.001260
3308.000000;2.937773
3307.000000;2.967507
3306.000000;3.096414
3305.000000;3.126700
3304.000000;3.064718
3303.000000;3.146744
3302.000000;3.371823
3301.000000;3.501734
3300.000000;3.428572
3299.000000;3.690168
3298.000000;3.672727
3297.000000;3.258870
3296.000000;3.245848
3295.000000;3.468804
3294.000000;3.453569
3293.000000;3.268529
3292.000000;3.248357
3291.000000;3.357431
3290.000000;3.463989
3289.000000;3.580552
3288.000000;4.004477
3287.000000;3.433314
3286.000000;3.221162
3285.000000;3.233524
3284.000000;3.593703
3283.000000;3.551110
3282.000000;3.155038
3281.000000;3.042361
3280.000000;2.984469
3279.000000;3.016201
3278.000000;3.191186
3277.000000;3.260921
3276.000000;3.268033
3275.000000;3.642893
3274.000000;3.971004
3273.000000;3.734303
3272.000000;3.821942
3271.000000;3.640933
3270.000000;3.697941
3269.000000;3.991795
3268.000000;3.361215
3267.000000;2.897366
3266.000000;2.674762
3265.000000;2.587741
3264.000000;2.618973
3263.000000;2.740091
3262.000000;2.905196
3261.000000;3.128310
3260.000000;3.205476
3259.000000;2.965488
3258.000000;2.853712
3257.000000;2.845545
3256.000000;2.829499
3255.000000;2.824900
3254.000000;2.898008
3253.000000;3.038516
3252.000000;3.137667
3251.000000;3.061386
3250.000000;2.897871
3249.000000;2.785896
3248.000000;2.777265
3247.000000;2.862575
3246.000000;2.957209
3245.000000;3.072608
3244.000000;3.322857
3243.000000;3.140639
3242.000000;2.871050
3241.000000;2.853390
3240.000000;2.955478
3239.000000;3.635100
3238.000000;3.459891
3237.000000;2.961469
3236.000000;2.820962
3235.000000;2.753057
3234.000000;2.763839
3233.000000;2.807454
3232.000000;2.859528
3231.000000;2.902509
3230.000000;2.950847
3229.000000;3.049630
3228.000000;3.295081
3227.000000;3.279402
3226.000000;2.999330
3225.000000;2.899945
3224.000000;2.909638
3223.000000;2.975520
3222.000000;2.955098
3221.000000;2.846280
3220.000000;2.796383
3219.000000;2.929286
3218.000000;3.175626
3217.000000;2.979596
3216.000000;2.874035
3215.000000;3.045387
3214.000000;3.191572
3213.000000;3.100941
3212.000000;3.107816
3211.000000;3.113896
3210.000000;3.054344
3209.000000;3.065936
3208.000000;3.186147
3207.000000;3.506779
3206.000000;3.115936
3205.000000;2.860079
3204.000000;2.835159
3203.000000;3.007422
3202.000000;3.422959
3201.000000;3.047766
3200.000000;2.820794
3199.000000;2.733167
3198.000000;2.738756
3197.000000;2.809700
3196.000000;2.949115
3195.000000;3.261426
3194.000000;3.893007
3193.000000;3.613347
3192.000000;3.470524
3191.000000;3.309978
3190.000000;3.184811
3189.000000;3.138693
3188.000000;3.019165
3187.000000;2.888661
3186.000000;2.840545
3185.000000;2.857981
3184.000000;2.898882
3183.000000;2.922370
3182.000000;2.922422
3181.000000;2.911586
3180.000000;2.910987
3179.000000;2.964548
3178.000000;3.012827
3177.000000;2.953113
3176.000000;2.915986
3175.000000;2.966763
3174.000000;3.129375
3173.000000;3.548560
3172.000000;3.470318
3171.000000;3.115940
3170.000000;3.025809
3169.000000;3.041983
3168.000000;3.038807
3167.000000;2.968050
3166.000000;2.936148
3165.000000;3.216834
3164.000000;3.642055
3163.000000;3.118009
3162.000000;3.080029
3161.000000;3.264422
3160.000000;3.790078
3159.000000;3.511808
3158.000000;3.244398
3157.000000;3.310370
3156.000000;3.823103
3155.000000;3.410200
3154.000000;3.178895
3153.000000;3.480251
3152.000000;3.343413
3151.000000;2.896646
3150.000000;2.711336
3149.000000;2.681288
3148.000000;2.786508
3147.000000;3.037817
3146.000000;3.370278
3145.000000;3.462846
3144.000000;3.336814
3143.000000;3.188354
3142.000000;3.093106
3141.000000;3.042014
3140.000000;3.049710
3139.000000;3.075473
3138.000000;3.066761
3137.000000;3.081587
3136.000000;3.163245
3135.000000;3.189721
3134.000000;3.174277
3133.000000;3.283285
3132.000000;3.449328
3131.000000;3.280707
3130.000000;3.098544
3129.000000;3.093422
3128.000000;3.078323
3127.000000;2.982243
3126.000000;2.982448
3125.000000;3.134751
3124.000000;3.419086
3123.000000;3.583194
3122.000000;3.514611
3121.000000;3.396693
3120.000000;3.239871
3119.000000;3.072525
3118.000000;2.938962
3117.000000;2.878401
3116.000000;2.910605
3115.000000;3.116026
3114.000000;3.618831
3113.000000;3.464512
3112.000000;3.409364
3111.000000;3.824799
3110.000000;3.638758
3109.000000;3.467542
3108.000000;3.463759
3107.000000;3.291598
3106.000000;3.169049
3105.000000;3.147228
3104.000000;3.233973
3103.000000;3.429387
3102.000000;3.587001
3101.000000;3.370704
3100.000000;3.154157
3099.000000;3.094569
3098.000000;3.190450
3097.000000;3.467919
3096.000000;3.904631
3095.000000;4.483780
3094.000000;4.124291
3093.000000;3.898816
3092.000000;3.618392
3091.000000;3.180175
3090.000000;2.982551
3089.000000;2.933822
3088.000000;2.996348
3087.000000;3.134271
3086.000000;3.447410
3085.000000;3.622125
3084.000000;3.163957
3083.000000;2.989057
3082.000000;2.939687
3081.000000;2.908347
3080.000000;2.860869
3079.000000;2.892076
3078.000000;3.025520
3077.000000;3.192464
3076.000000;3.163981
3075.000000;2.980920
3074.000000;2.872488
3073.000000;2.903028
3072.000000;3.097598
3071.000000;3.242318
3070.000000;3.237358
3069.000000;3.363898
3068.000000;4.795546
3067.000000;3.212491
3066.000000;2.893622
3065.000000;2.808672
3064.000000;2.871394
3063.000000;2.946963
3062.000000;2.909696
3061.000000;2.877248
3060.000000;2.872972
3059.000000;2.893578
3058.000000;2.954245
3057.000000;3.041113
3056.000000;3.100920
3055.000000;3.087498
3054.000000;3.091474
3053.000000;3.322767
3052.000000;3.742812
3051.000000;3.646725
3050.000000;3.824788
3049.000000;3.590137
3048.000000;3.212567
3047.000000;3.011435
3046.000000;2.889858
3045.000000;2.847748
3044.000000;2.879970
3043.000000;2.917332
3042.000000;2.876595
3041.000000;2.864992
3040.000000;2.999269
3039.000000;3.182878
3038.000000;2.966943
3037.000000;2.830345
3036.000000;2.823975
3035.000000;2.917469
3034.000000;3.110685
3033.000000;3.279666
3032.000000;3.258435
3031.000000;3.129742
3030.000000;2.987986
3029.000000;2.923730
3028.000000;2.876916
3027.000000;2.826329
3026.000000;2.820766
3025.000000;2.884981
3024.000000;2.987034
3023.000000;3.047818
3022.000000;3.094866
3021.000000;3.146488
3020.000000;2.988812
3019.000000;2.789696
3018.000000;2.697086
3017.000000;2.717775
3016.000000;2.838062
3015.000000;2.982220
3014.000000;3.144845
3013.000000;3.182218
3012.000000;3.025358
3011.000000;3.213798
3010.000000;3.502998
3009.000000;2.944209
3008.000000;2.859932
3007.000000;2.927099
3006.000000;2.999469
3005.000000;3.093128
3004.000000;3.373534
3003.000000;3.299043
3002.000000;3.160181
3001.000000;3.336059
3000.000000;3.584554
2999.000000;3.429640
2998.000000;3.112628
2997.000000;2.948969
2996.000000;2.908006
2995.000000;2.959975
2994.000000;3.037765
2993.000000;2.982967
2992.000000;2.897037
2991.000000;2.865052
2990.000000;2.835208
2989.000000;2.787690
2988.000000;2.766230
2987.000000;2.812628
2986.000000;2.913394
2985.000000;2.977808
2984.000000;2.928404
2983.000000;2.829726
2982.000000;2.769087
2981.000000;2.778128
2980.000000;2.917464
2979.000000;3.314692
2978.000000;3.295957
2977.000000;3.068982
2976.000000;3.207309
2975.000000;3.235165
2974.000000;3.185954
2973.000000;3.237592
2972.000000;3.370886
2971.000000;3.667594
2970.000000;3.633572
2969.000000;3.229558
2968.000000;2.984253
2967.000000;2.918471
2966.000000;2.988939
2965.000000;3.269423
2964.000000;3.377286
2963.000000;2.951955
2962.000000;2.759624
2961.000000;2.722248
2960.000000;2.763920
2959.000000;2.859196
2958.000000;2.997437
2957.000000;3.297414
2956.000000;3.503784
2955.000000;3.117737
2954.000000;3.019261
2953.000000;2.967425
2952.000000;2.928664
2951.000000;2.946172
2950.000000;3.067419
2949.000000;3.182961
2948.000000;2.987873
2947.000000;2.801519
2946.000000;2.718944
2945.000000;2.714718
2944.000000;2.762987
2943.000000;2.853718
2942.000000;3.034266
2941.000000;3.159260
2940.000000;3.090710
2939.000000;3.086255
2938.000000;3.108696
2937.000000;3.043460
2936.000000;3.016527
2935.000000;3.007837
2934.000000;2.928647
2933.000000;2.895801
2932.000000;2.971280
2931.000000;3.150793
2930.000000;3.459378
2929.000000;3.452272
2928.000000;3.160265
2927.000000;3.061008
2926.000000;3.050154
2925.000000;3.037814
2924.000000;3.061368
2923.000000;3.309276
2922.000000;3.341495
2921.000000;3.006920
2920.000000;2.948632
2919.000000;3.051877
2918.000000;3.119765
2917.000000;3.022619
2916.000000;2.890188
2915.000000;2.769255
2914.000000;2.694407
2913.000000;2.683554
2912.000000;2.726862
2911.000000;2.820864
2910.000000;2.967187
2909.000000;3.146380
2908.000000;3.260001
2907.000000;3.236152
2906.000000;3.163235
2905.000000;3.194776
2904.000000;3.207023
2903.000000;3.013392
2902.000000;2.926712
2901.000000;2.985748
2900.000000;3.320681
2899.000000;3.900369
2898.000000;3.181026
2897.000000;2.938208
2896.000000;2.886353
2895.000000;3.030528
2894.000000;3.366476
2893.000000;3.430486
2892.000000;3.442230
2891.000000;3.526551
2890.000000;3.351009
2889.000000;3.154873
2888.000000;3.009158
2887.000000;2.914038
2886.000000;2.899529
2885.000000;2.964832
2884.000000;3.137163
2883.000000;3.565517
2882.000000;3.364314
2881.000000;2.926043
2880.000000;2.690376
2879.000000;2.572720
2878.000000;2.549239
2877.000000;2.594785
2876.000000;2.695270
2875.000000;2.839738
2874.000000;2.950052
2873.000000;2.906368
2872.000000;2.768543
2871.000000;2.656693
2870.000000;2.634618
2869.000000;2.715396
2868.000000;2.888070
2867.000000;3.132351
2866.000000;3.424001
2865.000000;3.728736
2864.000000;3.896703
2863.000000;3.546957
2862.000000;3.178965
2861.000000;2.973596
2860.000000;2.921792
2859.000000;3.011316
2858.000000;3.028663
2857.000000;2.917339
2856.000000;2.920051
2855.000000;3.078805
2854.000000;3.156783
2853.000000;3.031311
2852.000000;2.879500
2851.000000;2.752597
2850.000000;2.739547
2849.000000;2.898598
2848.000000;3.360369
2847.000000;3.510439
2846.000000;3.072324
2845.000000;2.965818
2844.000000;2.942022
2843.000000;2.968635
2842.000000;2.982739
2841.000000;2.949495
2840.000000;2.943146
2839.000000;2.987665
2838.000000;3.368011
2837.000000;3.506723
2836.000000;2.935976
2835.000000;2.734732
2834.000000;2.702624
2833.000000;2.800056
2832.000000;2.983506
2831.000000;3.116634
2830.000000;3.097770
2829.000000;3.066705
2828.000000;3.155271
2827.000000;3.058137
2826.000000;2.869090
2825.000000;2.831588
2824.000000;2.915573
2823.000000;3.030120
2822.000000;3.034183
2821.000000;2.945717
2820.000000;2.900629
2819.000000;2.964984
2818.000000;3.222848
2817.000000;3.385986
2816.000000;3.159983
2815.000000;3.121407
2814.000000;3.252303
2813.000000;3.404096
2812.000000;3.377345
2811.000000;3.318586
2810.000000;3.251337
2809.000000;3.048231
2808.000000;2.863525
2807.000000;2.783638
2806.000000;2.815054
2805.000000;2.929202
2804.000000;3.091833
2803.000000;3.200854
2802.000000;3.043969
2801.000000;2.843252
2800.000000;2.742551
2799.000000;2.753972
2798.000000;2.880280
2797.000000;3.176964
2796.000000;3.454818
2795.000000;3.215146
2794.000000;3.099168
2793.000000;3.127777
2792.000000;3.161916
2791.000000;3.017308
2790.000000;2.877610
2789.000000;2.896267
2788.000000;3.134701
2787.000000;3.542363
2786.000000;3.512307
2785.000000;3.386430
2784.000000;3.163016
2783.000000;3.028722
2782.000000;3.012352
2781.000000;3.116002
2780.000000;3.601219
2779.000000;3.572509
2778.000000;3.207654
2777.000000;3.244662
2776.000000;3.342321
2775.000000;3.064781
2774.000000;2.839874
2773.000000;2.782467
2772.000000;2.881817
2771.000000;3.056061
2770.000000;3.078264
2769.000000;3.022430
2768.000000;3.219142
2767.000000;3.624248
2766.000000;3.076503
2765.000000;2.845992
2764.000000;2.822026
2763.000000;2.880535
2762.000000;2.961766
2761.000000;2.992790
2760.000000;3.055097
2759.000000;3.092323
2758.000000;3.071361
2757.000000;3.128839
2756.000000;3.379289
2755.000000;3.263900
2754.000000;3.177318
2753.000000;3.672495
2752.000000;3.331869
2751.000000;2.972619
2750.000000;2.927073
2749.000000;2.940656
2748.000000;2.946286
2747.000000;2.915208
2746.000000;2.896204
2745.000000;2.907870
2744.000000;2.957990
2743.000000;3.029301
2742.000000;3.055861
2741.000000;3.005007
2740.000000;2.923827
2739.000000;2.837273
2738.000000;2.747794
2737.000000;2.683793
2736.000000;2.656553
2735.000000;2.646209
2734.000000;2.650435
2733.000000;2.665964
2732.000000;2.684484
2731.000000;2.739949
2730.000000;2.895099
2729.000000;3.130670
2728.000000;3.152035
2727.000000;3.070456
2726.000000;3.095366
2725.000000;3.152056
2724.000000;3.182548
2723.000000;3.290086
2722.000000;3.344617
2721.000000;3.084866
2720.000000;2.921156
2719.000000;2.946577
2718.000000;3.112870
2717.000000;3.111929
2716.000000;3.008355
2715.000000;3.051447
2714.000000;3.422091
2713.000000;3.736259
2712.000000;3.112417
2711.000000;2.921028
2710.000000;2.820157
2709.000000;2.767755
2708.000000;2.802321
2707.000000;2.941086
2706.000000;3.291652
2705.000000;3.470064
2704.000000;3.285799
2703.000000;3.258887
2702.000000;3.226879
2701.000000;3.225829
2700.000000;3.339881
2699.000000;3.614832
2698.000000;4.524698
2697.000000;3.682496
2696.000000;3.231099
2695.000000;3.096744
2694.000000;3.101098
2693.000000;3.220175
2692.000000;3.323291
2691.000000;3.371093
2690.000000;3.385890
2689.000000;3.184288
2688.000000;3.017070
2687.000000;3.041638
2686.000000;3.233733
2685.000000;3.378022
2684.000000;3.322442
2683.000000;3.218018
2682.000000;3.098171
2681.000000;3.006405
2680.000000;2.993886
2679.000000;3.062343
2678.000000;3.053915
2677.000000;2.993743
2676.000000;3.189897
2675.000000;3.664586
2674.000000;3.273678
2673.000000;3.015250
2672.000000;2.998073
2671.000000;3.040975
2670.000000;2.988245
2669.000000;2.858552
2668.000000;2.778820
2667.000000;2.756698
2666.000000;2.796707
2665.000000;2.894125
2664.000000;2.974288
2663.000000;2.956058
2662.000000;2.890804
2661.000000;2.857912
2660.000000;2.904565
2659.000000;3.073332
2658.000000;3.500569
2657.000000;3.734208
2656.000000;3.349389
2655.000000;3.282110
2654.000000;3.509149
2653.000000;3.849040
2652.000000;3.561619
2651.000000;3.491373
2650.000000;3.529660
2649.000000;3.252298
2648.000000;3.141536
2647.000000;3.203438
2646.000000;2.979571
2645.000000;2.744124
2644.000000;2.654255
2643.000000;2.635371
2642.000000;2.699882
2641.000000;2.898684
2640.000000;3.139324
2639.000000;3.132318
2638.000000;3.156361
2637.000000;3.218373
2636.000000;3.083699
2635.000000;3.009305
2634.000000;3.032514
2633.000000;3.053707
2632.000000;3.121508
2631.000000;3.320677
2630.000000;3.486316
2629.000000;3.598372
2628.000000;3.754100
2627.000000;3.329340
2626.000000;2.997703
2625.000000;2.830757
2624.000000;2.748849
2623.000000;2.746523
2622.000000;2.813868
2621.000000;2.915047
2620.000000;2.963614
2619.000000;2.914099
2618.000000;2.830797
2617.000000;2.775416
2616.000000;2.794378
2615.000000;2.896894
2614.000000;3.031599
2613.000000;3.153396
2612.000000;3.122274
2611.000000;2.972615
2610.000000;2.909515
2609.000000;2.929887
2608.000000;2.947487
2607.000000;2.934149
2606.000000;3.026486
2605.000000;3.440127
2604.000000;3.424488
2603.000000;3.064535
2602.000000;3.036621
2601.000000;3.219750
2600.000000;3.469990
2599.000000;3.134949
2598.000000;2.883866
2597.000000;2.833026
2596.000000;2.874041
2595.000000;2.944903
2594.000000;2.947272
2593.000000;2.908623
2592.000000;2.893071
2591.000000;2.926045
2590.000000;3.012482
2589.000000;3.133801
2588.000000;3.223574
2587.000000;3.195806
2586.000000;3.347694
2585.000000;3.372552
2584.000000;2.891662
2583.000000;2.666363
2582.000000;2.614320
2581.000000;2.671167
2580.000000;2.803432
2579.000000;2.931583
2578.000000;3.029293
2577.000000;3.112300
2576.000000;3.173474
2575.000000;3.142397
2574.000000;3.161545
2573.000000;3.271739
2572.000000;3.187094
2571.000000;3.087002
2570.000000;3.157836
2569.000000;3.151680
2568.000000;3.015542
2567.000000;2.925845
2566.000000;2.834398
2565.000000;2.759794
2564.000000;2.767523
2563.000000;2.887130
2562.000000;3.055616
2561.000000;3.051232
2560.000000;2.973215
2559.000000;2.988638
2558.000000;3.129969
2557.000000;3.365910
2556.000000;3.528960
2555.000000;3.555606
2554.000000;3.329937
2553.000000;3.057834
2552.000000;2.929893
2551.000000;2.973431
2550.000000;3.179448
2549.000000;3.377250
2548.000000;3.446265
2547.000000;3.380404
2546.000000;3.171227
2545.000000;3.019345
2544.000000;3.008360
2543.000000;3.167633
2542.000000;3.182993
2541.000000;3.032756
2540.000000;3.034144
2539.000000;3.115120
2538.000000;3.186636
2537.000000;3.213757
2536.000000;3.024027
2535.000000;2.775888
2534.000000;2.655870
2533.000000;2.672602
2532.000000;2.795497
2531.000000;2.942541
2530.000000;2.945580
2529.000000;2.808983
2528.000000;2.700594
2527.000000;2.667992
2526.000000;2.685350
2525.000000;2.723480
2524.000000;2.762958
2523.000000;2.819607
2522.000000;2.958697
2521.000000;3.214352
2520.000000;3.460137
2519.000000;3.435071
2518.000000;3.172489
2517.000000;2.965399
2516.000000;2.842040
2515.000000;2.786507
2514.000000;2.815486
2513.000000;3.000409
2512.000000;3.377304
2511.000000;3.379662
2510.000000;3.226806
2509.000000;3.369007
2508.000000;3.982222
2507.000000;3.823062
2506.000000;3.478583
2505.000000;3.294440
2504.000000;3.128823
2503.000000;3.050401
2502.000000;3.044379
2501.000000;3.080403
2500.000000;3.303668
2499.000000;3.855885
2498.000000;3.392875
2497.000000;3.116809
2496.000000;2.981418
2495.000000;2.901610
2494.000000;2.896211
2493.000000;2.923310
2492.000000;2.953214
2491.000000;2.943623
2490.000000;2.902456
2489.000000;2.902755
2488.000000;2.976350
2487.000000;3.153298
2486.000000;3.351164
2485.000000;3.170077
2484.000000;3.000554
2483.000000;3.051494
2482.000000;3.285338
2481.000000;3.419636
2480.000000;3.271944
2479.000000;3.348961
2478.000000;3.974468
2477.000000;3.598159
2476.000000;3.409766
2475.000000;3.584518
2474.000000;3.507678
2473.000000;3.244355
2472.000000;3.042126
2471.000000;2.971397
2470.000000;2.991469
2469.000000;3.057834
2468.000000;3.131960
2467.000000;3.105979
2466.000000;2.994049
2465.000000;2.930477
2464.000000;2.974270
2463.000000;3.119615
2462.000000;3.336113
2461.000000;3.369114
2460.000000;3.130209
2459.000000;2.998599
2458.000000;3.010536
2457.000000;3.111028
2456.000000;3.412369
2455.000000;3.545522
2454.000000;3.151529
2453.000000;3.027115
2452.000000;3.089007
2451.000000;3.157916
2450.000000;3.168030
2449.000000;3.189071
2448.000000;3.289314
2447.000000;3.238447
2446.000000;2.970777
2445.000000;2.823570
2444.000000;2.811690
2443.000000;2.910375
2442.000000;3.021847
2441.000000;3.271379
2440.000000;3.481199
2439.000000;2.931710
2438.000000;2.676929
2437.000000;2.608307
2436.000000;2.667770
2435.000000;2.834153
2434.000000;3.115481
2433.000000;3.266663
2432.000000;3.080543
2431.000000;3.029643
2430.000000;3.069479
2429.000000;3.118392
2428.000000;3.140135
2427.000000;3.175552
2426.000000;3.087764
2425.000000;3.095418
2424.000000;3.498421
2423.000000;2.940702
2422.000000;2.625162
2421.000000;2.568436
2420.000000;2.695775
2419.000000;3.006097
2418.000000;3.018790
2417.000000;2.861234
2416.000000;2.857018
2415.000000;3.100302
2414.000000;3.626148
2413.000000;3.242528
2412.000000;3.000763
2411.000000;2.919921
2410.000000;2.929602
2409.000000;3.070109
2408.000000;3.273650
2407.000000;3.298889
2406.000000;3.151786
2405.000000;2.997001
2404.000000;2.885025
2403.000000;2.840084
2402.000000;2.876927
2401.000000;3.061186
2400.000000;3.240604
2399.000000;3.083747
2398.000000;2.924358
2397.000000;2.801407
2396.000000;2.724586
2395.000000;2.750795
2394.000000;2.835379
2393.000000;2.800551
2392.000000;2.726602
2391.000000;2.756130
2390.000000;2.871503
2389.000000;2.886707
2388.000000;2.770228
2387.000000;2.708056
2386.000000;2.724935
2385.000000;2.801631
2384.000000;2.886808
2383.000000;2.985285
2382.000000;2.933741
2381.000000;2.725545
2380.000000;2.651280
2379.000000;2.751880
2378.000000;2.945950
2377.000000;2.966956
2376.000000;2.911094
2375.000000;2.901346
2374.000000;2.862901
2373.000000;2.827596
2372.000000;2.794208
2371.000000;2.735210
2370.000000;2.716668
2369.000000;2.779783
2368.000000;2.873325
2367.000000;3.055565
2366.000000;3.499657
2365.000000;3.368783
2364.000000;3.032755
2363.000000;2.889456
2362.000000;2.870176
2361.000000;2.956863
2360.000000;3.049332
2359.000000;3.004287
2358.000000;2.884757
2357.000000;2.812235
2356.000000;2.832629
2355.000000;3.017199
2354.000000;3.368818
2353.000000;3.357082
2352.000000;3.195191
2351.000000;3.153133
2350.000000;3.062431
2349.000000;2.875926
2348.000000;2.773239
2347.000000;2.789337
2346.000000;2.667809
2345.000000;2.814926
2344.000000;3.333039
2343.000000;3.745642
2342.000000;3.760701
2341.000000;3.381591
2340.000000;3.027563
2339.000000;2.878603
2338.000000;2.853848
2337.000000;2.890568
2336.000000;2.954441
2335.000000;3.022496
2334.000000;3.067528
2333.000000;3.043484
2332.000000;3.007148
2331.000000;3.000928
2330.000000;3.042132
2329.000000;3.024579
2328.000000;2.974027
2327.000000;3.002229
2326.000000;3.131195
2325.000000;3.255112
2324.000000;3.147156
2323.000000;3.010857
2322.000000;3.051194
2321.000000;3.415944
2320.000000;3.286575
2319.000000;2.992241
2318.000000;2.912731
2317.000000;3.041472
2316.000000;3.096793
2315.000000;2.717420
2314.000000;2.557844
2313.000000;2.562486
2312.000000;2.720885
2311.000000;3.102051
2310.000000;3.171465
2309.000000;2.903939
2308.000000;2.888041
2307.000000;2.908007
2306.000000;2.849691
2305.000000;2.783001
2304.000000;2.804173
2303.000000;3.064974
2302.000000;3.609910
2301.000000;3.348800
2300.000000;3.532856
2299.000000;3.861566
2298.000000;3.647619
2297.000000;3.509875
2296.000000;3.136918
2295.000000;2.952810
2294.000000;2.855335
2293.000000;2.806582
2292.000000;2.797485
2291.000000;2.782882
2290.000000;2.777469
2289.000000;2.838557
2288.000000;3.002879
2287.000000;3.178810
2286.000000;3.173847
2285.000000;3.158815
2284.000000;3.177513
2283.000000;3.215450
2282.000000;3.365318
2281.000000;3.542564
2280.000000;3.409980
2279.000000;3.301696
2278.000000;3.090301
2277.000000;2.932645
2276.000000;2.900684
2275.000000;2.927832
2274.000000;2.978674
2273.000000;3.172817
2272.000000;3.327211
2271.000000;3.084389
2270.000000;2.961195
2269.000000;2.975431
2268.000000;3.042711
2267.000000;3.053042
2266.000000;3.014812
2265.000000;2.945992
2264.000000;2.818811
2263.000000;2.778636
2262.000000;2.933996
2261.000000;3.540818
2260.000000;3.143372
2259.000000;2.966940
2258.000000;2.989302
2257.000000;3.022918
2256.000000;2.950001
2255.000000;2.858714
2254.000000;2.829002
2253.000000;2.864154
2252.000000;2.867950
2251.000000;2.762447
2250.000000;2.678166
2249.000000;2.684993
2248.000000;2.791440
2247.000000;2.970386
2246.000000;3.128627
2245.000000;3.217088
2244.000000;3.331947
2243.000000;3.614289
2242.000000;3.204833
2241.000000;2.920069
2240.000000;2.869976
2239.000000;2.927833
2238.000000;3.014006
2237.000000;3.043633
2236.000000;2.997433
2235.000000;2.947457
2234.000000;3.007653
2233.000000;3.226707
2232.000000;3.575574
2231.000000;3.779780
2230.000000;3.652445
2229.000000;3.459408
2228.000000;3.360255
2227.000000;3.529682
2226.000000;3.514062
2225.000000;3.094070
2224.000000;2.935114
2223.000000;2.902325
2222.000000;3.004927
2221.000000;3.397325
2220.000000;3.333482
2219.000000;2.999096
2218.000000;2.969771
2217.000000;3.024893
2216.000000;3.113724
2215.000000;3.083047
2214.000000;3.074014
2213.000000;3.247984
2212.000000;3.755296
2211.000000;3.342674
2210.000000;3.053578
2209.000000;2.889408
2208.000000;2.798889
2207.000000;2.808906
2206.000000;2.922911
2205.000000;3.160364
2204.000000;3.367800
2203.000000;3.076619
2202.000000;2.860010
2201.000000;2.764479
2200.000000;2.776589
2199.000000;2.890837
2198.000000;3.129871
2197.000000;3.622363
2196.000000;3.640619
2195.000000;3.603643
2194.000000;3.645237
2193.000000;3.171624
2192.000000;3.060498
2191.000000;3.269178
2190.000000;3.622617
2189.000000;3.289986
2188.000000;3.161023
2187.000000;3.228129
2186.000000;3.337131
2185.000000;3.304420
2184.000000;3.305637
2183.000000;3.108477
2182.000000;2.846460
2181.000000;2.750235
2180.000000;2.789034
2179.000000;2.900403
2178.000000;3.020169
2177.000000;3.094825
2176.000000;3.037480
2175.000000;2.897057
2174.000000;2.807492
2173.000000;2.816665
2172.000000;2.930704
2171.000000;3.119637
2170.000000;3.178676
2169.000000;3.275216
2168.000000;3.320532
2167.000000;2.989709
2166.000000;2.880103
2165.000000;2.955282
2164.000000;3.372278
2163.000000;3.666035
2162.000000;3.272430
2161.000000;3.226083
2160.000000;3.315370
2159.000000;3.364897
2158.000000;3.295791
2157.000000;3.220552
2156.000000;3.291198
2155.000000;3.182703
2154.000000;2.932498
2153.000000;2.875839
2152.000000;3.015117
2151.000000;3.379051
2150.000000;3.568416
2149.000000;3.280839
2148.000000;3.080767
2147.000000;2.961337
2146.000000;2.911761
2145.000000;2.903648
2144.000000;2.982299
2143.000000;3.117665
2142.000000;2.980059
2141.000000;2.810563
2140.000000;2.797776
2139.000000;2.879750
2138.000000;2.986669
2137.000000;3.049723
2136.000000;3.063938
2135.000000;3.066298
2134.000000;3.118405
2133.000000;3.187032
2132.000000;3.183663
2131.000000;3.103425
2130.000000;3.044678
2129.000000;3.093919
2128.000000;3.360081
2127.000000;3.510754
2126.000000;3.145570
2125.000000;3.059733
2124.000000;3.155618
2123.000000;3.390039
2122.000000;3.507686
2121.000000;3.380342
2120.000000;3.466371
2119.000000;3.579074
2118.000000;3.325823
2117.000000;3.231883
2116.000000;3.242284
2115.000000;3.239884
2114.000000;3.145645
2113.000000;2.994320
2112.000000;2.821631
2111.000000;2.681980
2110.000000;2.619930
2109.000000;2.642143
2108.000000;2.717814
2107.000000;2.804562
2106.000000;2.906645
2105.000000;3.041660
2104.000000;3.132268
2103.000000;3.051486
2102.000000;2.953216
2101.000000;2.968280
2100.000000;3.144091
2099.000000;3.094608
2098.000000;2.888232
2097.000000;2.857991
2096.000000;3.015799
2095.000000;3.234504
2094.000000;3.078101
2093.000000;3.030569
2092.000000;3.129980
2091.000000;3.282151
2090.000000;3.228257
2089.000000;3.110860
2088.000000;3.121011
2087.000000;3.253499
2086.000000;3.720876
2085.000000;3.673980
2084.000000;3.264732
2083.000000;3.172519
2082.000000;3.134039
2081.000000;3.179478
2080.000000;3.281392
2079.000000;3.314308
2078.000000;3.213695
2077.000000;3.099916
2076.000000;3.025524
2075.000000;3.034565
2074.000000;3.205425
2073.000000;3.365435
2072.000000;2.977132
2071.000000;2.817774
2070.000000;2.841536
2069.000000;3.036735
2068.000000;3.432614
2067.000000;3.612217
2066.000000;3.263833
2065.000000;3.001438
2064.000000;2.816450
2063.000000;2.748291
2062.000000;2.804030
2061.000000;2.996885
2060.000000;3.014893
2059.000000;2.832679
2058.000000;2.807284
2057.000000;2.918811
2056.000000;3.151720
2055.000000;3.285486
2054.000000;3.271435
2053.000000;3.356676
2052.000000;3.366825
2051.000000;3.201811
2050.000000;3.132329
2049.000000;3.148130
2048.000000;3.086408
2047.000000;3.116287
2046.000000;3.391919
2045.000000;3.565563
2044.000000;3.399125
2043.000000;3.257681
2042.000000;3.263497
2041.000000;3.327872
2040.000000;3.188037
2039.000000;3.122993
2038.000000;3.212341
2037.000000;3.311596
2036.000000;3.415324
2035.000000;3.622802
2034.000000;3.387291
2033.000000;3.061118
2032.000000;2.881542
2031.000000;2.820319
2030.000000;2.844372
2029.000000;2.908966
2028.000000;2.977482
2027.000000;3.045955
2026.000000;3.077674
2025.000000;2.992847
2024.000000;2.937576
2023.000000;3.030655
2022.000000;3.277846
2021.000000;3.673167
2020.000000;3.289072
2019.000000;2.957552
2018.000000;2.799927
2017.000000;2.759111
2016.000000;2.825233
2015.000000;3.121437
2014.000000;3.788801
2013.000000;2.932980
2012.000000;2.797891
2011.000000;2.790118
2010.000000;2.840847
2009.000000;2.853184
2008.000000;2.848379
2007.000000;2.892832
2006.000000;3.129785
2005.000000;3.591075
2004.000000;3.302767
2003.000000;3.149222
2002.000000;3.371983
2001.000000;3.691134
2000.000000;3.470090
1999.000000;3.306343
1998.000000;3.260628
1997.000000;3.296536
1996.000000;3.406435
1995.000000;3.356039
1994.000000;3.253228
1993.000000;3.183332
1992.000000;3.146033
1991.000000;3.227944
1990.000000;3.475526
1989.000000;3.421481
1988.000000;3.232511
1987.000000;3.212990
1986.000000;3.395089
1985.000000;3.824857
1984.000000;3.448925
1983.000000;3.144062
1982.000000;3.029065
1981.000000;3.136788
1980.000000;3.518158
1979.000000;3.284168
1978.000000;3.042248
1977.000000;3.101400
1976.000000;3.251276
1975.000000;3.163288
1974.000000;3.033155
1973.000000;3.055247
1972.000000;3.145963
1971.000000;3.222264
1970.000000;3.309354
1969.000000;3.508293
1968.000000;3.644621
1967.000000;3.341063
1966.000000;3.028425
1965.000000;2.852956
1964.000000;2.792374
1963.000000;2.816399
1962.000000;2.830053
1961.000000;2.761779
1960.000000;2.731689
1959.000000;2.787976
1958.000000;2.885554
1957.000000;2.951210
1956.000000;2.963541
1955.000000;2.970125
1954.000000;2.964275
1953.000000;2.942099
1952.000000;2.973760
1951.000000;3.099304
1950.000000;3.527285
1949.000000;3.362351
1948.000000;2.981254
1947.000000;2.907261
1946.000000;2.980852
1945.000000;3.231098
1944.000000;3.892365
1943.000000;3.771547
1942.000000;3.229694
1941.000000;2.938710
1940.000000;2.795057
1939.000000;2.781118
1938.000000;2.822431
1937.000000;2.827870
1936.000000;2.883867
1935.000000;3.144479
1934.000000;3.743760
1933.000000;3.430509
1932.000000;3.259428
1931.000000;3.217406
1930.000000;3.132196
1929.000000;3.017327
1928.000000;2.976121
1927.000000;3.031851
1926.000000;3.510610
1925.000000;3.399666
1924.000000;2.876233
1923.000000;2.786202
1922.000000;2.817052
1921.000000;2.915309
1920.000000;2.950885
1919.000000;2.910050
1918.000000;2.867566
1917.000000;2.880816
1916.000000;2.984561
1915.000000;3.333516
1914.000000;3.513342
1913.000000;3.015815
1912.000000;2.835662
1911.000000;2.782040
1910.000000;2.765717
1909.000000;2.804662
1908.000000;2.902934
1907.000000;3.029063
1906.000000;3.163980
1905.000000;3.438804
1904.000000;4.003734
1903.000000;3.671127
1902.000000;3.366315
1901.000000;3.253487
1900.000000;3.183334
1899.000000;3.120097
1898.000000;3.106657
1897.000000;3.232654
1896.000000;3.507698
1895.000000;3.404947
1894.000000;3.098485
1893.000000;2.876845
1892.000000;2.771913
1891.000000;2.835324
1890.000000;3.178009
1889.000000;3.677404
1888.000000;3.422199
1887.000000;3.503134
1886.000000;3.673561
1885.000000;3.618909
1884.000000;3.532027
1883.000000;3.280669
1882.000000;3.200475
1881.000000;3.267743
1880.000000;3.216407
1879.000000;3.101820
1878.000000;3.118811
1877.000000;3.174512
1876.000000;3.191567
1875.000000;3.209363
1874.000000;3.204646
1873.000000;3.103422
1872.000000;2.991063
1871.000000;2.972843
1870.000000;3.118979
1869.000000;3.571766
1868.000000;3.254915
1867.000000;2.916038
1866.000000;2.828410
1865.000000;2.821030
1864.000000;2.899983
1863.000000;3.057424
1862.000000;3.382976
1861.000000;4.042255
1860.000000;3.477195
1859.000000;3.149328
1858.000000;2.946511
1857.000000;2.807728
1856.000000;2.755008
1855.000000;2.796695
1854.000000;2.905530
1853.000000;2.990737
1852.000000;3.010855
1851.000000;3.221237
1850.000000;3.494149
1849.000000;3.045839
1848.000000;2.928577
1847.000000;3.025690
1846.000000;3.220745
1845.000000;3.332723
1844.000000;3.442882
1843.000000;3.737610
1842.000000;3.600100
1841.000000;3.325235
1840.000000;3.159754
1839.000000;3.090252
1838.000000;3.171532
1837.000000;3.556113
1836.000000;3.669656
1835.000000;3.172495
1834.000000;2.955457
1833.000000;2.896320
1832.000000;2.951669
1831.000000;3.049148
1830.000000;3.044899
1829.000000;2.987753
1828.000000;2.961633
1827.000000;3.010855
1826.000000;3.157692
1825.000000;3.324903
1824.000000;3.366794
1823.000000;3.285677
1822.000000;3.290800
1821.000000;3.525872
1820.000000;3.820885
1819.000000;4.112205
1818.000000;4.439163
1817.000000;4.174867
1816.000000;3.789924
1815.000000;3.396068
1814.000000;3.292693
1813.000000;3.298247
1812.000000;3.293621
1811.000000;3.235950
1810.000000;3.123387
1809.000000;3.019671
1808.000000;3.020792
1807.000000;3.270170
1806.000000;3.329832
1805.000000;3.003388
1804.000000;2.901882
1803.000000;2.975966
1802.000000;3.117191
1801.000000;3.106834
1800.000000;2.982451
1799.000000;2.888791
1798.000000;2.868863
1797.000000;2.957597
1796.000000;2.990827
1795.000000;2.890963
1794.000000;2.863228
1793.000000;2.921618
1792.000000;3.074148
1791.000000;3.337805
1790.000000;3.337100
1789.000000;3.207875
1788.000000;3.312078
1787.000000;3.256127
1786.000000;3.124663
1785.000000;3.074023
1784.000000;2.983014
1783.000000;2.973504
1782.000000;3.185348
1781.000000;3.826763
1780.000000;3.412437
1779.000000;3.246320
1778.000000;3.480488
1777.000000;3.432707
1776.000000;3.222748
1775.000000;3.178732
1774.000000;3.194022
1773.000000;3.148006
1772.000000;3.094691
1771.000000;3.131176
1770.000000;3.349338
1769.000000;3.571797
1768.000000;3.502376
1767.000000;3.288055
1766.000000;3.052657
1765.000000;2.928489
1764.000000;2.917891
1763.000000;2.953609
1762.000000;2.958652
1761.000000;3.002497
1760.000000;3.152897
1759.000000;3.314511
1758.000000;3.367695
1757.000000;3.425209
1756.000000;3.549086
1755.000000;3.710541
1754.000000;3.628787
1753.000000;3.307410
1752.000000;3.124434
1751.000000;3.065207
1750.000000;3.086630
1749.000000;3.126468
1748.000000;3.287163
1747.000000;3.581744
1746.000000;3.269739
1745.000000;3.141520
1744.000000;3.190699
1743.000000;3.157336
1742.000000;3.114894
1741.000000;3.087791
1740.000000;3.101142
1739.000000;3.171586
1738.000000;3.383346
1737.000000;3.566609
1736.000000;3.452326
1735.000000;3.460528
1734.000000;3.341631
1733.000000;3.087760
1732.000000;2.966738
1731.000000;2.936224
1730.000000;2.926394
1729.000000;2.910323
1728.000000;2.917332
1727.000000;2.976044
1726.000000;3.090809
1725.000000;3.376705
1724.000000;3.530708
1723.000000;3.355096
1722.000000;3.256586
1721.000000;3.129789
1720.000000;3.071679
1719.000000;3.240191
1718.000000;3.708800
1717.000000;3.398114
1716.000000;3.154213
1715.000000;3.112246
1714.000000;3.092175
1713.000000;3.115029
1712.000000;3.105492
1711.000000;3.000773
1710.000000;2.959623
1709.000000;3.056897
1708.000000;3.364421
1707.000000;3.875470
1706.000000;3.545666
1705.000000;3.344811
1704.000000;3.445102
1703.000000;3.884957
1702.000000;4.101777
1701.000000;3.566815
1700.000000;3.237959
1699.000000;2.977910
1698.000000;2.858371
1697.000000;2.861178
1696.000000;2.884822
1695.000000;2.878564
1694.000000;2.866800
1693.000000;2.899349
1692.000000;2.992657
1691.000000;3.130399
1690.000000;3.180295
1689.000000;3.081340
1688.000000;3.004684
1687.000000;3.048180
1686.000000;3.249368
1685.000000;3.326413
1684.000000;3.330881
1683.000000;3.522087
1682.000000;3.258703
1681.000000;3.058378
1680.000000;3.124985
1679.000000;3.333223
1678.000000;3.512266
1677.000000;3.411616
1676.000000;3.308802
1675.000000;3.389401
1674.000000;3.638789
1673.000000;3.573995
1672.000000;3.281215
1671.000000;3.074247
1670.000000;2.933959
1669.000000;2.856764
1668.000000;2.858729
1667.000000;2.944760
1666.000000;3.103612
1665.000000;3.249173
1664.000000;3.325320
1663.000000;3.299554
1662.000000;3.069592
1661.000000;2.946465
1660.000000;3.002183
1659.000000;3.221006
1658.000000;3.628419
1657.000000;3.684277
1656.000000;3.533521
1655.000000;3.480971
1654.000000;3.439861
1653.000000;3.448577
1652.000000;3.369436
1651.000000;3.278300
1650.000000;3.344138
1649.000000;3.606081
1648.000000;3.358180
1647.000000;3.133527
1646.000000;3.154718
1645.000000;3.290836
1644.000000;3.736076
1643.000000;3.541098
1642.000000;3.048564
1641.000000;2.865901
1640.000000;2.861486
1639.000000;2.921285
1638.000000;2.894177
1637.000000;2.865047
1636.000000;2.933516
1635.000000;2.983955
1634.000000;2.863163
1633.000000;2.742121
1632.000000;2.703783
1631.000000;2.736139
1630.000000;2.834539
1629.000000;2.933497
1628.000000;2.983655
1627.000000;3.082188
1626.000000;3.257220
1625.000000;3.177870
1624.000000;3.024568
1623.000000;2.992248
1622.000000;2.991830
1621.000000;2.992727
1620.000000;3.011324
1619.000000;3.062379
1618.000000;3.097658
1617.000000;3.000034
1616.000000;2.840561
1615.000000;2.766238
1614.000000;2.847466
1613.000000;3.082914
1612.000000;3.379464
1611.000000;3.536579
1610.000000;3.259819
1609.000000;3.023483
1608.000000;3.082725
1607.000000;3.300224
1606.000000;3.129775
1605.000000;2.994318
1604.000000;3.073647
1603.000000;3.255088
1602.000000;3.603515
1601.000000;3.522911
1600.000000;3.163928
1599.000000;3.074485
1598.000000;3.096838
1597.000000;3.062846
1596.000000;2.962689
1595.000000;2.924845
1594.000000;2.935164
1593.000000;2.983953
1592.000000;3.068398
1591.000000;3.300506
1590.000000;3.852762
1589.000000;3.444302
1588.000000;3.177539
1587.000000;3.085682
1586.000000;3.034618
1585.000000;3.069187
1584.000000;3.126143
1583.000000;3.082054
1582.000000;2.976993
1581.000000;2.904586
1580.000000;2.875269
1579.000000;2.913937
1578.000000;3.029433
1577.000000;3.440443
1576.000000;3.737279
1575.000000;3.196306
1574.000000;3.020763
1573.000000;2.934546
1572.000000;2.901512
1571.000000;2.962377
1570.000000;3.134986
1569.000000;3.231795
1568.000000;2.964698
1567.000000;2.762097
1566.000000;2.708802
1565.000000;2.770142
1564.000000;2.902756
1563.000000;3.079940
1562.000000;3.425899
1561.000000;3.542574
1560.000000;3.297738
1559.000000;3.203701
1558.000000;3.159078
1557.000000;3.209147
1556.000000;3.152646
1555.000000;3.024437
1554.000000;3.006017
1553.000000;3.076760
1552.000000;3.190190
1551.000000;3.345535
1550.000000;3.579969
1549.000000;3.722749
1548.000000;3.470949
1547.000000;3.358663
1546.000000;3.844854
1545.000000;3.497096
1544.000000;3.106676
1543.000000;3.106636
1542.000000;3.160804
1541.000000;3.242462
1540.000000;3.406172
1539.000000;3.340901
1538.000000;3.431017
1537.000000;3.737738
1536.000000;3.246429
1535.000000;3.095869
1534.000000;3.154782
1533.000000;3.446658
1532.000000;3.830735
1531.000000;3.285093
1530.000000;3.141489
1529.000000;3.192428
1528.000000;3.212724
1527.000000;3.111853
1526.000000;3.040839
1525.000000;3.012028
1524.000000;2.945839
1523.000000;2.873493
1522.000000;2.847773
1521.000000;2.869808
1520.000000;2.901837
1519.000000;2.944225
1518.000000;3.027717
1517.000000;3.254680
1516.000000;3.296571
1515.000000;3.071426
1514.000000;2.971396
1513.000000;2.949020
1512.000000;3.010857
1511.000000;3.199548
1510.000000;3.522200
1509.000000;3.838023
1508.000000;3.981494
1507.000000;4.095805
1506.000000;4.336892
1505.000000;4.100659
1504.000000;3.410211
1503.000000;3.110497
1502.000000;2.958902
1501.000000;2.892263
1500.000000;2.920813
1499.000000;3.098042
1498.000000;3.358202
1497.000000;3.207515
1496.000000;3.043498
1495.000000;2.961915
1494.000000;2.865951
1493.000000;2.812648
1492.000000;2.872764
1491.000000;3.159997
1490.000000;3.520591
1489.000000;3.389702
1488.000000;3.321857
1487.000000;3.341741
1486.000000;3.255865
1485.000000;3.112225
1484.000000;3.068083
1483.000000;3.216643
1482.000000;3.325314
1481.000000;3.326063
1480.000000;3.576036
1479.000000;3.680145
1478.000000;3.822099
1477.000000;3.445227
1476.000000;3.026543
1475.000000;2.900177
1474.000000;2.875475
1473.000000;2.893922
1472.000000;2.940305
1471.000000;3.007529
1470.000000;3.089975
1469.000000;3.171154
1468.000000;3.299829
1467.000000;3.528457
1466.000000;3.511977
1465.000000;3.366795
1464.000000;3.595432
1463.000000;3.526889
1462.000000;3.222956
1461.000000;3.200767
1460.000000;3.454968
1459.000000;4.391250
1458.000000;4.179791
1457.000000;4.126939
1456.000000;4.125425
1455.000000;3.618465
1454.000000;3.397185
1453.000000;3.319908
1452.000000;3.448186
1451.000000;3.590896
1450.000000;3.476837
1449.000000;3.385423
1448.000000;3.527533
1447.000000;4.021574
1446.000000;3.815631
1445.000000;3.463077
1444.000000;3.249587
1443.000000;3.119118
1442.000000;3.101517
1441.000000;3.122450
1440.000000;3.092645
1439.000000;3.076107
1438.000000;3.181422
1437.000000;3.267426
1436.000000;3.270778
1435.000000;3.340646
1434.000000;3.427294
1433.000000;3.415792
1432.000000;3.255976
1431.000000;3.128679
1430.000000;3.088646
1429.000000;3.104487
1428.000000;3.141057
1427.000000;3.168120
1426.000000;3.127396
1425.000000;3.211063
1424.000000;3.640472
1423.000000;3.397688
1422.000000;3.114602
1421.000000;3.177990
1420.000000;3.219035
1419.000000;3.138162
1418.000000;3.207873
1417.000000;3.390799
1416.000000;3.452881
1415.000000;3.301884
1414.000000;3.234680
1413.000000;3.243157
1412.000000;3.188616
1411.000000;3.037793
1410.000000;3.034007
1409.000000;3.367421
1408.000000;3.043386
1407.000000;2.703332
1406.000000;2.617818
1405.000000;2.619725
1404.000000;2.647911
1403.000000;2.666450
1402.000000;2.702528
1401.000000;2.794084
1400.000000;2.956670
1399.000000;3.162422
1398.000000;3.263696
1397.000000;3.195357
1396.000000;3.093958
1395.000000;3.047353
1394.000000;3.074034
1393.000000;3.179785
1392.000000;3.447104
1391.000000;3.672189
1390.000000;3.488720
1389.000000;3.323304
1388.000000;3.281050
1387.000000;3.462545
1386.000000;3.485674
1385.000000;3.233900
1384.000000;3.145805
1383.000000;3.154233
1382.000000;3.276292
1381.000000;3.998595
1380.000000;3.376353
1379.000000;2.920782
1378.000000;2.763867
1377.000000;2.694299
1376.000000;2.696944
1375.000000;2.763492
1374.000000;2.912937
1373.000000;3.170040
1372.000000;3.573014
1371.000000;3.735622
1370.000000;3.364811
1369.000000;3.079841
1368.000000;2.923582
1367.000000;2.865454
1366.000000;2.876384
1365.000000;2.947626
1364.000000;3.064296
1363.000000;3.235110
1362.000000;3.471610
1361.000000;3.428409
1360.000000;3.213075
1359.000000;3.198282
1358.000000;3.376131
1357.000000;3.327202
1356.000000;3.097908
1355.000000;3.014863
1354.000000;3.046717
1353.000000;3.126028
1352.000000;3.143202
1351.000000;3.086986
1350.000000;3.020965
1349.000000;3.017068
1348.000000;3.139076
1347.000000;3.180669
1346.000000;3.075470
1345.000000;3.094851
1344.000000;3.348760
1343.000000;4.009276
1342.000000;3.665038
1341.000000;3.505530
1340.000000;3.647150
1339.000000;3.619107
1338.000000;3.412134
1337.000000;3.240894
1336.000000;3.076454
1335.000000;2.924969
1334.000000;2.839189
1333.000000;2.848681
1332.000000;2.906093
1331.000000;2.922817
1330.000000;2.939971
1329.000000;2.985722
1328.000000;3.015500
1327.000000;3.085341
1326.000000;3.167901
1325.000000;3.362067
1324.000000;3.413051
1323.000000;2.916469
1322.000000;2.684785
1321.000000;2.621962
1320.000000;2.630794
1319.000000;2.658155
1318.000000;2.672907
1317.000000;2.697278
1316.000000;2.740699
1315.000000;2.817210
1314.000000;2.958306
1313.000000;3.356949
1312.000000;3.773719
1311.000000;3.205085
1310.000000;3.156452
1309.000000;3.297037
1308.000000;3.420408
1307.000000;3.186560
1306.000000;3.021058
1305.000000;2.987460
1304.000000;3.070406
1303.000000;3.169397
1302.000000;3.026982
1301.000000;2.920705
1300.000000;2.927707
1299.000000;2.891459
1298.000000;2.835681
1297.000000;2.850020
1296.000000;2.916954
1295.000000;2.980395
1294.000000;2.991070
1293.000000;2.962344
1292.000000;2.967762
1291.000000;3.089328
1290.000000;3.241544
1289.000000;3.118925
1288.000000;3.002053
1287.000000;2.974117
1286.000000;2.993664
1285.000000;3.003596
1284.000000;2.935106
1283.000000;2.859030
1282.000000;2.850512
1281.000000;2.910221
1280.000000;3.029808
1279.000000;3.145165
1278.000000;3.084538
1277.000000;2.978863
1276.000000;2.948968
1275.000000;2.954812
1274.000000;3.011680
1273.000000;3.168486
1272.000000;3.410865
1271.000000;3.408212
1270.000000;3.188491
1269.000000;3.012289
1268.000000;2.911147
1267.000000;2.907443
1266.000000;3.017751
1265.000000;3.240142
1264.000000;3.573164
1263.000000;4.160410
1262.000000;3.702923
1261.000000;3.472956
1260.000000;3.546604
1259.000000;3.318019
1258.000000;3.073113
1257.000000;2.991841
1256.000000;2.976919
1255.000000;2.995697
1254.000000;3.063758
1253.000000;3.146724
1252.000000;3.194995
1251.000000;3.279499
1250.000000;3.397808
1249.000000;3.800873
1248.000000;3.536720
1247.000000;3.110010
1246.000000;2.971027
1245.000000;2.972163
1244.000000;3.124951
1243.000000;3.525565
1242.000000;3.871301
1241.000000;3.343478
1240.000000;3.050756
1239.000000;2.928601
1238.000000;2.909208
1237.000000;2.930501
1236.000000;2.951762
1235.000000;2.986377
1234.000000;3.040021
1233.000000;3.101440
1232.000000;3.203605
1231.000000;3.301018
1230.000000;3.196571
1229.000000;3.020405
1228.000000;2.924321
1227.000000;2.931206
1226.000000;3.050858
1225.000000;3.246938
1224.000000;3.337684
1223.000000;3.302818
1222.000000;3.214983
1221.000000;3.094382
1220.000000;3.010894
1219.000000;2.975408
1218.000000;3.015649
1217.000000;3.189520
1216.000000;3.554271
1215.000000;3.719390
1214.000000;3.461241
1213.000000;3.136672
1212.000000;2.908300
1211.000000;2.783207
1210.000000;2.744176
1209.000000;2.797870
1208.000000;2.977333
1207.000000;3.418418
1206.000000;3.794136
1205.000000;3.338234
1204.000000;3.493583
1203.000000;3.771693
1202.000000;3.329213
1201.000000;3.082884
1200.000000;2.978640
