Criado como novo conjunto de dados;"e0108.spp","-4284884.8 Secs"
cm-1;Abs
10000.000000;0.888463
9999.000000;0.888839
9998.000000;0.890061
9997.000000;0.891375
9996.000000;0.891716
9995.000000;0.890888
9994.000000;0.889396
9993.000000;0.888100
9992.000000;0.887430
9991.000000;0.887377
9990.000000;0.887534
9989.000000;0.887361
9988.000000;0.886610
9987.000000;0.885672
9986.000000;0.885242
9985.000000;0.885524
9984.000000;0.885930
9983.000000;0.885717
9982.000000;0.884681
9981.000000;0.883120
9980.000000;0.881498
9979.000000;0.880445
9978.000000;0.880687
9977.000000;0.882382
9976.000000;0.884595
9975.000000;0.885929
9974.000000;0.885801
9973.000000;0.884732
9972.000000;0.883393
9971.000000;0.881881
9970.000000;0.880095
9969.000000;0.878352
9968.000000;0.877237
9967.000000;0.877038
9966.000000;0.877590
9965.000000;0.878477
9964.000000;0.879172
9963.000000;0.879220
9962.000000;0.878602
9961.000000;0.877804
9960.000000;0.877268
9959.000000;0.876883
9958.000000;0.876302
9957.000000;0.875611
9956.000000;0.875253
9955.000000;0.875271
9954.000000;0.875043
9953.000000;0.874060
9952.000000;0.872667
9951.000000;0.871741
9950.000000;0.871754
9949.000000;0.872391
9948.000000;0.873052
9947.000000;0.873435
9946.000000;0.873535
9945.000000;0.873311
9944.000000;0.872631
9943.000000;0.871570
9942.000000;0.870485
9941.000000;0.869684
9940.000000;0.869158
9939.000000;0.868794
9938.000000;0.868733
9937.000000;0.869233
9936.000000;0.870168
9935.000000;0.870896
9934.000000;0.870797
9933.000000;0.869845
9932.000000;0.868530
9931.000000;0.867368
9930.000000;0.866594
9929.000000;0.866222
9928.000000;0.866146
9927.000000;0.866195
9926.000000;0.866306
9925.000000;0.866612
9924.000000;0.867153
9923.000000;0.867522
9922.000000;0.867110
9921.000000;0.865872
9920.000000;0.864579
9919.000000;0.864045
9918.000000;0.864300
9917.000000;0.864741
9916.000000;0.864867
9915.000000;0.864573
9914.000000;0.863885
9913.000000;0.862854
9912.000000;0.861795
9911.000000;0.861222
9910.000000;0.861292
9909.000000;0.861542
9908.000000;0.861397
9907.000000;0.860781
9906.000000;0.859980
9905.000000;0.859132
9904.000000;0.858193
9903.000000;0.857323
9902.000000;0.856866
9901.000000;0.856831
9900.000000;0.856725
9899.000000;0.856129
9898.000000;0.855287
9897.000000;0.854867
9896.000000;0.855213
9895.000000;0.856001
9894.000000;0.856590
9893.000000;0.856592
9892.000000;0.856117
9891.000000;0.855568
9890.000000;0.855238
9889.000000;0.855074
9888.000000;0.854827
9887.000000;0.854406
9886.000000;0.853985
9885.000000;0.853715
9884.000000;0.853457
9883.000000;0.852954
9882.000000;0.852203
9881.000000;0.851502
9880.000000;0.851133
9879.000000;0.851064
9878.000000;0.850937
9877.000000;0.850323
9876.000000;0.849117
9875.000000;0.847773
9874.000000;0.847064
9873.000000;0.847390
9872.000000;0.848350
9871.000000;0.849147
9870.000000;0.849367
9869.000000;0.849145
9868.000000;0.848627
9867.000000;0.847670
9866.000000;0.846242
9865.000000;0.844837
9864.000000;0.844173
9863.000000;0.844499
9862.000000;0.845321
9861.000000;0.845753
9860.000000;0.845083
9859.000000;0.843236
9858.000000;0.840943
9857.000000;0.839381
9856.000000;0.839381
9855.000000;0.840802
9854.000000;0.842671
9853.000000;0.843960
9852.000000;0.844253
9851.000000;0.843821
9850.000000;0.843231
9849.000000;0.842875
9848.000000;0.842665
9847.000000;0.842115
9846.000000;0.840870
9845.000000;0.839221
9844.000000;0.837979
9843.000000;0.837712
9842.000000;0.838156
9841.000000;0.838447
9840.000000;0.837887
9839.000000;0.836512
9838.000000;0.835037
9837.000000;0.834292
9836.000000;0.834574
9835.000000;0.835419
9834.000000;0.836018
9833.000000;0.835926
9832.000000;0.835367
9831.000000;0.834835
9830.000000;0.834517
9829.000000;0.834177
9828.000000;0.833509
9827.000000;0.832449
9826.000000;0.831223
9825.000000;0.830220
9824.000000;0.829816
9823.000000;0.830080
9822.000000;0.830617
9821.000000;0.830852
9820.000000;0.830583
9819.000000;0.830093
9818.000000;0.829666
9817.000000;0.829220
9816.000000;0.828624
9815.000000;0.828179
9814.000000;0.828403
9813.000000;0.829271
9812.000000;0.830010
9811.000000;0.829856
9810.000000;0.828865
9809.000000;0.827759
9808.000000;0.827076
9807.000000;0.826755
9806.000000;0.826527
9805.000000;0.826424
9804.000000;0.826718
9803.000000;0.827429
9802.000000;0.828088
9801.000000;0.828064
9800.000000;0.827126
9799.000000;0.825586
9798.000000;0.823920
9797.000000;0.822377
9796.000000;0.821067
9795.000000;0.820280
9794.000000;0.820372
9793.000000;0.821242
9792.000000;0.822197
9791.000000;0.822585
9790.000000;0.822441
9789.000000;0.822333
9788.000000;0.822679
9787.000000;0.823405
9786.000000;0.824160
9785.000000;0.824536
9784.000000;0.824094
9783.000000;0.822592
9782.000000;0.820409
9781.000000;0.818488
9780.000000;0.817565
9779.000000;0.817515
9778.000000;0.817605
9777.000000;0.817309
9776.000000;0.816732
9775.000000;0.816331
9774.000000;0.816453
9773.000000;0.817135
9772.000000;0.818096
9771.000000;0.818777
9770.000000;0.818531
9769.000000;0.817061
9768.000000;0.814801
9767.000000;0.812810
9766.000000;0.812110
9765.000000;0.812924
9764.000000;0.814499
9763.000000;0.815730
9762.000000;0.816035
9761.000000;0.815636
9760.000000;0.815094
9759.000000;0.814774
9758.000000;0.814728
9757.000000;0.814787
9756.000000;0.814620
9755.000000;0.813889
9754.000000;0.812613
9753.000000;0.811335
9752.000000;0.810713
9751.000000;0.810890
9750.000000;0.811420
9749.000000;0.811780
9748.000000;0.811782
9747.000000;0.811472
9746.000000;0.810867
9745.000000;0.809954
9744.000000;0.808864
9743.000000;0.807850
9742.000000;0.807101
9741.000000;0.806650
9740.000000;0.806459
9739.000000;0.806509
9738.000000;0.806793
9737.000000;0.807240
9736.000000;0.807671
9735.000000;0.807831
9734.000000;0.807544
9733.000000;0.806847
9732.000000;0.805950
9731.000000;0.805028
9730.000000;0.804118
9729.000000;0.803266
9728.000000;0.802694
9727.000000;0.802678
9726.000000;0.803171
9725.000000;0.803679
9724.000000;0.803627
9723.000000;0.802895
9722.000000;0.801906
9721.000000;0.801211
9720.000000;0.801067
9719.000000;0.801409
9718.000000;0.802036
9717.000000;0.802678
9716.000000;0.802999
9715.000000;0.802788
9714.000000;0.802170
9713.000000;0.801508
9712.000000;0.801024
9711.000000;0.800617
9710.000000;0.800089
9709.000000;0.799452
9708.000000;0.798848
9707.000000;0.798276
9706.000000;0.797621
9705.000000;0.796991
9704.000000;0.796788
9703.000000;0.797265
9702.000000;0.798086
9701.000000;0.798548
9700.000000;0.798281
9699.000000;0.797593
9698.000000;0.797020
9697.000000;0.796708
9696.000000;0.796411
9695.000000;0.795957
9694.000000;0.795459
9693.000000;0.795060
9692.000000;0.794753
9691.000000;0.794585
9690.000000;0.794781
9689.000000;0.795398
9688.000000;0.796009
9687.000000;0.796023
9686.000000;0.795302
9685.000000;0.794204
9684.000000;0.793033
9683.000000;0.791776
9682.000000;0.790468
9681.000000;0.789473
9680.000000;0.789142
9679.000000;0.789324
9678.000000;0.789501
9677.000000;0.789401
9676.000000;0.789283
9675.000000;0.789570
9674.000000;0.790332
9673.000000;0.791161
9672.000000;0.791456
9671.000000;0.790836
9670.000000;0.789429
9669.000000;0.787821
9668.000000;0.786660
9667.000000;0.786226
9666.000000;0.786339
9665.000000;0.786647
9664.000000;0.786887
9663.000000;0.786882
9662.000000;0.786473
9661.000000;0.785659
9660.000000;0.784750
9659.000000;0.784155
9658.000000;0.783949
9657.000000;0.783786
9656.000000;0.783352
9655.000000;0.782781
9654.000000;0.782454
9653.000000;0.782479
9652.000000;0.782593
9651.000000;0.782551
9650.000000;0.782390
9649.000000;0.782228
9648.000000;0.782029
9647.000000;0.781699
9646.000000;0.781258
9645.000000;0.780804
9644.000000;0.780469
9643.000000;0.780506
9642.000000;0.781133
9641.000000;0.782055
9640.000000;0.782376
9639.000000;0.781413
9638.000000;0.779567
9637.000000;0.778049
9636.000000;0.777688
9635.000000;0.778264
9634.000000;0.778995
9633.000000;0.779331
9632.000000;0.779171
9631.000000;0.778626
9630.000000;0.777904
9629.000000;0.777288
9628.000000;0.776986
9627.000000;0.776973
9626.000000;0.777071
9625.000000;0.777128
9624.000000;0.777032
9623.000000;0.776667
9622.000000;0.775977
9621.000000;0.775094
9620.000000;0.774331
9619.000000;0.774018
9618.000000;0.774278
9617.000000;0.774856
9616.000000;0.775192
9615.000000;0.774822
9614.000000;0.773778
9613.000000;0.772498
9612.000000;0.771403
9611.000000;0.770638
9610.000000;0.770176
9609.000000;0.769931
9608.000000;0.769778
9607.000000;0.769693
9606.000000;0.769915
9605.000000;0.770718
9604.000000;0.771914
9603.000000;0.772813
9602.000000;0.772824
9601.000000;0.771955
9600.000000;0.770668
9599.000000;0.769476
9598.000000;0.768754
9597.000000;0.768639
9596.000000;0.768821
9595.000000;0.768651
9594.000000;0.767762
9593.000000;0.766520
9592.000000;0.765652
9591.000000;0.765499
9590.000000;0.765791
9589.000000;0.766014
9588.000000;0.765817
9587.000000;0.765166
9586.000000;0.764341
9585.000000;0.763754
9584.000000;0.763615
9583.000000;0.763783
9582.000000;0.764042
9581.000000;0.764385
9580.000000;0.764798
9579.000000;0.764918
9578.000000;0.764234
9577.000000;0.762691
9576.000000;0.760855
9575.000000;0.759462
9574.000000;0.758940
9573.000000;0.759311
9572.000000;0.760286
9571.000000;0.761341
9570.000000;0.761909
9569.000000;0.761677
9568.000000;0.760756
9567.000000;0.759556
9566.000000;0.758529
9565.000000;0.757974
9564.000000;0.757971
9563.000000;0.758436
9562.000000;0.759185
9561.000000;0.759873
9560.000000;0.759960
9559.000000;0.759062
9558.000000;0.757481
9557.000000;0.756168
9556.000000;0.755883
9555.000000;0.756464
9554.000000;0.757100
9553.000000;0.757260
9552.000000;0.757144
9551.000000;0.757237
9550.000000;0.757671
9549.000000;0.758074
9548.000000;0.757902
9547.000000;0.756928
9546.000000;0.755490
9545.000000;0.754230
9544.000000;0.753478
9543.000000;0.752987
9542.000000;0.752409
9541.000000;0.751873
9540.000000;0.751835
9539.000000;0.752415
9538.000000;0.753218
9537.000000;0.753865
9536.000000;0.754412
9535.000000;0.755074
9534.000000;0.755727
9533.000000;0.755904
9532.000000;0.755269
9531.000000;0.754020
9530.000000;0.752784
9529.000000;0.752086
9528.000000;0.751907
9527.000000;0.751783
9526.000000;0.751403
9525.000000;0.750983
9524.000000;0.750872
9523.000000;0.750951
9522.000000;0.750703
9521.000000;0.749895
9520.000000;0.748952
9519.000000;0.748510
9518.000000;0.748748
9517.000000;0.749269
9516.000000;0.749551
9515.000000;0.749449
9514.000000;0.749277
9513.000000;0.749415
9512.000000;0.749780
9511.000000;0.749797
9510.000000;0.749029
9509.000000;0.747796
9508.000000;0.746903
9507.000000;0.746700
9506.000000;0.746648
9505.000000;0.745975
9504.000000;0.744637
9503.000000;0.743438
9502.000000;0.743203
9501.000000;0.743962
9500.000000;0.744954
9499.000000;0.745374
9498.000000;0.745054
9497.000000;0.744456
9496.000000;0.744109
9495.000000;0.744160
9494.000000;0.744411
9493.000000;0.744564
9492.000000;0.744373
9491.000000;0.743747
9490.000000;0.742881
9489.000000;0.742178
9488.000000;0.741880
9487.000000;0.741857
9486.000000;0.741874
9485.000000;0.741939
9484.000000;0.742158
9483.000000;0.742387
9482.000000;0.742316
9481.000000;0.741876
9480.000000;0.741309
9479.000000;0.740823
9478.000000;0.740424
9477.000000;0.740102
9476.000000;0.739961
9475.000000;0.740044
9474.000000;0.740184
9473.000000;0.740096
9472.000000;0.739558
9471.000000;0.738507
9470.000000;0.737111
9469.000000;0.735780
9468.000000;0.734932
9467.000000;0.734648
9466.000000;0.734638
9465.000000;0.734565
9464.000000;0.734323
9463.000000;0.734030
9462.000000;0.733870
9461.000000;0.733954
9460.000000;0.734224
9459.000000;0.734521
9458.000000;0.734844
9457.000000;0.735435
9456.000000;0.736401
9455.000000;0.737369
9454.000000;0.737757
9453.000000;0.737410
9452.000000;0.736699
9451.000000;0.736003
9450.000000;0.735373
9449.000000;0.734784
9448.000000;0.734394
9447.000000;0.734350
9446.000000;0.734536
9445.000000;0.734696
9444.000000;0.734705
9443.000000;0.734555
9442.000000;0.734211
9441.000000;0.733625
9440.000000;0.732847
9439.000000;0.732014
9438.000000;0.731242
9437.000000;0.730586
9436.000000;0.730078
9435.000000;0.729753
9434.000000;0.729646
9433.000000;0.729747
9432.000000;0.729926
9431.000000;0.729978
9430.000000;0.729813
9429.000000;0.729524
9428.000000;0.729205
9427.000000;0.728819
9426.000000;0.728404
9425.000000;0.728223
9424.000000;0.728444
9423.000000;0.728788
9422.000000;0.728785
9421.000000;0.728344
9420.000000;0.727764
9419.000000;0.727243
9418.000000;0.726757
9417.000000;0.726422
9416.000000;0.726519
9415.000000;0.726991
9414.000000;0.727331
9413.000000;0.727182
9412.000000;0.726744
9411.000000;0.726341
9410.000000;0.725926
9409.000000;0.725327
9408.000000;0.724752
9407.000000;0.724646
9406.000000;0.725126
9405.000000;0.725805
9404.000000;0.726141
9403.000000;0.725787
9402.000000;0.724724
9401.000000;0.723282
9400.000000;0.721979
9399.000000;0.721151
9398.000000;0.720735
9397.000000;0.720508
9396.000000;0.720429
9395.000000;0.720573
9394.000000;0.720899
9393.000000;0.721304
9392.000000;0.721802
9391.000000;0.722412
9390.000000;0.722916
9389.000000;0.722966
9388.000000;0.722475
9387.000000;0.721715
9386.000000;0.721045
9385.000000;0.720656
9384.000000;0.720565
9383.000000;0.720688
9382.000000;0.720883
9381.000000;0.721015
9380.000000;0.720969
9379.000000;0.720602
9378.000000;0.719808
9377.000000;0.718757
9376.000000;0.717928
9375.000000;0.717700
9374.000000;0.717954
9373.000000;0.718246
9372.000000;0.718333
9371.000000;0.718375
9370.000000;0.718636
9369.000000;0.719166
9368.000000;0.719750
9367.000000;0.720028
9366.000000;0.719693
9365.000000;0.718750
9364.000000;0.717603
9363.000000;0.716739
9362.000000;0.716301
9361.000000;0.716055
9360.000000;0.715778
9359.000000;0.715538
9358.000000;0.715567
9357.000000;0.715975
9356.000000;0.716625
9355.000000;0.717248
9354.000000;0.717651
9353.000000;0.717829
9352.000000;0.717840
9351.000000;0.717552
9350.000000;0.716678
9349.000000;0.715198
9348.000000;0.713664
9347.000000;0.712845
9346.000000;0.713013
9345.000000;0.713672
9344.000000;0.714051
9343.000000;0.713806
9342.000000;0.713208
9341.000000;0.712761
9340.000000;0.712735
9339.000000;0.713012
9338.000000;0.713301
9337.000000;0.713410
9336.000000;0.713320
9335.000000;0.713060
9334.000000;0.712645
9333.000000;0.712128
9332.000000;0.711585
9331.000000;0.711021
9330.000000;0.710431
9329.000000;0.710001
9328.000000;0.710067
9327.000000;0.710706
9326.000000;0.711483
9325.000000;0.711818
9324.000000;0.711561
9323.000000;0.711049
9322.000000;0.710654
9321.000000;0.710468
9320.000000;0.710450
9319.000000;0.710621
9318.000000;0.710960
9317.000000;0.711205
9316.000000;0.710945
9315.000000;0.710007
9314.000000;0.708706
9313.000000;0.707635
9312.000000;0.707156
9311.000000;0.707099
9310.000000;0.707011
9309.000000;0.706664
9308.000000;0.706226
9307.000000;0.705947
9306.000000;0.705882
9305.000000;0.705940
9304.000000;0.706044
9303.000000;0.706112
9302.000000;0.706063
9301.000000;0.705974
9300.000000;0.706047
9299.000000;0.706234
9298.000000;0.706083
9297.000000;0.705275
9296.000000;0.704224
9295.000000;0.703791
9294.000000;0.704318
9293.000000;0.705205
9292.000000;0.705529
9291.000000;0.704934
9290.000000;0.703842
9289.000000;0.702966
9288.000000;0.702710
9287.000000;0.702941
9286.000000;0.703231
9285.000000;0.703322
9284.000000;0.703343
9283.000000;0.703534
9282.000000;0.703846
9281.000000;0.704007
9280.000000;0.703898
9279.000000;0.703637
9278.000000;0.703278
9277.000000;0.702703
9276.000000;0.701891
9275.000000;0.701084
9274.000000;0.700532
9273.000000;0.700257
9272.000000;0.700165
9271.000000;0.700229
9270.000000;0.700418
9269.000000;0.700645
9268.000000;0.700911
9267.000000;0.701324
9266.000000;0.701810
9265.000000;0.701969
9264.000000;0.701485
9263.000000;0.700596
9262.000000;0.699920
9261.000000;0.699813
9260.000000;0.700088
9259.000000;0.700308
9258.000000;0.700129
9257.000000;0.699408
9256.000000;0.698255
9255.000000;0.697061
9254.000000;0.696274
9253.000000;0.696020
9252.000000;0.696075
9251.000000;0.696208
9250.000000;0.696374
9249.000000;0.696551
9248.000000;0.696631
9247.000000;0.696589
9246.000000;0.696545
9245.000000;0.696531
9244.000000;0.696374
9243.000000;0.695995
9242.000000;0.695641
9241.000000;0.695605
9240.000000;0.695876
9239.000000;0.696243
9238.000000;0.696627
9237.000000;0.697011
9236.000000;0.697154
9235.000000;0.696713
9234.000000;0.695737
9233.000000;0.694744
9232.000000;0.694225
9231.000000;0.694259
9230.000000;0.694656
9229.000000;0.695210
9228.000000;0.695699
9227.000000;0.695863
9226.000000;0.695613
9225.000000;0.695119
9224.000000;0.694591
9223.000000;0.694112
9222.000000;0.693772
9221.000000;0.693742
9220.000000;0.694022
9219.000000;0.694302
9218.000000;0.694324
9217.000000;0.694223
9216.000000;0.694278
9215.000000;0.694435
9214.000000;0.694410
9213.000000;0.694189
9212.000000;0.694062
9211.000000;0.694112
9210.000000;0.694007
9209.000000;0.693443
9208.000000;0.692618
9207.000000;0.692074
9206.000000;0.692184
9205.000000;0.692837
9204.000000;0.693524
9203.000000;0.693679
9202.000000;0.693087
9201.000000;0.692053
9200.000000;0.691106
9199.000000;0.690504
9198.000000;0.690113
9197.000000;0.689753
9196.000000;0.689456
9195.000000;0.689356
9194.000000;0.689534
9193.000000;0.690024
9192.000000;0.690768
9191.000000;0.691438
9190.000000;0.691580
9189.000000;0.691106
9188.000000;0.690505
9187.000000;0.690343
9186.000000;0.690651
9185.000000;0.690970
9184.000000;0.690895
9183.000000;0.690355
9182.000000;0.689482
9181.000000;0.688460
9180.000000;0.687570
9179.000000;0.687138
9178.000000;0.687314
9177.000000;0.687940
9176.000000;0.688687
9175.000000;0.689278
9174.000000;0.689634
9173.000000;0.689893
9172.000000;0.690271
9171.000000;0.690754
9170.000000;0.690904
9169.000000;0.690148
9168.000000;0.688412
9167.000000;0.686414
9166.000000;0.685186
9165.000000;0.685241
9164.000000;0.686212
9163.000000;0.687309
9162.000000;0.688029
9161.000000;0.688385
9160.000000;0.688511
9159.000000;0.688293
9158.000000;0.687538
9157.000000;0.686373
9156.000000;0.685272
9155.000000;0.684643
9154.000000;0.684517
9153.000000;0.684684
9152.000000;0.684969
9151.000000;0.685308
9150.000000;0.685686
9149.000000;0.686097
9148.000000;0.686519
9147.000000;0.686856
9146.000000;0.686986
9145.000000;0.686879
9144.000000;0.686570
9143.000000;0.686009
9142.000000;0.685132
9141.000000;0.684146
9140.000000;0.683500
9139.000000;0.683415
9138.000000;0.683590
9137.000000;0.683579
9136.000000;0.683348
9135.000000;0.683209
9134.000000;0.683340
9133.000000;0.683623
9132.000000;0.683927
9131.000000;0.684214
9130.000000;0.684331
9129.000000;0.683991
9128.000000;0.683136
9127.000000;0.682143
9126.000000;0.681501
9125.000000;0.681382
9124.000000;0.681607
9123.000000;0.681899
9122.000000;0.682065
9121.000000;0.682037
9120.000000;0.681903
9119.000000;0.681856
9118.000000;0.681997
9117.000000;0.682199
9116.000000;0.682264
9115.000000;0.682182
9114.000000;0.682134
9113.000000;0.682263
9112.000000;0.682488
9111.000000;0.682574
9110.000000;0.682357
9109.000000;0.681897
9108.000000;0.681414
9107.000000;0.681074
9106.000000;0.680858
9105.000000;0.680655
9104.000000;0.680441
9103.000000;0.680299
9102.000000;0.680286
9101.000000;0.680355
9100.000000;0.680439
9099.000000;0.680534
9098.000000;0.680663
9097.000000;0.680810
9096.000000;0.680917
9095.000000;0.680920
9094.000000;0.680760
9093.000000;0.680389
9092.000000;0.679802
9091.000000;0.679054
9090.000000;0.678244
9089.000000;0.677541
9088.000000;0.677197
9087.000000;0.677433
9086.000000;0.678205
9085.000000;0.679112
9084.000000;0.679616
9083.000000;0.679407
9082.000000;0.678621
9081.000000;0.677755
9080.000000;0.677330
9079.000000;0.677505
9078.000000;0.677963
9077.000000;0.678248
9076.000000;0.678248
9075.000000;0.678272
9074.000000;0.678579
9073.000000;0.678964
9072.000000;0.678959
9071.000000;0.678388
9070.000000;0.677570
9069.000000;0.676937
9068.000000;0.676638
9067.000000;0.676576
9066.000000;0.676673
9065.000000;0.676909
9064.000000;0.677132
9063.000000;0.677037
9062.000000;0.676481
9061.000000;0.675757
9060.000000;0.675390
9059.000000;0.675624
9058.000000;0.676179
9057.000000;0.676560
9056.000000;0.676528
9055.000000;0.676203
9054.000000;0.675789
9053.000000;0.675409
9052.000000;0.675218
9051.000000;0.675449
9050.000000;0.676141
9049.000000;0.676920
9048.000000;0.677258
9047.000000;0.676974
9046.000000;0.676338
9045.000000;0.675674
9044.000000;0.675058
9043.000000;0.674473
9042.000000;0.674074
9041.000000;0.674104
9040.000000;0.674589
9039.000000;0.675270
9038.000000;0.675814
9037.000000;0.676005
9036.000000;0.675776
9035.000000;0.675214
9034.000000;0.674570
9033.000000;0.674111
9032.000000;0.673903
9031.000000;0.673809
9030.000000;0.673736
9029.000000;0.673780
9028.000000;0.674040
9027.000000;0.674421
9026.000000;0.674698
9025.000000;0.674736
9024.000000;0.674563
9023.000000;0.674297
9022.000000;0.674088
9021.000000;0.674048
9020.000000;0.674103
9019.000000;0.673992
9018.000000;0.673568
9017.000000;0.673092
9016.000000;0.673017
9015.000000;0.673443
9014.000000;0.673932
9013.000000;0.673970
9012.000000;0.673469
9011.000000;0.672729
9010.000000;0.672070
9009.000000;0.671669
9008.000000;0.671631
9007.000000;0.671980
9006.000000;0.672541
9005.000000;0.673017
9004.000000;0.673231
9003.000000;0.673195
9002.000000;0.672933
9001.000000;0.672390
9000.000000;0.671608
8999.000000;0.670865
8998.000000;0.670486
8997.000000;0.670560
8996.000000;0.670916
8995.000000;0.671332
8994.000000;0.671648
8993.000000;0.671748
8992.000000;0.671592
8991.000000;0.671293
8990.000000;0.671046
8989.000000;0.670935
8988.000000;0.670903
8987.000000;0.670888
8986.000000;0.670886
8985.000000;0.670854
8984.000000;0.670711
8983.000000;0.670513
8982.000000;0.670466
8981.000000;0.670674
8980.000000;0.670977
8979.000000;0.671171
8978.000000;0.671258
8977.000000;0.671315
8976.000000;0.671216
8975.000000;0.670746
8974.000000;0.670019
8973.000000;0.669539
8972.000000;0.669732
8971.000000;0.670483
8970.000000;0.671245
8969.000000;0.671543
8968.000000;0.671339
8967.000000;0.670969
8966.000000;0.670785
8965.000000;0.670831
8964.000000;0.670854
8963.000000;0.670648
8962.000000;0.670298
8961.000000;0.670022
8960.000000;0.669890
8959.000000;0.669869
8958.000000;0.670079
8957.000000;0.670689
8956.000000;0.671487
8955.000000;0.671842
8954.000000;0.671322
8953.000000;0.670183
8952.000000;0.669078
8951.000000;0.668415
8950.000000;0.668174
8949.000000;0.668200
8948.000000;0.668450
8947.000000;0.668935
8946.000000;0.669592
8945.000000;0.670221
8944.000000;0.670493
8943.000000;0.670153
8942.000000;0.669372
8941.000000;0.668770
8940.000000;0.668846
8939.000000;0.669446
8938.000000;0.669995
8937.000000;0.670175
8936.000000;0.670132
8935.000000;0.670071
8934.000000;0.669980
8933.000000;0.669812
8932.000000;0.669632
8931.000000;0.669437
8930.000000;0.669063
8929.000000;0.668460
8928.000000;0.667866
8927.000000;0.667545
8926.000000;0.667484
8925.000000;0.667519
8924.000000;0.667591
8923.000000;0.667726
8922.000000;0.667863
8921.000000;0.667925
8920.000000;0.667976
8919.000000;0.668152
8918.000000;0.668400
8917.000000;0.668468
8916.000000;0.668179
8915.000000;0.667632
8914.000000;0.667105
8913.000000;0.666809
8912.000000;0.666766
8911.000000;0.666860
8910.000000;0.667007
8909.000000;0.667257
8908.000000;0.667705
8907.000000;0.668310
8906.000000;0.668889
8905.000000;0.669285
8904.000000;0.669441
8903.000000;0.669292
8902.000000;0.668761
8901.000000;0.667973
8900.000000;0.667348
8899.000000;0.667273
8898.000000;0.667696
8897.000000;0.668161
8896.000000;0.668264
8895.000000;0.667982
8894.000000;0.667595
8893.000000;0.667376
8892.000000;0.667403
8891.000000;0.667578
8890.000000;0.667767
8889.000000;0.667925
8888.000000;0.668071
8887.000000;0.668187
8886.000000;0.668214
8885.000000;0.668179
8884.000000;0.668214
8883.000000;0.668385
8882.000000;0.668593
8881.000000;0.668718
8880.000000;0.668771
8879.000000;0.668787
8878.000000;0.668681
8877.000000;0.668372
8876.000000;0.667983
8875.000000;0.667767
8874.000000;0.667833
8873.000000;0.668097
8872.000000;0.668460
8871.000000;0.668867
8870.000000;0.669179
8869.000000;0.669201
8868.000000;0.668926
8867.000000;0.668617
8866.000000;0.668548
8865.000000;0.668755
8864.000000;0.669064
8863.000000;0.669250
8862.000000;0.669139
8861.000000;0.668735
8860.000000;0.668341
8859.000000;0.668367
8858.000000;0.668850
8857.000000;0.669287
8856.000000;0.669171
8855.000000;0.668599
8854.000000;0.668137
8853.000000;0.668146
8852.000000;0.668468
8851.000000;0.668761
8850.000000;0.668873
8849.000000;0.668792
8848.000000;0.668494
8847.000000;0.668036
8846.000000;0.667697
8845.000000;0.667792
8844.000000;0.668373
8843.000000;0.669205
8842.000000;0.669994
8841.000000;0.670550
8840.000000;0.670772
8839.000000;0.670644
8838.000000;0.670230
8837.000000;0.669614
8836.000000;0.668865
8835.000000;0.668169
8834.000000;0.667872
8833.000000;0.668187
8832.000000;0.668868
8831.000000;0.669389
8830.000000;0.669521
8829.000000;0.669530
8828.000000;0.669712
8827.000000;0.669965
8826.000000;0.669978
8825.000000;0.669696
8824.000000;0.669383
8823.000000;0.669249
8822.000000;0.669272
8821.000000;0.669365
8820.000000;0.669540
8819.000000;0.669816
8818.000000;0.670085
8817.000000;0.670164
8816.000000;0.669936
8815.000000;0.669465
8814.000000;0.669021
8813.000000;0.668951
8812.000000;0.669403
8811.000000;0.670150
8810.000000;0.670787
8809.000000;0.671161
8808.000000;0.671515
8807.000000;0.672134
8806.000000;0.672926
8805.000000;0.673405
8804.000000;0.673123
8803.000000;0.672146
8802.000000;0.671138
8801.000000;0.670908
8800.000000;0.671712
8799.000000;0.672984
8798.000000;0.673851
8797.000000;0.673953
8796.000000;0.673677
8795.000000;0.673604
8794.000000;0.673887
8793.000000;0.674246
8792.000000;0.674389
8791.000000;0.674292
8790.000000;0.674147
8789.000000;0.674177
8788.000000;0.674473
8787.000000;0.674914
8786.000000;0.675221
8785.000000;0.675182
8784.000000;0.674867
8783.000000;0.674578
8782.000000;0.674587
8781.000000;0.674933
8780.000000;0.675431
8779.000000;0.675830
8778.000000;0.675974
8777.000000;0.675858
8776.000000;0.675582
8775.000000;0.675289
8774.000000;0.675162
8773.000000;0.675397
8772.000000;0.676037
8771.000000;0.676832
8770.000000;0.677392
8769.000000;0.677533
8768.000000;0.677395
8767.000000;0.677192
8766.000000;0.676990
8765.000000;0.676836
8764.000000;0.676951
8763.000000;0.677577
8762.000000;0.678643
8761.000000;0.679724
8760.000000;0.680367
8759.000000;0.680412
8758.000000;0.680035
8757.000000;0.679599
8756.000000;0.679471
8755.000000;0.679806
8754.000000;0.680413
8753.000000;0.680902
8752.000000;0.681051
8751.000000;0.681020
8750.000000;0.681163
8749.000000;0.681644
8748.000000;0.682309
8747.000000;0.682910
8746.000000;0.683357
8745.000000;0.683677
8744.000000;0.683821
8743.000000;0.683663
8742.000000;0.683258
8741.000000;0.682942
8740.000000;0.683009
8739.000000;0.683367
8738.000000;0.683684
8737.000000;0.683858
8736.000000;0.684119
8735.000000;0.684625
8734.000000;0.685195
8733.000000;0.685568
8732.000000;0.685754
8731.000000;0.685926
8730.000000;0.686111
8729.000000;0.686206
8728.000000;0.686213
8727.000000;0.686237
8726.000000;0.686303
8725.000000;0.686376
8724.000000;0.686542
8723.000000;0.686927
8722.000000;0.687424
8721.000000;0.687736
8720.000000;0.687748
8719.000000;0.687654
8718.000000;0.687642
8717.000000;0.687703
8716.000000;0.687862
8715.000000;0.688315
8714.000000;0.689115
8713.000000;0.689879
8712.000000;0.690103
8711.000000;0.689732
8710.000000;0.689207
8709.000000;0.688971
8708.000000;0.689109
8707.000000;0.689468
8706.000000;0.689875
8705.000000;0.690182
8704.000000;0.690306
8703.000000;0.690369
8702.000000;0.690666
8701.000000;0.691331
8700.000000;0.692100
8699.000000;0.692554
8698.000000;0.692568
8697.000000;0.692393
8696.000000;0.692305
8695.000000;0.692331
8694.000000;0.692374
8693.000000;0.692460
8692.000000;0.692724
8691.000000;0.693195
8690.000000;0.693712
8689.000000;0.694110
8688.000000;0.694391
8687.000000;0.694636
8686.000000;0.694777
8685.000000;0.694585
8684.000000;0.693939
8683.000000;0.693095
8682.000000;0.692590
8681.000000;0.692823
8680.000000;0.693681
8679.000000;0.694606
8678.000000;0.695088
8677.000000;0.695080
8676.000000;0.694935
8675.000000;0.694961
8674.000000;0.695127
8673.000000;0.695243
8672.000000;0.695280
8671.000000;0.695373
8670.000000;0.695548
8669.000000;0.695659
8668.000000;0.695656
8667.000000;0.695768
8666.000000;0.696250
8665.000000;0.697014
8664.000000;0.697676
8663.000000;0.697966
8662.000000;0.697956
8661.000000;0.697853
8660.000000;0.697742
8659.000000;0.697608
8658.000000;0.697486
8657.000000;0.697457
8656.000000;0.697540
8655.000000;0.697697
8654.000000;0.697889
8653.000000;0.698013
8652.000000;0.697879
8651.000000;0.697439
8650.000000;0.697024
8649.000000;0.697113
8648.000000;0.697767
8647.000000;0.698466
8646.000000;0.698653
8645.000000;0.698344
8644.000000;0.698031
8643.000000;0.698077
8642.000000;0.698392
8641.000000;0.698690
8640.000000;0.698850
8639.000000;0.698964
8638.000000;0.699145
8637.000000;0.699395
8636.000000;0.699590
8635.000000;0.699590
8634.000000;0.699394
8633.000000;0.699208
8632.000000;0.699272
8631.000000;0.699597
8630.000000;0.699953
8629.000000;0.700123
8628.000000;0.700083
8627.000000;0.699931
8626.000000;0.699743
8625.000000;0.699541
8624.000000;0.699311
8623.000000;0.699040
8622.000000;0.698803
8621.000000;0.698809
8620.000000;0.699217
8619.000000;0.699837
8618.000000;0.700211
8617.000000;0.700101
8616.000000;0.699773
8615.000000;0.699669
8614.000000;0.699912
8613.000000;0.700283
8612.000000;0.700553
8611.000000;0.700632
8610.000000;0.700456
8609.000000;0.699995
8608.000000;0.699411
8607.000000;0.699034
8606.000000;0.699066
8605.000000;0.699421
8604.000000;0.699882
8603.000000;0.700313
8602.000000;0.700686
8601.000000;0.701026
8600.000000;0.701391
8599.000000;0.701830
8598.000000;0.702294
8597.000000;0.702654
8596.000000;0.702818
8595.000000;0.702752
8594.000000;0.702410
8593.000000;0.701788
8592.000000;0.701080
8591.000000;0.700633
8590.000000;0.700639
8589.000000;0.700974
8588.000000;0.701398
8587.000000;0.701814
8586.000000;0.702229
8585.000000;0.702577
8584.000000;0.702726
8583.000000;0.702628
8582.000000;0.702388
8581.000000;0.702168
8580.000000;0.702073
8579.000000;0.702086
8578.000000;0.702087
8577.000000;0.701951
8576.000000;0.701679
8575.000000;0.701383
8574.000000;0.701159
8573.000000;0.701044
8572.000000;0.701069
8571.000000;0.701240
8570.000000;0.701430
8569.000000;0.701448
8568.000000;0.701308
8567.000000;0.701271
8566.000000;0.701521
8565.000000;0.701926
8564.000000;0.702248
8563.000000;0.702443
8562.000000;0.702573
8561.000000;0.702555
8560.000000;0.702245
8559.000000;0.701719
8558.000000;0.701232
8557.000000;0.700904
8556.000000;0.700697
8555.000000;0.700682
8554.000000;0.701052
8553.000000;0.701754
8552.000000;0.702328
8551.000000;0.702338
8550.000000;0.701846
8549.000000;0.701306
8548.000000;0.701098
8547.000000;0.701285
8546.000000;0.701718
8545.000000;0.702194
8544.000000;0.702546
8543.000000;0.702700
8542.000000;0.702683
8541.000000;0.702536
8540.000000;0.702263
8539.000000;0.701913
8538.000000;0.701651
8537.000000;0.701619
8536.000000;0.701775
8535.000000;0.701915
8534.000000;0.701849
8533.000000;0.701523
8532.000000;0.701058
8531.000000;0.700744
8530.000000;0.700869
8529.000000;0.701411
8528.000000;0.701924
8527.000000;0.701907
8526.000000;0.701321
8525.000000;0.700649
8524.000000;0.700451
8523.000000;0.700921
8522.000000;0.701810
8521.000000;0.702627
8520.000000;0.702937
8519.000000;0.702673
8518.000000;0.702224
8517.000000;0.702080
8516.000000;0.702319
8515.000000;0.702562
8514.000000;0.702475
8513.000000;0.702155
8512.000000;0.701919
8511.000000;0.701871
8510.000000;0.701849
8509.000000;0.701733
8508.000000;0.701606
8507.000000;0.701621
8506.000000;0.701846
8505.000000;0.702228
8504.000000;0.702584
8503.000000;0.702655
8502.000000;0.702327
8501.000000;0.701843
8500.000000;0.701657
8499.000000;0.702006
8498.000000;0.702688
8497.000000;0.703308
8496.000000;0.703647
8495.000000;0.703725
8494.000000;0.703629
8493.000000;0.703419
8492.000000;0.703164
8491.000000;0.702923
8490.000000;0.702681
8489.000000;0.702381
8488.000000;0.702076
8487.000000;0.701962
8486.000000;0.702213
8485.000000;0.702768
8484.000000;0.703313
8483.000000;0.703496
8482.000000;0.703206
8481.000000;0.702665
8480.000000;0.702246
8479.000000;0.702159
8478.000000;0.702332
8477.000000;0.702564
8476.000000;0.702734
8475.000000;0.702849
8474.000000;0.702927
8473.000000;0.702940
8472.000000;0.702867
8471.000000;0.702741
8470.000000;0.702637
8469.000000;0.702637
8468.000000;0.702803
8467.000000;0.703124
8466.000000;0.703508
8465.000000;0.703848
8464.000000;0.704107
8463.000000;0.704310
8462.000000;0.704491
8461.000000;0.704667
8460.000000;0.704832
8459.000000;0.704916
8458.000000;0.704798
8457.000000;0.704457
8456.000000;0.704073
8455.000000;0.703888
8454.000000;0.703974
8453.000000;0.704226
8452.000000;0.704561
8451.000000;0.704999
8450.000000;0.705486
8449.000000;0.705802
8448.000000;0.705755
8447.000000;0.705393
8446.000000;0.704929
8445.000000;0.704527
8444.000000;0.704249
8443.000000;0.704140
8442.000000;0.704221
8441.000000;0.704444
8440.000000;0.704741
8439.000000;0.705097
8438.000000;0.705482
8437.000000;0.705745
8436.000000;0.705704
8435.000000;0.705335
8434.000000;0.704780
8433.000000;0.704194
8432.000000;0.703724
8431.000000;0.703583
8430.000000;0.703956
8429.000000;0.704722
8428.000000;0.705414
8427.000000;0.705584
8426.000000;0.705207
8425.000000;0.704673
8424.000000;0.704409
8423.000000;0.704537
8422.000000;0.704843
8421.000000;0.705031
8420.000000;0.705022
8419.000000;0.705011
8418.000000;0.705208
8417.000000;0.705553
8416.000000;0.705764
8415.000000;0.705670
8414.000000;0.705398
8413.000000;0.705215
8412.000000;0.705299
8411.000000;0.705652
8410.000000;0.706124
8409.000000;0.706468
8408.000000;0.706494
8407.000000;0.706289
8406.000000;0.706153
8405.000000;0.706258
8404.000000;0.706451
8403.000000;0.706506
8402.000000;0.706436
8401.000000;0.706380
8400.000000;0.706304
8399.000000;0.706043
8398.000000;0.705612
8397.000000;0.705246
8396.000000;0.705087
8395.000000;0.705056
8394.000000;0.705089
8393.000000;0.705328
8392.000000;0.705917
8391.000000;0.706757
8390.000000;0.707594
8389.000000;0.708272
8388.000000;0.708764
8387.000000;0.709024
8386.000000;0.708980
8385.000000;0.708653
8384.000000;0.708158
8383.000000;0.707582
8382.000000;0.706992
8381.000000;0.706534
8380.000000;0.706382
8379.000000;0.706522
8378.000000;0.706734
8377.000000;0.706852
8376.000000;0.706935
8375.000000;0.707067
8374.000000;0.707098
8373.000000;0.706788
8372.000000;0.706205
8371.000000;0.705787
8370.000000;0.705930
8369.000000;0.706600
8368.000000;0.707401
8367.000000;0.707923
8366.000000;0.707968
8365.000000;0.707563
8364.000000;0.706958
8363.000000;0.706568
8362.000000;0.706704
8361.000000;0.707278
8360.000000;0.707867
8359.000000;0.708116
8358.000000;0.708024
8357.000000;0.707807
8356.000000;0.707624
8355.000000;0.707520
8354.000000;0.707527
8353.000000;0.707672
8352.000000;0.707907
8351.000000;0.708152
8350.000000;0.708385
8349.000000;0.708603
8348.000000;0.708714
8347.000000;0.708580
8346.000000;0.708203
8345.000000;0.707787
8344.000000;0.707580
8343.000000;0.707696
8342.000000;0.708067
8341.000000;0.708495
8340.000000;0.708749
8339.000000;0.708721
8338.000000;0.708526
8337.000000;0.708374
8336.000000;0.708335
8335.000000;0.708288
8334.000000;0.708134
8333.000000;0.707935
8332.000000;0.707819
8331.000000;0.707803
8330.000000;0.707831
8329.000000;0.707895
8328.000000;0.708047
8327.000000;0.708302
8326.000000;0.708658
8325.000000;0.709168
8324.000000;0.709891
8323.000000;0.710717
8322.000000;0.711331
8321.000000;0.711449
8320.000000;0.711083
8319.000000;0.710510
8318.000000;0.709990
8317.000000;0.709561
8316.000000;0.709150
8315.000000;0.708828
8314.000000;0.708816
8313.000000;0.709188
8312.000000;0.709638
8311.000000;0.709685
8310.000000;0.709127
8309.000000;0.708227
8308.000000;0.707412
8307.000000;0.706916
8306.000000;0.706786
8305.000000;0.707094
8304.000000;0.707915
8303.000000;0.709036
8302.000000;0.709910
8301.000000;0.710080
8300.000000;0.709643
8299.000000;0.709159
8298.000000;0.709091
8297.000000;0.709417
8296.000000;0.709790
8295.000000;0.709934
8294.000000;0.709809
8293.000000;0.709493
8292.000000;0.709098
8291.000000;0.708822
8290.000000;0.708916
8289.000000;0.709436
8288.000000;0.710084
8287.000000;0.710459
8286.000000;0.710463
8285.000000;0.710371
8284.000000;0.710432
8283.000000;0.710550
8282.000000;0.710448
8281.000000;0.710105
8280.000000;0.709858
8279.000000;0.710007
8278.000000;0.710432
8277.000000;0.710687
8276.000000;0.710487
8275.000000;0.710012
8274.000000;0.709684
8273.000000;0.709716
8272.000000;0.709944
8271.000000;0.710083
8270.000000;0.710034
8269.000000;0.709913
8268.000000;0.709851
8267.000000;0.709883
8266.000000;0.709979
8265.000000;0.710095
8264.000000;0.710163
8263.000000;0.710142
8262.000000;0.710088
8261.000000;0.710122
8260.000000;0.710266
8259.000000;0.710396
8258.000000;0.710411
8257.000000;0.710405
8256.000000;0.710574
8255.000000;0.710945
8254.000000;0.711308
8253.000000;0.711435
8252.000000;0.711299
8251.000000;0.711059
8250.000000;0.710876
8249.000000;0.710813
8248.000000;0.710842
8247.000000;0.710886
8246.000000;0.710880
8245.000000;0.710846
8244.000000;0.710905
8243.000000;0.711155
8242.000000;0.711531
8241.000000;0.711846
8240.000000;0.711974
8239.000000;0.711955
8238.000000;0.711899
8237.000000;0.711852
8236.000000;0.711813
8235.000000;0.711814
8234.000000;0.711918
8233.000000;0.712124
8232.000000;0.712341
8231.000000;0.712463
8230.000000;0.712433
8229.000000;0.712262
8228.000000;0.712041
8227.000000;0.711922
8226.000000;0.711976
8225.000000;0.712080
8224.000000;0.712049
8223.000000;0.711923
8222.000000;0.711998
8221.000000;0.712497
8220.000000;0.713273
8219.000000;0.713957
8218.000000;0.714319
8217.000000;0.714348
8216.000000;0.714071
8215.000000;0.713518
8214.000000;0.712903
8213.000000;0.712608
8212.000000;0.712821
8211.000000;0.713290
8210.000000;0.713571
8209.000000;0.713490
8208.000000;0.713246
8207.000000;0.713114
8206.000000;0.713194
8205.000000;0.713430
8204.000000;0.713748
8203.000000;0.714073
8202.000000;0.714300
8201.000000;0.714315
8200.000000;0.714070
8199.000000;0.713624
8198.000000;0.713149
8197.000000;0.712869
8196.000000;0.712929
8195.000000;0.713250
8194.000000;0.713561
8193.000000;0.713617
8192.000000;0.713396
8191.000000;0.713061
8190.000000;0.712769
8189.000000;0.712570
8188.000000;0.712478
8187.000000;0.712545
8186.000000;0.712802
8185.000000;0.713165
8184.000000;0.713469
8183.000000;0.713617
8182.000000;0.713656
8181.000000;0.713690
8180.000000;0.713767
8179.000000;0.713883
8178.000000;0.714054
8177.000000;0.714320
8176.000000;0.714669
8175.000000;0.715029
8174.000000;0.715328
8173.000000;0.715522
8172.000000;0.715557
8171.000000;0.715405
8170.000000;0.715163
8169.000000;0.715039
8168.000000;0.715134
8167.000000;0.715292
8166.000000;0.715244
8165.000000;0.714912
8164.000000;0.714470
8163.000000;0.714132
8162.000000;0.713990
8161.000000;0.714074
8160.000000;0.714417
8159.000000;0.714960
8158.000000;0.715447
8157.000000;0.715572
8156.000000;0.715273
8155.000000;0.714816
8154.000000;0.714572
8153.000000;0.714732
8152.000000;0.715208
8151.000000;0.715743
8150.000000;0.716103
8149.000000;0.716222
8148.000000;0.716189
8147.000000;0.716106
8146.000000;0.715975
8145.000000;0.715790
8144.000000;0.715679
8143.000000;0.715834
8142.000000;0.716274
8141.000000;0.716756
8140.000000;0.717006
8139.000000;0.716984
8138.000000;0.716872
8137.000000;0.716858
8136.000000;0.716990
8135.000000;0.717205
8134.000000;0.717397
8133.000000;0.717456
8132.000000;0.717334
8131.000000;0.717091
8130.000000;0.716832
8129.000000;0.716604
8128.000000;0.716379
8127.000000;0.716141
8126.000000;0.715908
8125.000000;0.715678
8124.000000;0.715421
8123.000000;0.715179
8122.000000;0.715097
8121.000000;0.715299
8120.000000;0.715743
8119.000000;0.716237
8118.000000;0.716591
8117.000000;0.716750
8116.000000;0.716812
8115.000000;0.716942
8114.000000;0.717216
8113.000000;0.717531
8112.000000;0.717720
8111.000000;0.717774
8110.000000;0.717879
8109.000000;0.718153
8108.000000;0.718427
8107.000000;0.718409
8106.000000;0.718057
8105.000000;0.717645
8104.000000;0.717437
8103.000000;0.717403
8102.000000;0.717320
8101.000000;0.717082
8100.000000;0.716798
8099.000000;0.716628
8098.000000;0.716623
8097.000000;0.716751
8096.000000;0.716968
8095.000000;0.717226
8094.000000;0.717473
8093.000000;0.717713
8092.000000;0.718013
8091.000000;0.718388
8090.000000;0.718713
8089.000000;0.718835
8088.000000;0.718785
8087.000000;0.718753
8086.000000;0.718831
8085.000000;0.718885
8084.000000;0.718761
8083.000000;0.718542
8082.000000;0.718450
8081.000000;0.718546
8080.000000;0.718659
8079.000000;0.718636
8078.000000;0.718535
8077.000000;0.718521
8076.000000;0.718671
8075.000000;0.718954
8074.000000;0.719293
8073.000000;0.719556
8072.000000;0.719587
8071.000000;0.719366
8070.000000;0.719116
8069.000000;0.719118
8068.000000;0.719379
8067.000000;0.719612
8066.000000;0.719585
8065.000000;0.719424
8064.000000;0.719476
8063.000000;0.719913
8062.000000;0.720507
8061.000000;0.720836
8060.000000;0.720683
8059.000000;0.720224
8058.000000;0.719842
8057.000000;0.719792
8056.000000;0.720073
8055.000000;0.720533
8054.000000;0.720987
8053.000000;0.721242
8052.000000;0.721167
8051.000000;0.720851
8050.000000;0.720607
8049.000000;0.720663
8048.000000;0.720880
8047.000000;0.720889
8046.000000;0.720532
8045.000000;0.720042
8044.000000;0.719771
8043.000000;0.719853
8042.000000;0.720183
8041.000000;0.720624
8040.000000;0.721096
8039.000000;0.721505
8038.000000;0.721729
8037.000000;0.721715
8036.000000;0.721559
8035.000000;0.721437
8034.000000;0.721461
8033.000000;0.721621
8032.000000;0.721834
8031.000000;0.722040
8030.000000;0.722229
8029.000000;0.722386
8028.000000;0.722465
8027.000000;0.722429
8026.000000;0.722298
8025.000000;0.722119
8024.000000;0.721929
8023.000000;0.721778
8022.000000;0.721742
8021.000000;0.721837
8020.000000;0.721934
8019.000000;0.721867
8018.000000;0.721639
8017.000000;0.721460
8016.000000;0.721530
8015.000000;0.721849
8014.000000;0.722256
8013.000000;0.722557
8012.000000;0.722622
8011.000000;0.722442
8010.000000;0.722204
8009.000000;0.722191
8008.000000;0.722507
8007.000000;0.722932
8006.000000;0.723176
8005.000000;0.723225
8004.000000;0.723314
8003.000000;0.723554
8002.000000;0.723744
8001.000000;0.723629
8000.000000;0.723222
7999.000000;0.722775
7998.000000;0.722499
7997.000000;0.722444
7996.000000;0.722594
7995.000000;0.722949
7994.000000;0.723467
7993.000000;0.724027
7992.000000;0.724505
7991.000000;0.724826
7990.000000;0.724909
7989.000000;0.724663
7988.000000;0.724116
7987.000000;0.723538
7986.000000;0.723291
7985.000000;0.723515
7984.000000;0.723998
7983.000000;0.724398
7982.000000;0.724558
7981.000000;0.724578
7980.000000;0.724623
7979.000000;0.724741
7978.000000;0.724876
7977.000000;0.724982
7976.000000;0.725076
7975.000000;0.725174
7974.000000;0.725235
7973.000000;0.725191
7972.000000;0.725049
7971.000000;0.724925
7970.000000;0.724957
7969.000000;0.725149
7968.000000;0.725345
7967.000000;0.725376
7966.000000;0.725252
7965.000000;0.725157
7964.000000;0.725266
7963.000000;0.725579
7962.000000;0.725945
7961.000000;0.726224
7960.000000;0.726387
7959.000000;0.726468
7958.000000;0.726478
7957.000000;0.726385
7956.000000;0.726193
7955.000000;0.725992
7954.000000;0.725911
7953.000000;0.726003
7952.000000;0.726177
7951.000000;0.726280
7950.000000;0.726253
7949.000000;0.726212
7948.000000;0.726365
7947.000000;0.726818
7946.000000;0.727461
7945.000000;0.728028
7944.000000;0.728290
7943.000000;0.728193
7942.000000;0.727843
7941.000000;0.727404
7940.000000;0.727013
7939.000000;0.726771
7938.000000;0.726742
7937.000000;0.726929
7936.000000;0.727257
7935.000000;0.727614
7934.000000;0.727942
7933.000000;0.728285
7932.000000;0.728721
7931.000000;0.729214
7930.000000;0.729557
7929.000000;0.729519
7928.000000;0.729100
7927.000000;0.728584
7926.000000;0.728295
7925.000000;0.728320
7924.000000;0.728496
7923.000000;0.728645
7922.000000;0.728725
7921.000000;0.728752
7920.000000;0.728707
7919.000000;0.728588
7918.000000;0.728482
7917.000000;0.728495
7916.000000;0.728606
7915.000000;0.728679
7914.000000;0.728639
7913.000000;0.728570
7912.000000;0.728622
7911.000000;0.728823
7910.000000;0.729044
7909.000000;0.729146
7908.000000;0.729143
7907.000000;0.729179
7906.000000;0.729320
7905.000000;0.729435
7904.000000;0.729355
7903.000000;0.729115
7902.000000;0.728938
7901.000000;0.728988
7900.000000;0.729228
7899.000000;0.729559
7898.000000;0.729962
7897.000000;0.730414
7896.000000;0.730746
7895.000000;0.730772
7894.000000;0.730530
7893.000000;0.730291
7892.000000;0.730291
7891.000000;0.730517
7890.000000;0.730773
7889.000000;0.730880
7888.000000;0.730802
7887.000000;0.730676
7886.000000;0.730705
7885.000000;0.730970
7884.000000;0.731328
7883.000000;0.731568
7882.000000;0.731670
7881.000000;0.731797
7880.000000;0.732022
7879.000000;0.732188
7878.000000;0.732120
7877.000000;0.731873
7876.000000;0.731666
7875.000000;0.731622
7874.000000;0.731693
7873.000000;0.731799
7872.000000;0.731949
7871.000000;0.732196
7870.000000;0.732559
7869.000000;0.733005
7868.000000;0.733457
7867.000000;0.733799
7866.000000;0.733936
7865.000000;0.733873
7864.000000;0.733731
7863.000000;0.733642
7862.000000;0.733652
7861.000000;0.733715
7860.000000;0.733781
7859.000000;0.733861
7858.000000;0.733999
7857.000000;0.734206
7856.000000;0.734420
7855.000000;0.734554
7854.000000;0.734560
7853.000000;0.734446
7852.000000;0.734248
7851.000000;0.734031
7850.000000;0.733906
7849.000000;0.733969
7848.000000;0.734189
7847.000000;0.734383
7846.000000;0.734378
7845.000000;0.734193
7844.000000;0.734025
7843.000000;0.734060
7842.000000;0.734340
7841.000000;0.734783
7840.000000;0.735269
7839.000000;0.735684
7838.000000;0.735958
7837.000000;0.736082
7836.000000;0.736099
7835.000000;0.736046
7834.000000;0.735938
7833.000000;0.735823
7832.000000;0.735826
7831.000000;0.736056
7830.000000;0.736482
7829.000000;0.736927
7828.000000;0.737210
7827.000000;0.737285
7826.000000;0.737247
7825.000000;0.737225
7824.000000;0.737286
7823.000000;0.737410
7822.000000;0.737523
7821.000000;0.737556
7820.000000;0.737504
7819.000000;0.737449
7818.000000;0.737485
7817.000000;0.737612
7816.000000;0.737742
7815.000000;0.737838
7814.000000;0.737993
7813.000000;0.738315
7812.000000;0.738732
7811.000000;0.738997
7810.000000;0.738941
7809.000000;0.738665
7808.000000;0.738430
7807.000000;0.738380
7806.000000;0.738446
7805.000000;0.738522
7804.000000;0.738643
7803.000000;0.738909
7802.000000;0.739277
7801.000000;0.739546
7800.000000;0.739594
7799.000000;0.739544
7798.000000;0.739632
7797.000000;0.739932
7796.000000;0.740287
7795.000000;0.740511
7794.000000;0.740575
7793.000000;0.740575
7792.000000;0.740581
7791.000000;0.740592
7790.000000;0.740626
7789.000000;0.740758
7788.000000;0.741053
7787.000000;0.741493
7786.000000;0.741981
7785.000000;0.742399
7784.000000;0.742661
7783.000000;0.742743
7782.000000;0.742691
7781.000000;0.742603
7780.000000;0.742556
7779.000000;0.742553
7778.000000;0.742543
7777.000000;0.742494
7776.000000;0.742435
7775.000000;0.742425
7774.000000;0.742496
7773.000000;0.742641
7772.000000;0.742853
7771.000000;0.743138
7770.000000;0.743484
7769.000000;0.743810
7768.000000;0.744005
7767.000000;0.744015
7766.000000;0.743903
7765.000000;0.743791
7764.000000;0.743766
7763.000000;0.743842
7762.000000;0.744011
7761.000000;0.744278
7760.000000;0.744628
7759.000000;0.744993
7758.000000;0.745268
7757.000000;0.745392
7756.000000;0.745392
7755.000000;0.745351
7754.000000;0.745348
7753.000000;0.745440
7752.000000;0.745636
7751.000000;0.745882
7750.000000;0.746069
7749.000000;0.746124
7748.000000;0.746100
7747.000000;0.746119
7746.000000;0.746227
7745.000000;0.746354
7744.000000;0.746439
7743.000000;0.746547
7742.000000;0.746793
7741.000000;0.747181
7740.000000;0.747581
7739.000000;0.747866
7738.000000;0.748029
7737.000000;0.748145
7736.000000;0.748280
7735.000000;0.748442
7734.000000;0.748589
7733.000000;0.748679
7732.000000;0.748720
7731.000000;0.748775
7730.000000;0.748887
7729.000000;0.749020
7728.000000;0.749118
7727.000000;0.749207
7726.000000;0.749385
7725.000000;0.749699
7724.000000;0.750088
7723.000000;0.750465
7722.000000;0.750803
7721.000000;0.751112
7720.000000;0.751378
7719.000000;0.751566
7718.000000;0.751658
7717.000000;0.751690
7716.000000;0.751755
7715.000000;0.751952
7714.000000;0.752283
7713.000000;0.752598
7712.000000;0.752734
7711.000000;0.752715
7710.000000;0.752730
7709.000000;0.752904
7708.000000;0.753164
7707.000000;0.753365
7706.000000;0.753471
7705.000000;0.753539
7704.000000;0.753600
7703.000000;0.753641
7702.000000;0.753664
7701.000000;0.753699
7700.000000;0.753781
7699.000000;0.753962
7698.000000;0.754281
7697.000000;0.754670
7696.000000;0.754966
7695.000000;0.755088
7694.000000;0.755163
7693.000000;0.755372
7692.000000;0.755723
7691.000000;0.756050
7690.000000;0.756217
7689.000000;0.756233
7688.000000;0.756194
7687.000000;0.756201
7686.000000;0.756318
7685.000000;0.756536
7684.000000;0.756775
7683.000000;0.756976
7682.000000;0.757177
7681.000000;0.757425
7680.000000;0.757662
7679.000000;0.757794
7678.000000;0.757846
7677.000000;0.757944
7676.000000;0.758137
7675.000000;0.758359
7674.000000;0.758577
7673.000000;0.758867
7672.000000;0.759282
7671.000000;0.759746
7670.000000;0.760124
7669.000000;0.760344
7668.000000;0.760413
7667.000000;0.760388
7666.000000;0.760377
7665.000000;0.760505
7664.000000;0.760802
7663.000000;0.761158
7662.000000;0.761434
7661.000000;0.761604
7660.000000;0.761769
7659.000000;0.762031
7658.000000;0.762378
7657.000000;0.762699
7656.000000;0.762907
7655.000000;0.763044
7654.000000;0.763235
7653.000000;0.763507
7652.000000;0.763736
7651.000000;0.763817
7650.000000;0.763829
7649.000000;0.763933
7648.000000;0.764128
7647.000000;0.764263
7646.000000;0.764275
7645.000000;0.764283
7644.000000;0.764411
7643.000000;0.764625
7642.000000;0.764832
7641.000000;0.765042
7640.000000;0.765356
7639.000000;0.765833
7638.000000;0.766435
7637.000000;0.767043
7636.000000;0.767493
7635.000000;0.767672
7634.000000;0.767640
7633.000000;0.767602
7632.000000;0.767695
7631.000000;0.767864
7630.000000;0.767997
7629.000000;0.768126
7628.000000;0.768385
7627.000000;0.768829
7626.000000;0.769377
7625.000000;0.769922
7624.000000;0.770393
7623.000000;0.770733
7622.000000;0.770910
7621.000000;0.770999
7620.000000;0.771160
7619.000000;0.771504
7618.000000;0.771983
7617.000000;0.772445
7616.000000;0.772764
7615.000000;0.772910
7614.000000;0.772929
7613.000000;0.772897
7612.000000;0.772905
7611.000000;0.773038
7610.000000;0.773349
7609.000000;0.773800
7608.000000;0.774270
7607.000000;0.774644
7606.000000;0.774914
7605.000000;0.775151
7604.000000;0.775395
7603.000000;0.775627
7602.000000;0.775854
7601.000000;0.776125
7600.000000;0.776428
7599.000000;0.776636
7598.000000;0.776651
7597.000000;0.776564
7596.000000;0.776596
7595.000000;0.776866
7594.000000;0.777307
7593.000000;0.777790
7592.000000;0.778267
7591.000000;0.778749
7590.000000;0.779201
7589.000000;0.779539
7588.000000;0.779731
7587.000000;0.779860
7586.000000;0.780077
7585.000000;0.780476
7584.000000;0.781037
7583.000000;0.781654
7582.000000;0.782211
7581.000000;0.782637
7580.000000;0.782921
7579.000000;0.783106
7578.000000;0.783254
7577.000000;0.783394
7576.000000;0.783523
7575.000000;0.783657
7574.000000;0.783859
7573.000000;0.784170
7572.000000;0.784531
7571.000000;0.784853
7570.000000;0.785149
7569.000000;0.785535
7568.000000;0.786070
7567.000000;0.786659
7566.000000;0.787155
7565.000000;0.787493
7564.000000;0.787691
7563.000000;0.787807
7562.000000;0.787937
7561.000000;0.788215
7560.000000;0.788723
7559.000000;0.789397
7558.000000;0.790054
7557.000000;0.790531
7556.000000;0.790774
7555.000000;0.790866
7554.000000;0.790993
7553.000000;0.791321
7552.000000;0.791848
7551.000000;0.792400
7550.000000;0.792823
7549.000000;0.793158
7548.000000;0.793531
7547.000000;0.793950
7546.000000;0.794307
7545.000000;0.794587
7544.000000;0.794905
7543.000000;0.795307
7542.000000;0.795664
7541.000000;0.795870
7540.000000;0.796057
7539.000000;0.796459
7538.000000;0.797082
7537.000000;0.797648
7536.000000;0.797911
7535.000000;0.797940
7534.000000;0.798020
7533.000000;0.798339
7532.000000;0.798840
7531.000000;0.799353
7530.000000;0.799787
7529.000000;0.800158
7528.000000;0.800515
7527.000000;0.800894
7526.000000;0.801301
7525.000000;0.801705
7524.000000;0.802041
7523.000000;0.802271
7522.000000;0.802445
7521.000000;0.802693
7520.000000;0.803122
7519.000000;0.803730
7518.000000;0.804418
7517.000000;0.805080
7516.000000;0.805677
7515.000000;0.806222
7514.000000;0.806707
7513.000000;0.807069
7512.000000;0.807279
7511.000000;0.807468
7510.000000;0.807867
7509.000000;0.808563
7508.000000;0.809343
7507.000000;0.809877
7506.000000;0.810073
7505.000000;0.810181
7504.000000;0.810509
7503.000000;0.811099
7502.000000;0.811714
7501.000000;0.812109
7500.000000;0.812278
7499.000000;0.812441
7498.000000;0.812826
7497.000000;0.813451
7496.000000;0.814095
7495.000000;0.814510
7494.000000;0.814655
7493.000000;0.814743
7492.000000;0.815035
7491.000000;0.815608
7490.000000;0.816315
7489.000000;0.816930
7488.000000;0.817337
7487.000000;0.817583
7486.000000;0.817804
7485.000000;0.818094
7484.000000;0.818458
7483.000000;0.818872
7482.000000;0.819343
7481.000000;0.819892
7480.000000;0.820489
7479.000000;0.821050
7478.000000;0.821509
7477.000000;0.821849
7476.000000;0.822104
7475.000000;0.822354
7474.000000;0.822687
7473.000000;0.823118
7472.000000;0.823563
7471.000000;0.823965
7470.000000;0.824419
7469.000000;0.825056
7468.000000;0.825826
7467.000000;0.826495
7466.000000;0.826916
7465.000000;0.827183
7464.000000;0.827467
7463.000000;0.827793
7462.000000;0.828069
7461.000000;0.828251
7460.000000;0.828401
7459.000000;0.828608
7458.000000;0.828953
7457.000000;0.829516
7456.000000;0.830309
7455.000000;0.831194
7454.000000;0.831950
7453.000000;0.832441
7452.000000;0.832706
7451.000000;0.832873
7450.000000;0.833041
7449.000000;0.833251
7448.000000;0.833514
7447.000000;0.833856
7446.000000;0.834315
7445.000000;0.834874
7444.000000;0.835408
7443.000000;0.835758
7442.000000;0.835915
7441.000000;0.836064
7440.000000;0.836391
7439.000000;0.836883
7438.000000;0.837391
7437.000000;0.837846
7436.000000;0.838298
7435.000000;0.838775
7434.000000;0.839200
7433.000000;0.839506
7432.000000;0.839758
7431.000000;0.840093
7430.000000;0.840595
7429.000000;0.841247
7428.000000;0.841960
7427.000000;0.842631
7426.000000;0.843183
7425.000000;0.843590
7424.000000;0.843857
7423.000000;0.844005
7422.000000;0.844084
7421.000000;0.844206
7420.000000;0.844482
7419.000000;0.844931
7418.000000;0.845486
7417.000000;0.846075
7416.000000;0.846677
7415.000000;0.847259
7414.000000;0.847760
7413.000000;0.848153
7412.000000;0.848487
7411.000000;0.848805
7410.000000;0.849064
7409.000000;0.849208
7408.000000;0.849312
7407.000000;0.849562
7406.000000;0.850072
7405.000000;0.850757
7404.000000;0.851437
7403.000000;0.852003
7402.000000;0.852444
7401.000000;0.852782
7400.000000;0.853054
7399.000000;0.853352
7398.000000;0.853776
7397.000000;0.854304
7396.000000;0.854784
7395.000000;0.855109
7394.000000;0.855335
7393.000000;0.855587
7392.000000;0.855884
7391.000000;0.856162
7390.000000;0.856434
7389.000000;0.856805
7388.000000;0.857307
7387.000000;0.857830
7386.000000;0.858266
7385.000000;0.858644
7384.000000;0.859052
7383.000000;0.859500
7382.000000;0.859934
7381.000000;0.860318
7380.000000;0.860647
7379.000000;0.860911
7378.000000;0.861120
7377.000000;0.861340
7376.000000;0.861661
7375.000000;0.862124
7374.000000;0.862690
7373.000000;0.863263
7372.000000;0.863721
7371.000000;0.864012
7370.000000;0.864244
7369.000000;0.864627
7368.000000;0.865252
7367.000000;0.865988
7366.000000;0.866663
7365.000000;0.867236
7364.000000;0.867716
7363.000000;0.868036
7362.000000;0.868168
7361.000000;0.868269
7360.000000;0.868541
7359.000000;0.868977
7358.000000;0.869392
7357.000000;0.869690
7356.000000;0.869977
7355.000000;0.870399
7354.000000;0.870974
7353.000000;0.871595
7352.000000;0.872129
7351.000000;0.872519
7350.000000;0.872867
7349.000000;0.873364
7348.000000;0.874049
7347.000000;0.874703
7346.000000;0.875139
7345.000000;0.875493
7344.000000;0.876027
7343.000000;0.876692
7342.000000;0.877174
7341.000000;0.877395
7340.000000;0.877670
7339.000000;0.878235
7338.000000;0.878886
7337.000000;0.879266
7336.000000;0.879335
7335.000000;0.879383
7334.000000;0.879706
7333.000000;0.880388
7332.000000;0.881275
7331.000000;0.882048
7330.000000;0.882455
7329.000000;0.882588
7328.000000;0.882864
7327.000000;0.883575
7326.000000;0.884549
7325.000000;0.885406
7324.000000;0.886041
7323.000000;0.886640
7322.000000;0.887310
7321.000000;0.887948
7320.000000;0.888464
7319.000000;0.888942
7318.000000;0.889534
7317.000000;0.890319
7316.000000;0.891260
7315.000000;0.892198
7314.000000;0.892928
7313.000000;0.893402
7312.000000;0.893838
7311.000000;0.894465
7310.000000;0.895203
7309.000000;0.895774
7308.000000;0.896142
7307.000000;0.896615
7306.000000;0.897438
7305.000000;0.898501
7304.000000;0.899562
7303.000000;0.900545
7302.000000;0.901470
7301.000000;0.902301
7300.000000;0.903042
7299.000000;0.903815
7298.000000;0.904670
7297.000000;0.905421
7296.000000;0.905899
7295.000000;0.906297
7294.000000;0.907035
7293.000000;0.908250
7292.000000;0.909598
7291.000000;0.910622
7290.000000;0.911185
7289.000000;0.911491
7288.000000;0.911835
7287.000000;0.912425
7286.000000;0.913314
7285.000000;0.914439
7284.000000;0.915721
7283.000000;0.917130
7282.000000;0.918611
7281.000000;0.919998
7280.000000;0.921119
7279.000000;0.922010
7278.000000;0.922894
7277.000000;0.923918
7276.000000;0.924990
7275.000000;0.925949
7274.000000;0.926802
7273.000000;0.927708
7272.000000;0.928791
7271.000000;0.930041
7270.000000;0.931377
7269.000000;0.932749
7268.000000;0.934139
7267.000000;0.935528
7266.000000;0.936867
7265.000000;0.938118
7264.000000;0.939344
7263.000000;0.940720
7262.000000;0.942374
7261.000000;0.944207
7260.000000;0.945964
7259.000000;0.947490
7258.000000;0.948864
7257.000000;0.950243
7256.000000;0.951695
7255.000000;0.953206
7254.000000;0.954796
7253.000000;0.956524
7252.000000;0.958361
7251.000000;0.960134
7250.000000;0.961690
7249.000000;0.963098
7248.000000;0.964638
7247.000000;0.966534
7246.000000;0.968699
7245.000000;0.970825
7244.000000;0.972738
7243.000000;0.974597
7242.000000;0.976649
7241.000000;0.978832
7240.000000;0.980834
7239.000000;0.982545
7238.000000;0.984217
7237.000000;0.986108
7236.000000;0.988146
7235.000000;0.990076
7234.000000;0.991870
7233.000000;0.993846
7232.000000;0.996346
7231.000000;0.999356
7230.000000;1.002494
7229.000000;1.005343
7228.000000;1.007756
7227.000000;1.009907
7226.000000;1.012125
7225.000000;1.014625
7224.000000;1.017357
7223.000000;1.020133
7222.000000;1.022858
7221.000000;1.025590
7220.000000;1.028423
7219.000000;1.031383
7218.000000;1.034428
7217.000000;1.037479
7216.000000;1.040471
7215.000000;1.043423
7214.000000;1.046429
7213.000000;1.049550
7212.000000;1.052749
7211.000000;1.055980
7210.000000;1.059309
7209.000000;1.062814
7208.000000;1.066400
7207.000000;1.069816
7206.000000;1.072946
7205.000000;1.075986
7204.000000;1.079288
7203.000000;1.083021
7202.000000;1.087023
7201.000000;1.090953
7200.000000;1.094592
7199.000000;1.098013
7198.000000;1.101501
7197.000000;1.105286
7196.000000;1.109369
7195.000000;1.113598
7194.000000;1.117861
7193.000000;1.122142
7192.000000;1.126438
7191.000000;1.130711
7190.000000;1.134940
7189.000000;1.139168
7188.000000;1.143452
7187.000000;1.147789
7186.000000;1.152118
7185.000000;1.156383
7184.000000;1.160616
7183.000000;1.164953
7182.000000;1.169547
7181.000000;1.174395
7180.000000;1.179300
7179.000000;1.184053
7178.000000;1.188634
7177.000000;1.193188
7176.000000;1.197854
7175.000000;1.202682
7174.000000;1.207631
7173.000000;1.212576
7172.000000;1.217394
7171.000000;1.222115
7170.000000;1.226916
7169.000000;1.231889
7168.000000;1.236915
7167.000000;1.241901
7166.000000;1.246991
7165.000000;1.252327
7164.000000;1.257711
7163.000000;1.262797
7162.000000;1.267638
7161.000000;1.272691
7160.000000;1.278142
7159.000000;1.283553
7158.000000;1.288468
7157.000000;1.293128
7156.000000;1.298210
7155.000000;1.303958
7154.000000;1.309890
7153.000000;1.315435
7152.000000;1.320615
7151.000000;1.325907
7150.000000;1.331607
7149.000000;1.337498
7148.000000;1.343139
7147.000000;1.348339
7146.000000;1.353319
7145.000000;1.358420
7144.000000;1.363710
7143.000000;1.368933
7142.000000;1.373873
7141.000000;1.378679
7140.000000;1.383725
7139.000000;1.389225
7138.000000;1.395095
7137.000000;1.401133
7136.000000;1.407112
7135.000000;1.412695
7134.000000;1.417522
7133.000000;1.421616
7132.000000;1.425568
7131.000000;1.430092
7130.000000;1.435416
7129.000000;1.441214
7128.000000;1.447127
7127.000000;1.453176
7126.000000;1.459580
7125.000000;1.466296
7124.000000;1.472892
7123.000000;1.478882
7122.000000;1.484085
7121.000000;1.488670
7120.000000;1.492984
7119.000000;1.497414
7118.000000;1.502294
7117.000000;1.507705
7116.000000;1.513334
7115.000000;1.518727
7114.000000;1.523733
7113.000000;1.528583
7112.000000;1.533528
7111.000000;1.538531
7110.000000;1.543372
7109.000000;1.547925
7108.000000;1.552310
7107.000000;1.556820
7106.000000;1.561710
7105.000000;1.566930
7104.000000;1.572038
7103.000000;1.576571
7102.000000;1.580589
7101.000000;1.584724
7100.000000;1.589559
7099.000000;1.595007
7098.000000;1.600364
7097.000000;1.604901
7096.000000;1.608385
7095.000000;1.611228
7094.000000;1.614246
7093.000000;1.618064
7092.000000;1.622635
7091.000000;1.627431
7090.000000;1.632069
7089.000000;1.636516
7088.000000;1.640686
7087.000000;1.644219
7086.000000;1.646976
7085.000000;1.649471
7084.000000;1.652425
7083.000000;1.656014
7082.000000;1.659908
7081.000000;1.663874
7080.000000;1.667980
7079.000000;1.672227
7078.000000;1.676347
7077.000000;1.680069
7076.000000;1.683391
7075.000000;1.686561
7074.000000;1.689866
7073.000000;1.693332
7072.000000;1.696597
7071.000000;1.699345
7070.000000;1.701979
7069.000000;1.705402
7068.000000;1.709809
7067.000000;1.714062
7066.000000;1.716851
7065.000000;1.718264
7064.000000;1.719506
7063.000000;1.721282
7062.000000;1.723321
7061.000000;1.725510
7060.000000;1.728578
7059.000000;1.733136
7058.000000;1.738523
7057.000000;1.743200
7056.000000;1.746254
7055.000000;1.748224
7054.000000;1.750342
7053.000000;1.753122
7052.000000;1.755752
7051.000000;1.757023
7050.000000;1.756878
7049.000000;1.756716
7048.000000;1.757927
7047.000000;1.760499
7046.000000;1.763405
7045.000000;1.766013
7044.000000;1.768497
7043.000000;1.771042
7042.000000;1.773508
7041.000000;1.775993
7040.000000;1.778873
7039.000000;1.781901
7038.000000;1.783967
7037.000000;1.784336
7036.000000;1.783760
7035.000000;1.783859
7034.000000;1.785623
7033.000000;1.788744
7032.000000;1.792105
7031.000000;1.794719
7030.000000;1.796455
7029.000000;1.798008
7028.000000;1.799986
7027.000000;1.802101
7026.000000;1.803662
7025.000000;1.804800
7024.000000;1.806516
7023.000000;1.809276
7022.000000;1.812161
7021.000000;1.813833
7020.000000;1.813969
7019.000000;1.813345
7018.000000;1.812945
7017.000000;1.813448
7016.000000;1.815066
7015.000000;1.817235
7014.000000;1.818810
7013.000000;1.819208
7012.000000;1.819208
7011.000000;1.820048
7010.000000;1.821915
7009.000000;1.823854
7008.000000;1.825042
7007.000000;1.825644
7006.000000;1.826375
7005.000000;1.827680
7004.000000;1.829451
7003.000000;1.831232
7002.000000;1.832701
7001.000000;1.834179
7000.000000;1.836454
6999.000000;1.839650
6998.000000;1.842436
6997.000000;1.842994
6996.000000;1.841051
6995.000000;1.838481
6994.000000;1.837560
6993.000000;1.838910
6992.000000;1.841231
6991.000000;1.842809
6990.000000;1.843091
6989.000000;1.842817
6988.000000;1.842913
6987.000000;1.843568
6986.000000;1.844420
6985.000000;1.845344
6984.000000;1.846584
6983.000000;1.847999
6982.000000;1.848628
6981.000000;1.847526
6980.000000;1.844997
6979.000000;1.842588
6978.000000;1.841818
6977.000000;1.843053
6976.000000;1.845473
6975.000000;1.847841
6974.000000;1.849304
6973.000000;1.849771
6972.000000;1.849874
6971.000000;1.850509
6970.000000;1.852046
6969.000000;1.853815
6968.000000;1.854544
6967.000000;1.853634
6966.000000;1.851941
6965.000000;1.850947
6964.000000;1.851143
6963.000000;1.851656
6962.000000;1.851668
6961.000000;1.851665
6960.000000;1.852640
6959.000000;1.854339
6958.000000;1.855149
6957.000000;1.853997
6956.000000;1.851746
6955.000000;1.850282
6954.000000;1.850651
6953.000000;1.852434
6952.000000;1.854516
6951.000000;1.856033
6950.000000;1.856694
6949.000000;1.856626
6948.000000;1.856143
6947.000000;1.855528
6946.000000;1.854971
6945.000000;1.854649
6944.000000;1.854718
6943.000000;1.855137
6942.000000;1.855690
6941.000000;1.856315
6940.000000;1.857194
6939.000000;1.858428
6938.000000;1.859768
6937.000000;1.860804
6936.000000;1.861256
6935.000000;1.861013
6934.000000;1.860092
6933.000000;1.858771
6932.000000;1.857576
6931.000000;1.856891
6930.000000;1.856612
6929.000000;1.856276
6928.000000;1.855534
6927.000000;1.854524
6926.000000;1.853862
6925.000000;1.854178
6924.000000;1.855411
6923.000000;1.856539
6922.000000;1.856332
6921.000000;1.854556
6920.000000;1.852168
6919.000000;1.850285
6918.000000;1.849329
6917.000000;1.849191
6916.000000;1.849725
6915.000000;1.850677
6914.000000;1.851458
6913.000000;1.851485
6912.000000;1.850717
6911.000000;1.849668
6910.000000;1.848961
6909.000000;1.849016
6908.000000;1.849940
6907.000000;1.851395
6906.000000;1.852619
6905.000000;1.852853
6904.000000;1.851809
6903.000000;1.849727
6902.000000;1.847176
6901.000000;1.844879
6900.000000;1.843428
6899.000000;1.842883
6898.000000;1.842793
6897.000000;1.842776
6896.000000;1.842887
6895.000000;1.843219
6894.000000;1.843533
6893.000000;1.843631
6892.000000;1.843850
6891.000000;1.844703
6890.000000;1.846111
6889.000000;1.847377
6888.000000;1.847909
6887.000000;1.847609
6886.000000;1.846606
6885.000000;1.845100
6884.000000;1.843559
6883.000000;1.842573
6882.000000;1.842279
6881.000000;1.842206
6880.000000;1.841880
6879.000000;1.841371
6878.000000;1.841071
6877.000000;1.841171
6876.000000;1.841620
6875.000000;1.842356
6874.000000;1.843245
6873.000000;1.843789
6872.000000;1.843237
6871.000000;1.841257
6870.000000;1.838400
6869.000000;1.835743
6868.000000;1.834105
6867.000000;1.833680
6866.000000;1.834214
6865.000000;1.835253
6864.000000;1.836213
6863.000000;1.836517
6862.000000;1.835994
6861.000000;1.835029
6860.000000;1.834074
6859.000000;1.833130
6858.000000;1.831955
6857.000000;1.830668
6856.000000;1.829684
6855.000000;1.829023
6854.000000;1.828207
6853.000000;1.827073
6852.000000;1.826236
6851.000000;1.826405
6850.000000;1.827508
6849.000000;1.828795
6848.000000;1.829597
6847.000000;1.829633
6846.000000;1.828767
6845.000000;1.826989
6844.000000;1.824726
6843.000000;1.822777
6842.000000;1.821763
6841.000000;1.821729
6840.000000;1.822262
6839.000000;1.822759
6838.000000;1.822607
6837.000000;1.821443
6836.000000;1.819462
6835.000000;1.817388
6834.000000;1.815951
6833.000000;1.815326
6832.000000;1.814992
6831.000000;1.814058
6830.000000;1.811872
6829.000000;1.808588
6828.000000;1.805207
6827.000000;1.802902
6826.000000;1.802169
6825.000000;1.802556
6824.000000;1.803085
6823.000000;1.802834
6822.000000;1.801289
6821.000000;1.798526
6820.000000;1.795205
6819.000000;1.792171
6818.000000;1.789801
6817.000000;1.787805
6816.000000;1.785791
6815.000000;1.783910
6814.000000;1.782751
6813.000000;1.782620
6812.000000;1.783067
6811.000000;1.783226
6810.000000;1.782515
6809.000000;1.780919
6808.000000;1.778668
6807.000000;1.775926
6806.000000;1.772942
6805.000000;1.770329
6804.000000;1.768796
6803.000000;1.768418
6802.000000;1.768330
6801.000000;1.767378
6800.000000;1.765111
6799.000000;1.762015
6798.000000;1.758863
6797.000000;1.756096
6796.000000;1.753850
6795.000000;1.752241
6794.000000;1.751280
6793.000000;1.750601
6792.000000;1.749590
6791.000000;1.747927
6790.000000;1.745852
6789.000000;1.743809
6788.000000;1.741941
6787.000000;1.740061
6786.000000;1.738010
6785.000000;1.735835
6784.000000;1.733590
6783.000000;1.731187
6782.000000;1.728575
6781.000000;1.725969
6780.000000;1.723698
6779.000000;1.721843
6778.000000;1.720136
6777.000000;1.718249
6776.000000;1.716134
6775.000000;1.714040
6774.000000;1.712229
6773.000000;1.710675
6772.000000;1.709036
6771.000000;1.706936
6770.000000;1.704297
6769.000000;1.701390
6768.000000;1.698567
6767.000000;1.696047
6766.000000;1.693981
6765.000000;1.692512
6764.000000;1.691586
6763.000000;1.690752
6762.000000;1.689388
6761.000000;1.687184
6760.000000;1.684338
6759.000000;1.681303
6758.000000;1.678465
6757.000000;1.676049
6756.000000;1.674049
6755.000000;1.672145
6754.000000;1.669900
6753.000000;1.667240
6752.000000;1.664602
6751.000000;1.662425
6750.000000;1.660590
6749.000000;1.658602
6748.000000;1.656297
6747.000000;1.654063
6746.000000;1.652259
6745.000000;1.650680
6744.000000;1.648831
6743.000000;1.646560
6742.000000;1.644127
6741.000000;1.641690
6740.000000;1.639069
6739.000000;1.636159
6738.000000;1.633302
6737.000000;1.630950
6736.000000;1.629076
6735.000000;1.627223
6734.000000;1.625117
6733.000000;1.622960
6732.000000;1.621058
6731.000000;1.619374
6730.000000;1.617612
6729.000000;1.615563
6728.000000;1.613248
6727.000000;1.610864
6726.000000;1.608704
6725.000000;1.606978
6724.000000;1.605560
6723.000000;1.604020
6722.000000;1.602045
6721.000000;1.599702
6720.000000;1.597140
6719.000000;1.594339
6718.000000;1.591403
6717.000000;1.588869
6716.000000;1.587281
6715.000000;1.586442
6714.000000;1.585489
6713.000000;1.583784
6712.000000;1.581464
6711.000000;1.579042
6710.000000;1.576812
6709.000000;1.574805
6708.000000;1.572990
6707.000000;1.571218
6706.000000;1.569143
6705.000000;1.566545
6704.000000;1.563599
6703.000000;1.560767
6702.000000;1.558388
6701.000000;1.556457
6700.000000;1.554763
6699.000000;1.553032
6698.000000;1.551089
6697.000000;1.549004
6696.000000;1.547010
6695.000000;1.545162
6694.000000;1.543211
6693.000000;1.540959
6692.000000;1.538555
6691.000000;1.536251
6690.000000;1.534034
6689.000000;1.531777
6688.000000;1.529623
6687.000000;1.527855
6686.000000;1.526400
6685.000000;1.524798
6684.000000;1.522766
6683.000000;1.520498
6682.000000;1.518299
6681.000000;1.516213
6680.000000;1.514219
6679.000000;1.512489
6678.000000;1.511136
6677.000000;1.509839
6676.000000;1.508070
6675.000000;1.505732
6674.000000;1.503302
6673.000000;1.501263
6672.000000;1.499559
6671.000000;1.497750
6670.000000;1.495575
6669.000000;1.493239
6668.000000;1.491159
6667.000000;1.489535
6666.000000;1.488195
6665.000000;1.486819
6664.000000;1.485240
6663.000000;1.483498
6662.000000;1.481647
6661.000000;1.479607
6660.000000;1.477285
6659.000000;1.474763
6658.000000;1.472263
6657.000000;1.469929
6656.000000;1.467745
6655.000000;1.465667
6654.000000;1.463761
6653.000000;1.462153
6652.000000;1.460876
6651.000000;1.459785
6650.000000;1.458605
6649.000000;1.457096
6648.000000;1.455218
6647.000000;1.453168
6646.000000;1.451216
6645.000000;1.449475
6644.000000;1.447856
6643.000000;1.446201
6642.000000;1.444424
6641.000000;1.442509
6640.000000;1.440473
6639.000000;1.438374
6638.000000;1.436295
6637.000000;1.434264
6636.000000;1.432219
6635.000000;1.430122
6634.000000;1.428074
6633.000000;1.426279
6632.000000;1.424869
6631.000000;1.423776
6630.000000;1.422758
6629.000000;1.421516
6628.000000;1.419876
6627.000000;1.417909
6626.000000;1.415868
6625.000000;1.413959
6624.000000;1.412172
6623.000000;1.410363
6622.000000;1.408445
6621.000000;1.406450
6620.000000;1.404457
6619.000000;1.402538
6618.000000;1.400770
6617.000000;1.399191
6616.000000;1.397731
6615.000000;1.396255
6614.000000;1.394708
6613.000000;1.393149
6612.000000;1.391628
6611.000000;1.390115
6610.000000;1.388592
6609.000000;1.387120
6608.000000;1.385725
6607.000000;1.384260
6606.000000;1.382495
6605.000000;1.380370
6604.000000;1.378126
6603.000000;1.376148
6602.000000;1.374651
6601.000000;1.373539
6600.000000;1.372521
6599.000000;1.371373
6598.000000;1.370058
6597.000000;1.368607
6596.000000;1.366977
6595.000000;1.365126
6594.000000;1.363180
6593.000000;1.361411
6592.000000;1.359983
6591.000000;1.358798
6590.000000;1.357628
6589.000000;1.356314
6588.000000;1.354802
6587.000000;1.353112
6586.000000;1.351362
6585.000000;1.349768
6584.000000;1.348481
6583.000000;1.347427
6582.000000;1.346364
6581.000000;1.345078
6580.000000;1.343497
6579.000000;1.341668
6578.000000;1.339746
6577.000000;1.337970
6576.000000;1.336517
6575.000000;1.335320
6574.000000;1.334128
6573.000000;1.332766
6572.000000;1.331283
6571.000000;1.329792
6570.000000;1.328291
6569.000000;1.326722
6568.000000;1.325151
6567.000000;1.323765
6566.000000;1.322669
6565.000000;1.321752
6564.000000;1.320780
6563.000000;1.319606
6562.000000;1.318266
6561.000000;1.316891
6560.000000;1.315548
6559.000000;1.314166
6558.000000;1.312649
6557.000000;1.311029
6556.000000;1.309478
6555.000000;1.308155
6554.000000;1.307053
6553.000000;1.305995
6552.000000;1.304761
6551.000000;1.303250
6550.000000;1.301565
6549.000000;1.299986
6548.000000;1.298773
6547.000000;1.297905
6546.000000;1.297022
6545.000000;1.295745
6544.000000;1.294085
6543.000000;1.292469
6542.000000;1.291304
6541.000000;1.290559
6540.000000;1.289837
6539.000000;1.288797
6538.000000;1.287423
6537.000000;1.285909
6536.000000;1.284420
6535.000000;1.283036
6534.000000;1.281802
6533.000000;1.280721
6532.000000;1.279703
6531.000000;1.278626
6530.000000;1.277452
6529.000000;1.276243
6528.000000;1.275072
6527.000000;1.273969
6526.000000;1.272929
6525.000000;1.271905
6524.000000;1.270787
6523.000000;1.269468
6522.000000;1.267961
6521.000000;1.266391
6520.000000;1.264889
6519.000000;1.263538
6518.000000;1.262425
6517.000000;1.261611
6516.000000;1.261010
6515.000000;1.260368
6514.000000;1.259474
6513.000000;1.258329
6512.000000;1.257067
6511.000000;1.255778
6510.000000;1.254494
6509.000000;1.253270
6508.000000;1.252165
6507.000000;1.251143
6506.000000;1.250086
6505.000000;1.248927
6504.000000;1.247693
6503.000000;1.246433
6502.000000;1.245181
6501.000000;1.244007
6500.000000;1.242989
6499.000000;1.242099
6498.000000;1.241184
6497.000000;1.240119
6496.000000;1.238918
6495.000000;1.237672
6494.000000;1.236433
6493.000000;1.235220
6492.000000;1.234093
6491.000000;1.233137
6490.000000;1.232383
6489.000000;1.231757
6488.000000;1.231096
6487.000000;1.230200
6486.000000;1.228958
6485.000000;1.227489
6484.000000;1.226126
6483.000000;1.225163
6482.000000;1.224584
6481.000000;1.224075
6480.000000;1.223332
6479.000000;1.222296
6478.000000;1.221126
6477.000000;1.220012
6476.000000;1.219059
6475.000000;1.218274
6474.000000;1.217574
6473.000000;1.216823
6472.000000;1.215939
6471.000000;1.214957
6470.000000;1.213965
6469.000000;1.212979
6468.000000;1.211958
6467.000000;1.210935
6466.000000;1.210045
6465.000000;1.209360
6464.000000;1.208743
6463.000000;1.207950
6462.000000;1.206849
6461.000000;1.205507
6460.000000;1.204099
6459.000000;1.202788
6458.000000;1.201695
6457.000000;1.200868
6456.000000;1.200232
6455.000000;1.199601
6454.000000;1.198815
6453.000000;1.197847
6452.000000;1.196782
6451.000000;1.195718
6450.000000;1.194715
6449.000000;1.193822
6448.000000;1.193080
6447.000000;1.192494
6446.000000;1.191989
6445.000000;1.191417
6444.000000;1.190637
6443.000000;1.189633
6442.000000;1.188574
6441.000000;1.187680
6440.000000;1.187018
6439.000000;1.186430
6438.000000;1.185715
6437.000000;1.184834
6436.000000;1.183902
6435.000000;1.183021
6434.000000;1.182196
6433.000000;1.181391
6432.000000;1.180605
6431.000000;1.179834
6430.000000;1.179050
6429.000000;1.178241
6428.000000;1.177457
6427.000000;1.176750
6426.000000;1.176071
6425.000000;1.175292
6424.000000;1.174336
6423.000000;1.173288
6422.000000;1.172340
6421.000000;1.171623
6420.000000;1.171093
6419.000000;1.170589
6418.000000;1.169981
6417.000000;1.169254
6416.000000;1.168469
6415.000000;1.167680
6414.000000;1.166905
6413.000000;1.166137
6412.000000;1.165328
6411.000000;1.164411
6410.000000;1.163383
6409.000000;1.162377
6408.000000;1.161577
6407.000000;1.161038
6406.000000;1.160613
6405.000000;1.160091
6404.000000;1.159390
6403.000000;1.158582
6402.000000;1.157781
6401.000000;1.157035
6400.000000;1.156323
6399.000000;1.155600
6398.000000;1.154835
6397.000000;1.154040
6396.000000;1.153279
6395.000000;1.152617
6394.000000;1.152023
6393.000000;1.151382
6392.000000;1.150653
6391.000000;1.149962
6390.000000;1.149470
6389.000000;1.149141
6388.000000;1.148721
6387.000000;1.148007
6386.000000;1.147062
6385.000000;1.146120
6384.000000;1.145319
6383.000000;1.144607
6382.000000;1.143891
6381.000000;1.143172
6380.000000;1.142512
6379.000000;1.141942
6378.000000;1.141448
6377.000000;1.141012
6376.000000;1.140597
6375.000000;1.140121
6374.000000;1.139492
6373.000000;1.138696
6372.000000;1.137817
6371.000000;1.136969
6370.000000;1.136214
6369.000000;1.135545
6368.000000;1.134923
6367.000000;1.134326
6366.000000;1.133744
6365.000000;1.133148
6364.000000;1.132484
6363.000000;1.131713
6362.000000;1.130862
6361.000000;1.130012
6360.000000;1.129225
6359.000000;1.128536
6358.000000;1.127983
6357.000000;1.127607
6356.000000;1.127386
6355.000000;1.127198
6354.000000;1.126903
6353.000000;1.126435
6352.000000;1.125820
6351.000000;1.125115
6350.000000;1.124378
6349.000000;1.123644
6348.000000;1.122911
6347.000000;1.122146
6346.000000;1.121362
6345.000000;1.120646
6344.000000;1.120080
6343.000000;1.119635
6342.000000;1.119205
6341.000000;1.118730
6340.000000;1.118242
6339.000000;1.117785
6338.000000;1.117358
6337.000000;1.116934
6336.000000;1.116480
6335.000000;1.115937
6334.000000;1.115265
6333.000000;1.114538
6332.000000;1.113927
6331.000000;1.113522
6330.000000;1.113225
6329.000000;1.112886
6328.000000;1.112501
6327.000000;1.112175
6326.000000;1.111902
6325.000000;1.111508
6324.000000;1.110859
6323.000000;1.110033
6322.000000;1.109239
6321.000000;1.108614
6320.000000;1.108152
6319.000000;1.107780
6318.000000;1.107423
6317.000000;1.106996
6316.000000;1.106426
6315.000000;1.105723
6314.000000;1.105002
6313.000000;1.104397
6312.000000;1.103957
6311.000000;1.103617
6310.000000;1.103275
6309.000000;1.102886
6308.000000;1.102489
6307.000000;1.102127
6306.000000;1.101761
6305.000000;1.101291
6304.000000;1.100679
6303.000000;1.100021
6302.000000;1.099450
6301.000000;1.099009
6300.000000;1.098649
6299.000000;1.098312
6298.000000;1.097967
6297.000000;1.097568
6296.000000;1.097076
6295.000000;1.096533
6294.000000;1.096044
6293.000000;1.095652
6292.000000;1.095286
6291.000000;1.094878
6290.000000;1.094464
6289.000000;1.094112
6288.000000;1.093799
6287.000000;1.093431
6286.000000;1.092973
6285.000000;1.092494
6284.000000;1.092078
6283.000000;1.091743
6282.000000;1.091430
6281.000000;1.091064
6280.000000;1.090606
6279.000000;1.090097
6278.000000;1.089621
6277.000000;1.089200
6276.000000;1.088767
6275.000000;1.088288
6274.000000;1.087868
6273.000000;1.087638
6272.000000;1.087549
6271.000000;1.087369
6270.000000;1.086918
6269.000000;1.086245
6268.000000;1.085543
6267.000000;1.084957
6266.000000;1.084530
6265.000000;1.084248
6264.000000;1.084057
6263.000000;1.083851
6262.000000;1.083520
6261.000000;1.083036
6260.000000;1.082485
6259.000000;1.082006
6258.000000;1.081700
6257.000000;1.081556
6256.000000;1.081442
6255.000000;1.081203
6254.000000;1.080804
6253.000000;1.080360
6252.000000;1.079988
6251.000000;1.079666
6250.000000;1.079281
6249.000000;1.078799
6248.000000;1.078320
6247.000000;1.077961
6246.000000;1.077729
6245.000000;1.077526
6244.000000;1.077245
6243.000000;1.076840
6242.000000;1.076334
6241.000000;1.075808
6240.000000;1.075372
6239.000000;1.075104
6238.000000;1.075010
6237.000000;1.075019
6236.000000;1.075027
6235.000000;1.074936
6234.000000;1.074688
6233.000000;1.074295
6232.000000;1.073829
6231.000000;1.073375
6230.000000;1.072972
6229.000000;1.072604
6228.000000;1.072255
6227.000000;1.071940
6226.000000;1.071677
6225.000000;1.071440
6224.000000;1.071189
6223.000000;1.070927
6222.000000;1.070707
6221.000000;1.070550
6220.000000;1.070385
6219.000000;1.070120
6218.000000;1.069758
6217.000000;1.069409
6216.000000;1.069161
6215.000000;1.068975
6214.000000;1.068729
6213.000000;1.068365
6212.000000;1.067954
6211.000000;1.067610
6210.000000;1.067368
6209.000000;1.067156
6208.000000;1.066885
6207.000000;1.066539
6206.000000;1.066161
6205.000000;1.065793
6204.000000;1.065446
6203.000000;1.065121
6202.000000;1.064826
6201.000000;1.064554
6200.000000;1.064289
6199.000000;1.064036
6198.000000;1.063809
6197.000000;1.063591
6196.000000;1.063339
6195.000000;1.063060
6194.000000;1.062823
6193.000000;1.062659
6192.000000;1.062492
6191.000000;1.062229
6190.000000;1.061892
6189.000000;1.061595
6188.000000;1.061381
6187.000000;1.061173
6186.000000;1.060887
6185.000000;1.060544
6184.000000;1.060222
6183.000000;1.059966
6182.000000;1.059776
6181.000000;1.059653
6180.000000;1.059587
6179.000000;1.059519
6178.000000;1.059374
6177.000000;1.059147
6176.000000;1.058924
6175.000000;1.058786
6174.000000;1.058720
6173.000000;1.058620
6172.000000;1.058374
6171.000000;1.057957
6170.000000;1.057460
6169.000000;1.057039
6168.000000;1.056818
6167.000000;1.056800
6166.000000;1.056868
6165.000000;1.056869
6164.000000;1.056736
6163.000000;1.056519
6162.000000;1.056303
6161.000000;1.056091
6160.000000;1.055806
6159.000000;1.055405
6158.000000;1.054964
6157.000000;1.054604
6156.000000;1.054366
6155.000000;1.054187
6154.000000;1.053994
6153.000000;1.053775
6152.000000;1.053557
6151.000000;1.053368
6150.000000;1.053216
6149.000000;1.053091
6148.000000;1.052967
6147.000000;1.052830
6146.000000;1.052707
6145.000000;1.052640
6144.000000;1.052622
6143.000000;1.052579
6142.000000;1.052453
6141.000000;1.052268
6140.000000;1.052109
6139.000000;1.052035
6138.000000;1.052043
6137.000000;1.052075
6136.000000;1.052054
6135.000000;1.051936
6134.000000;1.051733
6133.000000;1.051494
6132.000000;1.051246
6131.000000;1.050992
6130.000000;1.050746
6129.000000;1.050542
6128.000000;1.050385
6127.000000;1.050230
6126.000000;1.050037
6125.000000;1.049825
6124.000000;1.049631
6123.000000;1.049448
6122.000000;1.049226
6121.000000;1.048935
6120.000000;1.048601
6119.000000;1.048270
6118.000000;1.047990
6117.000000;1.047782
6116.000000;1.047612
6115.000000;1.047395
6114.000000;1.047073
6113.000000;1.046713
6112.000000;1.046485
6111.000000;1.046510
6110.000000;1.046726
6109.000000;1.046941
6108.000000;1.046998
6107.000000;1.046893
6106.000000;1.046719
6105.000000;1.046542
6104.000000;1.046373
6103.000000;1.046223
6102.000000;1.046150
6101.000000;1.046178
6100.000000;1.046233
6099.000000;1.046189
6098.000000;1.046003
6097.000000;1.045746
6096.000000;1.045496
6095.000000;1.045253
6094.000000;1.044990
6093.000000;1.044727
6092.000000;1.044530
6091.000000;1.044447
6090.000000;1.044474
6089.000000;1.044569
6088.000000;1.044652
6087.000000;1.044622
6086.000000;1.044427
6085.000000;1.044123
6084.000000;1.043844
6083.000000;1.043695
6082.000000;1.043682
6081.000000;1.043718
6080.000000;1.043689
6079.000000;1.043534
6078.000000;1.043294
6077.000000;1.043087
6076.000000;1.043018
6075.000000;1.043084
6074.000000;1.043200
6073.000000;1.043285
6072.000000;1.043310
6071.000000;1.043274
6070.000000;1.043165
6069.000000;1.042984
6068.000000;1.042767
6067.000000;1.042576
6066.000000;1.042462
6065.000000;1.042443
6064.000000;1.042509
6063.000000;1.042631
6062.000000;1.042752
6061.000000;1.042774
6060.000000;1.042601
6059.000000;1.042240
6058.000000;1.041844
6057.000000;1.041618
6056.000000;1.041635
6055.000000;1.041761
6054.000000;1.041801
6053.000000;1.041687
6052.000000;1.041511
6051.000000;1.041395
6050.000000;1.041377
6049.000000;1.041430
6048.000000;1.041516
6047.000000;1.041609
6046.000000;1.041681
6045.000000;1.041716
6044.000000;1.041723
6043.000000;1.041706
6042.000000;1.041643
6041.000000;1.041503
6040.000000;1.041284
6039.000000;1.041038
6038.000000;1.040835
6037.000000;1.040740
6036.000000;1.040768
6035.000000;1.040864
6034.000000;1.040929
6033.000000;1.040889
6032.000000;1.040761
6031.000000;1.040636
6030.000000;1.040596
6029.000000;1.040637
6028.000000;1.040677
6027.000000;1.040638
6026.000000;1.040529
6025.000000;1.040457
6024.000000;1.040545
6023.000000;1.040798
6022.000000;1.041064
6021.000000;1.041153
6020.000000;1.041016
6019.000000;1.040784
6018.000000;1.040611
6017.000000;1.040530
6016.000000;1.040474
6015.000000;1.040412
6014.000000;1.040402
6013.000000;1.040498
6012.000000;1.040654
6011.000000;1.040779
6010.000000;1.040852
6009.000000;1.040941
6008.000000;1.041094
6007.000000;1.041271
6006.000000;1.041402
6005.000000;1.041487
6004.000000;1.041591
6003.000000;1.041757
6002.000000;1.041944
6001.000000;1.042087
6000.000000;1.042179
5999.000000;1.042257
5998.000000;1.042324
5997.000000;1.042336
5996.000000;1.042264
5995.000000;1.042133
5994.000000;1.041986
5993.000000;1.041840
5992.000000;1.041716
5991.000000;1.041662
5990.000000;1.041701
5989.000000;1.041771
5988.000000;1.041784
5987.000000;1.041760
5986.000000;1.041820
5985.000000;1.042034
5984.000000;1.042324
5983.000000;1.042563
5982.000000;1.042715
5981.000000;1.042832
5980.000000;1.042948
5979.000000;1.043045
5978.000000;1.043129
5977.000000;1.043253
5976.000000;1.043456
5975.000000;1.043713
5974.000000;1.043967
5973.000000;1.044186
5972.000000;1.044374
5971.000000;1.044540
5970.000000;1.044676
5969.000000;1.044761
5968.000000;1.044788
5967.000000;1.044797
5966.000000;1.044846
5965.000000;1.044953
5964.000000;1.045079
5963.000000;1.045204
5962.000000;1.045397
5961.000000;1.045738
5960.000000;1.046193
5959.000000;1.046608
5958.000000;1.046859
5957.000000;1.046985
5956.000000;1.047130
5955.000000;1.047393
5954.000000;1.047742
5953.000000;1.048060
5952.000000;1.048251
5951.000000;1.048315
5950.000000;1.048328
5949.000000;1.048372
5948.000000;1.048468
5947.000000;1.048607
5946.000000;1.048819
5945.000000;1.049157
5944.000000;1.049615
5943.000000;1.050076
5942.000000;1.050394
5941.000000;1.050503
5940.000000;1.050463
5939.000000;1.050410
5938.000000;1.050478
5937.000000;1.050735
5936.000000;1.051155
5935.000000;1.051651
5934.000000;1.052149
5933.000000;1.052608
5932.000000;1.052988
5931.000000;1.053223
5930.000000;1.053284
5929.000000;1.053232
5928.000000;1.053197
5927.000000;1.053284
5926.000000;1.053528
5925.000000;1.053911
5924.000000;1.054380
5923.000000;1.054849
5922.000000;1.055218
5921.000000;1.055419
5920.000000;1.055453
5919.000000;1.055397
5918.000000;1.055372
5917.000000;1.055467
5916.000000;1.055672
5915.000000;1.055883
5914.000000;1.056008
5913.000000;1.056071
5912.000000;1.056182
5911.000000;1.056406
5910.000000;1.056687
5909.000000;1.056906
5908.000000;1.056989
5907.000000;1.056948
5906.000000;1.056860
5905.000000;1.056815
5904.000000;1.056869
5903.000000;1.057009
5902.000000;1.057163
5901.000000;1.057266
5900.000000;1.057318
5899.000000;1.057385
5898.000000;1.057524
5897.000000;1.057750
5896.000000;1.058029
5895.000000;1.058309
5894.000000;1.058524
5893.000000;1.058614
5892.000000;1.058552
5891.000000;1.058386
5890.000000;1.058245
5889.000000;1.058263
5888.000000;1.058487
5887.000000;1.058824
5886.000000;1.059110
5885.000000;1.059239
5884.000000;1.059249
5883.000000;1.059267
5882.000000;1.059386
5881.000000;1.059596
5880.000000;1.059815
5879.000000;1.059973
5878.000000;1.060082
5877.000000;1.060235
5876.000000;1.060543
5875.000000;1.061021
5874.000000;1.061534
5873.000000;1.061894
5872.000000;1.062033
5871.000000;1.062078
5870.000000;1.062214
5869.000000;1.062507
5868.000000;1.062873
5867.000000;1.063202
5866.000000;1.063466
5865.000000;1.063695
5864.000000;1.063922
5863.000000;1.064182
5862.000000;1.064521
5861.000000;1.064964
5860.000000;1.065466
5859.000000;1.065923
5858.000000;1.066258
5857.000000;1.066471
5856.000000;1.066632
5855.000000;1.066812
5854.000000;1.067039
5853.000000;1.067304
5852.000000;1.067596
5851.000000;1.067931
5850.000000;1.068334
5849.000000;1.068799
5848.000000;1.069289
5847.000000;1.069758
5846.000000;1.070162
5845.000000;1.070467
5844.000000;1.070683
5843.000000;1.070905
5842.000000;1.071261
5841.000000;1.071799
5840.000000;1.072427
5839.000000;1.072999
5838.000000;1.073452
5837.000000;1.073833
5836.000000;1.074218
5835.000000;1.074634
5834.000000;1.075053
5833.000000;1.075427
5832.000000;1.075735
5831.000000;1.076008
5830.000000;1.076302
5829.000000;1.076635
5828.000000;1.076964
5827.000000;1.077259
5826.000000;1.077595
5825.000000;1.078110
5824.000000;1.078842
5823.000000;1.079637
5822.000000;1.080276
5821.000000;1.080679
5820.000000;1.080968
5819.000000;1.081317
5818.000000;1.081779
5817.000000;1.082292
5816.000000;1.082800
5815.000000;1.083315
5814.000000;1.083859
5813.000000;1.084394
5812.000000;1.084856
5811.000000;1.085241
5810.000000;1.085611
5809.000000;1.086029
5808.000000;1.086513
5807.000000;1.087049
5806.000000;1.087616
5805.000000;1.088193
5804.000000;1.088768
5803.000000;1.089344
5802.000000;1.089927
5801.000000;1.090500
5800.000000;1.091054
5799.000000;1.091613
5798.000000;1.092211
5797.000000;1.092825
5796.000000;1.093367
5795.000000;1.093788
5794.000000;1.094144
5793.000000;1.094552
5792.000000;1.095097
5791.000000;1.095777
5790.000000;1.096526
5789.000000;1.097241
5788.000000;1.097826
5787.000000;1.098254
5786.000000;1.098606
5785.000000;1.099026
5784.000000;1.099610
5783.000000;1.100330
5782.000000;1.101061
5781.000000;1.101703
5780.000000;1.102263
5779.000000;1.102835
5778.000000;1.103476
5777.000000;1.104131
5776.000000;1.104714
5775.000000;1.105227
5774.000000;1.105760
5773.000000;1.106366
5772.000000;1.106997
5771.000000;1.107583
5770.000000;1.108098
5769.000000;1.108560
5768.000000;1.108983
5767.000000;1.109396
5766.000000;1.109854
5765.000000;1.110407
5764.000000;1.111055
5763.000000;1.111751
5762.000000;1.112434
5761.000000;1.113043
5760.000000;1.113558
5759.000000;1.114039
5758.000000;1.114576
5757.000000;1.115180
5756.000000;1.115761
5755.000000;1.116245
5754.000000;1.116661
5753.000000;1.117091
5752.000000;1.117574
5751.000000;1.118109
5750.000000;1.118711
5749.000000;1.119379
5748.000000;1.120052
5747.000000;1.120655
5746.000000;1.121182
5745.000000;1.121690
5744.000000;1.122238
5743.000000;1.122863
5742.000000;1.123595
5741.000000;1.124408
5740.000000;1.125186
5739.000000;1.125808
5738.000000;1.126296
5737.000000;1.126804
5736.000000;1.127474
5735.000000;1.128302
5734.000000;1.129167
5733.000000;1.129930
5732.000000;1.130530
5731.000000;1.131021
5730.000000;1.131520
5729.000000;1.132108
5728.000000;1.132762
5727.000000;1.133419
5726.000000;1.134070
5725.000000;1.134748
5724.000000;1.135451
5723.000000;1.136139
5722.000000;1.136812
5721.000000;1.137514
5720.000000;1.138272
5719.000000;1.139044
5718.000000;1.139776
5717.000000;1.140443
5716.000000;1.141057
5715.000000;1.141644
5714.000000;1.142238
5713.000000;1.142850
5712.000000;1.143442
5711.000000;1.143979
5710.000000;1.144487
5709.000000;1.145043
5708.000000;1.145706
5707.000000;1.146480
5706.000000;1.147342
5705.000000;1.148251
5704.000000;1.149144
5703.000000;1.149975
5702.000000;1.150749
5701.000000;1.151485
5700.000000;1.152144
5699.000000;1.152697
5698.000000;1.153207
5697.000000;1.153783
5696.000000;1.154464
5695.000000;1.155188
5694.000000;1.155916
5693.000000;1.156682
5692.000000;1.157497
5691.000000;1.158260
5690.000000;1.158852
5689.000000;1.159281
5688.000000;1.159693
5687.000000;1.160237
5686.000000;1.160960
5685.000000;1.161794
5684.000000;1.162617
5683.000000;1.163363
5682.000000;1.164065
5681.000000;1.164787
5680.000000;1.165515
5679.000000;1.166176
5678.000000;1.166763
5677.000000;1.167386
5676.000000;1.168140
5675.000000;1.168990
5674.000000;1.169832
5673.000000;1.170621
5672.000000;1.171369
5671.000000;1.172070
5670.000000;1.172703
5669.000000;1.173306
5668.000000;1.173982
5667.000000;1.174787
5666.000000;1.175666
5665.000000;1.176493
5664.000000;1.177173
5663.000000;1.177699
5662.000000;1.178153
5661.000000;1.178659
5660.000000;1.179302
5659.000000;1.180060
5658.000000;1.180827
5657.000000;1.181528
5656.000000;1.182183
5655.000000;1.182855
5654.000000;1.183539
5653.000000;1.184147
5652.000000;1.184606
5651.000000;1.184947
5650.000000;1.185284
5649.000000;1.185711
5648.000000;1.186248
5647.000000;1.186871
5646.000000;1.187552
5645.000000;1.188256
5644.000000;1.188935
5643.000000;1.189563
5642.000000;1.190162
5641.000000;1.190780
5640.000000;1.191436
5639.000000;1.192109
5638.000000;1.192742
5637.000000;1.193261
5636.000000;1.193622
5635.000000;1.193890
5634.000000;1.194230
5633.000000;1.194773
5632.000000;1.195482
5631.000000;1.196198
5630.000000;1.196792
5629.000000;1.197254
5628.000000;1.197640
5627.000000;1.198011
5626.000000;1.198425
5625.000000;1.198911
5624.000000;1.199436
5623.000000;1.199923
5622.000000;1.200343
5621.000000;1.200738
5620.000000;1.201164
5619.000000;1.201624
5618.000000;1.202091
5617.000000;1.202563
5616.000000;1.203048
5615.000000;1.203536
5614.000000;1.203995
5613.000000;1.204391
5612.000000;1.204707
5611.000000;1.204963
5610.000000;1.205231
5609.000000;1.205603
5608.000000;1.206105
5607.000000;1.206667
5606.000000;1.207190
5605.000000;1.207624
5604.000000;1.207976
5603.000000;1.208264
5602.000000;1.208507
5601.000000;1.208753
5600.000000;1.209062
5599.000000;1.209448
5598.000000;1.209838
5597.000000;1.210118
5596.000000;1.210244
5595.000000;1.210293
5594.000000;1.210391
5593.000000;1.210596
5592.000000;1.210871
5591.000000;1.211156
5590.000000;1.211433
5589.000000;1.211705
5588.000000;1.211947
5587.000000;1.212143
5586.000000;1.212322
5585.000000;1.212527
5584.000000;1.212754
5583.000000;1.212963
5582.000000;1.213130
5581.000000;1.213250
5580.000000;1.213313
5579.000000;1.213338
5578.000000;1.213411
5577.000000;1.213635
5576.000000;1.214004
5575.000000;1.214380
5574.000000;1.214608
5573.000000;1.214645
5572.000000;1.214577
5571.000000;1.214553
5570.000000;1.214684
5569.000000;1.214979
5568.000000;1.215345
5567.000000;1.215681
5566.000000;1.215955
5565.000000;1.216164
5564.000000;1.216269
5563.000000;1.216235
5562.000000;1.216126
5561.000000;1.216084
5560.000000;1.216195
5559.000000;1.216425
5558.000000;1.216689
5557.000000;1.216917
5556.000000;1.217067
5555.000000;1.217126
5554.000000;1.217148
5553.000000;1.217215
5552.000000;1.217321
5551.000000;1.217360
5550.000000;1.217265
5549.000000;1.217117
5548.000000;1.217061
5547.000000;1.217157
5546.000000;1.217356
5545.000000;1.217579
5544.000000;1.217791
5543.000000;1.217987
5542.000000;1.218173
5541.000000;1.218351
5540.000000;1.218512
5539.000000;1.218649
5538.000000;1.218773
5537.000000;1.218893
5536.000000;1.218975
5535.000000;1.218960
5534.000000;1.218835
5533.000000;1.218652
5532.000000;1.218468
5531.000000;1.218300
5530.000000;1.218172
5529.000000;1.218124
5528.000000;1.218153
5527.000000;1.218169
5526.000000;1.218083
5525.000000;1.217924
5524.000000;1.217828
5523.000000;1.217914
5522.000000;1.218186
5521.000000;1.218559
5520.000000;1.218925
5519.000000;1.219199
5518.000000;1.219333
5517.000000;1.219322
5516.000000;1.219224
5515.000000;1.219153
5514.000000;1.219219
5513.000000;1.219422
5512.000000;1.219619
5511.000000;1.219650
5510.000000;1.219505
5509.000000;1.219355
5508.000000;1.219414
5507.000000;1.219776
5506.000000;1.220369
5505.000000;1.221035
5504.000000;1.221632
5503.000000;1.222088
5502.000000;1.222383
5501.000000;1.222497
5500.000000;1.222415
5499.000000;1.222212
5498.000000;1.222055
5497.000000;1.222042
5496.000000;1.222075
5495.000000;1.222019
5494.000000;1.221947
5493.000000;1.222092
5492.000000;1.222509
5491.000000;1.222962
5490.000000;1.223234
5489.000000;1.223408
5488.000000;1.223705
5487.000000;1.224166
5486.000000;1.224636
5485.000000;1.225015
5484.000000;1.225328
5483.000000;1.225570
5482.000000;1.225664
5481.000000;1.225624
5480.000000;1.225628
5479.000000;1.225853
5478.000000;1.226313
5477.000000;1.226897
5476.000000;1.227495
5475.000000;1.228022
5474.000000;1.228391
5473.000000;1.228578
5472.000000;1.228695
5471.000000;1.228910
5470.000000;1.229310
5469.000000;1.229839
5468.000000;1.230368
5467.000000;1.230803
5466.000000;1.231138
5465.000000;1.231438
5464.000000;1.231794
5463.000000;1.232256
5462.000000;1.232820
5461.000000;1.233462
5460.000000;1.234157
5459.000000;1.234877
5458.000000;1.235591
5457.000000;1.236271
5456.000000;1.236918
5455.000000;1.237558
5454.000000;1.238213
5453.000000;1.238880
5452.000000;1.239529
5451.000000;1.240152
5450.000000;1.240780
5449.000000;1.241434
5448.000000;1.242094
5447.000000;1.242764
5446.000000;1.243523
5445.000000;1.244443
5444.000000;1.245454
5443.000000;1.246393
5442.000000;1.247208
5441.000000;1.248048
5440.000000;1.249063
5439.000000;1.250193
5438.000000;1.251256
5437.000000;1.252169
5436.000000;1.253015
5435.000000;1.253946
5434.000000;1.255039
5433.000000;1.256248
5432.000000;1.257485
5431.000000;1.258698
5430.000000;1.259891
5429.000000;1.261119
5428.000000;1.262438
5427.000000;1.263836
5426.000000;1.265244
5425.000000;1.266595
5424.000000;1.267904
5423.000000;1.269238
5422.000000;1.270603
5421.000000;1.271931
5420.000000;1.273219
5419.000000;1.274622
5418.000000;1.276305
5417.000000;1.278228
5416.000000;1.280188
5415.000000;1.282075
5414.000000;1.283962
5413.000000;1.285910
5412.000000;1.287833
5411.000000;1.289679
5410.000000;1.291580
5409.000000;1.293676
5408.000000;1.295893
5407.000000;1.298067
5406.000000;1.300213
5405.000000;1.302485
5404.000000;1.304955
5403.000000;1.307583
5402.000000;1.310319
5401.000000;1.313112
5400.000000;1.315877
5399.000000;1.318584
5398.000000;1.321363
5397.000000;1.324372
5396.000000;1.327573
5395.000000;1.330787
5394.000000;1.333930
5393.000000;1.337086
5392.000000;1.340351
5391.000000;1.343768
5390.000000;1.347363
5389.000000;1.351101
5388.000000;1.354811
5387.000000;1.358368
5386.000000;1.361950
5385.000000;1.365870
5384.000000;1.370172
5383.000000;1.374595
5382.000000;1.378955
5381.000000;1.383336
5380.000000;1.387909
5379.000000;1.392761
5378.000000;1.397930
5377.000000;1.403399
5376.000000;1.408972
5375.000000;1.414357
5374.000000;1.419501
5373.000000;1.424661
5372.000000;1.430103
5371.000000;1.435876
5370.000000;1.441925
5369.000000;1.448225
5368.000000;1.454714
5367.000000;1.461296
5366.000000;1.468002
5365.000000;1.474987
5364.000000;1.482299
5363.000000;1.489799
5362.000000;1.497392
5361.000000;1.505170
5360.000000;1.513262
5359.000000;1.521666
5358.000000;1.530332
5357.000000;1.539262
5356.000000;1.548441
5355.000000;1.557846
5354.000000;1.567562
5353.000000;1.577712
5352.000000;1.588192
5351.000000;1.598743
5350.000000;1.609340
5349.000000;1.620250
5348.000000;1.631633
5347.000000;1.643347
5346.000000;1.655252
5345.000000;1.667468
5344.000000;1.680136
5343.000000;1.693175
5342.000000;1.706548
5341.000000;1.720498
5340.000000;1.735200
5339.000000;1.750408
5338.000000;1.765692
5337.000000;1.780924
5336.000000;1.796295
5335.000000;1.811987
5334.000000;1.828117
5333.000000;1.844854
5332.000000;1.862270
5331.000000;1.880118
5330.000000;1.898049
5329.000000;1.916048
5328.000000;1.934470
5327.000000;1.953594
5326.000000;1.973301
5325.000000;1.993294
5324.000000;2.013556
5323.000000;2.034472
5322.000000;2.056443
5321.000000;2.079346
5320.000000;2.102529
5319.000000;2.125542
5318.000000;2.148698
5317.000000;2.172674
5316.000000;2.197667
5315.000000;2.223298
5314.000000;2.249176
5313.000000;2.275029
5312.000000;2.300439
5311.000000;2.325175
5310.000000;2.349776
5309.000000;2.375049
5308.000000;2.400816
5307.000000;2.425873
5306.000000;2.449456
5305.000000;2.472153
5304.000000;2.495249
5303.000000;2.519816
5302.000000;2.546388
5301.000000;2.574567
5300.000000;2.602784
5299.000000;2.629434
5298.000000;2.654413
5297.000000;2.678546
5296.000000;2.701697
5295.000000;2.722515
5294.000000;2.740140
5293.000000;2.755309
5292.000000;2.769587
5291.000000;2.784487
5290.000000;2.800834
5289.000000;2.817623
5288.000000;2.832410
5287.000000;2.844458
5286.000000;2.856354
5285.000000;2.870702
5284.000000;2.886265
5283.000000;2.899419
5282.000000;2.908862
5281.000000;2.915996
5280.000000;2.921528
5279.000000;2.925530
5278.000000;2.929529
5277.000000;2.934780
5276.000000;2.939632
5275.000000;2.941825
5274.000000;2.942507
5273.000000;2.944428
5272.000000;2.947016
5271.000000;2.947420
5270.000000;2.946430
5269.000000;2.948846
5268.000000;2.956826
5267.000000;2.966159
5266.000000;2.970944
5265.000000;2.970451
5264.000000;2.968937
5263.000000;2.970277
5262.000000;2.975244
5261.000000;2.981706
5260.000000;2.985505
5259.000000;2.982939
5258.000000;2.974163
5257.000000;2.963919
5256.000000;2.958341
5255.000000;2.961217
5254.000000;2.971897
5253.000000;2.985531
5252.000000;2.996734
5251.000000;3.003070
5250.000000;3.003788
5249.000000;2.997667
5248.000000;2.985290
5247.000000;2.972271
5246.000000;2.966126
5245.000000;2.968749
5244.000000;2.974130
5243.000000;2.975142
5242.000000;2.971592
5241.000000;2.968595
5240.000000;2.969190
5239.000000;2.972894
5238.000000;2.979276
5237.000000;2.987896
5236.000000;2.995371
5235.000000;2.997083
5234.000000;2.992248
5233.000000;2.984522
5232.000000;2.977172
5231.000000;2.970241
5230.000000;2.963677
5229.000000;2.960201
5228.000000;2.962212
5227.000000;2.968195
5226.000000;2.974564
5225.000000;2.979124
5224.000000;2.981191
5223.000000;2.980355
5222.000000;2.977043
5221.000000;2.973539
5220.000000;2.972369
5219.000000;2.973401
5218.000000;2.973886
5217.000000;2.972004
5216.000000;2.969252
5215.000000;2.968275
5214.000000;2.969235
5213.000000;2.969793
5212.000000;2.968569
5211.000000;2.967024
5210.000000;2.966967
5209.000000;2.967467
5208.000000;2.966338
5207.000000;2.964479
5206.000000;2.965449
5205.000000;2.970066
5204.000000;2.974455
5203.000000;2.974622
5202.000000;2.971072
5201.000000;2.967296
5200.000000;2.965457
5199.000000;2.965439
5198.000000;2.966607
5197.000000;2.968038
5196.000000;2.967678
5195.000000;2.964082
5194.000000;2.959550
5193.000000;2.959182
5192.000000;2.965430
5191.000000;2.974609
5190.000000;2.980050
5189.000000;2.978559
5188.000000;2.972697
5187.000000;2.967814
5186.000000;2.968301
5185.000000;2.975171
5184.000000;2.985115
5183.000000;2.992124
5182.000000;2.992218
5181.000000;2.986723
5180.000000;2.979927
5179.000000;2.975054
5178.000000;2.973091
5177.000000;2.974215
5176.000000;2.978842
5175.000000;2.985945
5174.000000;2.991588
5173.000000;2.991677
5172.000000;2.986467
5171.000000;2.980154
5170.000000;2.975454
5169.000000;2.971248
5168.000000;2.966003
5167.000000;2.960890
5166.000000;2.957758
5165.000000;2.955702
5164.000000;2.952475
5163.000000;2.948697
5162.000000;2.947669
5161.000000;2.951064
5160.000000;2.957102
5159.000000;2.962854
5158.000000;2.966581
5157.000000;2.967849
5156.000000;2.967313
5155.000000;2.966811
5154.000000;2.967717
5153.000000;2.968504
5152.000000;2.966168
5151.000000;2.961328
5150.000000;2.959373
5149.000000;2.964859
5148.000000;2.976457
5147.000000;2.988339
5146.000000;2.995629
5145.000000;2.997285
5144.000000;2.994349
5143.000000;2.988248
5142.000000;2.981499
5141.000000;2.977375
5140.000000;2.977357
5139.000000;2.979754
5138.000000;2.981352
5137.000000;2.980711
5136.000000;2.979352
5135.000000;2.979603
5134.000000;2.981689
5133.000000;2.982857
5132.000000;2.980994
5131.000000;2.977938
5130.000000;2.976495
5129.000000;2.976331
5128.000000;2.974965
5127.000000;2.972246
5126.000000;2.971190
5125.000000;2.973467
5124.000000;2.976463
5123.000000;2.975902
5122.000000;2.970033
5121.000000;2.960531
5120.000000;2.951017
5119.000000;2.945592
5118.000000;2.946705
5117.000000;2.952883
5116.000000;2.959431
5115.000000;2.962452
5114.000000;2.961215
5113.000000;2.956643
5112.000000;2.950577
5111.000000;2.947086
5110.000000;2.951020
5109.000000;2.963104
5108.000000;2.977657
5107.000000;2.987294
5106.000000;2.989674
5105.000000;2.987456
5104.000000;2.983349
5103.000000;2.978495
5102.000000;2.973710
5101.000000;2.969315
5100.000000;2.965137
5099.000000;2.962198
5098.000000;2.962729
5097.000000;2.967028
5096.000000;2.971695
5095.000000;2.973108
5094.000000;2.971516
5093.000000;2.969348
5092.000000;2.967525
5091.000000;2.965877
5090.000000;2.964814
5089.000000;2.964048
5088.000000;2.961626
5087.000000;2.956951
5086.000000;2.952979
5085.000000;2.952210
5084.000000;2.952410
5083.000000;2.949899
5082.000000;2.945798
5081.000000;2.944823
5080.000000;2.948673
5079.000000;2.954660
5078.000000;2.960182
5077.000000;2.964359
5076.000000;2.965104
5075.000000;2.959485
5074.000000;2.948947
5073.000000;2.939856
5072.000000;2.936804
5071.000000;2.938359
5070.000000;2.940404
5069.000000;2.941072
5068.000000;2.940852
5067.000000;2.939900
5066.000000;2.937852
5065.000000;2.935618
5064.000000;2.934901
5063.000000;2.935991
5062.000000;2.937600
5061.000000;2.938837
5060.000000;2.939843
5059.000000;2.940334
5058.000000;2.939044
5057.000000;2.935275
5056.000000;2.930811
5055.000000;2.929619
5054.000000;2.934081
5053.000000;2.941103
5052.000000;2.944097
5051.000000;2.940708
5050.000000;2.936281
5049.000000;2.937142
5048.000000;2.942799
5047.000000;2.946726
5046.000000;2.943712
5045.000000;2.934589
5044.000000;2.923934
5043.000000;2.915412
5042.000000;2.910348
5041.000000;2.908590
5040.000000;2.908763
5039.000000;2.908486
5038.000000;2.905649
5037.000000;2.899848
5036.000000;2.893071
5035.000000;2.889361
5034.000000;2.892614
5033.000000;2.902908
5032.000000;2.914914
5031.000000;2.921672
5030.000000;2.920716
5029.000000;2.914594
5028.000000;2.906180
5027.000000;2.896909
5026.000000;2.888735
5025.000000;2.884109
5024.000000;2.883433
5023.000000;2.884962
5022.000000;2.887642
5021.000000;2.891459
5020.000000;2.894484
5019.000000;2.892834
5018.000000;2.885603
5017.000000;2.877169
5016.000000;2.872531
5015.000000;2.872573
5014.000000;2.874700
5013.000000;2.876310
5012.000000;2.876221
5011.000000;2.873970
5010.000000;2.870270
5009.000000;2.867698
5008.000000;2.868694
5007.000000;2.872500
5006.000000;2.875161
5005.000000;2.873220
5004.000000;2.866439
5003.000000;2.857006
5002.000000;2.847828
5001.000000;2.841265
5000.000000;2.838380
4999.000000;2.839250
4998.000000;2.843421
4997.000000;2.849371
4996.000000;2.853912
4995.000000;2.853693
4994.000000;2.848339
4993.000000;2.841264
4992.000000;2.836678
4991.000000;2.836132
4990.000000;2.837501
4989.000000;2.836748
4988.000000;2.831475
4987.000000;2.823559
4986.000000;2.817687
4985.000000;2.816587
4984.000000;2.817854
4983.000000;2.816246
4982.000000;2.809452
4981.000000;2.800385
4980.000000;2.793677
4979.000000;2.791627
4978.000000;2.793232
4977.000000;2.795171
4976.000000;2.793668
4975.000000;2.787496
4974.000000;2.779686
4973.000000;2.774599
4972.000000;2.773174
4971.000000;2.772412
4970.000000;2.769593
4969.000000;2.765447
4968.000000;2.762416
4967.000000;2.761331
4966.000000;2.760787
4965.000000;2.758721
4964.000000;2.753860
4963.000000;2.746621
4962.000000;2.739326
4961.000000;2.734502
4960.000000;2.732399
4959.000000;2.731051
4958.000000;2.728988
4957.000000;2.726725
4956.000000;2.725019
4955.000000;2.722912
4954.000000;2.718657
4953.000000;2.712155
4952.000000;2.705402
4951.000000;2.700525
4950.000000;2.698110
4949.000000;2.696991
4948.000000;2.694979
4947.000000;2.690519
4946.000000;2.684126
4945.000000;2.677574
4944.000000;2.671589
4943.000000;2.665435
4942.000000;2.659278
4941.000000;2.655358
4940.000000;2.655312
4939.000000;2.657439
4938.000000;2.658241
4937.000000;2.656345
4936.000000;2.653379
4935.000000;2.651169
4934.000000;2.649677
4933.000000;2.647636
4932.000000;2.643878
4931.000000;2.637919
4930.000000;2.630414
4929.000000;2.623206
4928.000000;2.618069
4927.000000;2.615211
4926.000000;2.613337
4925.000000;2.610818
4924.000000;2.606353
4923.000000;2.599540
4922.000000;2.592009
4921.000000;2.587035
4920.000000;2.586393
4919.000000;2.587850
4918.000000;2.587359
4917.000000;2.583879
4916.000000;2.579883
4915.000000;2.576939
4914.000000;2.573598
4913.000000;2.568450
4912.000000;2.562907
4911.000000;2.559096
4910.000000;2.556663
4909.000000;2.553726
4908.000000;2.549945
4907.000000;2.546394
4906.000000;2.542896
4905.000000;2.537810
4904.000000;2.530713
4903.000000;2.523355
4902.000000;2.517452
4901.000000;2.513118
4900.000000;2.509909
4899.000000;2.507898
4898.000000;2.506825
4897.000000;2.505213
4896.000000;2.501537
4895.000000;2.495928
4894.000000;2.489892
4893.000000;2.484723
4892.000000;2.480853
4891.000000;2.478234
4890.000000;2.476379
4889.000000;2.474190
4888.000000;2.470632
4887.000000;2.465762
4886.000000;2.460689
4885.000000;2.456486
4884.000000;2.453442
4883.000000;2.451176
4882.000000;2.448927
4881.000000;2.445779
4880.000000;2.441282
4879.000000;2.436048
4878.000000;2.431183
4877.000000;2.426932
4876.000000;2.422467
4875.000000;2.417278
4874.000000;2.412148
4873.000000;2.408245
4872.000000;2.405660
4871.000000;2.403486
4870.000000;2.401130
4869.000000;2.398822
4868.000000;2.396715
4867.000000;2.394157
4866.000000;2.390290
4865.000000;2.385105
4864.000000;2.379566
4863.000000;2.374787
4862.000000;2.371205
4861.000000;2.368476
4860.000000;2.365984
4859.000000;2.363417
4858.000000;2.360686
4857.000000;2.357368
4856.000000;2.352807
4855.000000;2.347268
4854.000000;2.342497
4853.000000;2.340257
4852.000000;2.340232
4851.000000;2.340000
4850.000000;2.337518
4849.000000;2.333197
4848.000000;2.328886
4847.000000;2.325296
4846.000000;2.321235
4845.000000;2.315407
4844.000000;2.308301
4843.000000;2.301895
4842.000000;2.297761
4841.000000;2.295731
4840.000000;2.294195
4839.000000;2.291587
4838.000000;2.287678
4837.000000;2.283520
4836.000000;2.280267
4835.000000;2.278095
4834.000000;2.276147
4833.000000;2.273296
4832.000000;2.268982
4831.000000;2.263598
4830.000000;2.258270
4829.000000;2.254161
4828.000000;2.251705
4827.000000;2.250303
4826.000000;2.248735
4825.000000;2.246025
4824.000000;2.242093
4823.000000;2.237730
4822.000000;2.233915
4821.000000;2.230979
4820.000000;2.228388
4819.000000;2.225480
4818.000000;2.222310
4817.000000;2.219440
4816.000000;2.216926
4815.000000;2.214054
4814.000000;2.210334
4813.000000;2.206295
4812.000000;2.202775
4811.000000;2.199722
4810.000000;2.196309
4809.000000;2.192217
4808.000000;2.188174
4807.000000;2.185039
4806.000000;2.182793
4805.000000;2.180656
4804.000000;2.177883
4803.000000;2.174254
4802.000000;2.170084
4801.000000;2.166061
4800.000000;2.162903
4799.000000;2.160772
4798.000000;2.158979
4797.000000;2.156502
4796.000000;2.152879
4795.000000;2.148450
4794.000000;2.143828
4793.000000;2.139467
4792.000000;2.135783
4791.000000;2.133158
4790.000000;2.131397
4789.000000;2.129415
4788.000000;2.126082
4787.000000;2.121501
4786.000000;2.116972
4785.000000;2.113525
4784.000000;2.110900
4783.000000;2.108188
4782.000000;2.105048
4781.000000;2.101836
4780.000000;2.098798
4779.000000;2.095747
4778.000000;2.092521
4777.000000;2.089238
4776.000000;2.086003
4775.000000;2.082834
4774.000000;2.080034
4773.000000;2.078150
4772.000000;2.077271
4771.000000;2.076617
4770.000000;2.075141
4769.000000;2.072391
4768.000000;2.068626
4767.000000;2.064400
4766.000000;2.060295
4765.000000;2.056751
4764.000000;2.053818
4763.000000;2.051127
4762.000000;2.048325
4761.000000;2.045402
4760.000000;2.042462
4759.000000;2.039470
4758.000000;2.036515
4757.000000;2.034037
4756.000000;2.032383
4755.000000;2.031204
4754.000000;2.029611
4753.000000;2.026955
4752.000000;2.023284
4751.000000;2.019195
4750.000000;2.015487
4749.000000;2.012742
4748.000000;2.010789
4747.000000;2.008639
4746.000000;2.005412
4745.000000;2.001325
4744.000000;1.997406
4743.000000;1.994280
4742.000000;1.991673
4741.000000;1.989070
4740.000000;1.986373
4739.000000;1.983778
4738.000000;1.981445
4737.000000;1.979509
4736.000000;1.978049
4735.000000;1.976818
4734.000000;1.975250
4733.000000;1.972965
4732.000000;1.970076
4731.000000;1.966914
4730.000000;1.963708
4729.000000;1.960665
4728.000000;1.957974
4727.000000;1.955530
4726.000000;1.952964
4725.000000;1.950155
4724.000000;1.947421
4723.000000;1.944987
4722.000000;1.942621
4721.000000;1.940084
4720.000000;1.937584
4719.000000;1.935415
4718.000000;1.933417
4717.000000;1.931243
4716.000000;1.928944
4715.000000;1.926799
4714.000000;1.924698
4713.000000;1.922244
4712.000000;1.919443
4711.000000;1.916775
4710.000000;1.914454
4709.000000;1.912108
4708.000000;1.909427
4707.000000;1.906739
4706.000000;1.904629
4705.000000;1.903212
4704.000000;1.902060
4703.000000;1.900664
4702.000000;1.898744
4701.000000;1.896219
4700.000000;1.893180
4699.000000;1.889920
4698.000000;1.886837
4697.000000;1.884219
4696.000000;1.882159
4695.000000;1.880603
4694.000000;1.879419
4693.000000;1.878431
4692.000000;1.877430
4691.000000;1.876162
4690.000000;1.874354
4689.000000;1.871897
4688.000000;1.869079
4687.000000;1.866493
4686.000000;1.864594
4685.000000;1.863321
4684.000000;1.862194
4683.000000;1.860753
4682.000000;1.858900
4681.000000;1.856868
4680.000000;1.854921
4679.000000;1.853091
4678.000000;1.851199
4677.000000;1.849158
4676.000000;1.847154
4675.000000;1.845399
4674.000000;1.843767
4673.000000;1.841879
4672.000000;1.839635
4671.000000;1.837470
4670.000000;1.835911
4669.000000;1.834978
4668.000000;1.834156
4667.000000;1.832895
4666.000000;1.831024
4665.000000;1.828732
4664.000000;1.826329
4663.000000;1.824082
4662.000000;1.822129
4661.000000;1.820455
4660.000000;1.818968
4659.000000;1.817611
4658.000000;1.816370
4657.000000;1.815208
4656.000000;1.814035
4655.000000;1.812742
4654.000000;1.811228
4653.000000;1.809447
4652.000000;1.807513
4651.000000;1.805724
4650.000000;1.804353
4649.000000;1.803361
4648.000000;1.802382
4647.000000;1.801061
4646.000000;1.799359
4645.000000;1.797537
4644.000000;1.795895
4643.000000;1.794564
4642.000000;1.793446
4641.000000;1.792260
4640.000000;1.790704
4639.000000;1.788746
4638.000000;1.786751
4637.000000;1.785213
4636.000000;1.784267
4635.000000;1.783552
4634.000000;1.782591
4633.000000;1.781274
4632.000000;1.779889
4631.000000;1.778734
4630.000000;1.777808
4629.000000;1.776883
4628.000000;1.775742
4627.000000;1.774312
4626.000000;1.772635
4625.000000;1.770821
4624.000000;1.769037
4623.000000;1.767450
4622.000000;1.766122
4621.000000;1.764971
4620.000000;1.763859
4619.000000;1.762702
4618.000000;1.761531
4617.000000;1.760475
4616.000000;1.759623
4615.000000;1.758829
4614.000000;1.757681
4613.000000;1.755821
4612.000000;1.753384
4611.000000;1.751037
4610.000000;1.749449
4609.000000;1.748755
4608.000000;1.748569
4607.000000;1.748431
4606.000000;1.748097
4605.000000;1.747442
4604.000000;1.746326
4603.000000;1.744758
4602.000000;1.743063
4601.000000;1.741697
4600.000000;1.740854
4599.000000;1.740348
4598.000000;1.739872
4597.000000;1.739250
4596.000000;1.738438
4595.000000;1.737443
4594.000000;1.736331
4593.000000;1.735220
4592.000000;1.734197
4591.000000;1.733293
4590.000000;1.732591
4589.000000;1.732222
4588.000000;1.732132
4587.000000;1.731947
4586.000000;1.731259
4585.000000;1.730043
4584.000000;1.728638
4583.000000;1.727281
4582.000000;1.725873
4581.000000;1.724250
4580.000000;1.722499
4579.000000;1.720894
4578.000000;1.719660
4577.000000;1.718903
4576.000000;1.718630
4575.000000;1.718641
4574.000000;1.718516
4573.000000;1.717930
4572.000000;1.717007
4571.000000;1.716194
4570.000000;1.715795
4569.000000;1.715743
4568.000000;1.715776
4567.000000;1.715637
4566.000000;1.715114
4565.000000;1.714138
4564.000000;1.712953
4563.000000;1.712001
4562.000000;1.711484
4561.000000;1.711159
4560.000000;1.710666
4559.000000;1.709940
4558.000000;1.709147
4557.000000;1.708368
4556.000000;1.707571
4555.000000;1.706845
4554.000000;1.706402
4553.000000;1.706284
4552.000000;1.706221
4551.000000;1.705882
4550.000000;1.705182
4549.000000;1.704307
4548.000000;1.703509
4547.000000;1.702932
4546.000000;1.702551
4545.000000;1.702179
4544.000000;1.701619
4543.000000;1.700868
4542.000000;1.700172
4541.000000;1.699828
4540.000000;1.699915
4539.000000;1.700225
4538.000000;1.700416
4537.000000;1.700256
4536.000000;1.699771
4535.000000;1.699218
4534.000000;1.698858
4533.000000;1.698674
4532.000000;1.698297
4531.000000;1.697295
4530.000000;1.695688
4529.000000;1.694173
4528.000000;1.693683
4527.000000;1.694549
4526.000000;1.696051
4525.000000;1.696945
4524.000000;1.696548
4523.000000;1.695298
4522.000000;1.694184
4521.000000;1.693790
4520.000000;1.693966
4519.000000;1.694237
4518.000000;1.694256
4517.000000;1.693908
4516.000000;1.693250
4515.000000;1.692495
4514.000000;1.691949
4513.000000;1.691860
4512.000000;1.692291
4511.000000;1.693120
4510.000000;1.694027
4509.000000;1.694534
4508.000000;1.694248
4507.000000;1.693218
4506.000000;1.691985
4505.000000;1.691195
4504.000000;1.691147
4503.000000;1.691656
4502.000000;1.692249
4501.000000;1.692509
4500.000000;1.692360
4499.000000;1.692083
4498.000000;1.692009
4497.000000;1.692212
4496.000000;1.692530
4495.000000;1.692789
4494.000000;1.692837
4493.000000;1.692499
4492.000000;1.691835
4491.000000;1.691398
4490.000000;1.691838
4489.000000;1.693109
4488.000000;1.694412
4487.000000;1.695091
4486.000000;1.695245
4485.000000;1.695242
4484.000000;1.695078
4483.000000;1.694630
4482.000000;1.694212
4481.000000;1.694286
4480.000000;1.694765
4479.000000;1.695123
4478.000000;1.695190
4477.000000;1.695321
4476.000000;1.695711
4475.000000;1.696060
4474.000000;1.696156
4473.000000;1.696332
4472.000000;1.697048
4471.000000;1.698270
4470.000000;1.699565
4469.000000;1.700597
4468.000000;1.701309
4467.000000;1.701793
4466.000000;1.702194
4465.000000;1.702636
4464.000000;1.703072
4463.000000;1.703342
4462.000000;1.703494
4461.000000;1.703873
4460.000000;1.704742
4459.000000;1.705982
4458.000000;1.707315
4457.000000;1.708599
4456.000000;1.709737
4455.000000;1.710530
4454.000000;1.710983
4453.000000;1.711588
4452.000000;1.712916
4451.000000;1.714899
4450.000000;1.716805
4449.000000;1.717983
4448.000000;1.718471
4447.000000;1.718833
4446.000000;1.719566
4445.000000;1.720715
4444.000000;1.721973
4443.000000;1.723073
4442.000000;1.724120
4441.000000;1.725471
4440.000000;1.727249
4439.000000;1.729076
4438.000000;1.730435
4437.000000;1.731236
4436.000000;1.731928
4435.000000;1.733139
4434.000000;1.735242
4433.000000;1.738128
4432.000000;1.741172
4431.000000;1.743547
4430.000000;1.744872
4429.000000;1.745573
4428.000000;1.746460
4427.000000;1.747979
4426.000000;1.749995
4425.000000;1.752180
4424.000000;1.754357
4423.000000;1.756506
4422.000000;1.758703
4421.000000;1.761110
4420.000000;1.763828
4419.000000;1.766714
4418.000000;1.769424
4417.000000;1.771628
4416.000000;1.773171
4415.000000;1.774170
4414.000000;1.775106
4413.000000;1.776629
4412.000000;1.778946
4411.000000;1.781466
4410.000000;1.783408
4409.000000;1.784803
4408.000000;1.786540
4407.000000;1.789288
4406.000000;1.792682
4405.000000;1.795781
4404.000000;1.798048
4403.000000;1.799625
4402.000000;1.800880
4401.000000;1.802168
4400.000000;1.804035
4399.000000;1.807163
4398.000000;1.811732
4397.000000;1.816908
4396.000000;1.821258
4395.000000;1.823877
4394.000000;1.825080
4393.000000;1.825964
4392.000000;1.827433
4391.000000;1.829694
4390.000000;1.832379
4389.000000;1.834830
4388.000000;1.836476
4387.000000;1.837422
4386.000000;1.838733
4385.000000;1.841578
4384.000000;1.845768
4383.000000;1.849580
4382.000000;1.851614
4381.000000;1.852575
4380.000000;1.854603
4379.000000;1.858943
4378.000000;1.864773
4377.000000;1.870076
4376.000000;1.873201
4375.000000;1.873797
4374.000000;1.872949
4373.000000;1.872592
4372.000000;1.874159
4371.000000;1.877355
4370.000000;1.880477
4369.000000;1.882166
4368.000000;1.882584
4367.000000;1.882815
4366.000000;1.883716
4365.000000;1.885663
4364.000000;1.888720
4363.000000;1.892460
4362.000000;1.895988
4361.000000;1.898751
4360.000000;1.901165
4359.000000;1.903997
4358.000000;1.907322
4357.000000;1.910472
4356.000000;1.912770
4355.000000;1.913981
4354.000000;1.914347
4353.000000;1.914680
4352.000000;1.916091
4351.000000;1.918933
4350.000000;1.922190
4349.000000;1.924616
4348.000000;1.926358
4347.000000;1.928639
4346.000000;1.931936
4345.000000;1.935441
4344.000000;1.938414
4343.000000;1.940985
4342.000000;1.943235
4341.000000;1.944555
4340.000000;1.944843
4339.000000;1.945592
4338.000000;1.948634
4337.000000;1.953927
4336.000000;1.959313
4335.000000;1.962564
4334.000000;1.963257
4333.000000;1.962658
4332.000000;1.962407
4331.000000;1.963464
4330.000000;1.965706
4329.000000;1.968146
4328.000000;1.969813
4327.000000;1.970633
4326.000000;1.971377
4325.000000;1.972840
4324.000000;1.975405
4323.000000;1.979248
4322.000000;1.984392
4321.000000;1.990236
4320.000000;1.995344
4319.000000;1.998261
4318.000000;1.998710
4317.000000;1.997914
4316.000000;1.997788
4315.000000;1.999653
4314.000000;2.003286
4313.000000;2.007132
4312.000000;2.009730
4311.000000;2.011021
4310.000000;2.011992
4309.000000;2.013243
4308.000000;2.014472
4307.000000;2.015409
4306.000000;2.016497
4305.000000;2.018299
4304.000000;2.020970
4303.000000;2.024709
4302.000000;2.029895
4301.000000;2.036052
4300.000000;2.041417
4299.000000;2.044660
4298.000000;2.046529
4297.000000;2.048512
4296.000000;2.050543
4295.000000;2.051566
4294.000000;2.052066
4293.000000;2.054150
4292.000000;2.058574
4291.000000;2.063219
4290.000000;2.065447
4289.000000;2.065007
4288.000000;2.063646
4287.000000;2.062951
4286.000000;2.063921
4285.000000;2.067649
4284.000000;2.074662
4283.000000;2.083520
4282.000000;2.091401
4281.000000;2.096597
4280.000000;2.099687
4279.000000;2.102250
4278.000000;2.105418
4277.000000;2.109640
4276.000000;2.114856
4275.000000;2.120467
4274.000000;2.125457
4273.000000;2.129341
4272.000000;2.132494
4271.000000;2.135013
4270.000000;2.136447
4269.000000;2.137070
4268.000000;2.138454
4267.000000;2.142121
4266.000000;2.147939
4265.000000;2.154259
4264.000000;2.159346
4263.000000;2.162420
4262.000000;2.163911
4261.000000;2.165342
4260.000000;2.168420
4259.000000;2.173191
4258.000000;2.177158
4257.000000;2.177709
4256.000000;2.175732
4255.000000;2.175179
4254.000000;2.179055
4253.000000;2.186504
4252.000000;2.193769
4251.000000;2.198505
4250.000000;2.202651
4249.000000;2.210130
4248.000000;2.222597
4247.000000;2.237362
4246.000000;2.249643
4245.000000;2.256065
4244.000000;2.256391
4243.000000;2.252386
4242.000000;2.245561
4241.000000;2.236784
4240.000000;2.228222
4239.000000;2.224297
4238.000000;2.229586
4237.000000;2.245305
4236.000000;2.266960
4235.000000;2.285420
4234.000000;2.292780
4233.000000;2.289453
4232.000000;2.282965
4231.000000;2.279784
4230.000000;2.281754
4229.000000;2.288053
4228.000000;2.296791
4227.000000;2.304616
4226.000000;2.307369
4225.000000;2.303993
4224.000000;2.299845
4223.000000;2.303708
4222.000000;2.319577
4221.000000;2.340188
4220.000000;2.350571
4219.000000;2.343922
4218.000000;2.331270
4217.000000;2.329130
4216.000000;2.342902
4215.000000;2.363347
4214.000000;2.376302
4213.000000;2.376007
4212.000000;2.367437
4211.000000;2.358078
4210.000000;2.353182
4209.000000;2.356149
4208.000000;2.367085
4207.000000;2.380930
4206.000000;2.391780
4205.000000;2.400628
4204.000000;2.414677
4203.000000;2.435385
4202.000000;2.451261
4201.000000;2.451366
4200.000000;2.441306
4199.000000;2.433676
4198.000000;2.430147
4197.000000;2.421762
4196.000000;2.405624
4195.000000;2.393678
4194.000000;2.400114
4193.000000;2.424837
4192.000000;2.450167
4191.000000;2.457474
4190.000000;2.448381
4189.000000;2.438181
4188.000000;2.436225
4187.000000;2.440529
4186.000000;2.443258
4185.000000;2.438050
4184.000000;2.424964
4183.000000;2.410142
4182.000000;2.403761
4181.000000;2.415080
4180.000000;2.443495
4179.000000;2.476471
4178.000000;2.499445
4177.000000;2.508081
4176.000000;2.507249
4175.000000;2.499933
4174.000000;2.485551
4173.000000;2.468848
4172.000000;2.461264
4171.000000;2.472410
4170.000000;2.503257
4169.000000;2.543941
4168.000000;2.574896
4167.000000;2.577479
4166.000000;2.553911
4165.000000;2.520780
4164.000000;2.492367
4163.000000;2.481255
4162.000000;2.490231
4161.000000;2.511121
4160.000000;2.533164
4159.000000;2.541761
4158.000000;2.528507
4157.000000;2.501703
4156.000000;2.476245
4155.000000;2.464579
4154.000000;2.472082
4153.000000;2.494142
4152.000000;2.515679
4151.000000;2.523223
4150.000000;2.522068
4149.000000;2.530052
4148.000000;2.556056
4147.000000;2.589549
4146.000000;2.609000
4145.000000;2.603948
4144.000000;2.585913
4143.000000;2.573127
4142.000000;2.572667
4141.000000;2.581563
4140.000000;2.598430
4139.000000;2.620005
4138.000000;2.628757
4137.000000;2.606473
4136.000000;2.560358
4135.000000;2.514887
4134.000000;2.495145
4133.000000;2.521331
4132.000000;2.598713
4131.000000;2.707907
4130.000000;2.769113
4129.000000;2.714360
4128.000000;2.626237
4127.000000;2.558632
4126.000000;2.516057
4125.000000;2.509810
4124.000000;2.537560
4123.000000;2.572403
4122.000000;2.591184
4121.000000;2.613230
4120.000000;2.677858
4119.000000;2.776498
4118.000000;2.836727
4117.000000;2.838874
4116.000000;2.800962
4115.000000;2.750804
4114.000000;2.696514
4113.000000;2.622483
4112.000000;2.540577
4111.000000;2.480495
4110.000000;2.455726
4109.000000;2.460060
4108.000000;2.481608
4107.000000;2.512106
4106.000000;2.522409
4105.000000;2.489445
4104.000000;2.452672
4103.000000;2.452889
4102.000000;2.492442
4101.000000;2.539100
4100.000000;2.555700
4099.000000;2.541449
4098.000000;2.511898
4097.000000;2.482790
4096.000000;2.470235
4095.000000;2.469431
4094.000000;2.458503
4093.000000;2.433522
4092.000000;2.407289
4091.000000;2.388816
4090.000000;2.380384
4089.000000;2.380440
4088.000000;2.395475
4087.000000;2.446521
4086.000000;2.545174
4085.000000;2.672841
4084.000000;2.754669
4083.000000;2.722242
4082.000000;2.657579
4081.000000;2.614336
4080.000000;2.596096
4079.000000;2.611323
4078.000000;2.685424
4077.000000;2.796662
4076.000000;2.917734
4075.000000;2.903405
4074.000000;2.638993
4073.000000;2.473849
4072.000000;2.459952
4071.000000;2.527007
4070.000000;2.615680
4069.000000;2.664467
4068.000000;2.620009
4067.000000;2.551263
4066.000000;2.495502
4065.000000;2.443148
4064.000000;2.404577
4063.000000;2.388271
4062.000000;2.377380
4061.000000;2.358727
4060.000000;2.347209
4059.000000;2.355602
4058.000000;2.385439
4057.000000;2.444738
4056.000000;2.551753
4055.000000;2.694225
4054.000000;2.776513
4053.000000;2.712863
4052.000000;2.591302
4051.000000;2.522621
4050.000000;2.508524
4049.000000;2.505781
4048.000000;2.485969
4047.000000;2.452319
4046.000000;2.427396
4045.000000;2.427488
4044.000000;2.463810
4043.000000;2.546430
4042.000000;2.648101
4041.000000;2.657208
4040.000000;2.533899
4039.000000;2.412033
4038.000000;2.374820
4037.000000;2.417111
4036.000000;2.476873
4035.000000;2.484121
4034.000000;2.444753
4033.000000;2.430667
4032.000000;2.482848
4031.000000;2.574980
4030.000000;2.681322
4029.000000;2.820411
4028.000000;2.698540
4027.000000;2.482201
4026.000000;2.445589
4025.000000;2.591662
4024.000000;2.880932
4023.000000;3.352938
4022.000000;3.365018
4021.000000;2.970737
4020.000000;2.984001
4019.000000;2.971128
4018.000000;2.860918
4017.000000;2.720157
4016.000000;2.565495
4015.000000;2.453420
4014.000000;2.391753
4013.000000;2.377535
4012.000000;2.405007
4011.000000;2.446799
4010.000000;2.467368
4009.000000;2.463925
4008.000000;2.455874
4007.000000;2.457570
4006.000000;2.480499
4005.000000;2.546431
4004.000000;2.765585
4003.000000;3.159203
4002.000000;2.729595
4001.000000;2.505182
4000.000000;2.442426
3999.000000;2.468563
3998.000000;2.504473
3997.000000;2.525353
3996.000000;2.575753
3995.000000;2.649027
3994.000000;2.715253
3993.000000;2.817855
3992.000000;2.970260
3991.000000;3.070523
3990.000000;3.125838
3989.000000;3.094770
3988.000000;2.997114
3987.000000;2.981207
3986.000000;3.087167
3985.000000;3.748846
3984.000000;3.003166
3983.000000;2.679321
3982.000000;2.522572
3981.000000;2.449756
3980.000000;2.453815
3979.000000;2.535848
3978.000000;2.719886
3977.000000;2.945191
3976.000000;2.817657
3975.000000;2.713972
3974.000000;2.762319
3973.000000;3.009953
3972.000000;3.500175
3971.000000;3.088347
3970.000000;2.804717
3969.000000;2.728466
3968.000000;2.682451
3967.000000;2.604630
3966.000000;2.503637
3965.000000;2.440157
3964.000000;2.460328
3963.000000;2.585547
3962.000000;2.784677
3961.000000;2.793884
3960.000000;2.739467
3959.000000;2.868235
3958.000000;3.086064
3957.000000;2.786097
3956.000000;2.596470
3955.000000;2.468655
3954.000000;2.362546
3953.000000;2.328995
3952.000000;2.401432
3951.000000;2.608566
3950.000000;2.902359
3949.000000;2.909709
3948.000000;2.861482
3947.000000;2.973378
3946.000000;3.453068
3945.000000;3.850711
3944.000000;3.302588
3943.000000;3.145950
3942.000000;3.041867
3941.000000;3.003437
3940.000000;2.870498
3939.000000;2.800693
3938.000000;2.787868
3937.000000;2.781283
3936.000000;2.729709
3935.000000;2.613958
3934.000000;2.484331
3933.000000;2.384112
3932.000000;2.329586
3931.000000;2.297731
3930.000000;2.274905
3929.000000;2.278925
3928.000000;2.301203
3927.000000;2.304792
3926.000000;2.274129
3925.000000;2.250771
3924.000000;2.283587
3923.000000;2.375205
3922.000000;2.473221
3921.000000;2.550864
3920.000000;2.728073
3919.000000;2.779558
3918.000000;2.586104
3917.000000;2.572933
3916.000000;2.690254
3915.000000;2.880934
3914.000000;3.026801
3913.000000;3.078213
3912.000000;3.020640
3911.000000;2.891098
3910.000000;2.645191
3909.000000;2.410757
3908.000000;2.260729
3907.000000;2.162430
3906.000000;2.102999
3905.000000;2.133445
3904.000000;2.182768
3903.000000;2.192541
3902.000000;2.333581
3901.000000;2.590689
3900.000000;2.551682
3899.000000;2.400175
3898.000000;2.388279
3897.000000;2.524678
3896.000000;2.866431
3895.000000;2.727413
3894.000000;2.344425
3893.000000;2.213572
3892.000000;2.618612
3891.000000;2.762231
3890.000000;2.862966
3889.000000;3.162221
3888.000000;3.617457
3887.000000;3.304659
3886.000000;2.928269
3885.000000;2.760460
3884.000000;2.676919
3883.000000;2.674712
3882.000000;2.745876
3881.000000;2.857398
3880.000000;2.869589
3879.000000;2.786223
3878.000000;2.747426
3877.000000;2.838632
3876.000000;3.154919
3875.000000;3.214170
3874.000000;3.188240
3873.000000;3.646041
3872.000000;3.075629
3871.000000;2.809057
3870.000000;2.708218
3869.000000;2.716301
3868.000000;2.862598
3867.000000;3.322626
3866.000000;3.230123
3865.000000;2.817446
3864.000000;2.762829
3863.000000;2.836828
3862.000000;3.083076
3861.000000;3.509829
3860.000000;3.811873
3859.000000;3.648707
3858.000000;3.405935
3857.000000;3.196892
3856.000000;3.043322
3855.000000;2.951667
3854.000000;2.914978
3853.000000;2.893871
3852.000000;2.883297
3851.000000;2.883617
3850.000000;2.894477
3849.000000;2.940049
3848.000000;3.032430
3847.000000;3.129769
3846.000000;3.106810
3845.000000;2.990433
3844.000000;2.939480
3843.000000;3.086504
3842.000000;3.375405
3841.000000;3.083001
3840.000000;2.994686
3839.000000;3.330994
3838.000000;3.493154
3837.000000;2.981640
3836.000000;2.853186
3835.000000;2.685645
3834.000000;2.565634
3833.000000;2.522378
3832.000000;2.559762
3831.000000;2.656442
3830.000000;2.745854
3829.000000;2.797523
3828.000000;2.910266
3827.000000;3.144330
3826.000000;3.760615
3825.000000;3.295272
3824.000000;2.938892
3823.000000;2.828705
3822.000000;2.878747
3821.000000;3.101240
3820.000000;3.440197
3819.000000;3.417358
3818.000000;3.149337
3817.000000;3.150607
3816.000000;3.560281
3815.000000;3.181501
3814.000000;2.842753
3813.000000;2.757170
3812.000000;2.812299
3811.000000;3.033287
3810.000000;3.576634
3809.000000;3.797184
3808.000000;3.419979
3807.000000;3.370834
3806.000000;3.259111
3805.000000;3.056972
3804.000000;2.878661
3803.000000;2.835167
3802.000000;3.020707
3801.000000;3.238769
3800.000000;3.055886
3799.000000;3.028149
3798.000000;3.137424
3797.000000;3.285898
3796.000000;3.136116
3795.000000;2.993061
3794.000000;3.077650
3793.000000;3.288903
3792.000000;3.038578
3791.000000;3.018260
3790.000000;3.337388
3789.000000;3.844495
3788.000000;3.027355
3787.000000;2.849048
3786.000000;2.897897
3785.000000;2.974082
3784.000000;2.715105
3783.000000;2.579521
3782.000000;2.586212
3781.000000;2.723150
3780.000000;2.933674
3779.000000;3.060025
3778.000000;3.145057
3777.000000;3.645897
3776.000000;3.675800
3775.000000;3.170570
3774.000000;2.936003
3773.000000;2.849490
3772.000000;2.913001
3771.000000;3.229997
3770.000000;3.247923
3769.000000;3.283881
3768.000000;3.194761
3767.000000;3.108462
3766.000000;3.143934
3765.000000;3.301432
3764.000000;3.584020
3763.000000;3.423181
3762.000000;3.240186
3761.000000;3.437769
3760.000000;3.657465
3759.000000;2.961526
3758.000000;2.750601
3757.000000;2.694146
3756.000000;2.761211
3755.000000;2.887466
3754.000000;3.078678
3753.000000;3.132811
3752.000000;2.913413
3751.000000;2.817215
3750.000000;2.839953
3749.000000;2.846261
3748.000000;2.862802
3747.000000;3.015791
3746.000000;3.468026
3745.000000;3.181240
3744.000000;2.938047
3743.000000;2.882085
3742.000000;2.847830
3741.000000;2.799461
3740.000000;2.787888
3739.000000;2.874222
3738.000000;3.101893
3737.000000;3.310513
3736.000000;3.245249
3735.000000;3.524738
3734.000000;4.135659
3733.000000;3.350822
3732.000000;3.077921
3731.000000;2.834222
3730.000000;2.730064
3729.000000;2.756636
3728.000000;2.957507
3727.000000;3.445181
3726.000000;3.360560
3725.000000;3.114601
3724.000000;3.145564
3723.000000;3.171974
3722.000000;3.115024
3721.000000;3.066360
3720.000000;3.138122
3719.000000;3.232994
3718.000000;3.400739
3717.000000;3.845987
3716.000000;3.249584
3715.000000;3.092162
3714.000000;3.241719
3713.000000;3.246040
3712.000000;2.914617
3711.000000;2.782259
3710.000000;2.802671
3709.000000;3.071747
3708.000000;3.749499
3707.000000;2.985858
3706.000000;2.752994
3705.000000;2.738380
3704.000000;2.565395
3703.000000;2.862101
3702.000000;3.368998
3701.000000;3.077925
3700.000000;3.203483
3699.000000;3.551092
3698.000000;3.614755
3697.000000;3.281667
3696.000000;3.031953
3695.000000;2.977300
3694.000000;3.206066
3693.000000;3.598121
3692.000000;3.707098
3691.000000;3.313744
3690.000000;2.965150
3689.000000;2.842412
3688.000000;2.867316
3687.000000;2.985761
3686.000000;3.156421
3685.000000;3.271643
3684.000000;3.217381
3683.000000;3.122203
3682.000000;3.086607
3681.000000;3.117371
3680.000000;3.168157
3679.000000;3.204229
3678.000000;3.255620
3677.000000;3.655087
3676.000000;3.653281
3675.000000;3.138711
3674.000000;3.139377
3673.000000;3.407282
3672.000000;3.358860
3671.000000;3.118559
3670.000000;3.158514
3669.000000;3.620490
3668.000000;3.430814
3667.000000;3.035058
3666.000000;2.901524
3665.000000;2.846713
3664.000000;2.882885
3663.000000;3.025210
3662.000000;3.118361
3661.000000;2.976272
3660.000000;2.913172
3659.000000;2.975075
3658.000000;3.024975
3657.000000;2.918820
3656.000000;2.772463
3655.000000;2.709836
3654.000000;2.766286
3653.000000;2.940946
3652.000000;3.199982
3651.000000;3.436430
3650.000000;3.489311
3649.000000;3.785384
3648.000000;3.537680
3647.000000;3.010327
3646.000000;2.816951
3645.000000;2.763424
3644.000000;2.835388
3643.000000;2.959696
3642.000000;2.973531
3641.000000;2.951997
3640.000000;3.066600
3639.000000;3.258967
3638.000000;3.180432
3637.000000;3.115247
3636.000000;2.583253
3635.000000;2.405658
3634.000000;2.258728
3633.000000;2.687483
3632.000000;3.060321
3631.000000;3.164932
3630.000000;3.320617
3629.000000;3.199224
3628.000000;3.220095
3627.000000;3.223252
3626.000000;3.188413
3625.000000;3.198222
3624.000000;3.268132
3623.000000;3.258499
3622.000000;3.104212
3621.000000;2.938446
3620.000000;2.878618
3619.000000;2.984103
3618.000000;3.374990
3617.000000;3.190906
3616.000000;2.930619
3615.000000;2.965357
3614.000000;3.041823
3613.000000;3.034248
3612.000000;2.985239
3611.000000;3.011609
3610.000000;3.001646
3609.000000;2.822797
3608.000000;2.852326
3607.000000;2.564056
3606.000000;2.790733
3605.000000;3.370369
3604.000000;3.132508
3603.000000;2.840242
3602.000000;2.778620
3601.000000;3.013403
3600.000000;3.188293
3599.000000;2.752609
3598.000000;2.620983
3597.000000;2.601887
3596.000000;2.754799
3595.000000;2.888877
3594.000000;2.706814
3593.000000;2.611011
3592.000000;2.613443
3591.000000;2.696625
3590.000000;2.641913
3589.000000;2.411746
3588.000000;2.387105
3587.000000;2.548240
3586.000000;2.564739
3585.000000;2.673095
3584.000000;2.880990
3583.000000;2.750062
3582.000000;2.665047
3581.000000;2.623888
3580.000000;2.607465
3579.000000;2.740480
3578.000000;3.017546
3577.000000;3.249934
3576.000000;3.374246
3575.000000;3.362198
3574.000000;3.123933
3573.000000;2.944277
3572.000000;2.943824
3571.000000;2.963359
3570.000000;3.251225
3569.000000;2.432195
3568.000000;2.528628
3567.000000;2.661320
3566.000000;2.347004
3565.000000;2.285780
3564.000000;2.320013
3563.000000;2.413347
3562.000000;2.607788
3561.000000;3.082510
3560.000000;2.888150
3559.000000;2.616437
3558.000000;2.569385
3557.000000;2.562596
3556.000000;2.567868
3555.000000;2.562359
3554.000000;2.582656
3553.000000;2.688388
3552.000000;2.938677
3551.000000;2.848209
3550.000000;2.576604
3549.000000;2.432242
3548.000000;2.320244
3547.000000;2.210994
3546.000000;2.164913
3545.000000;2.219374
3544.000000;2.357838
3543.000000;2.535250
3542.000000;2.684489
3541.000000;2.754915
3540.000000;2.781726
3539.000000;2.833596
3538.000000;2.929760
3537.000000;3.008003
3536.000000;3.044755
3535.000000;2.985086
3534.000000;2.854518
3533.000000;2.764830
3532.000000;2.742321
3531.000000;2.808550
3530.000000;2.974423
3529.000000;2.824891
3528.000000;2.550610
3527.000000;2.391242
3526.000000;2.336537
3525.000000;2.371413
3524.000000;2.482003
3523.000000;2.685383
3522.000000;3.039956
3521.000000;3.417555
3520.000000;3.337482
3519.000000;3.266889
3518.000000;3.287095
3517.000000;3.477972
3516.000000;3.261301
3515.000000;2.884798
3514.000000;2.715290
3513.000000;2.657926
3512.000000;2.694085
3511.000000;2.770326
3510.000000;2.772544
3509.000000;2.691810
3508.000000;2.628661
3507.000000;2.603743
3506.000000;2.573143
3505.000000;2.532706
3504.000000;2.552805
3503.000000;2.721371
3502.000000;3.001821
3501.000000;2.985824
3500.000000;2.920339
3499.000000;2.922671
3498.000000;2.988431
3497.000000;3.127278
3496.000000;3.128767
3495.000000;3.016616
3494.000000;2.973403
3493.000000;3.041017
3492.000000;3.242061
3491.000000;3.390993
3490.000000;3.141851
3489.000000;2.908110
3488.000000;2.753640
3487.000000;2.664541
3486.000000;2.644204
3485.000000;2.684651
3484.000000;2.767589
3483.000000;2.891655
3482.000000;3.124593
3481.000000;3.611027
3480.000000;3.187533
3479.000000;2.856240
3478.000000;2.751157
3477.000000;2.748381
3476.000000;2.882309
3475.000000;3.060196
3474.000000;2.962486
3473.000000;2.880761
3472.000000;2.849489
3471.000000;2.813000
3470.000000;2.823424
3469.000000;2.844387
3468.000000;2.842214
3467.000000;2.861060
3466.000000;2.885754
3465.000000;2.862032
3464.000000;2.814384
3463.000000;2.795930
3462.000000;2.809226
3461.000000;2.870026
3460.000000;3.272074
3459.000000;3.166619
3458.000000;2.702090
3457.000000;2.603401
3456.000000;2.619830
3455.000000;2.717121
3454.000000;2.818528
3453.000000;2.893241
3452.000000;2.993999
3451.000000;3.182534
3450.000000;3.379332
3449.000000;3.343510
3448.000000;3.412207
3447.000000;3.619656
3446.000000;3.439102
3445.000000;3.134819
3444.000000;2.962681
3443.000000;2.944357
3442.000000;3.023838
3441.000000;3.031713
3440.000000;2.905255
3439.000000;2.819459
3438.000000;2.877272
3437.000000;3.085340
3436.000000;3.450945
3435.000000;3.816736
3434.000000;3.327318
3433.000000;3.091920
3432.000000;3.198690
3431.000000;3.446210
3430.000000;3.162150
3429.000000;2.930215
3428.000000;2.847251
3427.000000;2.792261
3426.000000;2.746510
3425.000000;2.731637
3424.000000;2.799869
3423.000000;3.019023
3422.000000;3.323351
3421.000000;3.294627
3420.000000;3.339715
3419.000000;3.401583
3418.000000;3.003200
3417.000000;2.722125
3416.000000;2.599394
3415.000000;2.601459
3414.000000;2.672541
3413.000000;2.737258
3412.000000;2.869150
3411.000000;3.255683
3410.000000;3.966673
3409.000000;3.715327
3408.000000;3.702044
3407.000000;3.482893
3406.000000;3.090371
3405.000000;2.882131
3404.000000;2.885110
3403.000000;3.111781
3402.000000;3.324926
3401.000000;3.133413
3400.000000;2.997412
3399.000000;2.926833
3398.000000;2.868754
3397.000000;2.831475
3396.000000;2.813869
3395.000000;2.777735
3394.000000;2.722809
3393.000000;2.714618
3392.000000;2.785977
3391.000000;2.894358
3390.000000;2.923544
3389.000000;2.856147
3388.000000;2.753556
3387.000000;2.689506
3386.000000;2.725362
3385.000000;2.882624
3384.000000;3.081244
3383.000000;3.092750
3382.000000;3.013122
3381.000000;2.959480
3380.000000;2.926990
3379.000000;2.874662
3378.000000;2.808592
3377.000000;2.821599
3376.000000;2.985119
3375.000000;3.626857
3374.000000;3.412765
3373.000000;2.985896
3372.000000;2.924038
3371.000000;2.985267
3370.000000;3.224417
3369.000000;3.297951
3368.000000;3.176929
3367.000000;3.073251
3366.000000;2.900599
3365.000000;2.777503
3364.000000;2.727348
3363.000000;2.697660
3362.000000;2.689420
3361.000000;2.727864
3360.000000;2.800018
3359.000000;2.890261
3358.000000;3.005670
3357.000000;3.189796
3356.000000;3.534813
3355.000000;3.446184
3354.000000;3.180352
3353.000000;3.257827
3352.000000;3.551120
3351.000000;3.710887
3350.000000;3.309622
3349.000000;2.990816
3348.000000;2.893659
3347.000000;2.883629
3346.000000;2.865587
3345.000000;2.881358
3344.000000;3.061175
3343.000000;3.809657
3342.000000;3.377717
3341.000000;3.176525
3340.000000;3.321080
3339.000000;3.302920
3338.000000;3.004991
3337.000000;2.758917
3336.000000;2.640485
3335.000000;2.630687
3334.000000;2.703367
3333.000000;2.812618
3332.000000;2.909134
3331.000000;2.958685
3330.000000;2.960473
3329.000000;2.987049
3328.000000;3.076692
3327.000000;3.236100
3326.000000;3.415892
3325.000000;3.501470
3324.000000;3.834991
3323.000000;3.534208
3322.000000;3.274539
3321.000000;3.319606
3320.000000;3.197242
3319.000000;3.176327
3318.000000;3.326286
3317.000000;3.149774
3316.000000;2.932220
3315.000000;2.862712
3314.000000;2.878436
3313.000000;2.861002
3312.000000;2.739516
3311.000000;2.622828
3310.000000;2.591943
3309.000000;2.685432
3308.000000;2.978621
3307.000000;3.291501
3306.000000;3.254647
3305.000000;3.236681
3304.000000;2.893465
3303.000000;2.773541
3302.000000;2.877011
3301.000000;3.071924
3300.000000;3.050467
3299.000000;3.053212
3298.000000;3.369727
3297.000000;3.315897
3296.000000;2.951893
3295.000000;2.828431
3294.000000;2.817723
3293.000000;2.916608
3292.000000;3.130993
3291.000000;3.246396
3290.000000;3.079194
3289.000000;2.996886
3288.000000;3.030928
3287.000000;2.953484
3286.000000;2.827680
3285.000000;2.762139
3284.000000;2.723907
3283.000000;2.727721
3282.000000;2.844000
3281.000000;2.954272
3280.000000;2.792215
3279.000000;2.693749
3278.000000;2.722948
3277.000000;2.772094
3276.000000;2.788306
3275.000000;2.965724
3274.000000;3.390848
3273.000000;3.115937
3272.000000;2.872604
3271.000000;2.863842
3270.000000;2.926019
3269.000000;2.994503
3268.000000;3.089231
3267.000000;3.161231
3266.000000;3.009672
3265.000000;2.832111
3264.000000;2.745465
3263.000000;2.742813
3262.000000;2.820107
3261.000000;2.949927
3260.000000;3.084387
3259.000000;3.171185
3258.000000;3.157042
3257.000000;3.215981
3256.000000;3.546295
3255.000000;3.772870
3254.000000;3.831786
3253.000000;3.430963
3252.000000;3.133327
3251.000000;3.069071
3250.000000;3.124625
3249.000000;3.330464
3248.000000;3.729247
3247.000000;3.918597
3246.000000;4.017209
3245.000000;3.506149
3244.000000;3.126748
3243.000000;3.030662
3242.000000;3.166887
3241.000000;3.474152
3240.000000;3.356842
3239.000000;3.205410
3238.000000;3.164176
3237.000000;3.101019
3236.000000;3.112452
3235.000000;3.377396
3234.000000;3.477204
3233.000000;3.168020
3232.000000;3.091463
3231.000000;3.043454
3230.000000;2.942121
3229.000000;2.929814
3228.000000;3.019629
3227.000000;3.020710
3226.000000;2.866506
3225.000000;2.752427
3224.000000;2.716744
3223.000000;2.761167
3222.000000;2.881991
3221.000000;3.046160
3220.000000;3.192192
3219.000000;3.254816
3218.000000;3.280008
3217.000000;3.233438
3216.000000;3.122261
3215.000000;3.018540
3214.000000;3.013926
3213.000000;3.547887
3212.000000;3.475373
3211.000000;3.027606
3210.000000;3.052294
3209.000000;3.207887
3208.000000;3.435647
3207.000000;3.360148
3206.000000;3.269589
3205.000000;3.511641
3204.000000;3.528836
3203.000000;3.207945
3202.000000;3.040228
3201.000000;2.934164
3200.000000;2.909253
3199.000000;3.022047
3198.000000;3.244597
3197.000000;3.261537
3196.000000;3.193077
3195.000000;3.237332
3194.000000;3.248223
3193.000000;3.293203
3192.000000;3.500144
3191.000000;3.324808
3190.000000;3.008304
3189.000000;2.870420
3188.000000;2.819512
3187.000000;2.778626
3186.000000;2.722013
3185.000000;2.739824
3184.000000;2.892528
3183.000000;3.060071
3182.000000;3.033599
3181.000000;2.944522
3180.000000;2.875031
3179.000000;2.799816
3178.000000;2.736255
3177.000000;2.717354
3176.000000;2.740472
3175.000000;2.817283
3174.000000;2.972177
3173.000000;3.262727
3172.000000;3.534070
3171.000000;3.224857
3170.000000;3.035582
3169.000000;2.984071
3168.000000;3.015094
3167.000000;3.023911
3166.000000;2.914296
3165.000000;2.797945
3164.000000;2.757013
3163.000000;2.842133
3162.000000;3.071644
3161.000000;3.163341
3160.000000;3.031658
3159.000000;2.935031
3158.000000;2.855051
3157.000000;2.920262
3156.000000;3.352902
3155.000000;3.202860
3154.000000;2.924509
3153.000000;2.930322
3152.000000;3.066507
3151.000000;3.231370
3150.000000;3.141470
3149.000000;3.081116
3148.000000;3.086445
3147.000000;2.995400
3146.000000;2.935315
3145.000000;3.019227
3144.000000;3.241222
3143.000000;3.466420
3142.000000;3.393212
3141.000000;3.462485
3140.000000;3.746162
3139.000000;3.152524
3138.000000;2.864797
3137.000000;2.776464
3136.000000;2.744561
3135.000000;2.723180
3134.000000;2.711406
3133.000000;2.727139
3132.000000;2.769764
3131.000000;2.822277
3130.000000;2.775619
3129.000000;2.642287
3128.000000;2.567105
3127.000000;2.594405
3126.000000;2.710143
3125.000000;2.862426
3124.000000;2.970943
3123.000000;3.017737
3122.000000;3.020568
3121.000000;2.929349
3120.000000;2.769925
3119.000000;2.658384
3118.000000;2.653261
3117.000000;2.750031
3116.000000;2.813641
3115.000000;2.784324
3114.000000;2.822227
3113.000000;2.918971
3112.000000;2.972601
3111.000000;2.967690
3110.000000;2.973472
3109.000000;3.017706
3108.000000;3.013649
3107.000000;2.930625
3106.000000;2.910789
3105.000000;2.964915
3104.000000;3.026244
3103.000000;3.372224
3102.000000;3.412417
3101.000000;2.990722
3100.000000;2.867933
3099.000000;2.841491
3098.000000;2.823748
3097.000000;2.822992
3096.000000;2.848749
3095.000000;2.859234
3094.000000;2.857097
3093.000000;2.892250
3092.000000;2.953599
3091.000000;3.092230
3090.000000;3.464378
3089.000000;3.408157
3088.000000;2.988775
3087.000000;2.846416
3086.000000;2.847260
3085.000000;3.021391
3084.000000;3.470970
3083.000000;3.272467
3082.000000;2.949450
3081.000000;2.933510
3080.000000;3.035697
3079.000000;3.084247
3078.000000;2.966688
3077.000000;2.851940
3076.000000;2.862545
3075.000000;3.069021
3074.000000;3.348292
3073.000000;3.238681
3072.000000;3.104422
3071.000000;3.125428
3070.000000;3.291219
3069.000000;3.355995
3068.000000;3.263481
3067.000000;3.331186
3066.000000;3.487333
3065.000000;3.233768
3064.000000;3.043952
3063.000000;2.942818
3062.000000;2.902900
3061.000000;3.041089
3060.000000;3.179508
3059.000000;3.020812
3058.000000;2.986514
3057.000000;3.149110
3056.000000;3.285583
3055.000000;3.042426
3054.000000;2.815175
3053.000000;2.717470
3052.000000;2.704823
3051.000000;2.772309
3050.000000;2.900229
3049.000000;3.125509
3048.000000;3.383386
3047.000000;3.322100
3046.000000;3.499553
3045.000000;3.390025
3044.000000;3.031423
3043.000000;2.991229
3042.000000;3.154879
3041.000000;3.220709
3040.000000;3.136327
3039.000000;3.142986
3038.000000;3.231410
3037.000000;3.340226
3036.000000;3.369545
3035.000000;3.259451
3034.000000;3.075453
3033.000000;2.915468
3032.000000;2.838332
3031.000000;2.840655
3030.000000;2.878818
3029.000000;2.900609
3028.000000;2.890101
3027.000000;2.846003
3026.000000;2.783334
3025.000000;2.757914
3024.000000;2.801547
3023.000000;2.848655
3022.000000;2.837399
3021.000000;2.832541
3020.000000;2.868213
3019.000000;2.917296
3018.000000;3.016017
3017.000000;3.124202
3016.000000;3.023364
3015.000000;2.957363
3014.000000;3.089360
3013.000000;3.210907
3012.000000;3.410487
3011.000000;3.657700
3010.000000;3.077372
3009.000000;2.886124
3008.000000;2.826147
3007.000000;2.811873
3006.000000;2.886205
3005.000000;3.060235
3004.000000;3.366228
3003.000000;3.653574
3002.000000;3.472441
3001.000000;3.521220
3000.000000;3.633516
2999.000000;3.234515
2998.000000;3.076905
2997.000000;3.175659
2996.000000;3.400892
2995.000000;3.201309
2994.000000;2.977749
2993.000000;2.951075
2992.000000;3.100379
2991.000000;3.269156
2990.000000;3.173681
2989.000000;3.161327
2988.000000;3.244993
2987.000000;3.222776
2986.000000;3.137875
2985.000000;3.094942
2984.000000;3.025370
2983.000000;2.904740
2982.000000;2.816165
2981.000000;2.796556
2980.000000;2.862919
2979.000000;2.951216
2978.000000;2.924368
2977.000000;2.870799
2976.000000;2.916370
2975.000000;3.075881
2974.000000;3.196388
2973.000000;3.073712
2972.000000;2.930048
2971.000000;2.882718
2970.000000;2.902190
2969.000000;2.889046
2968.000000;2.867872
2967.000000;2.959909
2966.000000;3.131045
2965.000000;3.066050
2964.000000;3.001315
2963.000000;3.022180
2962.000000;3.185666
2961.000000;3.954296
2960.000000;3.245056
2959.000000;2.979722
2958.000000;3.000802
2957.000000;3.069132
2956.000000;3.178008
2955.000000;3.226303
2954.000000;3.172149
2953.000000;3.145928
2952.000000;2.994613
2951.000000;2.769198
2950.000000;2.639853
2949.000000;2.601875
2948.000000;2.626821
2947.000000;2.668648
2946.000000;2.701795
2945.000000;2.742038
2944.000000;2.792476
2943.000000;2.827070
2942.000000;2.837669
2941.000000;2.871524
2940.000000;2.951032
2939.000000;2.974591
2938.000000;2.906248
2937.000000;2.841627
2936.000000;2.828264
2935.000000;2.895439
2934.000000;3.071869
2933.000000;3.397263
2932.000000;3.742666
2931.000000;3.502317
2930.000000;3.208767
2929.000000;3.059743
2928.000000;2.975307
2927.000000;2.918786
2926.000000;2.896392
2925.000000;2.870496
2924.000000;2.836118
2923.000000;2.863184
2922.000000;3.010988
2921.000000;3.462202
2920.000000;3.509721
2919.000000;2.979323
2918.000000;2.759996
2917.000000;2.684933
2916.000000;2.734761
2915.000000;2.891193
2914.000000;3.257627
2913.000000;3.559647
2912.000000;3.055876
2911.000000;2.833271
2910.000000;2.768912
2909.000000;2.748990
2908.000000;2.752948
2907.000000;2.771692
2906.000000;2.843405
2905.000000;2.956645
2904.000000;3.208838
2903.000000;3.725045
2902.000000;3.261081
2901.000000;3.014476
2900.000000;2.880965
2899.000000;2.729353
2898.000000;2.653547
2897.000000;2.696809
2896.000000;2.892542
2895.000000;3.059951
2894.000000;2.948403
2893.000000;2.827230
2892.000000;2.747969
2891.000000;2.688930
2890.000000;2.658388
2889.000000;2.676602
2888.000000;2.770720
2887.000000;2.945679
2886.000000;3.275260
2885.000000;3.609298
2884.000000;3.262952
2883.000000;3.130454
2882.000000;3.132337
2881.000000;2.958741
2880.000000;2.823816
2879.000000;2.846476
2878.000000;3.008423
2877.000000;3.373782
2876.000000;3.446874
2875.000000;3.017116
2874.000000;2.843688
2873.000000;2.791624
2872.000000;2.819671
2871.000000;2.941478
2870.000000;3.177445
2869.000000;3.400840
2868.000000;3.294010
2867.000000;3.164957
2866.000000;3.060095
2865.000000;3.086221
2864.000000;3.496563
2863.000000;3.293287
2862.000000;2.904800
2861.000000;2.812953
2860.000000;2.815617
2859.000000;2.889709
2858.000000;3.128900
2857.000000;3.283376
2856.000000;2.985698
2855.000000;2.870430
2854.000000;3.001768
2853.000000;3.406865
2852.000000;3.403279
2851.000000;3.151947
2850.000000;3.086885
2849.000000;3.034697
2848.000000;3.010599
2847.000000;3.190899
2846.000000;3.400290
2845.000000;3.041472
2844.000000;2.874969
2843.000000;2.867086
2842.000000;2.967996
2841.000000;3.055089
2840.000000;2.878410
2839.000000;2.711289
2838.000000;2.654544
2837.000000;2.661125
2836.000000;2.693265
2835.000000;2.757482
2834.000000;2.881082
2833.000000;3.059964
2832.000000;3.253680
2831.000000;3.580898
2830.000000;4.440879
2829.000000;3.533775
2828.000000;3.047071
2827.000000;2.861042
2826.000000;2.848093
2825.000000;2.938903
2824.000000;2.977259
2823.000000;2.867536
2822.000000;2.735021
2821.000000;2.687499
2820.000000;2.750242
2819.000000;2.917869
2818.000000;3.076522
2817.000000;3.035291
2816.000000;2.932532
2815.000000;2.898388
2814.000000;2.939628
2813.000000;2.940350
2812.000000;2.852960
2811.000000;2.816487
2810.000000;2.851897
2809.000000;2.887026
2808.000000;2.892745
2807.000000;2.903545
2806.000000;2.953200
2805.000000;3.102849
2804.000000;3.377452
2803.000000;3.430999
2802.000000;3.148947
2801.000000;2.892274
2800.000000;2.725926
2799.000000;2.658330
2798.000000;2.694047
2797.000000;2.861284
2796.000000;3.210758
2795.000000;3.393279
2794.000000;3.430734
2793.000000;3.865822
2792.000000;4.299162
2791.000000;3.530636
2790.000000;2.984757
2789.000000;2.795425
2788.000000;2.801000
2787.000000;2.951018
2786.000000;3.197459
2785.000000;3.202656
2784.000000;3.082429
2783.000000;2.992409
2782.000000;2.965733
2781.000000;3.159717
2780.000000;3.112090
2779.000000;2.852641
2778.000000;2.802626
2777.000000;2.843270
2776.000000;2.829881
2775.000000;2.768081
2774.000000;2.759940
2773.000000;2.824105
2772.000000;2.883158
2771.000000;2.988472
2770.000000;3.282742
2769.000000;3.138731
2768.000000;2.789487
2767.000000;2.608975
2766.000000;2.496805
2765.000000;2.425285
2764.000000;2.411919
2763.000000;2.486047
2762.000000;2.662861
2761.000000;3.147038
2760.000000;3.306175
2759.000000;2.826374
2758.000000;2.769572
2757.000000;2.843914
2756.000000;3.075948
2755.000000;3.197803
2754.000000;2.992797
2753.000000;2.874370
2752.000000;2.854442
2751.000000;2.897320
2750.000000;2.998680
2749.000000;3.462036
2748.000000;3.234799
2747.000000;2.794764
2746.000000;2.691962
2745.000000;2.806736
2744.000000;3.259993
2743.000000;3.465600
2742.000000;3.076481
2741.000000;2.982274
2740.000000;2.949386
2739.000000;2.963264
2738.000000;3.061317
2737.000000;3.248990
2736.000000;3.454249
2735.000000;3.455692
2734.000000;3.342506
2733.000000;3.250442
2732.000000;3.140588
2731.000000;3.076488
2730.000000;3.220162
2729.000000;3.207236
2728.000000;2.943088
2727.000000;2.859069
2726.000000;2.951591
2725.000000;3.246299
2724.000000;3.709629
2723.000000;3.452505
2722.000000;3.061035
2721.000000;2.861444
2720.000000;2.857798
2719.000000;3.196027
2718.000000;3.389549
2717.000000;2.966994
2716.000000;2.884093
2715.000000;2.922507
2714.000000;2.998411
2713.000000;3.003412
2712.000000;2.931784
2711.000000;2.968679
2710.000000;2.998990
2709.000000;3.085735
2708.000000;3.093522
2707.000000;2.823243
2706.000000;2.678560
2705.000000;2.704025
2704.000000;2.865374
2703.000000;3.034175
2702.000000;3.245030
2701.000000;3.396018
2700.000000;3.106337
2699.000000;3.047764
2698.000000;3.355852
2697.000000;3.884369
2696.000000;3.642825
2695.000000;3.820442
2694.000000;3.705578
2693.000000;3.246666
2692.000000;3.125261
2691.000000;3.248002
2690.000000;3.588713
2689.000000;3.457727
2688.000000;3.069764
2687.000000;2.851724
2686.000000;2.787463
2685.000000;2.833685
2684.000000;2.983024
2683.000000;3.127867
2682.000000;3.114688
2681.000000;3.184745
2680.000000;3.409735
2679.000000;3.921108
2678.000000;4.135700
2677.000000;3.810689
2676.000000;3.493361
2675.000000;3.100649
2674.000000;2.971177
2673.000000;3.038359
2672.000000;3.215146
2671.000000;3.235439
2670.000000;3.040765
2669.000000;2.915345
2668.000000;2.917787
2667.000000;3.048811
2666.000000;3.215384
2665.000000;3.240695
2664.000000;3.096654
2663.000000;2.951998
2662.000000;2.927179
2661.000000;2.999879
2660.000000;3.026951
2659.000000;2.920513
2658.000000;2.806324
2657.000000;2.810416
2656.000000;2.986396
2655.000000;3.052014
2654.000000;2.897667
2653.000000;2.863958
2652.000000;2.890685
2651.000000;2.875821
2650.000000;2.866481
2649.000000;2.927105
2648.000000;2.965916
2647.000000;2.901302
2646.000000;2.945406
2645.000000;3.256948
2644.000000;3.275053
2643.000000;2.992755
2642.000000;2.879169
2641.000000;2.810640
2640.000000;2.792277
2639.000000;2.849933
2638.000000;3.025581
2637.000000;3.196006
2636.000000;3.047868
2635.000000;2.929147
2634.000000;2.938004
2633.000000;3.045230
2632.000000;3.241003
2631.000000;3.363469
2630.000000;3.280226
2629.000000;3.343093
2628.000000;3.635373
2627.000000;3.376083
2626.000000;3.029607
2625.000000;2.827812
2624.000000;2.696375
2623.000000;2.668502
2622.000000;2.739338
2621.000000;2.906051
2620.000000;3.042398
2619.000000;3.107891
2618.000000;3.486624
2617.000000;3.385404
2616.000000;3.044754
2615.000000;2.962313
2614.000000;2.911227
2613.000000;2.896856
2612.000000;2.941779
2611.000000;3.068928
2610.000000;3.231485
2609.000000;3.175298
2608.000000;2.982133
2607.000000;2.866508
2606.000000;2.885511
2605.000000;3.097686
2604.000000;3.194595
2603.000000;2.979095
2602.000000;2.917301
2601.000000;2.941569
2600.000000;2.953581
2599.000000;2.918225
2598.000000;2.855578
2597.000000;2.831113
2596.000000;2.803535
2595.000000;2.780553
2594.000000;2.777612
2593.000000;2.833600
2592.000000;2.914384
2591.000000;3.085130
2590.000000;3.663280
2589.000000;3.242057
2588.000000;2.919976
2587.000000;2.900720
2586.000000;3.002749
2585.000000;3.201724
2584.000000;3.357499
2583.000000;3.485137
2582.000000;3.367160
2581.000000;3.153773
2580.000000;3.380658
2579.000000;3.857944
2578.000000;3.257075
2577.000000;3.217401
2576.000000;3.234341
2575.000000;3.252921
2574.000000;3.417804
2573.000000;3.230616
2572.000000;3.033537
2571.000000;2.957088
2570.000000;2.968237
2569.000000;2.994297
2568.000000;2.962534
2567.000000;2.904924
2566.000000;2.947601
2565.000000;3.245775
2564.000000;3.560833
2563.000000;3.139769
2562.000000;3.081056
2561.000000;3.617129
2560.000000;3.415997
2559.000000;3.118028
2558.000000;3.109301
2557.000000;2.963898
2556.000000;2.851725
2555.000000;2.910176
2554.000000;3.028858
2553.000000;2.910514
2552.000000;2.819432
2551.000000;2.854816
2550.000000;3.060577
2549.000000;3.459185
2548.000000;3.124511
2547.000000;2.851982
2546.000000;2.808082
2545.000000;2.826244
2544.000000;2.825498
2543.000000;2.847920
2542.000000;2.959112
2541.000000;3.058342
2540.000000;2.970278
2539.000000;2.866029
2538.000000;2.835705
2537.000000;2.872450
2536.000000;2.942070
2535.000000;3.058759
2534.000000;3.362700
2533.000000;3.250410
2532.000000;2.939391
2531.000000;2.865622
2530.000000;2.917465
2529.000000;2.894177
2528.000000;2.768194
2527.000000;2.738483
2526.000000;2.836062
2525.000000;3.017421
2524.000000;3.323119
2523.000000;3.334139
2522.000000;3.110507
2521.000000;3.105690
2520.000000;3.086557
2519.000000;3.043143
2518.000000;3.124121
2517.000000;3.448089
2516.000000;3.476625
2515.000000;3.123345
2514.000000;3.195765
2513.000000;3.397883
2512.000000;3.062421
2511.000000;2.874601
2510.000000;2.847503
2509.000000;2.816694
2508.000000;2.791957
2507.000000;2.812856
2506.000000;2.875780
2505.000000;2.935642
2504.000000;2.930269
2503.000000;2.869540
2502.000000;2.833047
2501.000000;2.865930
2500.000000;3.016061
2499.000000;2.988031
2498.000000;2.736379
2497.000000;2.654469
2496.000000;2.781360
2495.000000;3.143762
2494.000000;3.242585
2493.000000;3.019921
2492.000000;3.100401
2491.000000;3.589537
2490.000000;3.493772
2489.000000;3.132139
2488.000000;3.170805
2487.000000;3.384043
2486.000000;3.943132
2485.000000;3.960341
2484.000000;3.849167
2483.000000;3.868458
2482.000000;3.334271
2481.000000;3.028254
2480.000000;2.857729
2479.000000;2.812454
2478.000000;2.901693
2477.000000;3.016293
2476.000000;2.978383
2475.000000;2.994769
2474.000000;3.322746
2473.000000;3.361930
2472.000000;2.936073
2471.000000;2.782998
2470.000000;2.742099
2469.000000;2.779978
2468.000000;2.904960
2467.000000;3.041380
2466.000000;3.053674
2465.000000;2.945445
2464.000000;2.891741
2463.000000;2.858145
2462.000000;2.826377
2461.000000;2.814938
2460.000000;2.889168
2459.000000;3.218499
2458.000000;3.267699
2457.000000;2.938572
2456.000000;2.854189
2455.000000;2.857161
2454.000000;2.913971
2453.000000;3.063971
2452.000000;3.045807
2451.000000;2.921022
2450.000000;2.937076
2449.000000;3.058248
2448.000000;3.172545
2447.000000;3.283896
2446.000000;3.482486
2445.000000;3.511674
2444.000000;3.532178
2443.000000;3.280532
2442.000000;2.954720
2441.000000;2.875335
2440.000000;3.004865
2439.000000;3.404889
2438.000000;3.327693
2437.000000;2.985367
2436.000000;2.901027
2435.000000;2.892934
2434.000000;2.909161
2433.000000;2.876017
2432.000000;2.804826
2431.000000;2.795343
2430.000000;2.895713
2429.000000;3.130102
2428.000000;3.424868
2427.000000;3.447052
2426.000000;3.214361
2425.000000;2.954270
2424.000000;2.777852
2423.000000;2.719952
2422.000000;2.752422
2421.000000;2.863739
2420.000000;3.024120
2419.000000;3.096142
2418.000000;3.089982
2417.000000;3.227235
2416.000000;3.660140
2415.000000;3.455200
2414.000000;3.060638
2413.000000;2.949890
2412.000000;3.050515
2411.000000;3.235464
2410.000000;3.059061
2409.000000;2.889774
2408.000000;2.864925
2407.000000;2.882208
2406.000000;2.916490
2405.000000;3.030041
2404.000000;3.258640
2403.000000;3.598084
2402.000000;3.852146
2401.000000;3.528580
2400.000000;3.277586
2399.000000;3.319457
2398.000000;3.557392
2397.000000;3.658596
2396.000000;3.882215
2395.000000;3.260433
2394.000000;2.859060
2393.000000;2.735170
2392.000000;2.785437
2391.000000;3.093359
2390.000000;3.313819
2389.000000;3.080859
2388.000000;3.061566
2387.000000;3.061713
2386.000000;3.026160
2385.000000;3.023924
2384.000000;3.046261
2383.000000;3.055377
2382.000000;2.987403
2381.000000;2.985651
2380.000000;3.106336
2379.000000;3.057990
2378.000000;2.856952
2377.000000;2.779647
2376.000000;2.821867
2375.000000;2.949779
2374.000000;3.007435
2373.000000;2.905692
2372.000000;2.854460
2371.000000;2.936237
2370.000000;3.151663
2369.000000;3.338671
2368.000000;3.282106
2367.000000;3.075291
2366.000000;2.861590
2365.000000;2.657719
2364.000000;2.514371
2363.000000;2.494245
2362.000000;2.606214
2361.000000;2.844823
2360.000000;2.942413
2359.000000;3.122339
2358.000000;3.076804
2357.000000;2.669708
2356.000000;2.593302
2355.000000;2.697721
2354.000000;2.837937
2353.000000;2.865515
2352.000000;2.833253
2351.000000;2.864145
2350.000000;2.866546
2349.000000;2.831027
2348.000000;2.836411
2347.000000;2.911594
2346.000000;3.040113
2345.000000;3.046434
2344.000000;2.904366
2343.000000;2.789184
2342.000000;2.675815
2341.000000;2.611277
2340.000000;2.724318
2339.000000;3.058993
2338.000000;3.244241
2337.000000;3.327893
2336.000000;3.366185
2335.000000;3.031638
2334.000000;2.874259
2333.000000;3.029964
2332.000000;3.152638
2331.000000;2.931342
2330.000000;2.981371
2329.000000;3.121257
2328.000000;3.011560
2327.000000;2.852406
2326.000000;2.793188
2325.000000;2.777367
2324.000000;2.796704
2323.000000;2.826916
2322.000000;2.946687
2321.000000;3.494165
2320.000000;3.293778
2319.000000;2.988188
2318.000000;3.023796
2317.000000;3.070175
2316.000000;3.060892
2315.000000;3.034631
2314.000000;3.113887
2313.000000;3.282141
2312.000000;3.324696
2311.000000;3.343710
2310.000000;3.605936
2309.000000;3.694645
2308.000000;3.359056
2307.000000;3.205712
2306.000000;3.157502
2305.000000;3.170491
2304.000000;3.652285
2303.000000;3.769940
2302.000000;3.081672
2301.000000;2.975918
2300.000000;3.083213
2299.000000;3.272111
2298.000000;3.437794
2297.000000;3.526317
2296.000000;3.185115
2295.000000;2.886311
2294.000000;2.756155
2293.000000;2.715299
2292.000000;2.797391
2291.000000;2.993188
2290.000000;3.110990
2289.000000;3.048790
2288.000000;2.958538
2287.000000;2.886191
2286.000000;2.852183
2285.000000;2.795542
2284.000000;2.764483
2283.000000;2.832250
2282.000000;3.185540
2281.000000;3.619315
2280.000000;3.139450
2279.000000;2.934439
2278.000000;2.805586
2277.000000;2.767713
2276.000000;2.906234
2275.000000;3.360252
2274.000000;3.283852
2273.000000;2.898817
2272.000000;2.855494
2271.000000;2.846051
2270.000000;2.998343
2269.000000;3.696808
2268.000000;3.303848
2267.000000;2.992268
2266.000000;3.003454
2265.000000;3.068018
2264.000000;3.362488
2263.000000;3.462231
2262.000000;3.128447
2261.000000;3.014013
2260.000000;3.004837
2259.000000;3.019862
2258.000000;3.075799
2257.000000;3.175561
2256.000000;3.283837
2255.000000;3.269648
2254.000000;3.583645
2253.000000;4.189113
2252.000000;3.412124
2251.000000;3.288615
2250.000000;3.352790
2249.000000;3.666890
2248.000000;3.640372
2247.000000;3.299497
2246.000000;3.210654
2245.000000;3.098536
2244.000000;3.084090
2243.000000;3.222572
2242.000000;3.155064
2241.000000;3.023037
2240.000000;3.019874
2239.000000;2.942323
2238.000000;2.861019
2237.000000;2.905488
2236.000000;3.013954
2235.000000;3.023251
2234.000000;2.955801
2233.000000;2.856334
2232.000000;2.751585
2231.000000;2.716465
2230.000000;2.784742
2229.000000;2.947079
2228.000000;3.286181
2227.000000;3.588549
2226.000000;3.222453
2225.000000;3.072093
2224.000000;3.093613
2223.000000;3.246395
2222.000000;3.291182
2221.000000;3.143573
2220.000000;3.051961
2219.000000;2.943434
2218.000000;2.862522
2217.000000;2.858386
2216.000000;2.911599
2215.000000;2.979229
2214.000000;3.099648
2213.000000;3.128234
2212.000000;2.997280
2211.000000;2.952905
2210.000000;3.002718
2209.000000;2.998496
2208.000000;3.015513
2207.000000;3.263284
2206.000000;3.293295
2205.000000;3.096335
2204.000000;3.147107
2203.000000;3.186913
2202.000000;3.186167
2201.000000;3.449364
2200.000000;3.457978
2199.000000;3.104874
2198.000000;3.003312
2197.000000;2.960362
2196.000000;2.908612
2195.000000;2.934671
2194.000000;3.030490
2193.000000;3.140360
2192.000000;3.254773
2191.000000;3.295946
2190.000000;3.177307
2189.000000;3.008465
2188.000000;2.860927
2187.000000;2.778443
2186.000000;2.759612
2185.000000;2.786140
2184.000000;2.853141
2183.000000;2.935855
2182.000000;2.964386
2181.000000;3.035177
2180.000000;3.246470
2179.000000;3.270505
2178.000000;3.160170
2177.000000;3.139621
2176.000000;3.130696
2175.000000;3.119995
2174.000000;3.383540
2173.000000;3.882985
2172.000000;3.311326
2171.000000;3.135073
2170.000000;3.062656
2169.000000;2.941520
2168.000000;2.834657
2167.000000;2.780611
2166.000000;2.832702
2165.000000;2.966581
2164.000000;3.089698
2163.000000;3.057296
2162.000000;2.986419
2161.000000;3.034123
2160.000000;3.236555
2159.000000;3.649461
2158.000000;3.427363
2157.000000;2.934750
2156.000000;2.732545
2155.000000;2.712179
2154.000000;2.820653
2153.000000;2.938843
2152.000000;2.930963
2151.000000;2.963467
2150.000000;3.064255
2149.000000;3.044130
2148.000000;2.964445
2147.000000;2.960398
2146.000000;2.969747
2145.000000;3.027860
2144.000000;3.439739
2143.000000;3.253057
2142.000000;2.813085
2141.000000;2.723800
2140.000000;2.749029
2139.000000;2.840488
2138.000000;2.952856
2137.000000;3.012440
2136.000000;2.992465
2135.000000;2.893445
2134.000000;2.805085
2133.000000;2.771834
2132.000000;2.837661
2131.000000;2.968595
2130.000000;3.147138
2129.000000;3.240909
2128.000000;3.040705
2127.000000;2.888185
2126.000000;2.848035
2125.000000;2.854939
2124.000000;2.865418
2123.000000;2.857392
2122.000000;2.915219
2121.000000;3.052060
2120.000000;3.422836
2119.000000;3.605905
2118.000000;2.968770
2117.000000;2.723800
2116.000000;2.647114
2115.000000;2.698834
2114.000000;2.854041
2113.000000;2.938275
2112.000000;2.914125
2111.000000;2.971645
2110.000000;3.386704
2109.000000;3.478508
2108.000000;3.312064
2107.000000;3.546794
2106.000000;3.226222
2105.000000;3.069192
2104.000000;3.100543
2103.000000;3.027366
2102.000000;2.962818
2101.000000;2.932105
2100.000000;2.840603
2099.000000;2.765787
2098.000000;2.816371
2097.000000;2.963798
2096.000000;2.961392
2095.000000;2.801939
2094.000000;2.718578
2093.000000;2.751537
2092.000000;2.886807
2091.000000;3.039258
2090.000000;3.146143
2089.000000;3.314493
2088.000000;3.544332
2087.000000;3.393077
2086.000000;3.143110
2085.000000;3.097996
2084.000000;3.162870
2083.000000;3.194270
2082.000000;3.086708
2081.000000;2.914156
2080.000000;2.788117
2079.000000;2.737521
2078.000000;2.702982
2077.000000;2.720052
2076.000000;2.813981
2075.000000;3.118968
2074.000000;3.922773
2073.000000;3.262172
2072.000000;3.019266
2071.000000;2.987122
2070.000000;3.017157
2069.000000;3.067843
2068.000000;2.997717
2067.000000;2.904465
2066.000000;2.824473
2065.000000;2.846459
2064.000000;2.934269
2063.000000;2.985731
2062.000000;2.985231
2061.000000;2.936467
2060.000000;2.900256
2059.000000;2.962796
2058.000000;3.188820
2057.000000;3.368076
2056.000000;3.209577
2055.000000;3.087572
2054.000000;3.060700
2053.000000;3.089231
2052.000000;3.222034
2051.000000;3.519110
2050.000000;3.446028
2049.000000;3.292748
2048.000000;3.468294
2047.000000;3.423987
2046.000000;3.149429
2045.000000;3.050048
2044.000000;3.138462
2043.000000;3.349256
2042.000000;3.233331
2041.000000;3.048780
2040.000000;3.030022
2039.000000;3.071574
2038.000000;3.301858
2037.000000;3.412697
2036.000000;2.962620
2035.000000;2.746421
2034.000000;2.699028
2033.000000;2.748442
2032.000000;2.864347
2031.000000;3.016050
2030.000000;3.122232
2029.000000;3.147156
2028.000000;3.257030
2027.000000;3.224879
2026.000000;2.999023
2025.000000;2.818013
2024.000000;2.769292
2023.000000;2.841954
2022.000000;3.028844
2021.000000;3.426814
2020.000000;3.346621
2019.000000;3.055637
2018.000000;3.049301
2017.000000;3.098694
2016.000000;3.060631
2015.000000;3.079352
2014.000000;3.250771
2013.000000;3.340584
2012.000000;3.148449
2011.000000;3.044683
2010.000000;3.048961
2009.000000;3.064410
2008.000000;3.032558
2007.000000;2.958930
2006.000000;2.908535
2005.000000;2.890983
2004.000000;2.908725
2003.000000;2.911040
2002.000000;2.855306
2001.000000;2.815856
2000.000000;2.888838
1999.000000;3.025975
1998.000000;2.918904
1997.000000;2.761681
1996.000000;2.691396
1995.000000;2.678288
1994.000000;2.699339
1993.000000;2.814461
1992.000000;3.080467
1991.000000;2.993119
1990.000000;2.803716
1989.000000;2.862116
1988.000000;3.101081
1987.000000;3.179378
1986.000000;3.119738
1985.000000;3.205923
1984.000000;3.530294
1983.000000;3.596918
1982.000000;3.157519
1981.000000;2.991614
1980.000000;2.899936
1979.000000;2.844678
1978.000000;2.813144
1977.000000;2.840976
1976.000000;2.959859
1975.000000;3.217130
1974.000000;3.769631
1973.000000;3.306585
1972.000000;2.993690
1971.000000;2.950698
1970.000000;2.999426
1969.000000;3.156740
1968.000000;3.238014
1967.000000;3.098209
1966.000000;3.008310
1965.000000;2.898914
1964.000000;2.749714
1963.000000;2.715196
1962.000000;2.849774
1961.000000;3.133995
1960.000000;3.273082
1959.000000;3.048091
1958.000000;2.853023
1957.000000;2.779434
1956.000000;2.759867
1955.000000;2.758877
1954.000000;2.740115
1953.000000;2.721047
1952.000000;2.756026
1951.000000;2.909413
1950.000000;3.450165
1949.000000;3.557904
1948.000000;3.132608
1947.000000;3.095724
1946.000000;3.085771
1945.000000;3.152710
1944.000000;3.389807
1943.000000;3.449316
1942.000000;3.267247
1941.000000;3.243057
1940.000000;3.492224
1939.000000;4.209415
1938.000000;3.919533
1937.000000;3.577799
1936.000000;3.326718
1935.000000;3.126284
1934.000000;3.053893
1933.000000;3.067101
1932.000000;3.098012
1931.000000;3.072868
1930.000000;3.064185
1929.000000;3.124232
1928.000000;3.395079
1927.000000;3.534613
1926.000000;3.181504
1925.000000;3.015208
1924.000000;2.942381
1923.000000;2.955222
1922.000000;3.116259
1921.000000;3.469327
1920.000000;3.263916
1919.000000;3.144386
1918.000000;3.595706
1917.000000;3.377354
1916.000000;3.087953
1915.000000;3.016745
1914.000000;2.926204
1913.000000;2.929387
1912.000000;2.981747
1911.000000;2.961763
1910.000000;2.920020
1909.000000;2.893834
1908.000000;2.841372
1907.000000;2.800128
1906.000000;2.824044
1905.000000;2.906038
1904.000000;3.008899
1903.000000;3.072324
1902.000000;3.066044
1901.000000;3.049152
1900.000000;3.133604
1899.000000;3.565716
1898.000000;3.926170
1897.000000;3.482921
1896.000000;3.486848
1895.000000;3.680483
1894.000000;3.683388
1893.000000;3.355866
1892.000000;3.176632
1891.000000;3.200320
1890.000000;3.277317
1889.000000;3.298499
1888.000000;3.341923
1887.000000;3.421595
1886.000000;3.302137
1885.000000;3.085073
1884.000000;3.005485
1883.000000;3.000093
1882.000000;2.982003
1881.000000;2.962795
1880.000000;2.883323
1879.000000;2.773221
1878.000000;2.713696
1877.000000;2.705107
1876.000000;2.735239
1875.000000;2.803630
1874.000000;2.922722
1873.000000;3.081985
1872.000000;3.268134
1871.000000;3.583160
1870.000000;3.414779
1869.000000;3.109207
1868.000000;3.055732
1867.000000;2.972877
1866.000000;2.815686
1865.000000;2.722852
1864.000000;2.766265
1863.000000;2.995275
1862.000000;3.183376
1861.000000;3.154895
1860.000000;3.249110
1859.000000;3.349359
1858.000000;3.138218
1857.000000;2.900360
1856.000000;2.816803
1855.000000;2.896756
1854.000000;3.157583
1853.000000;3.200489
1852.000000;2.945416
1851.000000;2.820362
1850.000000;2.762858
1849.000000;2.774314
1848.000000;2.870596
1847.000000;3.048409
1846.000000;3.148179
1845.000000;3.022345
1844.000000;2.976017
1843.000000;3.071958
1842.000000;3.306134
1841.000000;3.495117
1840.000000;3.219325
1839.000000;3.010085
1838.000000;2.965358
1837.000000;3.022701
1836.000000;3.133666
1835.000000;3.223855
1834.000000;3.264124
1833.000000;3.191005
1832.000000;3.050326
1831.000000;2.976365
1830.000000;2.948602
1829.000000;2.923437
1828.000000;2.941461
1827.000000;2.984779
1826.000000;2.996440
1825.000000;3.028538
1824.000000;3.216332
1823.000000;3.353790
1822.000000;3.087416
1821.000000;2.892459
1820.000000;2.795383
1819.000000;2.744454
1818.000000;2.786474
1817.000000;2.996194
1816.000000;3.144690
1815.000000;3.000475
1814.000000;2.986881
1813.000000;3.229845
1812.000000;3.501826
1811.000000;3.471464
1810.000000;3.474188
1809.000000;3.206599
1808.000000;2.991812
1807.000000;2.880392
1806.000000;2.819231
1805.000000;2.850132
1804.000000;3.012836
1803.000000;3.121797
1802.000000;2.950319
1801.000000;2.884757
1800.000000;2.971526
1799.000000;3.358845
1798.000000;3.542245
1797.000000;3.024194
1796.000000;2.895465
1795.000000;2.834759
1794.000000;2.769080
1793.000000;2.745286
1792.000000;2.799208
1791.000000;2.966795
1790.000000;3.314275
1789.000000;3.672632
1788.000000;3.240584
1787.000000;2.985161
1786.000000;2.901412
1785.000000;2.914235
1784.000000;2.971192
1783.000000;2.993377
1782.000000;2.953988
1781.000000;2.921123
1780.000000;2.960492
1779.000000;3.093554
1778.000000;3.220569
1777.000000;3.118551
1776.000000;2.998826
1775.000000;2.964430
1774.000000;2.979434
1773.000000;2.990578
1772.000000;2.964820
1771.000000;2.950776
1770.000000;2.903860
1769.000000;2.800510
1768.000000;2.728356
1767.000000;2.793993
1766.000000;3.123426
1765.000000;3.215723
1764.000000;2.914283
1763.000000;2.872445
1762.000000;2.936994
1761.000000;3.015541
1760.000000;3.051062
1759.000000;3.059393
1758.000000;3.157405
1757.000000;3.296819
1756.000000;3.228851
1755.000000;3.052647
1754.000000;2.949688
1753.000000;2.927491
1752.000000;3.028555
1751.000000;3.313547
1750.000000;3.462241
1749.000000;3.113968
1748.000000;2.887433
1747.000000;2.785575
1746.000000;2.761384
1745.000000;2.786816
1744.000000;2.844814
1743.000000;2.954894
1742.000000;3.062327
1741.000000;3.081850
1740.000000;3.119144
1739.000000;3.195893
1738.000000;3.169823
1737.000000;3.055518
1736.000000;2.891851
1735.000000;2.761645
1734.000000;2.769288
1733.000000;2.909156
1732.000000;3.116398
1731.000000;3.369570
1730.000000;3.456539
1729.000000;3.265628
1728.000000;3.030140
1727.000000;2.834755
1726.000000;2.693238
1725.000000;2.590130
1724.000000;2.530851
1723.000000;2.544233
1722.000000;2.630778
1721.000000;2.775010
1720.000000;2.977724
1719.000000;3.373121
1718.000000;3.587095
1717.000000;3.203286
1716.000000;3.085337
1715.000000;3.048931
1714.000000;3.057589
1713.000000;3.106561
1712.000000;3.341120
1711.000000;3.464439
1710.000000;3.114331
1709.000000;3.015848
1708.000000;3.074070
1707.000000;3.186025
1706.000000;3.233906
1705.000000;3.190568
1704.000000;3.170731
1703.000000;3.175862
1702.000000;3.135830
1701.000000;3.021619
1700.000000;3.036034
1699.000000;3.212257
1698.000000;3.569233
1697.000000;4.323212
1696.000000;4.133390
1695.000000;4.238632
1694.000000;4.018812
1693.000000;3.569713
1692.000000;3.336937
1691.000000;3.264834
1690.000000;3.416897
1689.000000;3.558639
1688.000000;3.438809
1687.000000;3.394639
1686.000000;3.324397
1685.000000;3.204676
1684.000000;3.219553
1683.000000;3.320823
1682.000000;3.313412
1681.000000;3.161113
1680.000000;3.029520
1679.000000;3.007487
1678.000000;3.070581
1677.000000;3.184011
1676.000000;3.325605
1675.000000;3.357683
1674.000000;3.383014
1673.000000;3.707049
1672.000000;3.822460
1671.000000;3.383427
1670.000000;3.374637
1669.000000;3.820002
1668.000000;3.901900
1667.000000;3.594181
1666.000000;3.302791
1665.000000;3.009676
1664.000000;2.882831
1663.000000;2.923814
1662.000000;3.019949
1661.000000;3.004544
1660.000000;2.970936
1659.000000;3.008362
1658.000000;2.998233
1657.000000;2.939053
1656.000000;2.931418
1655.000000;2.935424
1654.000000;2.905131
1653.000000;2.894023
1652.000000;2.900195
1651.000000;2.881242
1650.000000;2.864733
1649.000000;2.877942
1648.000000;2.927711
1647.000000;3.043241
1646.000000;3.322782
1645.000000;3.612241
1644.000000;3.484833
1643.000000;3.415767
1642.000000;3.300467
1641.000000;3.117588
1640.000000;3.051747
1639.000000;3.059169
1638.000000;3.234184
1637.000000;3.704799
1636.000000;3.409271
1635.000000;3.143488
1634.000000;3.093135
1633.000000;3.094936
1632.000000;3.180857
1631.000000;3.405644
1630.000000;3.670315
1629.000000;3.669417
1628.000000;3.692378
1627.000000;3.585212
1626.000000;3.417277
1625.000000;3.534851
1624.000000;3.798002
1623.000000;3.225354
1622.000000;2.963977
1621.000000;2.927880
1620.000000;3.072983
1619.000000;3.556187
1618.000000;3.317367
1617.000000;3.094337
1616.000000;3.109876
1615.000000;3.106935
1614.000000;3.115291
1613.000000;3.189975
1612.000000;3.228908
1611.000000;3.034770
1610.000000;2.973205
1609.000000;3.108486
1608.000000;3.248490
1607.000000;3.147179
1606.000000;3.036820
1605.000000;2.997689
1604.000000;3.004439
1603.000000;2.958063
1602.000000;2.862777
1601.000000;2.832338
1600.000000;2.940470
1599.000000;3.283446
1598.000000;3.242004
1597.000000;2.993341
1596.000000;3.005195
1595.000000;3.141151
1594.000000;3.340342
1593.000000;3.488805
1592.000000;3.328765
1591.000000;3.113954
1590.000000;3.051155
1589.000000;3.086459
1588.000000;3.223336
1587.000000;3.395177
1586.000000;3.704780
1585.000000;4.171287
1584.000000;3.419088
1583.000000;3.249180
1582.000000;3.249417
1581.000000;3.144103
1580.000000;2.922488
1579.000000;2.707253
1578.000000;2.584223
1577.000000;2.587514
1576.000000;2.763166
1575.000000;3.068827
1574.000000;3.430078
1573.000000;4.029319
1572.000000;3.823583
1571.000000;3.855093
1570.000000;3.465370
1569.000000;3.105090
1568.000000;3.065522
1567.000000;3.142240
1566.000000;3.285065
1565.000000;3.305439
1564.000000;3.215800
1563.000000;3.198003
1562.000000;3.226435
1561.000000;3.160578
1560.000000;3.052272
1559.000000;3.067275
1558.000000;3.194628
1557.000000;3.329537
1556.000000;3.533286
1555.000000;3.537218
1554.000000;3.203248
1553.000000;3.071058
1552.000000;3.126239
1551.000000;3.466291
1550.000000;3.882164
1549.000000;3.532900
1548.000000;3.381761
1547.000000;3.149580
1546.000000;2.955611
1545.000000;2.876006
1544.000000;2.908622
1543.000000;3.041815
1542.000000;3.200503
1541.000000;3.152588
1540.000000;3.057374
1539.000000;3.084490
1538.000000;3.272645
1537.000000;3.665157
1536.000000;3.457264
1535.000000;3.218879
1534.000000;3.244355
1533.000000;3.331003
1532.000000;3.181532
1531.000000;2.961734
1530.000000;2.830712
1529.000000;2.804008
1528.000000;2.882161
1527.000000;3.192289
1526.000000;3.666412
1525.000000;3.324238
1524.000000;3.260055
1523.000000;3.497587
1522.000000;3.986704
1521.000000;4.736944
1520.000000;3.875360
1519.000000;3.355718
1518.000000;3.166417
1517.000000;3.156509
1516.000000;3.306524
1515.000000;3.584316
1514.000000;3.649462
1513.000000;3.388733
1512.000000;3.157679
1511.000000;3.059116
1510.000000;3.049600
1509.000000;3.076684
1508.000000;3.134359
1507.000000;3.223192
1506.000000;3.263504
1505.000000;3.232302
1504.000000;3.211772
1503.000000;3.219750
1502.000000;3.130456
1501.000000;2.968055
1500.000000;2.891039
1499.000000;2.916293
1498.000000;2.981072
1497.000000;3.001374
1496.000000;3.010585
1495.000000;3.062848
1494.000000;3.103133
1493.000000;3.055825
1492.000000;2.961258
1491.000000;2.943193
1490.000000;3.075527
1489.000000;3.401249
1488.000000;3.702782
1487.000000;3.549876
1486.000000;3.498886
1485.000000;3.819596
1484.000000;3.932602
1483.000000;3.472689
1482.000000;3.215836
1481.000000;3.045817
1480.000000;2.967070
1479.000000;2.988705
1478.000000;3.087712
1477.000000;3.211489
1476.000000;3.271752
1475.000000;3.263818
1474.000000;3.250067
1473.000000;3.263898
1472.000000;3.341991
1471.000000;3.300174
1470.000000;3.053905
1469.000000;2.877684
1468.000000;2.823725
1467.000000;2.891677
1466.000000;3.081506
1465.000000;3.388569
1464.000000;3.716186
1463.000000;3.603387
1462.000000;3.330298
1461.000000;3.194718
1460.000000;3.172319
1459.000000;3.240248
1458.000000;3.527280
1457.000000;3.605826
1456.000000;3.254345
1455.000000;3.112577
1454.000000;3.092662
1453.000000;3.137122
1452.000000;3.137821
1451.000000;3.095615
1450.000000;3.129070
1449.000000;3.218256
1448.000000;3.233618
1447.000000;3.089610
1446.000000;2.917228
1445.000000;2.812006
1444.000000;2.762500
1443.000000;2.769531
1442.000000;2.834784
1441.000000;3.091463
1440.000000;3.615875
1439.000000;3.372267
1438.000000;3.535723
1437.000000;3.661783
1436.000000;3.202684
1435.000000;3.146583
1434.000000;3.297648
1433.000000;3.557084
1432.000000;3.269395
1431.000000;3.170984
1430.000000;3.358814
1429.000000;3.288058
1428.000000;3.158618
1427.000000;3.114909
1426.000000;3.134096
1425.000000;3.313666
1424.000000;3.794567
1423.000000;4.318436
1422.000000;3.648682
1421.000000;3.658987
1420.000000;3.757322
1419.000000;3.211272
1418.000000;3.004175
1417.000000;2.911726
1416.000000;2.863238
1415.000000;2.889331
1414.000000;3.016326
1413.000000;3.474935
1412.000000;3.818190
1411.000000;3.575286
1410.000000;3.633617
1409.000000;3.196621
1408.000000;2.961364
1407.000000;2.877157
1406.000000;2.794927
1405.000000;2.713323
1404.000000;2.671056
1403.000000;2.696395
1402.000000;2.779795
1401.000000;2.948505
1400.000000;3.186749
1399.000000;3.259551
1398.000000;3.234038
1397.000000;3.185703
1396.000000;3.161719
1395.000000;3.366086
1394.000000;3.533641
1393.000000;3.627465
1392.000000;3.801549
1391.000000;3.259225
1390.000000;3.127083
1389.000000;3.057300
1388.000000;2.899854
1387.000000;2.798827
1386.000000;2.761019
1385.000000;2.796248
1384.000000;2.871990
1383.000000;2.921618
1382.000000;2.903924
1381.000000;2.853045
1380.000000;2.839321
1379.000000;2.908667
1378.000000;3.097136
1377.000000;3.366119
1376.000000;3.349828
1375.000000;3.247724
1374.000000;3.439808
1373.000000;3.598085
1372.000000;3.163933
1371.000000;3.011810
1370.000000;3.075962
1369.000000;3.338635
1368.000000;3.425054
1367.000000;3.134193
1366.000000;3.045691
1365.000000;3.157062
1364.000000;3.132648
1363.000000;2.879845
1362.000000;2.796593
1361.000000;2.856103
1360.000000;3.017596
1359.000000;3.371428
1358.000000;3.882109
1357.000000;3.550784
1356.000000;3.161053
1355.000000;2.937609
1354.000000;2.869428
1353.000000;2.943978
1352.000000;3.037717
1351.000000;3.046390
1350.000000;3.080527
1349.000000;3.051958
1348.000000;2.896969
1347.000000;2.842833
1346.000000;2.913739
1345.000000;2.907729
1344.000000;2.783609
1343.000000;2.719624
1342.000000;2.719318
1341.000000;2.751454
1340.000000;2.810930
1339.000000;2.985125
1338.000000;3.437129
1337.000000;3.264974
1336.000000;2.933325
1335.000000;2.879191
1334.000000;2.872144
1333.000000;2.863813
1332.000000;2.858758
1331.000000;2.883855
1330.000000;2.952075
1329.000000;3.057808
1328.000000;3.212228
1327.000000;3.218151
1326.000000;3.107167
1325.000000;3.087339
1324.000000;3.155724
1323.000000;3.235673
1322.000000;3.299364
1321.000000;3.283501
1320.000000;3.358357
1319.000000;3.673171
1318.000000;3.249165
1317.000000;2.927608
1316.000000;2.810724
1315.000000;2.798357
1314.000000;2.847179
1313.000000;2.867859
1312.000000;2.832311
1311.000000;2.810169
1310.000000;2.900965
1309.000000;2.983534
1308.000000;2.840763
1307.000000;2.742127
1306.000000;2.766671
1305.000000;2.867501
1304.000000;3.017181
1303.000000;3.206116
1302.000000;3.456610
1301.000000;3.676189
1300.000000;3.501809
1299.000000;3.143986
1298.000000;2.888017
1297.000000;2.760389
1296.000000;2.714944
1295.000000;2.717116
1294.000000;2.757404
1293.000000;2.925455
1292.000000;3.182484
1291.000000;2.962967
1290.000000;2.803952
1289.000000;2.809416
1288.000000;2.903866
1287.000000;3.054330
1286.000000;3.170747
1285.000000;3.129389
1284.000000;2.946565
1283.000000;2.814336
1282.000000;2.756807
1281.000000;2.742900
1280.000000;2.753819
1279.000000;2.803312
1278.000000;2.914795
1277.000000;2.960549
1276.000000;2.845410
1275.000000;2.752561
1274.000000;2.755483
1273.000000;2.857165
1272.000000;3.054176
1271.000000;3.173932
1270.000000;3.100726
1269.000000;3.129357
1268.000000;3.460111
1267.000000;3.786122
1266.000000;3.347617
1265.000000;3.216541
1264.000000;3.256457
1263.000000;3.321346
1262.000000;3.323591
1261.000000;3.450966
1260.000000;3.733397
1259.000000;3.249085
1258.000000;2.978868
1257.000000;2.943775
1256.000000;3.059642
1255.000000;3.129548
1254.000000;3.083957
1253.000000;3.141608
1252.000000;3.176619
1251.000000;3.118807
1250.000000;3.101923
1249.000000;3.192494
1248.000000;3.510592
1247.000000;3.712705
1246.000000;3.343349
1245.000000;3.276890
1244.000000;3.305168
1243.000000;3.390856
1242.000000;4.233834
1241.000000;3.462822
1240.000000;3.219483
1239.000000;3.338074
1238.000000;3.541378
1237.000000;3.611228
1236.000000;3.393004
1235.000000;3.243986
1234.000000;3.174780
1233.000000;3.181153
1232.000000;3.218353
1231.000000;3.581399
1230.000000;3.663823
1229.000000;3.041149
1228.000000;2.914682
1227.000000;2.932283
1226.000000;2.971951
1225.000000;2.975202
1224.000000;3.009426
1223.000000;3.058247
1222.000000;2.961281
1221.000000;2.897759
1220.000000;2.951379
1219.000000;2.980320
1218.000000;2.962289
1217.000000;3.029031
1216.000000;3.118343
1215.000000;3.116074
1214.000000;3.211985
1213.000000;3.339097
1212.000000;3.021347
1211.000000;2.772469
1210.000000;2.659470
1209.000000;2.630643
1208.000000;2.671607
1207.000000;2.798872
1206.000000;3.053172
1205.000000;3.092554
1204.000000;2.887153
1203.000000;2.831556
1202.000000;2.905108
1201.000000;2.956737
1200.000000;2.879291
