Criado como novo conjunto de dados;"e0108.spp","-4244742.9 Secs"
cm-1;Abs
10000.000000;1.008334
9999.000000;1.007309
9998.000000;1.006287
9997.000000;1.005267
9996.000000;1.004250
9995.000000;1.003233
9994.000000;1.002222
9993.000000;1.001208
9992.000000;1.000205
9991.000000;0.999189
9990.000000;0.998210
9989.000000;0.997051
9988.000000;0.995548
9987.000000;0.994151
9986.000000;0.993338
9985.000000;0.993083
9984.000000;0.993058
9983.000000;0.993101
9982.000000;0.993268
9981.000000;0.993696
9980.000000;0.994545
9979.000000;0.995757
9978.000000;0.996754
9977.000000;0.996759
9976.000000;0.995690
9975.000000;0.994387
9974.000000;0.993680
9973.000000;0.993521
9972.000000;0.993313
9971.000000;0.992811
9970.000000;0.992334
9969.000000;0.992200
9968.000000;0.992335
9967.000000;0.992404
9966.000000;0.992130
9965.000000;0.991497
9964.000000;0.990812
9963.000000;0.990500
9962.000000;0.990711
9961.000000;0.991148
9960.000000;0.991295
9959.000000;0.990718
9958.000000;0.989161
9957.000000;0.986680
9956.000000;0.983915
9955.000000;0.981965
9954.000000;0.981620
9953.000000;0.982661
9952.000000;0.984058
9951.000000;0.984850
9950.000000;0.984753
9949.000000;0.984054
9948.000000;0.983143
9947.000000;0.982179
9946.000000;0.981190
9945.000000;0.980408
9944.000000;0.980321
9943.000000;0.981220
9942.000000;0.982694
9941.000000;0.983819
9940.000000;0.983936
9939.000000;0.983146
9938.000000;0.982076
9937.000000;0.981405
9936.000000;0.981564
9935.000000;0.982427
9934.000000;0.983098
9933.000000;0.982458
9932.000000;0.980360
9931.000000;0.978047
9930.000000;0.976952
9929.000000;0.977223
9928.000000;0.977736
9927.000000;0.977416
9926.000000;0.976233
9925.000000;0.974982
9924.000000;0.974450
9923.000000;0.974833
9922.000000;0.975650
9921.000000;0.976077
9920.000000;0.975524
9919.000000;0.974029
9918.000000;0.972174
9917.000000;0.970735
9916.000000;0.970315
9915.000000;0.970982
9914.000000;0.972092
9913.000000;0.972745
9912.000000;0.972614
9911.000000;0.972063
9910.000000;0.971310
9909.000000;0.969999
9908.000000;0.967987
9907.000000;0.966077
9906.000000;0.965231
9905.000000;0.965334
9904.000000;0.965419
9903.000000;0.965060
9902.000000;0.964822
9901.000000;0.965217
9900.000000;0.965978
9899.000000;0.966663
9898.000000;0.967320
9897.000000;0.968100
9896.000000;0.968673
9895.000000;0.968578
9894.000000;0.967874
9893.000000;0.966983
9892.000000;0.966064
9891.000000;0.964992
9890.000000;0.963851
9889.000000;0.963031
9888.000000;0.962859
9887.000000;0.963346
9886.000000;0.964213
9885.000000;0.964888
9884.000000;0.964609
9883.000000;0.963013
9882.000000;0.960699
9881.000000;0.958917
9880.000000;0.958563
9879.000000;0.959544
9878.000000;0.961035
9877.000000;0.962176
9876.000000;0.962507
9875.000000;0.962035
9874.000000;0.961113
9873.000000;0.960209
9872.000000;0.959630
9871.000000;0.959359
9870.000000;0.959133
9869.000000;0.958613
9868.000000;0.957549
9867.000000;0.955942
9866.000000;0.954150
9865.000000;0.952808
9864.000000;0.952457
9863.000000;0.953102
9862.000000;0.954172
9861.000000;0.955041
9860.000000;0.955589
9859.000000;0.956072
9858.000000;0.956425
9857.000000;0.956041
9856.000000;0.954565
9855.000000;0.952691
9854.000000;0.951641
9853.000000;0.951840
9852.000000;0.952563
9851.000000;0.953031
9850.000000;0.953358
9849.000000;0.954012
9848.000000;0.954713
9847.000000;0.954519
9846.000000;0.952979
9845.000000;0.950757
9844.000000;0.948997
9843.000000;0.948404
9842.000000;0.948903
9841.000000;0.949795
9840.000000;0.950088
9839.000000;0.949052
9838.000000;0.946853
9837.000000;0.944594
9836.000000;0.943456
9835.000000;0.943657
9834.000000;0.944239
9833.000000;0.943908
9832.000000;0.942231
9831.000000;0.940180
9830.000000;0.939400
9829.000000;0.940738
9828.000000;0.943373
9827.000000;0.945510
9826.000000;0.945984
9825.000000;0.945052
9824.000000;0.943660
9823.000000;0.942362
9822.000000;0.941189
9821.000000;0.940212
9820.000000;0.939750
9819.000000;0.939985
9818.000000;0.940659
9817.000000;0.941233
9816.000000;0.941211
9815.000000;0.940352
9814.000000;0.938827
9813.000000;0.937240
9812.000000;0.936273
9811.000000;0.936163
9810.000000;0.936563
9809.000000;0.937053
9808.000000;0.937629
9807.000000;0.938451
9806.000000;0.939224
9805.000000;0.939213
9804.000000;0.938081
9803.000000;0.936501
9802.000000;0.935622
9801.000000;0.935947
9800.000000;0.936922
9799.000000;0.937556
9798.000000;0.937233
9797.000000;0.935977
9796.000000;0.934282
9795.000000;0.932825
9794.000000;0.932034
9793.000000;0.931701
9792.000000;0.931212
9791.000000;0.930377
9790.000000;0.929785
9789.000000;0.930001
9788.000000;0.930631
9787.000000;0.930733
9786.000000;0.930115
9785.000000;0.929622
9784.000000;0.929888
9783.000000;0.930334
9782.000000;0.929844
9781.000000;0.928257
9780.000000;0.926675
9779.000000;0.926248
9778.000000;0.927046
9777.000000;0.928191
9776.000000;0.928815
9775.000000;0.928675
9774.000000;0.927988
9773.000000;0.926974
9772.000000;0.925780
9771.000000;0.924694
9770.000000;0.924122
9769.000000;0.924139
9768.000000;0.924241
9767.000000;0.923827
9766.000000;0.922898
9765.000000;0.921943
9764.000000;0.921151
9763.000000;0.920229
9762.000000;0.919217
9761.000000;0.918911
9760.000000;0.919869
9759.000000;0.921302
9758.000000;0.921709
9757.000000;0.920738
9756.000000;0.919741
9755.000000;0.920129
9754.000000;0.921736
9753.000000;0.923205
9752.000000;0.923582
9751.000000;0.923022
9750.000000;0.922099
9749.000000;0.921076
9748.000000;0.919976
9747.000000;0.918886
9746.000000;0.917954
9745.000000;0.917274
9744.000000;0.916891
9743.000000;0.916781
9742.000000;0.916815
9741.000000;0.916929
9740.000000;0.917308
9739.000000;0.918111
9738.000000;0.918926
9737.000000;0.918853
9736.000000;0.917418
9735.000000;0.915248
9734.000000;0.913560
9733.000000;0.913079
9732.000000;0.913659
9731.000000;0.914783
9730.000000;0.916041
9729.000000;0.917063
9728.000000;0.917329
9727.000000;0.916383
9726.000000;0.914284
9725.000000;0.911696
9724.000000;0.909503
9723.000000;0.908312
9722.000000;0.908235
9721.000000;0.908996
9720.000000;0.910155
9719.000000;0.911232
9718.000000;0.911770
9717.000000;0.911532
9716.000000;0.910677
9715.000000;0.909653
9714.000000;0.908862
9713.000000;0.908538
9712.000000;0.908833
9711.000000;0.909719
9710.000000;0.910737
9709.000000;0.911164
9708.000000;0.910722
9707.000000;0.909894
9706.000000;0.909295
9705.000000;0.908953
9704.000000;0.908505
9703.000000;0.907892
9702.000000;0.907393
9701.000000;0.907026
9700.000000;0.906438
9699.000000;0.905536
9698.000000;0.904795
9697.000000;0.904724
9696.000000;0.905318
9695.000000;0.906155
9694.000000;0.906739
9693.000000;0.906628
9692.000000;0.905664
9691.000000;0.904333
9690.000000;0.903510
9689.000000;0.903479
9688.000000;0.903473
9687.000000;0.902610
9686.000000;0.901114
9685.000000;0.900105
9684.000000;0.900292
9683.000000;0.901350
9682.000000;0.902481
9681.000000;0.903080
9680.000000;0.902837
9679.000000;0.901748
9678.000000;0.900312
9677.000000;0.899367
9676.000000;0.899375
9675.000000;0.899957
9674.000000;0.900308
9673.000000;0.899972
9672.000000;0.899142
9671.000000;0.898348
9670.000000;0.897963
9669.000000;0.897854
9668.000000;0.897477
9667.000000;0.896493
9666.000000;0.895310
9665.000000;0.894730
9664.000000;0.894960
9663.000000;0.895234
9662.000000;0.894692
9661.000000;0.893448
9660.000000;0.892466
9659.000000;0.892431
9658.000000;0.893021
9657.000000;0.893373
9656.000000;0.893031
9655.000000;0.892288
9654.000000;0.891670
9653.000000;0.891343
9652.000000;0.891140
9651.000000;0.890994
9650.000000;0.891085
9649.000000;0.891537
9648.000000;0.892220
9647.000000;0.892961
9646.000000;0.893706
9645.000000;0.894274
9644.000000;0.894213
9643.000000;0.893275
9642.000000;0.891886
9641.000000;0.890732
9640.000000;0.889895
9639.000000;0.888842
9638.000000;0.887309
9637.000000;0.885781
9636.000000;0.884900
9635.000000;0.884783
9634.000000;0.885103
9633.000000;0.885538
9632.000000;0.885883
9631.000000;0.886015
9630.000000;0.886029
9629.000000;0.886185
9628.000000;0.886445
9627.000000;0.886304
9626.000000;0.885402
9625.000000;0.884095
9624.000000;0.883073
9623.000000;0.882532
9622.000000;0.882130
9621.000000;0.881704
9620.000000;0.881631
9619.000000;0.882336
9618.000000;0.883671
9617.000000;0.884924
9616.000000;0.885382
9615.000000;0.884883
9614.000000;0.883880
9613.000000;0.882902
9612.000000;0.881963
9611.000000;0.880674
9610.000000;0.879058
9609.000000;0.877907
9608.000000;0.877965
9607.000000;0.878911
9606.000000;0.879610
9605.000000;0.879391
9604.000000;0.878647
9603.000000;0.878073
9602.000000;0.877746
9601.000000;0.877233
9600.000000;0.876308
9599.000000;0.875221
9598.000000;0.874364
9597.000000;0.873899
9596.000000;0.873754
9595.000000;0.873812
9594.000000;0.874063
9593.000000;0.874590
9592.000000;0.875382
9591.000000;0.876168
9590.000000;0.876528
9589.000000;0.876223
9588.000000;0.875382
9587.000000;0.874367
9586.000000;0.873523
9585.000000;0.873042
9584.000000;0.872932
9583.000000;0.872995
9582.000000;0.872925
9581.000000;0.872573
9580.000000;0.872118
9579.000000;0.871914
9578.000000;0.872137
9577.000000;0.872556
9576.000000;0.872640
9575.000000;0.871926
9574.000000;0.870366
9573.000000;0.868381
9572.000000;0.866586
9571.000000;0.865472
9570.000000;0.865218
9569.000000;0.865650
9568.000000;0.866315
9567.000000;0.866757
9566.000000;0.866891
9565.000000;0.867076
9564.000000;0.867690
9563.000000;0.868652
9562.000000;0.869446
9561.000000;0.869610
9560.000000;0.869092
9559.000000;0.868129
9558.000000;0.866951
9557.000000;0.865663
9556.000000;0.864375
9555.000000;0.863329
9554.000000;0.862766
9553.000000;0.862623
9552.000000;0.862468
9551.000000;0.861933
9550.000000;0.861204
9549.000000;0.860867
9548.000000;0.861191
9547.000000;0.861819
9546.000000;0.862268
9545.000000;0.862477
9544.000000;0.862639
9543.000000;0.862735
9542.000000;0.862579
9541.000000;0.862177
9540.000000;0.861723
9539.000000;0.861299
9538.000000;0.860917
9537.000000;0.860767
9536.000000;0.861041
9535.000000;0.861483
9534.000000;0.861546
9533.000000;0.861135
9532.000000;0.860803
9531.000000;0.860972
9530.000000;0.861266
9529.000000;0.860922
9528.000000;0.859698
9527.000000;0.858175
9526.000000;0.857205
9525.000000;0.857224
9524.000000;0.857986
9523.000000;0.858744
9522.000000;0.858763
9521.000000;0.857876
9520.000000;0.856594
9519.000000;0.855642
9518.000000;0.855412
9517.000000;0.855821
9516.000000;0.856508
9515.000000;0.857092
9514.000000;0.857370
9513.000000;0.857399
9512.000000;0.857332
9511.000000;0.857166
9510.000000;0.856765
9509.000000;0.856145
9508.000000;0.855519
9507.000000;0.854985
9506.000000;0.854431
9505.000000;0.853905
9504.000000;0.853822
9503.000000;0.854454
9502.000000;0.855366
9501.000000;0.855694
9500.000000;0.855074
9499.000000;0.854035
9498.000000;0.853355
9497.000000;0.853224
9496.000000;0.853171
9495.000000;0.852721
9494.000000;0.851961
9493.000000;0.851377
9492.000000;0.851225
9491.000000;0.851200
9490.000000;0.850821
9489.000000;0.850076
9488.000000;0.849494
9487.000000;0.849538
9486.000000;0.850096
9485.000000;0.850689
9484.000000;0.851034
9483.000000;0.851166
9482.000000;0.851075
9481.000000;0.850510
9480.000000;0.849311
9479.000000;0.847776
9478.000000;0.846501
9477.000000;0.845870
9476.000000;0.845841
9475.000000;0.846214
9474.000000;0.846892
9473.000000;0.847733
9472.000000;0.848318
9471.000000;0.848191
9470.000000;0.847423
9469.000000;0.846688
9468.000000;0.846606
9467.000000;0.847120
9466.000000;0.847671
9465.000000;0.847818
9464.000000;0.847467
9463.000000;0.846649
9462.000000;0.845468
9461.000000;0.844315
9460.000000;0.843771
9459.000000;0.844072
9458.000000;0.844779
9457.000000;0.845162
9456.000000;0.844857
9455.000000;0.844078
9454.000000;0.843242
9453.000000;0.842490
9452.000000;0.841559
9451.000000;0.840142
9450.000000;0.838418
9449.000000;0.837117
9448.000000;0.836915
9447.000000;0.837784
9446.000000;0.839074
9445.000000;0.840187
9444.000000;0.840948
9443.000000;0.841354
9442.000000;0.841313
9441.000000;0.840786
9440.000000;0.839951
9439.000000;0.839077
9438.000000;0.838404
9437.000000;0.838166
9436.000000;0.838426
9435.000000;0.838783
9434.000000;0.838572
9433.000000;0.837638
9432.000000;0.836650
9431.000000;0.836336
9430.000000;0.836567
9429.000000;0.836563
9428.000000;0.835928
9427.000000;0.835141
9426.000000;0.834992
9425.000000;0.835750
9424.000000;0.836901
9423.000000;0.837521
9422.000000;0.837003
9421.000000;0.835632
9420.000000;0.834414
9419.000000;0.834124
9418.000000;0.834570
9417.000000;0.834942
9416.000000;0.834806
9415.000000;0.834467
9414.000000;0.834318
9413.000000;0.834239
9412.000000;0.833811
9411.000000;0.832898
9410.000000;0.831770
9409.000000;0.830765
9408.000000;0.830037
9407.000000;0.829598
9406.000000;0.829385
9405.000000;0.829228
9404.000000;0.828873
9403.000000;0.828211
9402.000000;0.827530
9401.000000;0.827411
9400.000000;0.828217
9399.000000;0.829625
9398.000000;0.830781
9397.000000;0.830995
9396.000000;0.830221
9395.000000;0.828888
9394.000000;0.827468
9393.000000;0.826358
9392.000000;0.825915
9391.000000;0.826285
9390.000000;0.827221
9389.000000;0.828288
9388.000000;0.829217
9387.000000;0.829864
9386.000000;0.829985
9385.000000;0.829408
9384.000000;0.828451
9383.000000;0.827790
9382.000000;0.827789
9381.000000;0.828174
9380.000000;0.828450
9379.000000;0.828384
9378.000000;0.827983
9377.000000;0.827311
9376.000000;0.826603
9375.000000;0.826308
9374.000000;0.826701
9373.000000;0.827523
9372.000000;0.828226
9371.000000;0.828468
9370.000000;0.828200
9369.000000;0.827475
9368.000000;0.826496
9367.000000;0.825710
9366.000000;0.825435
9365.000000;0.825392
9364.000000;0.825012
9363.000000;0.824271
9362.000000;0.823799
9361.000000;0.823956
9360.000000;0.824228
9359.000000;0.823908
9358.000000;0.823086
9357.000000;0.822476
9356.000000;0.822435
9355.000000;0.822642
9354.000000;0.822697
9353.000000;0.822553
9352.000000;0.822211
9351.000000;0.821505
9350.000000;0.820484
9349.000000;0.819661
9348.000000;0.819478
9347.000000;0.819734
9346.000000;0.819885
9345.000000;0.819768
9344.000000;0.819619
9343.000000;0.819495
9342.000000;0.819161
9341.000000;0.818610
9340.000000;0.818233
9339.000000;0.818266
9338.000000;0.818406
9337.000000;0.818225
9336.000000;0.817713
9335.000000;0.817153
9334.000000;0.816674
9333.000000;0.816208
9332.000000;0.815752
9331.000000;0.815366
9330.000000;0.815007
9329.000000;0.814647
9328.000000;0.814522
9327.000000;0.814968
9326.000000;0.815974
9325.000000;0.817106
9324.000000;0.817900
9323.000000;0.818195
9322.000000;0.818078
9321.000000;0.817725
9320.000000;0.817318
9319.000000;0.816912
9318.000000;0.816343
9317.000000;0.815433
9316.000000;0.814357
9315.000000;0.813558
9314.000000;0.813214
9313.000000;0.812958
9312.000000;0.812345
9311.000000;0.811469
9310.000000;0.810897
9309.000000;0.810975
9308.000000;0.811442
9307.000000;0.811774
9306.000000;0.811783
9305.000000;0.811746
9304.000000;0.812014
9303.000000;0.812625
9302.000000;0.813297
9301.000000;0.813714
9300.000000;0.813762
9299.000000;0.813536
9298.000000;0.813192
9297.000000;0.812809
9296.000000;0.812389
9295.000000;0.811946
9294.000000;0.811541
9293.000000;0.811166
9292.000000;0.810661
9291.000000;0.809909
9290.000000;0.809166
9289.000000;0.808972
9288.000000;0.809504
9287.000000;0.810120
9286.000000;0.809915
9285.000000;0.808761
9284.000000;0.807534
9283.000000;0.807170
9282.000000;0.807769
9281.000000;0.808709
9280.000000;0.809278
9279.000000;0.808998
9278.000000;0.807698
9277.000000;0.805798
9276.000000;0.804357
9275.000000;0.804301
9274.000000;0.805455
9273.000000;0.806678
9272.000000;0.807020
9271.000000;0.806493
9270.000000;0.805682
9269.000000;0.805041
9268.000000;0.804807
9267.000000;0.805153
9266.000000;0.805989
9265.000000;0.806785
9264.000000;0.806982
9263.000000;0.806569
9262.000000;0.806017
9261.000000;0.805663
9260.000000;0.805405
9259.000000;0.805014
9258.000000;0.804498
9257.000000;0.804068
9256.000000;0.803873
9255.000000;0.803853
9254.000000;0.803825
9253.000000;0.803666
9252.000000;0.803442
9251.000000;0.803287
9250.000000;0.803192
9249.000000;0.803036
9248.000000;0.802838
9247.000000;0.802775
9246.000000;0.802802
9245.000000;0.802522
9244.000000;0.801704
9243.000000;0.800820
9242.000000;0.800717
9241.000000;0.801685
9240.000000;0.803115
9239.000000;0.804112
9238.000000;0.804269
9237.000000;0.803787
9236.000000;0.803087
9235.000000;0.802468
9234.000000;0.802016
9233.000000;0.801626
9232.000000;0.801125
9231.000000;0.800504
9230.000000;0.800010
9229.000000;0.799944
9228.000000;0.800378
9227.000000;0.801078
9226.000000;0.801639
9225.000000;0.801690
9224.000000;0.801152
9223.000000;0.800377
9222.000000;0.799910
9221.000000;0.799969
9220.000000;0.800207
9219.000000;0.800116
9218.000000;0.799580
9217.000000;0.798910
9216.000000;0.798390
9215.000000;0.798032
9214.000000;0.797799
9213.000000;0.797860
9212.000000;0.798416
9211.000000;0.799326
9210.000000;0.800062
9209.000000;0.800147
9208.000000;0.799638
9207.000000;0.799095
9206.000000;0.799022
9205.000000;0.799344
9204.000000;0.799541
9203.000000;0.799252
9202.000000;0.798583
9201.000000;0.797748
9200.000000;0.796671
9199.000000;0.795217
9198.000000;0.793716
9197.000000;0.792881
9196.000000;0.793051
9195.000000;0.793794
9194.000000;0.794429
9193.000000;0.794740
9192.000000;0.794978
9191.000000;0.795323
9190.000000;0.795674
9189.000000;0.795907
9188.000000;0.796027
9187.000000;0.795976
9186.000000;0.795568
9185.000000;0.794748
9184.000000;0.793775
9183.000000;0.792996
9182.000000;0.792505
9181.000000;0.792137
9180.000000;0.791728
9179.000000;0.791276
9178.000000;0.790895
9177.000000;0.790675
9176.000000;0.790621
9175.000000;0.790717
9174.000000;0.791031
9173.000000;0.791681
9172.000000;0.792582
9171.000000;0.793284
9170.000000;0.793261
9169.000000;0.792433
9168.000000;0.791301
9167.000000;0.790511
9166.000000;0.790353
9165.000000;0.790677
9164.000000;0.791101
9163.000000;0.791236
9162.000000;0.790918
9161.000000;0.790346
9160.000000;0.789889
9159.000000;0.789654
9158.000000;0.789398
9157.000000;0.788973
9156.000000;0.788621
9155.000000;0.788611
9154.000000;0.788805
9153.000000;0.788895
9152.000000;0.788919
9151.000000;0.789168
9150.000000;0.789642
9149.000000;0.789970
9148.000000;0.789940
9147.000000;0.789733
9146.000000;0.789499
9145.000000;0.789108
9144.000000;0.788523
9143.000000;0.788089
9142.000000;0.788104
9141.000000;0.788292
9140.000000;0.788079
9139.000000;0.787361
9138.000000;0.786673
9137.000000;0.786579
9136.000000;0.787101
9135.000000;0.787788
9134.000000;0.788147
9133.000000;0.787950
9132.000000;0.787291
9131.000000;0.786459
9130.000000;0.785740
9129.000000;0.785311
9128.000000;0.785275
9127.000000;0.785646
9126.000000;0.786248
9125.000000;0.786749
9124.000000;0.786969
9123.000000;0.787045
9122.000000;0.787132
9121.000000;0.787064
9120.000000;0.786562
9119.000000;0.785737
9118.000000;0.785092
9117.000000;0.784948
9116.000000;0.785115
9115.000000;0.785220
9114.000000;0.785157
9113.000000;0.785047
9112.000000;0.784941
9111.000000;0.784775
9110.000000;0.784542
9109.000000;0.784305
9108.000000;0.784066
9107.000000;0.783756
9106.000000;0.783388
9105.000000;0.783098
9104.000000;0.783035
9103.000000;0.783259
9102.000000;0.783711
9101.000000;0.784188
9100.000000;0.784409
9099.000000;0.784244
9098.000000;0.783863
9097.000000;0.783560
9096.000000;0.783424
9095.000000;0.783339
9094.000000;0.783284
9093.000000;0.783421
9092.000000;0.783777
9091.000000;0.784015
9090.000000;0.783717
9089.000000;0.782875
9088.000000;0.781954
9087.000000;0.781467
9086.000000;0.781569
9085.000000;0.782011
9084.000000;0.782341
9083.000000;0.782176
9082.000000;0.781505
9081.000000;0.780791
9080.000000;0.780640
9079.000000;0.781203
9078.000000;0.781987
9077.000000;0.782353
9076.000000;0.782148
9075.000000;0.781745
9074.000000;0.781550
9073.000000;0.781614
9072.000000;0.781682
9071.000000;0.781459
9070.000000;0.780869
9069.000000;0.780136
9068.000000;0.779616
9067.000000;0.779448
9066.000000;0.779395
9065.000000;0.779160
9064.000000;0.778781
9063.000000;0.778562
9062.000000;0.778602
9061.000000;0.778652
9060.000000;0.778499
9059.000000;0.778281
9058.000000;0.778311
9057.000000;0.778732
9056.000000;0.779454
9055.000000;0.780236
9054.000000;0.780726
9053.000000;0.780624
9052.000000;0.779997
9051.000000;0.779292
9050.000000;0.778819
9049.000000;0.778369
9048.000000;0.777578
9047.000000;0.776554
9046.000000;0.775821
9045.000000;0.775705
9044.000000;0.776055
9043.000000;0.776573
9042.000000;0.777100
9041.000000;0.777490
9040.000000;0.777536
9039.000000;0.777231
9038.000000;0.776916
9037.000000;0.776949
9036.000000;0.777321
9035.000000;0.777687
9034.000000;0.777686
9033.000000;0.777210
9032.000000;0.776485
9031.000000;0.775984
9030.000000;0.776054
9029.000000;0.776508
9028.000000;0.776742
9027.000000;0.776381
9026.000000;0.775659
9025.000000;0.775039
9024.000000;0.774683
9023.000000;0.774486
9022.000000;0.774426
9021.000000;0.774541
9020.000000;0.774648
9019.000000;0.774442
9018.000000;0.773936
9017.000000;0.773562
9016.000000;0.773676
9015.000000;0.774130
9014.000000;0.774428
9013.000000;0.774224
9012.000000;0.773618
9011.000000;0.773070
9010.000000;0.773059
9009.000000;0.773698
9008.000000;0.774617
9007.000000;0.775289
9006.000000;0.775488
9005.000000;0.775371
9004.000000;0.775161
9003.000000;0.774901
9002.000000;0.774524
9001.000000;0.773985
9000.000000;0.773251
8999.000000;0.772322
8998.000000;0.771399
8997.000000;0.770890
8996.000000;0.771080
8995.000000;0.771806
8994.000000;0.772564
8993.000000;0.772988
8992.000000;0.773134
8991.000000;0.773297
8990.000000;0.773630
8989.000000;0.773991
8988.000000;0.774115
8987.000000;0.773852
8986.000000;0.773210
8985.000000;0.772284
8984.000000;0.771261
8983.000000;0.770475
8982.000000;0.770260
8981.000000;0.770645
8980.000000;0.771304
8979.000000;0.771961
8978.000000;0.772702
8977.000000;0.773677
8976.000000;0.774606
8975.000000;0.774938
8974.000000;0.774585
8973.000000;0.774159
8972.000000;0.774239
8971.000000;0.774624
8970.000000;0.774607
8969.000000;0.773879
8968.000000;0.772873
8967.000000;0.772186
8966.000000;0.771952
8965.000000;0.771885
8964.000000;0.771753
8963.000000;0.771614
8962.000000;0.771638
8961.000000;0.771847
8960.000000;0.772057
8959.000000;0.772057
8958.000000;0.771817
8957.000000;0.771540
8956.000000;0.771477
8955.000000;0.771696
8954.000000;0.772059
8953.000000;0.772390
8952.000000;0.772605
8951.000000;0.772689
8950.000000;0.772632
8949.000000;0.772448
8948.000000;0.772194
8947.000000;0.771905
8946.000000;0.771533
8945.000000;0.771014
8944.000000;0.770412
8943.000000;0.769961
8942.000000;0.769910
8941.000000;0.770299
8940.000000;0.770888
8939.000000;0.771327
8938.000000;0.771416
8937.000000;0.771230
8936.000000;0.771035
8935.000000;0.771078
8934.000000;0.771394
8933.000000;0.771770
8932.000000;0.771911
8931.000000;0.771695
8930.000000;0.771257
8929.000000;0.770805
8928.000000;0.770395
8927.000000;0.769980
8926.000000;0.769664
8925.000000;0.769689
8924.000000;0.770111
8923.000000;0.770634
8922.000000;0.770918
8921.000000;0.770929
8920.000000;0.770790
8919.000000;0.770397
8918.000000;0.769497
8917.000000;0.768188
8916.000000;0.767051
8915.000000;0.766599
8914.000000;0.766747
8913.000000;0.767010
8912.000000;0.767093
8911.000000;0.767115
8910.000000;0.767304
8909.000000;0.767703
8908.000000;0.768187
8907.000000;0.768592
8906.000000;0.768772
8905.000000;0.768652
8904.000000;0.768318
8903.000000;0.767958
8902.000000;0.767667
8901.000000;0.767407
8900.000000;0.767194
8899.000000;0.767196
8898.000000;0.767525
8897.000000;0.768030
8896.000000;0.768420
8895.000000;0.768586
8894.000000;0.768654
8893.000000;0.768726
8892.000000;0.768710
8891.000000;0.768492
8890.000000;0.768176
8889.000000;0.768015
8888.000000;0.768096
8887.000000;0.768195
8886.000000;0.768050
8885.000000;0.767722
8884.000000;0.767572
8883.000000;0.767826
8882.000000;0.768281
8881.000000;0.768538
8880.000000;0.768464
8879.000000;0.768240
8878.000000;0.767965
8877.000000;0.767450
8876.000000;0.766582
8875.000000;0.765748
8874.000000;0.765642
8873.000000;0.766567
8872.000000;0.768074
8871.000000;0.769349
8870.000000;0.769890
8869.000000;0.769777
8868.000000;0.769412
8867.000000;0.769150
8866.000000;0.769146
8865.000000;0.769383
8864.000000;0.769696
8863.000000;0.769820
8862.000000;0.769562
8861.000000;0.769024
8860.000000;0.768621
8859.000000;0.768706
8858.000000;0.769125
8857.000000;0.769284
8856.000000;0.768768
8855.000000;0.767844
8854.000000;0.767189
8853.000000;0.767161
8852.000000;0.767479
8851.000000;0.767621
8850.000000;0.767370
8849.000000;0.766886
8848.000000;0.766409
8847.000000;0.766054
8846.000000;0.765888
8845.000000;0.766060
8844.000000;0.766738
8843.000000;0.767904
8842.000000;0.769219
8841.000000;0.770158
8840.000000;0.770363
8839.000000;0.769925
8838.000000;0.769278
8837.000000;0.768846
8836.000000;0.768818
8835.000000;0.769172
8834.000000;0.769733
8833.000000;0.770190
8832.000000;0.770247
8831.000000;0.769882
8830.000000;0.769380
8829.000000;0.769017
8828.000000;0.768820
8827.000000;0.768721
8826.000000;0.768769
8825.000000;0.769016
8824.000000;0.769268
8823.000000;0.769188
8822.000000;0.768697
8821.000000;0.768103
8820.000000;0.767767
8819.000000;0.767756
8818.000000;0.767878
8817.000000;0.767948
8816.000000;0.767945
8815.000000;0.767983
8814.000000;0.768183
8813.000000;0.768543
8812.000000;0.768889
8811.000000;0.769017
8810.000000;0.768924
8809.000000;0.768857
8808.000000;0.769068
8807.000000;0.769548
8806.000000;0.770040
8805.000000;0.770291
8804.000000;0.770260
8803.000000;0.770105
8802.000000;0.770045
8801.000000;0.770238
8800.000000;0.770698
8799.000000;0.771241
8798.000000;0.771538
8797.000000;0.771364
8796.000000;0.770863
8795.000000;0.770497
8794.000000;0.770640
8793.000000;0.771244
8792.000000;0.771974
8791.000000;0.772586
8790.000000;0.773017
8789.000000;0.773174
8788.000000;0.772887
8787.000000;0.772201
8786.000000;0.771498
8785.000000;0.771148
8784.000000;0.771140
8783.000000;0.771193
8782.000000;0.771155
8781.000000;0.771132
8780.000000;0.771309
8779.000000;0.771807
8778.000000;0.772630
8777.000000;0.773583
8776.000000;0.774293
8775.000000;0.774497
8774.000000;0.774322
8773.000000;0.774131
8772.000000;0.774108
8771.000000;0.774157
8770.000000;0.774163
8769.000000;0.774131
8768.000000;0.774047
8767.000000;0.773836
8766.000000;0.773567
8765.000000;0.773503
8764.000000;0.773812
8763.000000;0.774347
8762.000000;0.774827
8761.000000;0.775135
8760.000000;0.775341
8759.000000;0.775536
8758.000000;0.775743
8757.000000;0.775943
8756.000000;0.776103
8755.000000;0.776219
8754.000000;0.776359
8753.000000;0.776575
8752.000000;0.776773
8751.000000;0.776786
8750.000000;0.776618
8749.000000;0.776485
8748.000000;0.776561
8747.000000;0.776788
8746.000000;0.777037
8745.000000;0.777307
8744.000000;0.777653
8743.000000;0.778030
8742.000000;0.778332
8741.000000;0.778544
8740.000000;0.778733
8739.000000;0.778934
8738.000000;0.779133
8737.000000;0.779320
8736.000000;0.779506
8735.000000;0.779712
8734.000000;0.779975
8733.000000;0.780271
8732.000000;0.780426
8731.000000;0.780244
8730.000000;0.779805
8729.000000;0.779500
8728.000000;0.779618
8727.000000;0.780018
8726.000000;0.780352
8725.000000;0.780547
8724.000000;0.780896
8723.000000;0.781672
8722.000000;0.782761
8721.000000;0.783689
8720.000000;0.783964
8719.000000;0.783485
8718.000000;0.782689
8717.000000;0.782259
8716.000000;0.782559
8715.000000;0.783344
8714.000000;0.784039
8713.000000;0.784256
8712.000000;0.784015
8711.000000;0.783619
8710.000000;0.783461
8709.000000;0.783823
8708.000000;0.784641
8707.000000;0.785460
8706.000000;0.785758
8705.000000;0.785396
8704.000000;0.784733
8703.000000;0.784353
8702.000000;0.784700
8701.000000;0.785772
8700.000000;0.787035
8699.000000;0.787752
8698.000000;0.787614
8697.000000;0.787002
8696.000000;0.786511
8695.000000;0.786319
8694.000000;0.786231
8693.000000;0.786198
8692.000000;0.786456
8691.000000;0.787088
8690.000000;0.787754
8689.000000;0.788000
8688.000000;0.787730
8687.000000;0.787253
8686.000000;0.786974
8685.000000;0.787082
8684.000000;0.787475
8683.000000;0.787908
8682.000000;0.788279
8681.000000;0.788697
8680.000000;0.789198
8679.000000;0.789471
8678.000000;0.789117
8677.000000;0.788203
8676.000000;0.787328
8675.000000;0.787070
8674.000000;0.787502
8673.000000;0.788306
8672.000000;0.789145
8671.000000;0.789794
8670.000000;0.790125
8669.000000;0.790162
8668.000000;0.790086
8667.000000;0.790070
8666.000000;0.790132
8665.000000;0.790208
8664.000000;0.790267
8663.000000;0.790261
8662.000000;0.790116
8661.000000;0.789916
8660.000000;0.789982
8659.000000;0.790575
8658.000000;0.791510
8657.000000;0.792206
8656.000000;0.792175
8655.000000;0.791461
8654.000000;0.790589
8653.000000;0.790113
8652.000000;0.790148
8651.000000;0.790302
8650.000000;0.790122
8649.000000;0.789607
8648.000000;0.789219
8647.000000;0.789416
8646.000000;0.790289
8645.000000;0.791603
8644.000000;0.792984
8643.000000;0.793996
8642.000000;0.794329
8641.000000;0.794096
8640.000000;0.793795
8639.000000;0.793770
8638.000000;0.793833
8637.000000;0.793603
8636.000000;0.793079
8635.000000;0.792625
8634.000000;0.792476
8633.000000;0.792524
8632.000000;0.792596
8631.000000;0.792678
8630.000000;0.792785
8629.000000;0.792827
8628.000000;0.792745
8627.000000;0.792644
8626.000000;0.792661
8625.000000;0.792753
8624.000000;0.792712
8623.000000;0.792384
8622.000000;0.791877
8621.000000;0.791547
8620.000000;0.791732
8619.000000;0.792449
8618.000000;0.793357
8617.000000;0.794071
8616.000000;0.794428
8615.000000;0.794422
8614.000000;0.794080
8613.000000;0.793558
8612.000000;0.793257
8611.000000;0.793526
8610.000000;0.794243
8609.000000;0.794899
8608.000000;0.795162
8607.000000;0.795191
8606.000000;0.795335
8605.000000;0.795702
8604.000000;0.796092
8603.000000;0.796211
8602.000000;0.795891
8601.000000;0.795224
8600.000000;0.794566
8599.000000;0.794279
8598.000000;0.794377
8597.000000;0.794542
8596.000000;0.794514
8595.000000;0.794314
8594.000000;0.794045
8593.000000;0.793722
8592.000000;0.793430
8591.000000;0.793406
8590.000000;0.793733
8589.000000;0.794101
8588.000000;0.794146
8587.000000;0.793929
8586.000000;0.793850
8585.000000;0.794102
8584.000000;0.794476
8583.000000;0.794695
8582.000000;0.794739
8581.000000;0.794773
8580.000000;0.794932
8579.000000;0.795250
8578.000000;0.795655
8577.000000;0.795948
8576.000000;0.795918
8575.000000;0.795556
8574.000000;0.795061
8573.000000;0.794620
8572.000000;0.794269
8571.000000;0.794043
8570.000000;0.794092
8569.000000;0.794522
8568.000000;0.795187
8567.000000;0.795762
8566.000000;0.796025
8565.000000;0.795988
8564.000000;0.795802
8563.000000;0.795619
8562.000000;0.795539
8561.000000;0.795582
8560.000000;0.795689
8559.000000;0.795765
8558.000000;0.795773
8557.000000;0.795716
8556.000000;0.795554
8555.000000;0.795214
8554.000000;0.794741
8553.000000;0.794382
8552.000000;0.794393
8551.000000;0.794737
8550.000000;0.795087
8549.000000;0.795168
8548.000000;0.795041
8547.000000;0.794950
8546.000000;0.794991
8545.000000;0.795055
8544.000000;0.795095
8543.000000;0.795227
8542.000000;0.795525
8541.000000;0.795868
8540.000000;0.796097
8539.000000;0.796224
8538.000000;0.796395
8537.000000;0.796704
8536.000000;0.797130
8535.000000;0.797523
8534.000000;0.797599
8533.000000;0.797121
8532.000000;0.796245
8531.000000;0.795518
8530.000000;0.795340
8529.000000;0.795511
8528.000000;0.795540
8527.000000;0.795305
8526.000000;0.795109
8525.000000;0.795162
8524.000000;0.795327
8523.000000;0.795445
8522.000000;0.795578
8521.000000;0.795778
8520.000000;0.795923
8519.000000;0.795952
8518.000000;0.796036
8517.000000;0.796292
8516.000000;0.796522
8515.000000;0.796476
8514.000000;0.796221
8513.000000;0.796006
8512.000000;0.795839
8511.000000;0.795507
8510.000000;0.794999
8509.000000;0.794632
8508.000000;0.794690
8507.000000;0.795145
8506.000000;0.795820
8505.000000;0.796623
8504.000000;0.797479
8503.000000;0.798161
8502.000000;0.798364
8501.000000;0.797973
8500.000000;0.797193
8499.000000;0.796402
8498.000000;0.795907
8497.000000;0.795807
8496.000000;0.796035
8495.000000;0.796474
8494.000000;0.796988
8493.000000;0.797372
8492.000000;0.797403
8491.000000;0.796995
8490.000000;0.796292
8489.000000;0.795545
8488.000000;0.794975
8487.000000;0.794755
8486.000000;0.795003
8485.000000;0.795652
8484.000000;0.796402
8483.000000;0.796930
8482.000000;0.797140
8481.000000;0.797093
8480.000000;0.796799
8479.000000;0.796252
8478.000000;0.795654
8477.000000;0.795369
8476.000000;0.795558
8475.000000;0.795996
8474.000000;0.796346
8473.000000;0.796506
8472.000000;0.796615
8471.000000;0.796821
8470.000000;0.797149
8469.000000;0.797520
8468.000000;0.797796
8467.000000;0.797815
8466.000000;0.797511
8465.000000;0.797010
8464.000000;0.796586
8463.000000;0.796479
8462.000000;0.796744
8461.000000;0.797231
8460.000000;0.797686
8459.000000;0.797919
8458.000000;0.797905
8457.000000;0.797737
8456.000000;0.797523
8455.000000;0.797368
8454.000000;0.797395
8453.000000;0.797653
8452.000000;0.797999
8451.000000;0.798185
8450.000000;0.798125
8449.000000;0.797974
8448.000000;0.797904
8447.000000;0.797908
8446.000000;0.797894
8445.000000;0.797859
8444.000000;0.797858
8443.000000;0.797872
8442.000000;0.797840
8441.000000;0.797775
8440.000000;0.797726
8439.000000;0.797654
8438.000000;0.797502
8437.000000;0.797364
8436.000000;0.797418
8435.000000;0.797636
8434.000000;0.797702
8433.000000;0.797355
8432.000000;0.796756
8431.000000;0.796352
8430.000000;0.796410
8429.000000;0.796765
8428.000000;0.797064
8427.000000;0.797155
8426.000000;0.797189
8425.000000;0.797400
8424.000000;0.797855
8423.000000;0.798399
8422.000000;0.798804
8421.000000;0.798930
8420.000000;0.798785
8419.000000;0.798512
8418.000000;0.798322
8417.000000;0.798386
8416.000000;0.798717
8415.000000;0.799124
8414.000000;0.799343
8413.000000;0.799247
8412.000000;0.798950
8411.000000;0.798699
8410.000000;0.798666
8409.000000;0.798823
8408.000000;0.798984
8407.000000;0.798944
8406.000000;0.798639
8405.000000;0.798223
8404.000000;0.797971
8403.000000;0.798063
8402.000000;0.798459
8401.000000;0.798970
8400.000000;0.799428
8399.000000;0.799735
8398.000000;0.799805
8397.000000;0.799611
8396.000000;0.799296
8395.000000;0.799112
8394.000000;0.799127
8393.000000;0.799095
8392.000000;0.798744
8391.000000;0.798178
8390.000000;0.797860
8389.000000;0.798132
8388.000000;0.798855
8387.000000;0.799556
8386.000000;0.799869
8385.000000;0.799785
8384.000000;0.799519
8383.000000;0.799241
8382.000000;0.798947
8381.000000;0.798545
8380.000000;0.798028
8379.000000;0.797543
8378.000000;0.797308
8377.000000;0.797461
8376.000000;0.797999
8375.000000;0.798767
8374.000000;0.799494
8373.000000;0.799877
8372.000000;0.799779
8371.000000;0.799363
8370.000000;0.798977
8369.000000;0.798868
8368.000000;0.799032
8367.000000;0.799317
8366.000000;0.799591
8365.000000;0.799784
8364.000000;0.799898
8363.000000;0.800006
8362.000000;0.800163
8361.000000;0.800251
8360.000000;0.800026
8359.000000;0.799439
8358.000000;0.798819
8357.000000;0.798598
8356.000000;0.798833
8355.000000;0.799144
8354.000000;0.799160
8353.000000;0.798951
8352.000000;0.798921
8351.000000;0.799351
8350.000000;0.800098
8349.000000;0.800754
8348.000000;0.801051
8347.000000;0.801058
8346.000000;0.800995
8345.000000;0.800934
8344.000000;0.800760
8343.000000;0.800413
8342.000000;0.800040
8341.000000;0.799834
8340.000000;0.799826
8339.000000;0.799895
8338.000000;0.799949
8337.000000;0.799972
8336.000000;0.799943
8335.000000;0.799803
8334.000000;0.799554
8333.000000;0.799310
8332.000000;0.799219
8331.000000;0.799359
8330.000000;0.799698
8329.000000;0.800135
8328.000000;0.800563
8327.000000;0.800920
8326.000000;0.801185
8325.000000;0.801333
8324.000000;0.801337
8323.000000;0.801223
8322.000000;0.801089
8321.000000;0.801019
8320.000000;0.801031
8319.000000;0.801106
8318.000000;0.801184
8317.000000;0.801134
8316.000000;0.800867
8315.000000;0.800548
8314.000000;0.800522
8313.000000;0.800877
8312.000000;0.801194
8311.000000;0.800960
8310.000000;0.800194
8309.000000;0.799458
8308.000000;0.799254
8307.000000;0.799597
8306.000000;0.800227
8305.000000;0.800960
8304.000000;0.801691
8303.000000;0.802246
8302.000000;0.802456
8301.000000;0.802329
8300.000000;0.802003
8299.000000;0.801569
8298.000000;0.801059
8297.000000;0.800586
8296.000000;0.800344
8295.000000;0.800417
8294.000000;0.800680
8293.000000;0.800923
8292.000000;0.801048
8291.000000;0.801118
8290.000000;0.801237
8289.000000;0.801430
8288.000000;0.801642
8287.000000;0.801847
8286.000000;0.802077
8285.000000;0.802312
8284.000000;0.802416
8283.000000;0.802281
8282.000000;0.802002
8281.000000;0.801790
8280.000000;0.801699
8279.000000;0.801606
8278.000000;0.801469
8277.000000;0.801445
8276.000000;0.801616
8275.000000;0.801768
8274.000000;0.801641
8273.000000;0.801324
8272.000000;0.801189
8271.000000;0.801408
8270.000000;0.801741
8269.000000;0.801860
8268.000000;0.801754
8267.000000;0.801685
8266.000000;0.801844
8265.000000;0.802165
8264.000000;0.802458
8263.000000;0.802622
8262.000000;0.802724
8261.000000;0.802913
8260.000000;0.803242
8259.000000;0.803543
8258.000000;0.803515
8257.000000;0.803009
8256.000000;0.802229
8255.000000;0.801573
8254.000000;0.801261
8253.000000;0.801196
8252.000000;0.801181
8251.000000;0.801161
8250.000000;0.801193
8249.000000;0.801288
8248.000000;0.801395
8247.000000;0.801521
8246.000000;0.801738
8245.000000;0.802051
8244.000000;0.802375
8243.000000;0.802643
8242.000000;0.802869
8241.000000;0.803062
8240.000000;0.803177
8239.000000;0.803190
8238.000000;0.803142
8237.000000;0.803055
8236.000000;0.802880
8235.000000;0.802606
8234.000000;0.802348
8233.000000;0.802238
8232.000000;0.802263
8231.000000;0.802306
8230.000000;0.802319
8229.000000;0.802378
8228.000000;0.802555
8227.000000;0.802815
8226.000000;0.803037
8225.000000;0.803118
8224.000000;0.803081
8223.000000;0.803116
8222.000000;0.803423
8221.000000;0.803956
8220.000000;0.804374
8219.000000;0.804356
8218.000000;0.803915
8217.000000;0.803338
8216.000000;0.802887
8215.000000;0.802669
8214.000000;0.802686
8213.000000;0.802844
8212.000000;0.802941
8211.000000;0.802837
8210.000000;0.802644
8209.000000;0.802603
8208.000000;0.802793
8207.000000;0.803112
8206.000000;0.803539
8205.000000;0.804169
8204.000000;0.804942
8203.000000;0.805552
8202.000000;0.805773
8201.000000;0.805688
8200.000000;0.805475
8199.000000;0.805118
8198.000000;0.804506
8197.000000;0.803721
8196.000000;0.803043
8195.000000;0.802738
8194.000000;0.802934
8193.000000;0.803590
8192.000000;0.804405
8191.000000;0.804858
8190.000000;0.804601
8189.000000;0.803866
8188.000000;0.803288
8187.000000;0.803271
8186.000000;0.803635
8185.000000;0.803940
8184.000000;0.804009
8183.000000;0.804015
8182.000000;0.804114
8181.000000;0.804169
8180.000000;0.803933
8179.000000;0.803468
8178.000000;0.803229
8177.000000;0.803602
8176.000000;0.804417
8175.000000;0.805082
8174.000000;0.805257
8173.000000;0.805198
8172.000000;0.805317
8171.000000;0.805572
8170.000000;0.805561
8169.000000;0.805156
8168.000000;0.804738
8167.000000;0.804721
8166.000000;0.805036
8165.000000;0.805266
8164.000000;0.805185
8163.000000;0.804994
8162.000000;0.805023
8161.000000;0.805328
8160.000000;0.805635
8159.000000;0.805633
8158.000000;0.805290
8157.000000;0.804861
8156.000000;0.804644
8155.000000;0.804737
8154.000000;0.805030
8153.000000;0.805346
8152.000000;0.805566
8151.000000;0.805670
8150.000000;0.805727
8149.000000;0.805833
8148.000000;0.805976
8147.000000;0.806003
8146.000000;0.805782
8145.000000;0.805397
8144.000000;0.805092
8143.000000;0.805025
8142.000000;0.805157
8141.000000;0.805392
8140.000000;0.805725
8139.000000;0.806179
8138.000000;0.806672
8137.000000;0.807025
8136.000000;0.807138
8135.000000;0.807102
8134.000000;0.807122
8133.000000;0.807288
8132.000000;0.807458
8131.000000;0.807396
8130.000000;0.807067
8129.000000;0.806728
8128.000000;0.806656
8127.000000;0.806839
8126.000000;0.807032
8125.000000;0.807087
8124.000000;0.807094
8123.000000;0.807188
8122.000000;0.807348
8121.000000;0.807468
8120.000000;0.807506
8119.000000;0.807470
8118.000000;0.807335
8117.000000;0.807096
8116.000000;0.806875
8115.000000;0.806859
8114.000000;0.807117
8113.000000;0.807534
8112.000000;0.807911
8111.000000;0.808092
8110.000000;0.808025
8109.000000;0.807815
8108.000000;0.807678
8107.000000;0.807750
8106.000000;0.807916
8105.000000;0.807918
8104.000000;0.807661
8103.000000;0.807313
8102.000000;0.807071
8101.000000;0.806943
8100.000000;0.806843
8099.000000;0.806794
8098.000000;0.806888
8097.000000;0.807103
8096.000000;0.807296
8095.000000;0.807399
8094.000000;0.807498
8093.000000;0.807685
8092.000000;0.807945
8091.000000;0.808215
8090.000000;0.808438
8089.000000;0.808518
8088.000000;0.808378
8087.000000;0.808129
8086.000000;0.808070
8085.000000;0.808348
8084.000000;0.808734
8083.000000;0.808880
8082.000000;0.808754
8081.000000;0.808620
8080.000000;0.808625
8079.000000;0.808638
8078.000000;0.808534
8077.000000;0.808401
8076.000000;0.808359
8075.000000;0.808339
8074.000000;0.808221
8073.000000;0.808079
8072.000000;0.808111
8071.000000;0.808392
8070.000000;0.808837
8069.000000;0.809325
8068.000000;0.809728
8067.000000;0.809856
8066.000000;0.809581
8065.000000;0.809066
8064.000000;0.808706
8063.000000;0.808770
8062.000000;0.809155
8061.000000;0.809539
8060.000000;0.809685
8059.000000;0.809583
8058.000000;0.809381
8057.000000;0.809240
8056.000000;0.809231
8055.000000;0.809303
8054.000000;0.809358
8053.000000;0.809356
8052.000000;0.809326
8051.000000;0.809308
8050.000000;0.809321
8049.000000;0.809376
8048.000000;0.809480
8047.000000;0.809640
8046.000000;0.809898
8045.000000;0.810307
8044.000000;0.810810
8043.000000;0.811195
8042.000000;0.811281
8041.000000;0.811124
8040.000000;0.810958
8039.000000;0.810911
8038.000000;0.810902
8037.000000;0.810797
8036.000000;0.810562
8035.000000;0.810254
8034.000000;0.809994
8033.000000;0.809953
8032.000000;0.810209
8031.000000;0.810567
8030.000000;0.810674
8029.000000;0.810440
8028.000000;0.810206
8027.000000;0.810356
8026.000000;0.810828
8025.000000;0.811178
8024.000000;0.811107
8023.000000;0.810783
8022.000000;0.810607
8021.000000;0.810785
8020.000000;0.811171
8019.000000;0.811471
8018.000000;0.811541
8017.000000;0.811480
8016.000000;0.811460
8015.000000;0.811510
8014.000000;0.811524
8013.000000;0.811449
8012.000000;0.811379
8011.000000;0.811420
8010.000000;0.811577
8009.000000;0.811794
8008.000000;0.812026
8007.000000;0.812176
8006.000000;0.812093
8005.000000;0.811750
8004.000000;0.811368
8003.000000;0.811219
8002.000000;0.811344
8001.000000;0.811581
8000.000000;0.811828
7999.000000;0.812128
7998.000000;0.812499
7997.000000;0.812850
7996.000000;0.813087
7995.000000;0.813178
7994.000000;0.813109
7993.000000;0.812894
7992.000000;0.812680
7991.000000;0.812710
7990.000000;0.813067
7989.000000;0.813537
7988.000000;0.813807
7987.000000;0.813759
7986.000000;0.813551
7985.000000;0.813439
7984.000000;0.813565
7983.000000;0.813848
7982.000000;0.814053
7981.000000;0.814030
7980.000000;0.813899
7979.000000;0.813903
7978.000000;0.814088
7977.000000;0.814233
7976.000000;0.814169
7975.000000;0.814017
7974.000000;0.813980
7973.000000;0.814035
7972.000000;0.813989
7971.000000;0.813809
7970.000000;0.813694
7969.000000;0.813806
7968.000000;0.814069
7967.000000;0.814297
7966.000000;0.814411
7965.000000;0.814460
7964.000000;0.814502
7963.000000;0.814545
7962.000000;0.814588
7961.000000;0.814643
7960.000000;0.814712
7959.000000;0.814773
7958.000000;0.814789
7957.000000;0.814742
7956.000000;0.814658
7955.000000;0.814627
7954.000000;0.814752
7953.000000;0.815062
7952.000000;0.815428
7951.000000;0.815604
7950.000000;0.815406
7949.000000;0.814920
7948.000000;0.814497
7947.000000;0.814467
7946.000000;0.814841
7945.000000;0.815340
7944.000000;0.815695
7943.000000;0.815838
7942.000000;0.815812
7941.000000;0.815645
7940.000000;0.815391
7939.000000;0.815195
7938.000000;0.815168
7937.000000;0.815236
7936.000000;0.815218
7935.000000;0.815045
7934.000000;0.814838
7933.000000;0.814782
7932.000000;0.814980
7931.000000;0.815377
7930.000000;0.815759
7929.000000;0.815869
7928.000000;0.815644
7927.000000;0.815334
7926.000000;0.815304
7925.000000;0.815698
7924.000000;0.816352
7923.000000;0.816989
7922.000000;0.817380
7921.000000;0.817398
7920.000000;0.817078
7919.000000;0.816662
7918.000000;0.816443
7917.000000;0.816500
7916.000000;0.816695
7915.000000;0.816921
7914.000000;0.817200
7913.000000;0.817512
7912.000000;0.817691
7911.000000;0.817612
7910.000000;0.817368
7909.000000;0.817141
7908.000000;0.817007
7907.000000;0.816966
7906.000000;0.817052
7905.000000;0.817249
7904.000000;0.817396
7903.000000;0.817348
7902.000000;0.817211
7901.000000;0.817271
7900.000000;0.817646
7899.000000;0.818135
7898.000000;0.818418
7897.000000;0.818317
7896.000000;0.817880
7895.000000;0.817343
7894.000000;0.817016
7893.000000;0.817081
7892.000000;0.817415
7891.000000;0.817703
7890.000000;0.817767
7889.000000;0.817724
7888.000000;0.817780
7887.000000;0.817979
7886.000000;0.818216
7885.000000;0.818414
7884.000000;0.818576
7883.000000;0.818688
7882.000000;0.818715
7881.000000;0.818697
7880.000000;0.818757
7879.000000;0.818967
7878.000000;0.819257
7877.000000;0.819507
7876.000000;0.819683
7875.000000;0.819838
7874.000000;0.820019
7873.000000;0.820210
7872.000000;0.820364
7871.000000;0.820457
7870.000000;0.820481
7869.000000;0.820451
7868.000000;0.820429
7867.000000;0.820497
7866.000000;0.820668
7865.000000;0.820841
7864.000000;0.820901
7863.000000;0.820835
7862.000000;0.820700
7861.000000;0.820497
7860.000000;0.820174
7859.000000;0.819779
7858.000000;0.819511
7857.000000;0.819544
7856.000000;0.819844
7855.000000;0.820233
7854.000000;0.820580
7853.000000;0.820875
7852.000000;0.821117
7851.000000;0.821253
7850.000000;0.821249
7849.000000;0.821186
7848.000000;0.821211
7847.000000;0.821418
7846.000000;0.821755
7845.000000;0.822049
7844.000000;0.822134
7843.000000;0.821994
7842.000000;0.821801
7841.000000;0.821779
7840.000000;0.822030
7839.000000;0.822477
7838.000000;0.822946
7837.000000;0.823287
7836.000000;0.823418
7835.000000;0.823332
7834.000000;0.823076
7833.000000;0.822724
7832.000000;0.822380
7831.000000;0.822201
7830.000000;0.822371
7829.000000;0.822935
7828.000000;0.823653
7827.000000;0.824112
7826.000000;0.824082
7825.000000;0.823746
7824.000000;0.823500
7823.000000;0.823544
7822.000000;0.823749
7821.000000;0.823915
7820.000000;0.824030
7819.000000;0.824196
7818.000000;0.824378
7817.000000;0.824396
7816.000000;0.824198
7815.000000;0.824020
7814.000000;0.824159
7813.000000;0.824621
7812.000000;0.825110
7811.000000;0.825360
7810.000000;0.825393
7809.000000;0.825413
7808.000000;0.825518
7807.000000;0.825605
7806.000000;0.825559
7805.000000;0.825424
7804.000000;0.825359
7803.000000;0.825445
7802.000000;0.825609
7801.000000;0.825741
7800.000000;0.825839
7799.000000;0.825955
7798.000000;0.826057
7797.000000;0.826030
7796.000000;0.825852
7795.000000;0.825680
7794.000000;0.825683
7793.000000;0.825855
7792.000000;0.826059
7791.000000;0.826215
7790.000000;0.826356
7789.000000;0.826517
7788.000000;0.826688
7787.000000;0.826867
7786.000000;0.827068
7785.000000;0.827257
7784.000000;0.827358
7783.000000;0.827355
7782.000000;0.827310
7781.000000;0.827278
7780.000000;0.827297
7779.000000;0.827445
7778.000000;0.827780
7777.000000;0.828185
7776.000000;0.828407
7775.000000;0.828329
7774.000000;0.828116
7773.000000;0.827998
7772.000000;0.828038
7771.000000;0.828178
7770.000000;0.828388
7769.000000;0.828632
7768.000000;0.828784
7767.000000;0.828759
7766.000000;0.828665
7765.000000;0.828694
7764.000000;0.828860
7763.000000;0.829017
7762.000000;0.829098
7761.000000;0.829181
7760.000000;0.829314
7759.000000;0.829433
7758.000000;0.829520
7757.000000;0.829668
7756.000000;0.829909
7755.000000;0.830107
7754.000000;0.830127
7753.000000;0.830044
7752.000000;0.830062
7751.000000;0.830271
7750.000000;0.830597
7749.000000;0.830947
7748.000000;0.831288
7747.000000;0.831581
7746.000000;0.831723
7745.000000;0.831629
7744.000000;0.831342
7743.000000;0.831028
7742.000000;0.830848
7741.000000;0.830856
7740.000000;0.831005
7739.000000;0.831233
7738.000000;0.831512
7737.000000;0.831822
7736.000000;0.832118
7735.000000;0.832355
7734.000000;0.832545
7733.000000;0.832724
7732.000000;0.832903
7731.000000;0.833086
7730.000000;0.833314
7729.000000;0.833629
7728.000000;0.833983
7727.000000;0.834251
7726.000000;0.834364
7725.000000;0.834387
7724.000000;0.834424
7723.000000;0.834480
7722.000000;0.834469
7721.000000;0.834350
7720.000000;0.834215
7719.000000;0.834215
7718.000000;0.834422
7717.000000;0.834765
7716.000000;0.835117
7715.000000;0.835418
7714.000000;0.835692
7713.000000;0.835947
7712.000000;0.836133
7711.000000;0.836228
7710.000000;0.836311
7709.000000;0.836477
7708.000000;0.836704
7707.000000;0.836862
7706.000000;0.836869
7705.000000;0.836775
7704.000000;0.836694
7703.000000;0.836710
7702.000000;0.836843
7701.000000;0.837061
7700.000000;0.837306
7699.000000;0.837533
7698.000000;0.837732
7697.000000;0.837906
7696.000000;0.838022
7695.000000;0.838051
7694.000000;0.838029
7693.000000;0.838046
7692.000000;0.838168
7691.000000;0.838408
7690.000000;0.838751
7689.000000;0.839134
7688.000000;0.839412
7687.000000;0.839445
7686.000000;0.839270
7685.000000;0.839112
7684.000000;0.839151
7683.000000;0.839342
7682.000000;0.839514
7681.000000;0.839620
7680.000000;0.839805
7679.000000;0.840208
7678.000000;0.840771
7677.000000;0.841284
7676.000000;0.841599
7675.000000;0.841760
7674.000000;0.841904
7673.000000;0.842079
7672.000000;0.842197
7671.000000;0.842169
7670.000000;0.842051
7669.000000;0.841989
7668.000000;0.842046
7667.000000;0.842155
7666.000000;0.842244
7665.000000;0.842368
7664.000000;0.842640
7663.000000;0.843051
7662.000000;0.843434
7661.000000;0.843613
7660.000000;0.843589
7659.000000;0.843531
7658.000000;0.843594
7657.000000;0.843789
7656.000000;0.844034
7655.000000;0.844293
7654.000000;0.844598
7653.000000;0.844956
7652.000000;0.845308
7651.000000;0.845599
7650.000000;0.845819
7649.000000;0.845942
7648.000000;0.845916
7647.000000;0.845764
7646.000000;0.845619
7645.000000;0.845613
7644.000000;0.845759
7643.000000;0.846001
7642.000000;0.846306
7641.000000;0.846629
7640.000000;0.846869
7639.000000;0.846976
7638.000000;0.847064
7637.000000;0.847292
7636.000000;0.847653
7635.000000;0.847983
7634.000000;0.848192
7633.000000;0.848355
7632.000000;0.848579
7631.000000;0.848876
7630.000000;0.849209
7629.000000;0.849536
7628.000000;0.849803
7627.000000;0.849982
7626.000000;0.850152
7625.000000;0.850418
7624.000000;0.850730
7623.000000;0.850912
7622.000000;0.850932
7621.000000;0.850996
7620.000000;0.851271
7619.000000;0.851651
7618.000000;0.851915
7617.000000;0.852036
7616.000000;0.852162
7615.000000;0.852370
7614.000000;0.852596
7613.000000;0.852794
7612.000000;0.853019
7611.000000;0.853315
7610.000000;0.853637
7609.000000;0.853923
7608.000000;0.854179
7607.000000;0.854423
7606.000000;0.854631
7605.000000;0.854776
7604.000000;0.854892
7603.000000;0.855067
7602.000000;0.855370
7601.000000;0.855785
7600.000000;0.856204
7599.000000;0.856495
7598.000000;0.856597
7597.000000;0.856573
7596.000000;0.856565
7595.000000;0.856696
7594.000000;0.857022
7593.000000;0.857498
7592.000000;0.857984
7591.000000;0.858316
7590.000000;0.858449
7589.000000;0.858506
7588.000000;0.858633
7587.000000;0.858840
7586.000000;0.859041
7585.000000;0.859238
7584.000000;0.859571
7583.000000;0.860142
7582.000000;0.860850
7581.000000;0.861451
7580.000000;0.861771
7579.000000;0.861858
7578.000000;0.861911
7577.000000;0.862081
7576.000000;0.862333
7575.000000;0.862530
7574.000000;0.862617
7573.000000;0.862688
7572.000000;0.862872
7571.000000;0.863215
7570.000000;0.863695
7569.000000;0.864260
7568.000000;0.864791
7567.000000;0.865126
7566.000000;0.865219
7565.000000;0.865238
7564.000000;0.865387
7563.000000;0.865668
7562.000000;0.865930
7561.000000;0.866136
7560.000000;0.866437
7559.000000;0.866921
7558.000000;0.867452
7557.000000;0.867834
7556.000000;0.868051
7555.000000;0.868236
7554.000000;0.868445
7553.000000;0.868607
7552.000000;0.868674
7551.000000;0.868721
7550.000000;0.868870
7549.000000;0.869153
7548.000000;0.869494
7547.000000;0.869793
7546.000000;0.870015
7545.000000;0.870231
7544.000000;0.870552
7543.000000;0.871008
7542.000000;0.871527
7541.000000;0.872051
7540.000000;0.872635
7539.000000;0.873342
7538.000000;0.874057
7537.000000;0.874511
7536.000000;0.874553
7535.000000;0.874340
7534.000000;0.874202
7533.000000;0.874362
7532.000000;0.874815
7531.000000;0.875425
7530.000000;0.876044
7529.000000;0.876558
7528.000000;0.876913
7527.000000;0.877167
7526.000000;0.877441
7525.000000;0.877793
7524.000000;0.878141
7523.000000;0.878370
7522.000000;0.878483
7521.000000;0.878621
7520.000000;0.878937
7519.000000;0.879467
7518.000000;0.880125
7517.000000;0.880771
7516.000000;0.881277
7515.000000;0.881585
7514.000000;0.881735
7513.000000;0.881832
7512.000000;0.881961
7511.000000;0.882149
7510.000000;0.882393
7509.000000;0.882697
7508.000000;0.883035
7507.000000;0.883319
7506.000000;0.883474
7505.000000;0.883577
7504.000000;0.883832
7503.000000;0.884360
7502.000000;0.884999
7501.000000;0.885418
7500.000000;0.885466
7499.000000;0.885357
7498.000000;0.885476
7497.000000;0.886025
7496.000000;0.886874
7495.000000;0.887743
7494.000000;0.888431
7493.000000;0.888905
7492.000000;0.889237
7491.000000;0.889526
7490.000000;0.889823
7489.000000;0.890152
7488.000000;0.890438
7487.000000;0.890651
7486.000000;0.890858
7485.000000;0.891165
7484.000000;0.891628
7483.000000;0.892222
7482.000000;0.892854
7481.000000;0.893403
7480.000000;0.893791
7479.000000;0.894062
7478.000000;0.894354
7477.000000;0.894739
7476.000000;0.895116
7475.000000;0.895332
7474.000000;0.895378
7473.000000;0.895402
7472.000000;0.895533
7471.000000;0.895772
7470.000000;0.896067
7469.000000;0.896409
7468.000000;0.896824
7467.000000;0.897329
7466.000000;0.897915
7465.000000;0.898536
7464.000000;0.899072
7463.000000;0.899407
7462.000000;0.899579
7461.000000;0.899807
7460.000000;0.900280
7459.000000;0.900945
7458.000000;0.901561
7457.000000;0.901958
7456.000000;0.902178
7455.000000;0.902373
7454.000000;0.902642
7453.000000;0.903007
7452.000000;0.903460
7451.000000;0.903950
7450.000000;0.904344
7449.000000;0.904519
7448.000000;0.904518
7447.000000;0.904571
7446.000000;0.904891
7445.000000;0.905448
7444.000000;0.906007
7443.000000;0.906364
7442.000000;0.906529
7441.000000;0.906660
7440.000000;0.906897
7439.000000;0.907268
7438.000000;0.907700
7437.000000;0.908087
7436.000000;0.908378
7435.000000;0.908658
7434.000000;0.909085
7433.000000;0.909690
7432.000000;0.910279
7431.000000;0.910629
7430.000000;0.910753
7429.000000;0.910897
7428.000000;0.911255
7427.000000;0.911763
7426.000000;0.912204
7425.000000;0.912419
7424.000000;0.912417
7423.000000;0.912342
7422.000000;0.912411
7421.000000;0.912799
7420.000000;0.913519
7419.000000;0.914379
7418.000000;0.915107
7417.000000;0.915536
7416.000000;0.915681
7415.000000;0.915708
7414.000000;0.915816
7413.000000;0.916089
7412.000000;0.916432
7411.000000;0.916676
7410.000000;0.916781
7409.000000;0.916885
7408.000000;0.917132
7407.000000;0.917516
7406.000000;0.917910
7405.000000;0.918231
7404.000000;0.918514
7403.000000;0.918834
7402.000000;0.919200
7401.000000;0.919532
7400.000000;0.919737
7399.000000;0.919800
7398.000000;0.919830
7397.000000;0.919988
7396.000000;0.920379
7395.000000;0.921016
7394.000000;0.921820
7393.000000;0.922606
7392.000000;0.923119
7391.000000;0.923226
7390.000000;0.923090
7389.000000;0.923042
7388.000000;0.923231
7387.000000;0.923515
7386.000000;0.923713
7385.000000;0.923852
7384.000000;0.924067
7383.000000;0.924411
7382.000000;0.924878
7381.000000;0.925500
7380.000000;0.926221
7379.000000;0.926770
7378.000000;0.926856
7377.000000;0.926538
7376.000000;0.926226
7375.000000;0.926293
7374.000000;0.926764
7373.000000;0.927402
7372.000000;0.927996
7371.000000;0.928461
7370.000000;0.928798
7369.000000;0.929058
7368.000000;0.929357
7367.000000;0.929819
7366.000000;0.930472
7365.000000;0.931197
7364.000000;0.931765
7363.000000;0.931987
7362.000000;0.931912
7361.000000;0.931847
7360.000000;0.932080
7359.000000;0.932599
7358.000000;0.933161
7357.000000;0.933627
7356.000000;0.934055
7355.000000;0.934483
7354.000000;0.934800
7353.000000;0.934933
7352.000000;0.934988
7351.000000;0.935106
7350.000000;0.935294
7349.000000;0.935512
7348.000000;0.935830
7347.000000;0.936304
7346.000000;0.936791
7345.000000;0.937056
7344.000000;0.937053
7343.000000;0.936949
7342.000000;0.936913
7341.000000;0.937021
7340.000000;0.937343
7339.000000;0.937941
7338.000000;0.938731
7337.000000;0.939487
7336.000000;0.940081
7335.000000;0.940592
7334.000000;0.941161
7333.000000;0.941813
7332.000000;0.942431
7331.000000;0.942867
7330.000000;0.943082
7329.000000;0.943229
7328.000000;0.943567
7327.000000;0.944183
7326.000000;0.944844
7325.000000;0.945271
7324.000000;0.945504
7323.000000;0.945822
7322.000000;0.946363
7321.000000;0.947020
7320.000000;0.947722
7319.000000;0.948574
7318.000000;0.949610
7317.000000;0.950603
7316.000000;0.951286
7315.000000;0.951624
7314.000000;0.951760
7313.000000;0.951821
7312.000000;0.951885
7311.000000;0.952029
7310.000000;0.952259
7309.000000;0.952486
7308.000000;0.952700
7307.000000;0.953060
7306.000000;0.953698
7305.000000;0.954499
7304.000000;0.955264
7303.000000;0.955983
7302.000000;0.956776
7301.000000;0.957646
7300.000000;0.958525
7299.000000;0.959472
7298.000000;0.960580
7297.000000;0.961685
7296.000000;0.962445
7295.000000;0.962768
7294.000000;0.962934
7293.000000;0.963254
7292.000000;0.963765
7291.000000;0.964362
7290.000000;0.965025
7289.000000;0.965764
7288.000000;0.966507
7287.000000;0.967215
7286.000000;0.968021
7285.000000;0.969065
7284.000000;0.970246
7283.000000;0.971294
7282.000000;0.972057
7281.000000;0.972629
7280.000000;0.973186
7279.000000;0.973797
7278.000000;0.974404
7277.000000;0.974930
7276.000000;0.975391
7275.000000;0.975937
7274.000000;0.976748
7273.000000;0.977869
7272.000000;0.979129
7271.000000;0.980288
7270.000000;0.981244
7269.000000;0.982094
7268.000000;0.983003
7267.000000;0.984071
7266.000000;0.985260
7265.000000;0.986439
7264.000000;0.987504
7263.000000;0.988489
7262.000000;0.989533
7261.000000;0.990700
7260.000000;0.991897
7259.000000;0.992985
7258.000000;0.993954
7257.000000;0.994916
7256.000000;0.995969
7255.000000;0.997144
7254.000000;0.998470
7253.000000;0.999974
7252.000000;1.001581
7251.000000;1.003100
7250.000000;1.004372
7249.000000;1.005426
7248.000000;1.006466
7247.000000;1.007677
7246.000000;1.009046
7245.000000;1.010391
7244.000000;1.011567
7243.000000;1.012641
7242.000000;1.013865
7241.000000;1.015426
7240.000000;1.017262
7239.000000;1.019150
7238.000000;1.020922
7237.000000;1.022557
7236.000000;1.024126
7235.000000;1.025683
7234.000000;1.027229
7233.000000;1.028745
7232.000000;1.030263
7231.000000;1.031881
7230.000000;1.033664
7229.000000;1.035525
7228.000000;1.037283
7227.000000;1.038860
7226.000000;1.040431
7225.000000;1.042321
7224.000000;1.044702
7223.000000;1.047425
7222.000000;1.050174
7221.000000;1.052725
7220.000000;1.055029
7219.000000;1.057119
7218.000000;1.059016
7217.000000;1.060805
7216.000000;1.062702
7215.000000;1.064907
7214.000000;1.067389
7213.000000;1.069942
7212.000000;1.072461
7211.000000;1.075056
7210.000000;1.077811
7209.000000;1.080570
7208.000000;1.083107
7207.000000;1.085444
7206.000000;1.087852
7205.000000;1.090521
7204.000000;1.093370
7203.000000;1.096213
7202.000000;1.099000
7201.000000;1.101810
7200.000000;1.104686
7199.000000;1.107590
7198.000000;1.110503
7197.000000;1.113494
7196.000000;1.116652
7195.000000;1.119990
7194.000000;1.123404
7193.000000;1.126758
7192.000000;1.130010
7191.000000;1.133249
7190.000000;1.136567
7189.000000;1.139953
7188.000000;1.143359
7187.000000;1.146834
7186.000000;1.150457
7185.000000;1.154119
7184.000000;1.157509
7183.000000;1.160449
7182.000000;1.163178
7181.000000;1.166205
7180.000000;1.169850
7179.000000;1.173974
7178.000000;1.178134
7177.000000;1.181958
7176.000000;1.185410
7175.000000;1.188810
7174.000000;1.192574
7173.000000;1.196863
7172.000000;1.201467
7171.000000;1.206044
7170.000000;1.210390
7169.000000;1.214447
7168.000000;1.218215
7167.000000;1.221804
7166.000000;1.225416
7165.000000;1.229095
7164.000000;1.232625
7163.000000;1.235902
7162.000000;1.239286
7161.000000;1.243316
7160.000000;1.248044
7159.000000;1.252922
7158.000000;1.257391
7157.000000;1.261363
7156.000000;1.265089
7155.000000;1.268897
7154.000000;1.273150
7153.000000;1.278123
7152.000000;1.283648
7151.000000;1.289062
7150.000000;1.293736
7149.000000;1.297609
7148.000000;1.301068
7147.000000;1.304525
7146.000000;1.308254
7145.000000;1.312418
7144.000000;1.316974
7143.000000;1.321619
7142.000000;1.326060
7141.000000;1.330299
7140.000000;1.334495
7139.000000;1.338722
7138.000000;1.343029
7137.000000;1.347568
7136.000000;1.352392
7135.000000;1.357216
7134.000000;1.361635
7133.000000;1.365594
7132.000000;1.369470
7131.000000;1.373687
7130.000000;1.378408
7129.000000;1.383523
7128.000000;1.388742
7127.000000;1.393726
7126.000000;1.398283
7125.000000;1.402468
7124.000000;1.406397
7123.000000;1.410100
7122.000000;1.413695
7121.000000;1.417543
7120.000000;1.421927
7119.000000;1.426688
7118.000000;1.431455
7117.000000;1.436167
7116.000000;1.441023
7115.000000;1.445931
7114.000000;1.450402
7113.000000;1.454123
7112.000000;1.457346
7111.000000;1.460596
7110.000000;1.464211
7109.000000;1.468228
7108.000000;1.472435
7107.000000;1.476435
7106.000000;1.479954
7105.000000;1.483188
7104.000000;1.486644
7103.000000;1.490602
7102.000000;1.494944
7101.000000;1.499503
7100.000000;1.504220
7099.000000;1.508874
7098.000000;1.513063
7097.000000;1.516693
7096.000000;1.520194
7095.000000;1.523970
7094.000000;1.527892
7093.000000;1.531577
7092.000000;1.534903
7091.000000;1.537978
7090.000000;1.540827
7089.000000;1.543485
7088.000000;1.546274
7087.000000;1.549633
7086.000000;1.553656
7085.000000;1.557997
7084.000000;1.562244
7083.000000;1.566190
7082.000000;1.569763
7081.000000;1.572904
7080.000000;1.575608
7079.000000;1.578016
7078.000000;1.580432
7077.000000;1.583213
7076.000000;1.586499
7075.000000;1.590049
7074.000000;1.593474
7073.000000;1.596654
7072.000000;1.599746
7071.000000;1.602784
7070.000000;1.605605
7069.000000;1.608281
7068.000000;1.611198
7067.000000;1.614426
7066.000000;1.617354
7065.000000;1.619349
7064.000000;1.620628
7063.000000;1.622104
7062.000000;1.624448
7061.000000;1.627580
7060.000000;1.630979
7059.000000;1.634191
7058.000000;1.637091
7057.000000;1.639863
7056.000000;1.642734
7055.000000;1.645541
7054.000000;1.647741
7053.000000;1.649100
7052.000000;1.650201
7051.000000;1.651927
7050.000000;1.654524
7049.000000;1.657467
7048.000000;1.660127
7047.000000;1.662279
7046.000000;1.664055
7045.000000;1.665791
7044.000000;1.667888
7043.000000;1.670472
7042.000000;1.673150
7041.000000;1.675397
7040.000000;1.677193
7039.000000;1.678920
7038.000000;1.680694
7037.000000;1.682244
7036.000000;1.683493
7035.000000;1.684771
7034.000000;1.686255
7033.000000;1.687676
7032.000000;1.688855
7031.000000;1.690207
7030.000000;1.692288
7029.000000;1.695030
7028.000000;1.697743
7027.000000;1.699832
7026.000000;1.701265
7025.000000;1.702389
7024.000000;1.703552
7023.000000;1.704939
7022.000000;1.706588
7021.000000;1.708447
7020.000000;1.710336
7019.000000;1.711864
7018.000000;1.712611
7017.000000;1.712650
7016.000000;1.712816
7015.000000;1.714067
7014.000000;1.716501
7013.000000;1.719244
7012.000000;1.721416
7011.000000;1.722898
7010.000000;1.723966
7009.000000;1.724692
7008.000000;1.725130
7007.000000;1.725763
7006.000000;1.727123
7005.000000;1.729014
7004.000000;1.730604
7003.000000;1.731381
7002.000000;1.731644
7001.000000;1.732019
7000.000000;1.732940
6999.000000;1.734610
6998.000000;1.736914
6997.000000;1.739104
6996.000000;1.740125
6995.000000;1.739698
6994.000000;1.738786
6993.000000;1.738624
6992.000000;1.739550
6991.000000;1.741037
6990.000000;1.742545
6989.000000;1.743890
6988.000000;1.744955
6987.000000;1.745625
6986.000000;1.746068
6985.000000;1.746593
6984.000000;1.747121
6983.000000;1.747213
6982.000000;1.746818
6981.000000;1.746516
6980.000000;1.746776
6979.000000;1.747359
6978.000000;1.747811
6977.000000;1.748241
6976.000000;1.749114
6975.000000;1.750388
6974.000000;1.751367
6973.000000;1.751542
6972.000000;1.751196
6971.000000;1.750937
6970.000000;1.750921
6969.000000;1.750877
6968.000000;1.750830
6967.000000;1.751403
6966.000000;1.753139
6965.000000;1.755660
6964.000000;1.757776
6963.000000;1.758582
6962.000000;1.758303
6961.000000;1.757829
6960.000000;1.757581
6959.000000;1.757180
6958.000000;1.756240
6957.000000;1.755141
6956.000000;1.754744
6955.000000;1.755494
6954.000000;1.757022
6953.000000;1.758551
6952.000000;1.759496
6951.000000;1.759755
6950.000000;1.759641
6949.000000;1.759597
6948.000000;1.759874
6947.000000;1.760440
6946.000000;1.761191
6945.000000;1.762098
6944.000000;1.763063
6943.000000;1.763753
6942.000000;1.763781
6941.000000;1.763107
6940.000000;1.762187
6939.000000;1.761686
6938.000000;1.761998
6937.000000;1.762866
6936.000000;1.763421
6935.000000;1.762852
6934.000000;1.761220
6933.000000;1.759436
6932.000000;1.758293
6931.000000;1.757746
6930.000000;1.757360
6929.000000;1.757174
6928.000000;1.757598
6927.000000;1.758528
6926.000000;1.759153
6925.000000;1.758929
6924.000000;1.758358
6923.000000;1.758420
6922.000000;1.759424
6921.000000;1.760709
6920.000000;1.761394
6919.000000;1.761117
6918.000000;1.760069
6917.000000;1.758644
6916.000000;1.757269
6915.000000;1.756362
6914.000000;1.756132
6913.000000;1.756381
6912.000000;1.756714
6911.000000;1.757040
6910.000000;1.757703
6909.000000;1.758940
6908.000000;1.760340
6907.000000;1.761143
6906.000000;1.761085
6905.000000;1.760639
6904.000000;1.760358
6903.000000;1.760288
6902.000000;1.760161
6901.000000;1.759839
6900.000000;1.759337
6899.000000;1.758689
6898.000000;1.758075
6897.000000;1.757867
6896.000000;1.758213
6895.000000;1.758739
6894.000000;1.759008
6893.000000;1.759100
6892.000000;1.759312
6891.000000;1.759418
6890.000000;1.758772
6889.000000;1.757248
6888.000000;1.755617
6887.000000;1.754768
6886.000000;1.754816
6885.000000;1.755093
6884.000000;1.754836
6883.000000;1.753825
6882.000000;1.752558
6881.000000;1.751877
6880.000000;1.752261
6879.000000;1.753432
6878.000000;1.754727
6877.000000;1.755753
6876.000000;1.756478
6875.000000;1.756878
6874.000000;1.756912
6873.000000;1.756789
6872.000000;1.756812
6871.000000;1.756911
6870.000000;1.756708
6869.000000;1.756126
6868.000000;1.755488
6867.000000;1.754943
6866.000000;1.754271
6865.000000;1.753446
6864.000000;1.752889
6863.000000;1.752877
6862.000000;1.753091
6861.000000;1.753026
6860.000000;1.752519
6859.000000;1.751597
6858.000000;1.750255
6857.000000;1.748802
6856.000000;1.748027
6855.000000;1.748472
6854.000000;1.749682
6853.000000;1.750604
6852.000000;1.750672
6851.000000;1.750138
6850.000000;1.749462
6849.000000;1.748847
6848.000000;1.748331
6847.000000;1.747970
6846.000000;1.747817
6845.000000;1.747923
6844.000000;1.748262
6843.000000;1.748475
6842.000000;1.747928
6841.000000;1.746387
6840.000000;1.744518
6839.000000;1.743271
6838.000000;1.742787
6837.000000;1.742323
6836.000000;1.741266
6835.000000;1.739853
6834.000000;1.738741
6833.000000;1.738215
6832.000000;1.738021
6831.000000;1.737753
6830.000000;1.737179
6829.000000;1.736339
6828.000000;1.735488
6827.000000;1.734900
6826.000000;1.734614
6825.000000;1.734393
6824.000000;1.733929
6823.000000;1.733041
6822.000000;1.731723
6821.000000;1.730172
6820.000000;1.728702
6819.000000;1.727471
6818.000000;1.726276
6817.000000;1.724817
6816.000000;1.723169
6815.000000;1.721768
6814.000000;1.720836
6813.000000;1.720057
6812.000000;1.718952
6811.000000;1.717426
6810.000000;1.715807
6809.000000;1.714409
6808.000000;1.713240
6807.000000;1.712091
6806.000000;1.710809
6805.000000;1.709465
6804.000000;1.708292
6803.000000;1.707462
6802.000000;1.706896
6801.000000;1.706308
6800.000000;1.705420
6799.000000;1.704134
6798.000000;1.702555
6797.000000;1.700902
6796.000000;1.699367
6795.000000;1.697992
6794.000000;1.696649
6793.000000;1.695163
6792.000000;1.693458
6791.000000;1.691566
6790.000000;1.689585
6789.000000;1.687664
6788.000000;1.685959
6787.000000;1.684533
6786.000000;1.683315
6785.000000;1.682189
6784.000000;1.681041
6783.000000;1.679677
6782.000000;1.677874
6781.000000;1.675680
6780.000000;1.673534
6779.000000;1.671887
6778.000000;1.670722
6777.000000;1.669591
6776.000000;1.668096
6775.000000;1.666179
6774.000000;1.663970
6773.000000;1.661614
6772.000000;1.659353
6771.000000;1.657571
6770.000000;1.656539
6769.000000;1.656061
6768.000000;1.655438
6767.000000;1.653906
6766.000000;1.651297
6765.000000;1.648324
6764.000000;1.646118
6763.000000;1.645304
6762.000000;1.645483
6761.000000;1.645600
6760.000000;1.644776
6759.000000;1.642786
6758.000000;1.639971
6757.000000;1.636947
6756.000000;1.634332
6755.000000;1.632421
6754.000000;1.631008
6753.000000;1.629672
6752.000000;1.628270
6751.000000;1.626970
6750.000000;1.625806
6749.000000;1.624456
6748.000000;1.622592
6747.000000;1.620266
6746.000000;1.617812
6745.000000;1.615535
6744.000000;1.613587
6743.000000;1.612008
6742.000000;1.610714
6741.000000;1.609522
6740.000000;1.608265
6739.000000;1.606825
6738.000000;1.605044
6737.000000;1.602814
6736.000000;1.600372
6735.000000;1.598269
6734.000000;1.596835
6733.000000;1.595754
6732.000000;1.594369
6731.000000;1.592353
6730.000000;1.589964
6729.000000;1.587705
6728.000000;1.585904
6727.000000;1.584521
6726.000000;1.583200
6725.000000;1.581559
6724.000000;1.579607
6723.000000;1.577768
6722.000000;1.576334
6721.000000;1.574991
6720.000000;1.573152
6719.000000;1.570722
6718.000000;1.568213
6717.000000;1.566103
6716.000000;1.564380
6715.000000;1.562821
6714.000000;1.561386
6713.000000;1.560092
6712.000000;1.558718
6711.000000;1.556956
6710.000000;1.554822
6709.000000;1.552684
6708.000000;1.550848
6707.000000;1.549259
6706.000000;1.547648
6705.000000;1.545858
6704.000000;1.543967
6703.000000;1.542182
6702.000000;1.540642
6701.000000;1.539331
6700.000000;1.538117
6699.000000;1.536886
6698.000000;1.535566
6697.000000;1.534202
6696.000000;1.532748
6695.000000;1.531278
6694.000000;1.529877
6693.000000;1.528416
6692.000000;1.526700
6691.000000;1.524744
6690.000000;1.522903
6689.000000;1.521507
6688.000000;1.520437
6687.000000;1.519199
6686.000000;1.517433
6685.000000;1.515253
6684.000000;1.513044
6683.000000;1.511056
6682.000000;1.509235
6681.000000;1.507371
6680.000000;1.505347
6679.000000;1.503236
6678.000000;1.501208
6677.000000;1.499364
6676.000000;1.497703
6675.000000;1.496237
6674.000000;1.495024
6673.000000;1.494031
6672.000000;1.493021
6671.000000;1.491723
6670.000000;1.490087
6669.000000;1.488301
6668.000000;1.486553
6667.000000;1.484902
6666.000000;1.483366
6665.000000;1.481978
6664.000000;1.480710
6663.000000;1.479425
6662.000000;1.478015
6661.000000;1.476490
6660.000000;1.474891
6659.000000;1.473204
6658.000000;1.471473
6657.000000;1.469894
6656.000000;1.468658
6655.000000;1.467663
6654.000000;1.466509
6653.000000;1.464836
6652.000000;1.462656
6651.000000;1.460314
6650.000000;1.458188
6649.000000;1.456419
6648.000000;1.454908
6647.000000;1.453497
6646.000000;1.452132
6645.000000;1.450865
6644.000000;1.449738
6643.000000;1.448711
6642.000000;1.447692
6641.000000;1.446591
6640.000000;1.445335
6639.000000;1.443868
6638.000000;1.442182
6637.000000;1.440342
6636.000000;1.438444
6635.000000;1.436580
6634.000000;1.434822
6633.000000;1.433219
6632.000000;1.431765
6631.000000;1.430408
6630.000000;1.429119
6629.000000;1.427924
6628.000000;1.426835
6627.000000;1.425761
6626.000000;1.424551
6625.000000;1.423126
6624.000000;1.421516
6623.000000;1.419809
6622.000000;1.418118
6621.000000;1.416604
6620.000000;1.415445
6619.000000;1.414671
6618.000000;1.414062
6617.000000;1.413278
6616.000000;1.412123
6615.000000;1.410675
6614.000000;1.409145
6613.000000;1.407651
6612.000000;1.406166
6611.000000;1.404634
6610.000000;1.403082
6609.000000;1.401599
6608.000000;1.400242
6607.000000;1.399014
6606.000000;1.397873
6605.000000;1.396729
6604.000000;1.395438
6603.000000;1.393882
6602.000000;1.392085
6601.000000;1.390237
6600.000000;1.388570
6599.000000;1.387206
6598.000000;1.386122
6597.000000;1.385182
6596.000000;1.384227
6595.000000;1.383145
6594.000000;1.381953
6593.000000;1.380757
6592.000000;1.379634
6591.000000;1.378539
6590.000000;1.377374
6589.000000;1.376123
6588.000000;1.374864
6587.000000;1.373646
6586.000000;1.372427
6585.000000;1.371147
6584.000000;1.369834
6583.000000;1.368568
6582.000000;1.367355
6581.000000;1.366122
6580.000000;1.364831
6579.000000;1.363559
6578.000000;1.362415
6577.000000;1.361404
6576.000000;1.360421
6575.000000;1.359370
6574.000000;1.358253
6573.000000;1.357137
6572.000000;1.356082
6571.000000;1.355108
6570.000000;1.354183
6569.000000;1.353226
6568.000000;1.352153
6567.000000;1.350951
6566.000000;1.349687
6565.000000;1.348426
6564.000000;1.347192
6563.000000;1.346021
6562.000000;1.344989
6561.000000;1.344109
6560.000000;1.343245
6559.000000;1.342206
6558.000000;1.340953
6557.000000;1.339636
6556.000000;1.338424
6555.000000;1.337341
6554.000000;1.336306
6553.000000;1.335251
6552.000000;1.334165
6551.000000;1.333066
6550.000000;1.331974
6549.000000;1.330912
6548.000000;1.329887
6547.000000;1.328905
6546.000000;1.328009
6545.000000;1.327254
6544.000000;1.326605
6543.000000;1.325868
6542.000000;1.324785
6541.000000;1.323259
6540.000000;1.321488
6539.000000;1.319871
6538.000000;1.318726
6537.000000;1.318035
6536.000000;1.317457
6535.000000;1.316628
6534.000000;1.315490
6533.000000;1.314304
6532.000000;1.313339
6531.000000;1.312615
6530.000000;1.311941
6529.000000;1.311157
6528.000000;1.310262
6527.000000;1.309349
6526.000000;1.308498
6525.000000;1.307730
6524.000000;1.306999
6523.000000;1.306190
6522.000000;1.305177
6521.000000;1.303931
6520.000000;1.302566
6519.000000;1.301267
6518.000000;1.300177
6517.000000;1.299339
6516.000000;1.298702
6515.000000;1.298153
6514.000000;1.297545
6513.000000;1.296741
6512.000000;1.295676
6511.000000;1.294418
6510.000000;1.293147
6509.000000;1.292050
6508.000000;1.291182
6507.000000;1.290423
6506.000000;1.289615
6505.000000;1.288724
6504.000000;1.287860
6503.000000;1.287122
6502.000000;1.286476
6501.000000;1.285802
6500.000000;1.285038
6499.000000;1.284196
6498.000000;1.283258
6497.000000;1.282167
6496.000000;1.280960
6495.000000;1.279844
6494.000000;1.279024
6493.000000;1.278475
6492.000000;1.277941
6491.000000;1.277199
6490.000000;1.276252
6489.000000;1.275264
6488.000000;1.274378
6487.000000;1.273631
6486.000000;1.272978
6485.000000;1.272329
6484.000000;1.271612
6483.000000;1.270839
6482.000000;1.270099
6481.000000;1.269433
6480.000000;1.268768
6479.000000;1.268016
6478.000000;1.267199
6477.000000;1.266391
6476.000000;1.265586
6475.000000;1.264726
6474.000000;1.263839
6473.000000;1.263041
6472.000000;1.262380
6471.000000;1.261760
6470.000000;1.261055
6469.000000;1.260253
6468.000000;1.259453
6467.000000;1.258767
6466.000000;1.258223
6465.000000;1.257709
6464.000000;1.257022
6463.000000;1.256051
6462.000000;1.254925
6461.000000;1.253911
6460.000000;1.253144
6459.000000;1.252531
6458.000000;1.251936
6457.000000;1.251351
6456.000000;1.250821
6455.000000;1.250299
6454.000000;1.249678
6453.000000;1.248915
6452.000000;1.248042
6451.000000;1.247091
6450.000000;1.246096
6449.000000;1.245164
6448.000000;1.244447
6447.000000;1.243988
6446.000000;1.243648
6445.000000;1.243191
6444.000000;1.242454
6443.000000;1.241479
6442.000000;1.240482
6441.000000;1.239689
6440.000000;1.239156
6439.000000;1.238762
6438.000000;1.238370
6437.000000;1.237926
6436.000000;1.237399
6435.000000;1.236707
6434.000000;1.235809
6433.000000;1.234808
6432.000000;1.233888
6431.000000;1.233139
6430.000000;1.232528
6429.000000;1.232005
6428.000000;1.231533
6427.000000;1.231031
6426.000000;1.230406
6425.000000;1.229681
6424.000000;1.228997
6423.000000;1.228438
6422.000000;1.227907
6421.000000;1.227253
6420.000000;1.226455
6419.000000;1.225644
6418.000000;1.224945
6417.000000;1.224366
6416.000000;1.223829
6415.000000;1.223256
6414.000000;1.222644
6413.000000;1.222054
6412.000000;1.221542
6411.000000;1.221075
6410.000000;1.220544
6409.000000;1.219882
6408.000000;1.219164
6407.000000;1.218552
6406.000000;1.218133
6405.000000;1.217834
6404.000000;1.217496
6403.000000;1.217019
6402.000000;1.216427
6401.000000;1.215803
6400.000000;1.215194
6399.000000;1.214577
6398.000000;1.213905
6397.000000;1.213175
6396.000000;1.212432
6395.000000;1.211733
6394.000000;1.211095
6393.000000;1.210477
6392.000000;1.209817
6391.000000;1.209097
6390.000000;1.208381
6389.000000;1.207754
6388.000000;1.207232
6387.000000;1.206759
6386.000000;1.206285
6385.000000;1.205805
6384.000000;1.205320
6383.000000;1.204795
6382.000000;1.204216
6381.000000;1.203652
6380.000000;1.203192
6379.000000;1.202834
6378.000000;1.202470
6377.000000;1.202003
6376.000000;1.201426
6375.000000;1.200784
6374.000000;1.200103
6373.000000;1.199396
6372.000000;1.198711
6371.000000;1.198115
6370.000000;1.197646
6369.000000;1.197286
6368.000000;1.196957
6367.000000;1.196555
6366.000000;1.196004
6365.000000;1.195349
6364.000000;1.194745
6363.000000;1.194319
6362.000000;1.194011
6361.000000;1.193619
6360.000000;1.193012
6359.000000;1.192267
6358.000000;1.191567
6357.000000;1.191014
6356.000000;1.190577
6355.000000;1.190178
6354.000000;1.189771
6353.000000;1.189324
6352.000000;1.188813
6351.000000;1.188266
6350.000000;1.187753
6349.000000;1.187294
6348.000000;1.186806
6347.000000;1.186192
6346.000000;1.185483
6345.000000;1.184833
6344.000000;1.184379
6343.000000;1.184129
6342.000000;1.183972
6341.000000;1.183768
6340.000000;1.183433
6339.000000;1.182978
6338.000000;1.182482
6337.000000;1.182011
6336.000000;1.181556
6335.000000;1.181051
6334.000000;1.180457
6333.000000;1.179811
6332.000000;1.179191
6331.000000;1.178656
6330.000000;1.178198
6329.000000;1.177730
6328.000000;1.177165
6327.000000;1.176523
6326.000000;1.175960
6325.000000;1.175609
6324.000000;1.175410
6323.000000;1.175151
6322.000000;1.174704
6321.000000;1.174163
6320.000000;1.173723
6319.000000;1.173459
6318.000000;1.173262
6317.000000;1.172960
6316.000000;1.172475
6315.000000;1.171868
6314.000000;1.171283
6313.000000;1.170840
6312.000000;1.170557
6311.000000;1.170372
6310.000000;1.170210
6309.000000;1.170001
6308.000000;1.169679
6307.000000;1.169218
6306.000000;1.168708
6305.000000;1.168310
6304.000000;1.168077
6303.000000;1.167870
6302.000000;1.167497
6301.000000;1.166918
6300.000000;1.166268
6299.000000;1.165705
6298.000000;1.165296
6297.000000;1.165018
6296.000000;1.164807
6295.000000;1.164589
6294.000000;1.164305
6293.000000;1.163949
6292.000000;1.163552
6291.000000;1.163138
6290.000000;1.162712
6289.000000;1.162277
6288.000000;1.161843
6287.000000;1.161431
6286.000000;1.161062
6285.000000;1.160748
6284.000000;1.160459
6283.000000;1.160127
6282.000000;1.159708
6281.000000;1.159236
6280.000000;1.158790
6279.000000;1.158405
6278.000000;1.158055
6277.000000;1.157709
6276.000000;1.157378
6275.000000;1.157100
6274.000000;1.156906
6273.000000;1.156791
6272.000000;1.156699
6271.000000;1.156541
6270.000000;1.156247
6269.000000;1.155814
6268.000000;1.155300
6267.000000;1.154789
6266.000000;1.154361
6265.000000;1.154073
6264.000000;1.153905
6263.000000;1.153739
6262.000000;1.153450
6261.000000;1.153023
6260.000000;1.152556
6259.000000;1.152145
6258.000000;1.151791
6257.000000;1.151438
6256.000000;1.151074
6255.000000;1.150748
6254.000000;1.150503
6253.000000;1.150310
6252.000000;1.150093
6251.000000;1.149808
6250.000000;1.149503
6249.000000;1.149277
6248.000000;1.149176
6247.000000;1.149132
6246.000000;1.149021
6245.000000;1.148778
6244.000000;1.148442
6243.000000;1.148093
6242.000000;1.147771
6241.000000;1.147442
6240.000000;1.147047
6239.000000;1.146577
6238.000000;1.146120
6237.000000;1.145802
6236.000000;1.145654
6235.000000;1.145553
6234.000000;1.145339
6233.000000;1.144987
6232.000000;1.144621
6231.000000;1.144353
6230.000000;1.144155
6229.000000;1.143924
6228.000000;1.143606
6227.000000;1.143234
6226.000000;1.142856
6225.000000;1.142515
6224.000000;1.142261
6223.000000;1.142135
6222.000000;1.142098
6221.000000;1.142034
6220.000000;1.141860
6219.000000;1.141599
6218.000000;1.141324
6217.000000;1.141047
6216.000000;1.140733
6215.000000;1.140408
6214.000000;1.140169
6213.000000;1.140055
6212.000000;1.139961
6211.000000;1.139724
6210.000000;1.139303
6209.000000;1.138811
6208.000000;1.138394
6207.000000;1.138125
6206.000000;1.137994
6205.000000;1.137939
6204.000000;1.137863
6203.000000;1.137682
6202.000000;1.137398
6201.000000;1.137102
6200.000000;1.136875
6199.000000;1.136704
6198.000000;1.136515
6197.000000;1.136269
6196.000000;1.136003
6195.000000;1.135772
6194.000000;1.135581
6193.000000;1.135371
6192.000000;1.135070
6191.000000;1.134668
6190.000000;1.134252
6189.000000;1.133948
6188.000000;1.133818
6187.000000;1.133835
6186.000000;1.133930
6185.000000;1.134013
6184.000000;1.133960
6183.000000;1.133674
6182.000000;1.133214
6181.000000;1.132802
6180.000000;1.132635
6179.000000;1.132695
6178.000000;1.132796
6177.000000;1.132795
6176.000000;1.132685
6175.000000;1.132506
6174.000000;1.132261
6173.000000;1.131938
6172.000000;1.131564
6171.000000;1.131195
6170.000000;1.130887
6169.000000;1.130680
6168.000000;1.130596
6167.000000;1.130618
6166.000000;1.130681
6165.000000;1.130701
6164.000000;1.130590
6163.000000;1.130300
6162.000000;1.129868
6161.000000;1.129423
6160.000000;1.129100
6159.000000;1.128934
6158.000000;1.128863
6157.000000;1.128805
6156.000000;1.128710
6155.000000;1.128551
6154.000000;1.128316
6153.000000;1.128034
6152.000000;1.127759
6151.000000;1.127505
6150.000000;1.127243
6149.000000;1.126970
6148.000000;1.126743
6147.000000;1.126618
6146.000000;1.126597
6145.000000;1.126641
6144.000000;1.126703
6143.000000;1.126724
6142.000000;1.126637
6141.000000;1.126421
6140.000000;1.126135
6139.000000;1.125869
6138.000000;1.125680
6137.000000;1.125575
6136.000000;1.125529
6135.000000;1.125496
6134.000000;1.125433
6133.000000;1.125333
6132.000000;1.125214
6131.000000;1.125072
6130.000000;1.124876
6129.000000;1.124641
6128.000000;1.124463
6127.000000;1.124429
6126.000000;1.124504
6125.000000;1.124558
6124.000000;1.124487
6123.000000;1.124289
6122.000000;1.124026
6121.000000;1.123754
6120.000000;1.123492
6119.000000;1.123238
6118.000000;1.123005
6117.000000;1.122834
6116.000000;1.122743
6115.000000;1.122661
6114.000000;1.122465
6113.000000;1.122125
6112.000000;1.121773
6111.000000;1.121570
6110.000000;1.121540
6109.000000;1.121560
6108.000000;1.121518
6107.000000;1.121404
6106.000000;1.121276
6105.000000;1.121200
6104.000000;1.121232
6103.000000;1.121383
6102.000000;1.121571
6101.000000;1.121668
6100.000000;1.121622
6099.000000;1.121512
6098.000000;1.121431
6097.000000;1.121381
6096.000000;1.121302
6095.000000;1.121166
6094.000000;1.120998
6093.000000;1.120829
6092.000000;1.120675
6091.000000;1.120559
6090.000000;1.120478
6089.000000;1.120373
6088.000000;1.120164
6087.000000;1.119855
6086.000000;1.119546
6085.000000;1.119336
6084.000000;1.119248
6083.000000;1.119249
6082.000000;1.119319
6081.000000;1.119437
6080.000000;1.119527
6079.000000;1.119484
6078.000000;1.119279
6077.000000;1.119013
6076.000000;1.118840
6075.000000;1.118819
6074.000000;1.118871
6073.000000;1.118871
6072.000000;1.118770
6071.000000;1.118631
6070.000000;1.118561
6069.000000;1.118620
6068.000000;1.118770
6067.000000;1.118894
6066.000000;1.118873
6065.000000;1.118681
6064.000000;1.118416
6063.000000;1.118241
6062.000000;1.118260
6061.000000;1.118445
6060.000000;1.118651
6059.000000;1.118717
6058.000000;1.118577
6057.000000;1.118323
6056.000000;1.118132
6055.000000;1.118101
6054.000000;1.118158
6053.000000;1.118152
6052.000000;1.118023
6051.000000;1.117856
6050.000000;1.117760
6049.000000;1.117774
6048.000000;1.117884
6047.000000;1.118058
6046.000000;1.118230
6045.000000;1.118292
6044.000000;1.118176
6043.000000;1.117938
6042.000000;1.117713
6041.000000;1.117599
6040.000000;1.117611
6039.000000;1.117710
6038.000000;1.117835
6037.000000;1.117922
6036.000000;1.117938
6035.000000;1.117905
6034.000000;1.117854
6033.000000;1.117775
6032.000000;1.117662
6031.000000;1.117571
6030.000000;1.117566
6029.000000;1.117625
6028.000000;1.117645
6027.000000;1.117573
6026.000000;1.117473
6025.000000;1.117454
6024.000000;1.117568
6023.000000;1.117785
6022.000000;1.118014
6021.000000;1.118153
6020.000000;1.118155
6019.000000;1.118072
6018.000000;1.117996
6017.000000;1.117969
6016.000000;1.117987
6015.000000;1.118079
6014.000000;1.118282
6013.000000;1.118521
6012.000000;1.118624
6011.000000;1.118519
6010.000000;1.118343
6009.000000;1.118297
6008.000000;1.118421
6007.000000;1.118606
6006.000000;1.118761
6005.000000;1.118885
6004.000000;1.119010
6003.000000;1.119138
6002.000000;1.119248
6001.000000;1.119305
6000.000000;1.119261
5999.000000;1.119130
5998.000000;1.119021
5997.000000;1.119063
5996.000000;1.119280
5995.000000;1.119581
5994.000000;1.119873
5993.000000;1.120116
5992.000000;1.120304
5991.000000;1.120440
5990.000000;1.120554
5989.000000;1.120678
5988.000000;1.120798
5987.000000;1.120875
5986.000000;1.120922
5985.000000;1.121004
5984.000000;1.121162
5983.000000;1.121383
5982.000000;1.121653
5981.000000;1.121971
5980.000000;1.122297
5979.000000;1.122559
5978.000000;1.122728
5977.000000;1.122843
5976.000000;1.122942
5975.000000;1.123032
5974.000000;1.123150
5973.000000;1.123370
5972.000000;1.123682
5971.000000;1.123958
5970.000000;1.124095
5969.000000;1.124171
5968.000000;1.124351
5967.000000;1.124688
5966.000000;1.125088
5965.000000;1.125442
5964.000000;1.125729
5963.000000;1.125971
5962.000000;1.126182
5961.000000;1.126394
5960.000000;1.126667
5959.000000;1.127046
5958.000000;1.127501
5957.000000;1.127949
5956.000000;1.128319
5955.000000;1.128596
5954.000000;1.128833
5953.000000;1.129093
5952.000000;1.129388
5951.000000;1.129665
5950.000000;1.129897
5949.000000;1.130133
5948.000000;1.130447
5947.000000;1.130840
5946.000000;1.131256
5945.000000;1.131672
5944.000000;1.132107
5943.000000;1.132542
5942.000000;1.132902
5941.000000;1.133155
5940.000000;1.133372
5939.000000;1.133635
5938.000000;1.133939
5937.000000;1.134225
5936.000000;1.134469
5935.000000;1.134685
5934.000000;1.134879
5933.000000;1.135072
5932.000000;1.135347
5931.000000;1.135787
5930.000000;1.136347
5929.000000;1.136856
5928.000000;1.137174
5927.000000;1.137321
5926.000000;1.137408
5925.000000;1.137514
5924.000000;1.137656
5923.000000;1.137833
5922.000000;1.138046
5921.000000;1.138272
5920.000000;1.138479
5919.000000;1.138673
5918.000000;1.138888
5917.000000;1.139125
5916.000000;1.139324
5915.000000;1.139406
5914.000000;1.139343
5913.000000;1.139198
5912.000000;1.139091
5911.000000;1.139123
5910.000000;1.139290
5909.000000;1.139490
5908.000000;1.139637
5907.000000;1.139756
5906.000000;1.139930
5905.000000;1.140159
5904.000000;1.140329
5903.000000;1.140340
5902.000000;1.140238
5901.000000;1.140168
5900.000000;1.140234
5899.000000;1.140417
5898.000000;1.140630
5897.000000;1.140792
5896.000000;1.140880
5895.000000;1.140920
5894.000000;1.140959
5893.000000;1.141018
5892.000000;1.141068
5891.000000;1.141063
5890.000000;1.140999
5889.000000;1.140943
5888.000000;1.140986
5887.000000;1.141154
5886.000000;1.141357
5885.000000;1.141450
5884.000000;1.141359
5883.000000;1.141158
5882.000000;1.141005
5881.000000;1.141011
5880.000000;1.141171
5879.000000;1.141416
5878.000000;1.141678
5877.000000;1.141907
5876.000000;1.142078
5875.000000;1.142216
5874.000000;1.142364
5873.000000;1.142525
5872.000000;1.142647
5871.000000;1.142731
5870.000000;1.142887
5869.000000;1.143235
5868.000000;1.143736
5867.000000;1.144196
5866.000000;1.144452
5865.000000;1.144528
5864.000000;1.144602
5863.000000;1.144841
5862.000000;1.145279
5861.000000;1.145812
5860.000000;1.146282
5859.000000;1.146604
5858.000000;1.146824
5857.000000;1.147055
5856.000000;1.147379
5855.000000;1.147795
5854.000000;1.148251
5853.000000;1.148705
5852.000000;1.149146
5851.000000;1.149617
5850.000000;1.150179
5849.000000;1.150808
5848.000000;1.151346
5847.000000;1.151634
5846.000000;1.151701
5845.000000;1.151779
5844.000000;1.152074
5843.000000;1.152583
5842.000000;1.153154
5841.000000;1.153686
5840.000000;1.154187
5839.000000;1.154681
5838.000000;1.155144
5837.000000;1.155561
5836.000000;1.155983
5835.000000;1.156487
5834.000000;1.157100
5833.000000;1.157770
5832.000000;1.158397
5831.000000;1.158889
5830.000000;1.159228
5829.000000;1.159495
5828.000000;1.159809
5827.000000;1.160254
5826.000000;1.160833
5825.000000;1.161507
5824.000000;1.162215
5823.000000;1.162879
5822.000000;1.163432
5821.000000;1.163890
5820.000000;1.164364
5819.000000;1.164945
5818.000000;1.165599
5817.000000;1.166198
5816.000000;1.166666
5815.000000;1.167069
5814.000000;1.167523
5813.000000;1.168056
5812.000000;1.168582
5811.000000;1.169003
5810.000000;1.169335
5809.000000;1.169698
5808.000000;1.170214
5807.000000;1.170883
5806.000000;1.171590
5805.000000;1.172215
5804.000000;1.172742
5803.000000;1.173247
5802.000000;1.173794
5801.000000;1.174370
5800.000000;1.174928
5799.000000;1.175465
5798.000000;1.176021
5797.000000;1.176630
5796.000000;1.177291
5795.000000;1.177981
5794.000000;1.178664
5793.000000;1.179286
5792.000000;1.179793
5791.000000;1.180186
5790.000000;1.180531
5789.000000;1.180899
5788.000000;1.181328
5787.000000;1.181838
5786.000000;1.182459
5785.000000;1.183194
5784.000000;1.183983
5783.000000;1.184728
5782.000000;1.185365
5781.000000;1.185903
5780.000000;1.186387
5779.000000;1.186866
5778.000000;1.187379
5777.000000;1.187951
5776.000000;1.188585
5775.000000;1.189252
5774.000000;1.189907
5773.000000;1.190499
5772.000000;1.190992
5771.000000;1.191404
5770.000000;1.191819
5769.000000;1.192349
5768.000000;1.193047
5767.000000;1.193862
5766.000000;1.194663
5765.000000;1.195319
5764.000000;1.195766
5763.000000;1.196050
5762.000000;1.196294
5761.000000;1.196620
5760.000000;1.197078
5759.000000;1.197652
5758.000000;1.198306
5757.000000;1.199008
5756.000000;1.199706
5755.000000;1.200328
5754.000000;1.200820
5753.000000;1.201194
5752.000000;1.201517
5751.000000;1.201868
5750.000000;1.202286
5749.000000;1.202762
5748.000000;1.203272
5747.000000;1.203803
5746.000000;1.204357
5745.000000;1.204918
5744.000000;1.205449
5743.000000;1.205939
5742.000000;1.206445
5741.000000;1.207041
5740.000000;1.207720
5739.000000;1.208377
5738.000000;1.208918
5737.000000;1.209356
5736.000000;1.209783
5735.000000;1.210267
5734.000000;1.210789
5733.000000;1.211272
5732.000000;1.211648
5731.000000;1.211902
5730.000000;1.212082
5729.000000;1.212290
5728.000000;1.212651
5727.000000;1.213247
5726.000000;1.214055
5725.000000;1.214941
5724.000000;1.215752
5723.000000;1.216412
5722.000000;1.216954
5721.000000;1.217441
5720.000000;1.217905
5719.000000;1.218351
5718.000000;1.218794
5717.000000;1.219253
5716.000000;1.219725
5715.000000;1.220205
5714.000000;1.220742
5713.000000;1.221394
5712.000000;1.222129
5711.000000;1.222833
5710.000000;1.223429
5709.000000;1.223955
5708.000000;1.224482
5707.000000;1.224999
5706.000000;1.225448
5705.000000;1.225846
5704.000000;1.226307
5703.000000;1.226907
5702.000000;1.227595
5701.000000;1.228257
5700.000000;1.228824
5699.000000;1.229319
5698.000000;1.229799
5697.000000;1.230303
5696.000000;1.230837
5695.000000;1.231383
5694.000000;1.231937
5693.000000;1.232475
5692.000000;1.233002
5691.000000;1.233496
5690.000000;1.233942
5689.000000;1.234402
5688.000000;1.234944
5687.000000;1.235573
5686.000000;1.236213
5685.000000;1.236798
5684.000000;1.237333
5683.000000;1.237861
5682.000000;1.238400
5681.000000;1.238955
5680.000000;1.239536
5679.000000;1.240118
5678.000000;1.240612
5677.000000;1.240931
5676.000000;1.241130
5675.000000;1.241397
5674.000000;1.241885
5673.000000;1.242560
5672.000000;1.243252
5671.000000;1.243828
5670.000000;1.244291
5669.000000;1.244709
5668.000000;1.245123
5667.000000;1.245522
5666.000000;1.245905
5665.000000;1.246327
5664.000000;1.246857
5663.000000;1.247484
5662.000000;1.248089
5661.000000;1.248538
5660.000000;1.248835
5659.000000;1.249132
5658.000000;1.249584
5657.000000;1.250196
5656.000000;1.250830
5655.000000;1.251348
5654.000000;1.251694
5653.000000;1.251877
5652.000000;1.251951
5651.000000;1.252026
5650.000000;1.252243
5649.000000;1.252659
5648.000000;1.253193
5647.000000;1.253702
5646.000000;1.254129
5645.000000;1.254523
5644.000000;1.254941
5643.000000;1.255370
5642.000000;1.255763
5641.000000;1.256127
5640.000000;1.256528
5639.000000;1.257029
5638.000000;1.257603
5637.000000;1.258143
5636.000000;1.258543
5635.000000;1.258806
5634.000000;1.259042
5633.000000;1.259367
5632.000000;1.259792
5631.000000;1.260244
5630.000000;1.260674
5629.000000;1.261104
5628.000000;1.261568
5627.000000;1.262040
5626.000000;1.262454
5625.000000;1.262771
5624.000000;1.263011
5623.000000;1.263231
5622.000000;1.263480
5621.000000;1.263764
5620.000000;1.264026
5619.000000;1.264188
5618.000000;1.264252
5617.000000;1.264346
5616.000000;1.264624
5615.000000;1.265108
5614.000000;1.265644
5613.000000;1.266054
5612.000000;1.266284
5611.000000;1.266407
5610.000000;1.266514
5609.000000;1.266655
5608.000000;1.266874
5607.000000;1.267224
5606.000000;1.267706
5605.000000;1.268228
5604.000000;1.268661
5603.000000;1.268950
5602.000000;1.269141
5601.000000;1.269299
5600.000000;1.269428
5599.000000;1.269482
5598.000000;1.269448
5597.000000;1.269401
5596.000000;1.269447
5595.000000;1.269633
5594.000000;1.269910
5593.000000;1.270197
5592.000000;1.270443
5591.000000;1.270618
5590.000000;1.270693
5589.000000;1.270676
5588.000000;1.270645
5587.000000;1.270695
5586.000000;1.270837
5585.000000;1.271005
5584.000000;1.271173
5583.000000;1.271396
5582.000000;1.271708
5581.000000;1.272037
5580.000000;1.272282
5579.000000;1.272424
5578.000000;1.272510
5577.000000;1.272550
5576.000000;1.272532
5575.000000;1.272506
5574.000000;1.272557
5573.000000;1.272673
5572.000000;1.272733
5571.000000;1.272648
5570.000000;1.272484
5569.000000;1.272380
5568.000000;1.272395
5567.000000;1.272487
5566.000000;1.272595
5565.000000;1.272694
5564.000000;1.272769
5563.000000;1.272807
5562.000000;1.272796
5561.000000;1.272747
5560.000000;1.272706
5559.000000;1.272745
5558.000000;1.272910
5557.000000;1.273143
5556.000000;1.273298
5555.000000;1.273258
5554.000000;1.273044
5553.000000;1.272787
5552.000000;1.272624
5551.000000;1.272621
5550.000000;1.272746
5549.000000;1.272880
5548.000000;1.272882
5547.000000;1.272700
5546.000000;1.272417
5545.000000;1.272171
5544.000000;1.272035
5543.000000;1.272018
5542.000000;1.272110
5541.000000;1.272284
5540.000000;1.272470
5539.000000;1.272607
5538.000000;1.272709
5537.000000;1.272813
5536.000000;1.272886
5535.000000;1.272869
5534.000000;1.272792
5533.000000;1.272765
5532.000000;1.272829
5531.000000;1.272911
5530.000000;1.272953
5529.000000;1.272990
5528.000000;1.273070
5527.000000;1.273167
5526.000000;1.273243
5525.000000;1.273320
5524.000000;1.273433
5523.000000;1.273537
5522.000000;1.273528
5521.000000;1.273367
5520.000000;1.273119
5519.000000;1.272889
5518.000000;1.272751
5517.000000;1.272718
5516.000000;1.272744
5515.000000;1.272764
5514.000000;1.272751
5513.000000;1.272736
5512.000000;1.272750
5511.000000;1.272787
5510.000000;1.272838
5509.000000;1.272922
5508.000000;1.273037
5507.000000;1.273102
5506.000000;1.273014
5505.000000;1.272755
5504.000000;1.272427
5503.000000;1.272177
5502.000000;1.272115
5501.000000;1.272290
5500.000000;1.272672
5499.000000;1.273137
5498.000000;1.273514
5497.000000;1.273687
5496.000000;1.273657
5495.000000;1.273505
5494.000000;1.273323
5493.000000;1.273182
5492.000000;1.273125
5491.000000;1.273133
5490.000000;1.273129
5489.000000;1.273074
5488.000000;1.273081
5487.000000;1.273348
5486.000000;1.273937
5485.000000;1.274660
5484.000000;1.275248
5483.000000;1.275624
5482.000000;1.275937
5481.000000;1.276341
5480.000000;1.276826
5479.000000;1.277262
5478.000000;1.277533
5477.000000;1.277601
5476.000000;1.277497
5475.000000;1.277337
5474.000000;1.277274
5473.000000;1.277374
5472.000000;1.277572
5471.000000;1.277807
5470.000000;1.278121
5469.000000;1.278563
5468.000000;1.279050
5467.000000;1.279449
5466.000000;1.279746
5465.000000;1.280020
5464.000000;1.280281
5463.000000;1.280447
5462.000000;1.280504
5461.000000;1.280584
5460.000000;1.280864
5459.000000;1.281414
5458.000000;1.282150
5457.000000;1.282924
5456.000000;1.283643
5455.000000;1.284333
5454.000000;1.285069
5453.000000;1.285824
5452.000000;1.286461
5451.000000;1.286919
5450.000000;1.287318
5449.000000;1.287799
5448.000000;1.288318
5447.000000;1.288719
5446.000000;1.288956
5445.000000;1.289159
5444.000000;1.289502
5443.000000;1.290081
5442.000000;1.290906
5441.000000;1.291924
5440.000000;1.293030
5439.000000;1.294087
5438.000000;1.294978
5437.000000;1.295672
5436.000000;1.296255
5435.000000;1.296897
5434.000000;1.297731
5433.000000;1.298699
5432.000000;1.299604
5431.000000;1.300356
5430.000000;1.301086
5429.000000;1.301984
5428.000000;1.303086
5427.000000;1.304245
5426.000000;1.305311
5425.000000;1.306314
5424.000000;1.307468
5423.000000;1.308969
5422.000000;1.310798
5421.000000;1.312703
5420.000000;1.314406
5419.000000;1.315812
5418.000000;1.317018
5417.000000;1.318182
5416.000000;1.319381
5415.000000;1.320582
5414.000000;1.321729
5413.000000;1.322805
5412.000000;1.323875
5411.000000;1.325085
5410.000000;1.326588
5409.000000;1.328417
5408.000000;1.330464
5407.000000;1.332600
5406.000000;1.334796
5405.000000;1.337072
5404.000000;1.339410
5403.000000;1.341746
5402.000000;1.344036
5401.000000;1.346240
5400.000000;1.348320
5399.000000;1.350314
5398.000000;1.352359
5397.000000;1.354564
5396.000000;1.356908
5395.000000;1.359324
5394.000000;1.361843
5393.000000;1.364575
5392.000000;1.367562
5391.000000;1.370711
5390.000000;1.373917
5389.000000;1.377153
5388.000000;1.380432
5387.000000;1.383755
5386.000000;1.387141
5385.000000;1.390636
5384.000000;1.394229
5383.000000;1.397856
5382.000000;1.401505
5381.000000;1.405208
5380.000000;1.408968
5379.000000;1.412773
5378.000000;1.416648
5377.000000;1.420663
5376.000000;1.424852
5375.000000;1.429180
5374.000000;1.433627
5373.000000;1.438253
5372.000000;1.443143
5371.000000;1.448345
5370.000000;1.453833
5369.000000;1.459499
5368.000000;1.465182
5367.000000;1.470762
5366.000000;1.476242
5365.000000;1.481767
5364.000000;1.487497
5363.000000;1.493505
5362.000000;1.499776
5361.000000;1.506252
5360.000000;1.512908
5359.000000;1.519804
5358.000000;1.527043
5357.000000;1.534590
5356.000000;1.542217
5355.000000;1.549728
5354.000000;1.557233
5353.000000;1.565066
5352.000000;1.573390
5351.000000;1.582018
5350.000000;1.590701
5349.000000;1.599418
5348.000000;1.608340
5347.000000;1.617648
5346.000000;1.627478
5345.000000;1.637895
5344.000000;1.648758
5343.000000;1.659688
5342.000000;1.670403
5341.000000;1.681083
5340.000000;1.692258
5339.000000;1.704392
5338.000000;1.717503
5337.000000;1.731127
5336.000000;1.744647
5335.000000;1.757735
5334.000000;1.770543
5333.000000;1.783545
5332.000000;1.797217
5331.000000;1.811768
5330.000000;1.827051
5329.000000;1.842700
5328.000000;1.858437
5327.000000;1.874398
5326.000000;1.891042
5325.000000;1.908572
5324.000000;1.926557
5323.000000;1.944318
5322.000000;1.961656
5321.000000;1.979066
5320.000000;1.997241
5319.000000;2.016486
5318.000000;2.036580
5317.000000;2.057000
5316.000000;2.077308
5315.000000;2.097539
5314.000000;2.118194
5313.000000;2.139749
5312.000000;2.162277
5311.000000;2.185582
5310.000000;2.209452
5309.000000;2.233638
5308.000000;2.257915
5307.000000;2.282422
5306.000000;2.307527
5305.000000;2.332980
5304.000000;2.357728
5303.000000;2.381068
5302.000000;2.403494
5301.000000;2.425830
5300.000000;2.448050
5299.000000;2.469687
5298.000000;2.490986
5297.000000;2.512921
5296.000000;2.536328
5295.000000;2.561405
5294.000000;2.587497
5293.000000;2.613073
5292.000000;2.636825
5291.000000;2.659193
5290.000000;2.681515
5289.000000;2.703123
5288.000000;2.721361
5287.000000;2.735884
5286.000000;2.750574
5285.000000;2.769332
5284.000000;2.791637
5283.000000;2.813716
5282.000000;2.832853
5281.000000;2.848502
5280.000000;2.860449
5279.000000;2.868744
5278.000000;2.874869
5277.000000;2.880815
5276.000000;2.887554
5275.000000;2.895545
5274.000000;2.904905
5273.000000;2.913981
5272.000000;2.920242
5271.000000;2.923770
5270.000000;2.927526
5269.000000;2.932986
5268.000000;2.937859
5267.000000;2.939711
5266.000000;2.939836
5265.000000;2.941227
5264.000000;2.944930
5263.000000;2.950650
5262.000000;2.958242
5261.000000;2.966201
5260.000000;2.971287
5259.000000;2.971981
5258.000000;2.969957
5257.000000;2.966913
5256.000000;2.963286
5255.000000;2.961090
5254.000000;2.963575
5253.000000;2.969928
5252.000000;2.974294
5251.000000;2.973147
5250.000000;2.969879
5249.000000;2.968872
5248.000000;2.969975
5247.000000;2.970726
5246.000000;2.970532
5245.000000;2.970190
5244.000000;2.968383
5243.000000;2.963320
5242.000000;2.957347
5241.000000;2.954938
5240.000000;2.956852
5239.000000;2.959623
5238.000000;2.960053
5237.000000;2.958034
5236.000000;2.955297
5235.000000;2.953576
5234.000000;2.953612
5233.000000;2.954091
5232.000000;2.952195
5231.000000;2.946874
5230.000000;2.940798
5229.000000;2.937425
5228.000000;2.937850
5227.000000;2.941909
5226.000000;2.950087
5225.000000;2.962264
5224.000000;2.975312
5223.000000;2.984234
5222.000000;2.986062
5221.000000;2.981870
5220.000000;2.975886
5219.000000;2.972396
5218.000000;2.972915
5217.000000;2.975821
5216.000000;2.978471
5215.000000;2.980366
5214.000000;2.982807
5213.000000;2.985551
5212.000000;2.985969
5211.000000;2.982084
5210.000000;2.975119
5209.000000;2.967774
5208.000000;2.962156
5207.000000;2.959994
5206.000000;2.961826
5205.000000;2.965040
5204.000000;2.965538
5203.000000;2.962564
5202.000000;2.959368
5201.000000;2.958489
5200.000000;2.959333
5199.000000;2.960947
5198.000000;2.964121
5197.000000;2.969644
5196.000000;2.976665
5195.000000;2.983112
5194.000000;2.986399
5193.000000;2.983797
5192.000000;2.974925
5191.000000;2.965007
5190.000000;2.961196
5189.000000;2.964346
5188.000000;2.968311
5187.000000;2.968938
5186.000000;2.969071
5185.000000;2.971266
5184.000000;2.971518
5183.000000;2.965784
5182.000000;2.958673
5181.000000;2.958738
5180.000000;2.968150
5179.000000;2.981470
5178.000000;2.991952
5177.000000;2.995185
5176.000000;2.988579
5175.000000;2.973640
5174.000000;2.958126
5173.000000;2.950755
5172.000000;2.954474
5171.000000;2.965693
5170.000000;2.978144
5169.000000;2.987064
5168.000000;2.990801
5167.000000;2.990840
5166.000000;2.990813
5165.000000;2.992830
5164.000000;2.994473
5163.000000;2.991651
5162.000000;2.984325
5161.000000;2.976655
5160.000000;2.972276
5159.000000;2.972176
5158.000000;2.975763
5157.000000;2.980879
5156.000000;2.983395
5155.000000;2.980244
5154.000000;2.973048
5153.000000;2.966388
5152.000000;2.963328
5151.000000;2.964118
5150.000000;2.967436
5149.000000;2.971100
5148.000000;2.972144
5147.000000;2.968799
5146.000000;2.963446
5145.000000;2.960855
5144.000000;2.963349
5143.000000;2.969351
5142.000000;2.975053
5141.000000;2.975763
5140.000000;2.968136
5139.000000;2.954399
5138.000000;2.942627
5137.000000;2.940193
5136.000000;2.947954
5135.000000;2.961262
5134.000000;2.974481
5133.000000;2.982993
5132.000000;2.983458
5131.000000;2.975838
5130.000000;2.965215
5129.000000;2.958030
5128.000000;2.955953
5127.000000;2.956040
5126.000000;2.956167
5125.000000;2.957027
5124.000000;2.958586
5123.000000;2.958345
5122.000000;2.955325
5121.000000;2.952406
5120.000000;2.952204
5119.000000;2.954103
5118.000000;2.956358
5117.000000;2.958925
5116.000000;2.962311
5115.000000;2.965102
5114.000000;2.965474
5113.000000;2.964363
5112.000000;2.964579
5111.000000;2.966993
5110.000000;2.969251
5109.000000;2.968026
5108.000000;2.962142
5107.000000;2.953204
5106.000000;2.944574
5105.000000;2.940307
5104.000000;2.942731
5103.000000;2.950602
5102.000000;2.960172
5101.000000;2.967788
5100.000000;2.971530
5099.000000;2.971275
5098.000000;2.967968
5097.000000;2.962963
5096.000000;2.957568
5095.000000;2.952651
5094.000000;2.948576
5093.000000;2.945540
5092.000000;2.944014
5091.000000;2.944918
5090.000000;2.948806
5089.000000;2.954404
5088.000000;2.958545
5087.000000;2.958598
5086.000000;2.955144
5085.000000;2.951386
5084.000000;2.949998
5083.000000;2.950924
5082.000000;2.952059
5081.000000;2.951936
5080.000000;2.951377
5079.000000;2.952482
5078.000000;2.955986
5077.000000;2.959669
5076.000000;2.960170
5075.000000;2.956385
5074.000000;2.950299
5073.000000;2.944614
5072.000000;2.940610
5071.000000;2.938362
5070.000000;2.937360
5069.000000;2.935935
5068.000000;2.932161
5067.000000;2.926766
5066.000000;2.923163
5065.000000;2.923767
5064.000000;2.927552
5063.000000;2.931528
5062.000000;2.933766
5061.000000;2.934370
5060.000000;2.934534
5059.000000;2.935749
5058.000000;2.938782
5057.000000;2.941934
5056.000000;2.941976
5055.000000;2.939157
5054.000000;2.938739
5053.000000;2.944669
5052.000000;2.953494
5051.000000;2.957188
5050.000000;2.952329
5049.000000;2.943040
5048.000000;2.934373
5047.000000;2.927639
5046.000000;2.922560
5045.000000;2.919674
5044.000000;2.919014
5043.000000;2.918947
5042.000000;2.918002
5041.000000;2.916134
5040.000000;2.913067
5039.000000;2.907776
5038.000000;2.901412
5037.000000;2.898086
5036.000000;2.901069
5035.000000;2.908892
5034.000000;2.915352
5033.000000;2.914578
5032.000000;2.906402
5031.000000;2.895822
5030.000000;2.887992
5029.000000;2.884687
5028.000000;2.884740
5027.000000;2.885886
5026.000000;2.885767
5025.000000;2.883002
5024.000000;2.878353
5023.000000;2.874166
5022.000000;2.872171
5021.000000;2.872050
5020.000000;2.872390
5019.000000;2.872381
5018.000000;2.871604
5017.000000;2.868696
5016.000000;2.862703
5015.000000;2.856184
5014.000000;2.853929
5013.000000;2.857609
5012.000000;2.863417
5011.000000;2.866114
5010.000000;2.864549
5009.000000;2.861358
5008.000000;2.858481
5007.000000;2.855729
5006.000000;2.852837
5005.000000;2.850050
5004.000000;2.846624
5003.000000;2.841117
5002.000000;2.833609
5001.000000;2.825786
5000.000000;2.818881
4999.000000;2.813535
4998.000000;2.811173
4997.000000;2.813136
4996.000000;2.818377
4995.000000;2.823799
4994.000000;2.827078
4993.000000;2.828103
4992.000000;2.827543
4991.000000;2.825626
4990.000000;2.822845
4989.000000;2.819989
4988.000000;2.816324
4987.000000;2.809519
4986.000000;2.798718
4985.000000;2.786460
4984.000000;2.776437
4983.000000;2.770293
4982.000000;2.767319
4981.000000;2.766128
4980.000000;2.765618
4979.000000;2.764767
4978.000000;2.762563
4977.000000;2.758651
4976.000000;2.753948
4975.000000;2.750403
4974.000000;2.749683
4973.000000;2.751468
4972.000000;2.753140
4971.000000;2.752032
4970.000000;2.748187
4969.000000;2.744003
4968.000000;2.741178
4967.000000;2.739099
4966.000000;2.736279
4965.000000;2.732316
4964.000000;2.727826
4963.000000;2.723127
4962.000000;2.717905
4961.000000;2.712169
4960.000000;2.707014
4959.000000;2.704119
4958.000000;2.704395
4957.000000;2.706815
4956.000000;2.708355
4955.000000;2.705888
4954.000000;2.698989
4953.000000;2.690461
4952.000000;2.683655
4951.000000;2.679664
4950.000000;2.677212
4949.000000;2.674737
4948.000000;2.672061
4947.000000;2.669906
4946.000000;2.668328
4945.000000;2.666513
4944.000000;2.664234
4943.000000;2.662483
4942.000000;2.662003
4941.000000;2.661857
4940.000000;2.660456
4939.000000;2.657944
4938.000000;2.656006
4937.000000;2.654644
4936.000000;2.651404
4935.000000;2.644855
4934.000000;2.636643
4933.000000;2.629249
4932.000000;2.623067
4931.000000;2.617032
4930.000000;2.611383
4929.000000;2.607634
4928.000000;2.605988
4927.000000;2.604697
4926.000000;2.602314
4925.000000;2.599149
4924.000000;2.595738
4923.000000;2.591533
4922.000000;2.586315
4921.000000;2.581553
4920.000000;2.578905
4919.000000;2.577998
4918.000000;2.576795
4917.000000;2.574024
4916.000000;2.570444
4915.000000;2.567481
4914.000000;2.565206
4913.000000;2.561908
4912.000000;2.555641
4911.000000;2.546373
4910.000000;2.536633
4909.000000;2.529826
4908.000000;2.527616
4907.000000;2.528835
4906.000000;2.530748
4905.000000;2.531129
4904.000000;2.529349
4903.000000;2.526081
4902.000000;2.522318
4901.000000;2.518663
4900.000000;2.515326
4899.000000;2.512541
4898.000000;2.510685
4897.000000;2.509701
4896.000000;2.508622
4895.000000;2.506188
4894.000000;2.502177
4893.000000;2.497629
4892.000000;2.493610
4891.000000;2.490264
4890.000000;2.487195
4889.000000;2.484249
4888.000000;2.481618
4887.000000;2.479424
4886.000000;2.477369
4885.000000;2.474679
4884.000000;2.470523
4883.000000;2.464950
4882.000000;2.459345
4881.000000;2.455442
4880.000000;2.453762
4879.000000;2.453300
4878.000000;2.452704
4877.000000;2.451348
4876.000000;2.449179
4875.000000;2.446198
4874.000000;2.442496
4873.000000;2.438337
4872.000000;2.433845
4871.000000;2.428985
4870.000000;2.424208
4869.000000;2.420616
4868.000000;2.418975
4867.000000;2.418731
4866.000000;2.418415
4865.000000;2.416896
4864.000000;2.414032
4863.000000;2.410284
4862.000000;2.406129
4861.000000;2.401969
4860.000000;2.398291
4859.000000;2.395486
4858.000000;2.393380
4857.000000;2.391069
4856.000000;2.387628
4855.000000;2.383236
4854.000000;2.379318
4853.000000;2.377080
4852.000000;2.375969
4851.000000;2.374192
4850.000000;2.370965
4849.000000;2.367516
4848.000000;2.365209
4847.000000;2.363328
4846.000000;2.359845
4845.000000;2.354248
4844.000000;2.348514
4843.000000;2.344855
4842.000000;2.343260
4841.000000;2.341879
4840.000000;2.339458
4839.000000;2.336566
4838.000000;2.334321
4837.000000;2.332763
4836.000000;2.331032
4835.000000;2.328641
4834.000000;2.325796
4833.000000;2.322680
4832.000000;2.319307
4831.000000;2.316152
4830.000000;2.314086
4829.000000;2.313309
4828.000000;2.312882
4827.000000;2.311677
4826.000000;2.309355
4825.000000;2.306044
4824.000000;2.301755
4823.000000;2.296905
4822.000000;2.292852
4821.000000;2.290853
4820.000000;2.290498
4819.000000;2.289995
4818.000000;2.288219
4817.000000;2.285733
4816.000000;2.283471
4815.000000;2.281314
4814.000000;2.278459
4813.000000;2.274635
4812.000000;2.270422
4811.000000;2.266638
4810.000000;2.263829
4809.000000;2.262028
4808.000000;2.260583
4807.000000;2.258485
4806.000000;2.255315
4805.000000;2.251758
4804.000000;2.248832
4803.000000;2.246784
4802.000000;2.245005
4801.000000;2.242860
4800.000000;2.240258
4799.000000;2.237430
4798.000000;2.234521
4797.000000;2.231504
4796.000000;2.228399
4795.000000;2.225481
4794.000000;2.223176
4793.000000;2.221579
4792.000000;2.220047
4791.000000;2.217557
4790.000000;2.213724
4789.000000;2.209225
4788.000000;2.205028
4787.000000;2.201520
4786.000000;2.198633
4785.000000;2.196398
4784.000000;2.194777
4783.000000;2.193113
4782.000000;2.190420
4781.000000;2.186481
4780.000000;2.182219
4779.000000;2.178752
4778.000000;2.176370
4777.000000;2.174612
4776.000000;2.173055
4775.000000;2.171704
4774.000000;2.170700
4773.000000;2.169915
4772.000000;2.168951
4771.000000;2.167425
4770.000000;2.165149
4769.000000;2.162085
4768.000000;2.158219
4767.000000;2.153640
4766.000000;2.148836
4765.000000;2.144700
4764.000000;2.141902
4763.000000;2.140140
4762.000000;2.138286
4761.000000;2.135523
4760.000000;2.132174
4759.000000;2.129168
4758.000000;2.126857
4757.000000;2.124715
4756.000000;2.122163
4755.000000;2.119294
4754.000000;2.116632
4753.000000;2.114551
4752.000000;2.113169
4751.000000;2.112492
4750.000000;2.112219
4749.000000;2.111560
4748.000000;2.109735
4747.000000;2.106759
4746.000000;2.103404
4745.000000;2.100314
4744.000000;2.097491
4743.000000;2.094686
4742.000000;2.091873
4741.000000;2.089182
4740.000000;2.086713
4739.000000;2.084601
4738.000000;2.082895
4737.000000;2.081127
4736.000000;2.078461
4735.000000;2.074736
4734.000000;2.070969
4733.000000;2.068278
4732.000000;2.066519
4731.000000;2.064564
4730.000000;2.061828
4729.000000;2.058903
4728.000000;2.056560
4727.000000;2.054761
4726.000000;2.052917
4725.000000;2.050678
4724.000000;2.048185
4723.000000;2.045800
4722.000000;2.043798
4721.000000;2.042124
4720.000000;2.040334
4719.000000;2.038020
4718.000000;2.035376
4717.000000;2.033031
4716.000000;2.031253
4715.000000;2.029637
4714.000000;2.027694
4713.000000;2.025355
4712.000000;2.022739
4711.000000;2.019856
4710.000000;2.016855
4709.000000;2.014209
4708.000000;2.012259
4707.000000;2.010777
4706.000000;2.009276
4705.000000;2.007565
4704.000000;2.005766
4703.000000;2.003986
4702.000000;2.002314
4701.000000;2.000975
4700.000000;2.000098
4699.000000;1.999391
4698.000000;1.998287
4697.000000;1.996417
4696.000000;1.993764
4695.000000;1.990570
4694.000000;1.987325
4693.000000;1.984656
4692.000000;1.982820
4691.000000;1.981415
4690.000000;1.979858
4689.000000;1.978088
4688.000000;1.976451
4687.000000;1.974983
4686.000000;1.973222
4685.000000;1.970788
4684.000000;1.967845
4683.000000;1.964916
4682.000000;1.962461
4681.000000;1.960631
4680.000000;1.959173
4679.000000;1.957580
4678.000000;1.955597
4677.000000;1.953580
4676.000000;1.952110
4675.000000;1.951238
4674.000000;1.950371
4673.000000;1.948910
4672.000000;1.946774
4671.000000;1.944294
4670.000000;1.941883
4669.000000;1.939845
4668.000000;1.938222
4667.000000;1.936707
4666.000000;1.934926
4665.000000;1.932929
4664.000000;1.931156
4663.000000;1.929825
4662.000000;1.928564
4661.000000;1.926780
4660.000000;1.924277
4659.000000;1.921460
4658.000000;1.919084
4657.000000;1.917768
4656.000000;1.917494
4655.000000;1.917442
4654.000000;1.916554
4653.000000;1.914425
4652.000000;1.911563
4651.000000;1.908825
4650.000000;1.906798
4649.000000;1.905629
4648.000000;1.905041
4647.000000;1.904405
4646.000000;1.903161
4645.000000;1.901353
4644.000000;1.899513
4643.000000;1.897896
4642.000000;1.896144
4641.000000;1.893924
4640.000000;1.891548
4639.000000;1.889650
4638.000000;1.888438
4637.000000;1.887532
4636.000000;1.886401
4635.000000;1.884727
4634.000000;1.882522
4633.000000;1.880224
4632.000000;1.878562
4631.000000;1.877970
4630.000000;1.878080
4629.000000;1.878019
4628.000000;1.877156
4627.000000;1.875399
4626.000000;1.872932
4625.000000;1.870096
4624.000000;1.867490
4623.000000;1.865741
4622.000000;1.864943
4621.000000;1.864545
4620.000000;1.863955
4619.000000;1.863040
4618.000000;1.861930
4617.000000;1.860627
4616.000000;1.859095
4615.000000;1.857554
4614.000000;1.856336
4613.000000;1.855463
4612.000000;1.854586
4611.000000;1.853409
4610.000000;1.852013
4609.000000;1.850666
4608.000000;1.849409
4607.000000;1.847958
4606.000000;1.846075
4605.000000;1.843981
4604.000000;1.842299
4603.000000;1.841504
4602.000000;1.841443
4601.000000;1.841437
4600.000000;1.840875
4599.000000;1.839667
4598.000000;1.838149
4597.000000;1.836651
4596.000000;1.835235
4595.000000;1.833783
4594.000000;1.832242
4593.000000;1.830771
4592.000000;1.829652
4591.000000;1.829056
4590.000000;1.828848
4589.000000;1.828614
4588.000000;1.827925
4587.000000;1.826626
4586.000000;1.824939
4585.000000;1.823295
4584.000000;1.822049
4583.000000;1.821252
4582.000000;1.820627
4581.000000;1.819814
4580.000000;1.818709
4579.000000;1.817588
4578.000000;1.816837
4577.000000;1.816514
4576.000000;1.816204
4575.000000;1.815366
4574.000000;1.813856
4573.000000;1.812060
4572.000000;1.810529
4571.000000;1.809524
4570.000000;1.808891
4569.000000;1.808295
4568.000000;1.807514
4567.000000;1.806582
4566.000000;1.805707
4565.000000;1.805045
4564.000000;1.804517
4563.000000;1.803906
4562.000000;1.803130
4561.000000;1.802321
4560.000000;1.801590
4559.000000;1.800836
4558.000000;1.799903
4557.000000;1.798817
4556.000000;1.797709
4555.000000;1.796609
4554.000000;1.795517
4553.000000;1.794616
4552.000000;1.794137
4551.000000;1.793961
4550.000000;1.793609
4549.000000;1.792751
4548.000000;1.791568
4547.000000;1.790492
4546.000000;1.789726
4545.000000;1.789111
4544.000000;1.788346
4543.000000;1.787245
4542.000000;1.785957
4541.000000;1.785009
4540.000000;1.784870
4539.000000;1.785295
4538.000000;1.785306
4537.000000;1.784113
4536.000000;1.781949
4535.000000;1.779738
4534.000000;1.778116
4533.000000;1.777098
4532.000000;1.776549
4531.000000;1.776505
4530.000000;1.776950
4529.000000;1.777608
4528.000000;1.778164
4527.000000;1.778458
4526.000000;1.778348
4525.000000;1.777658
4524.000000;1.776474
4523.000000;1.775240
4522.000000;1.774260
4521.000000;1.773284
4520.000000;1.771903
4519.000000;1.770277
4518.000000;1.769130
4517.000000;1.768965
4516.000000;1.769528
4515.000000;1.770146
4514.000000;1.770417
4513.000000;1.770375
4512.000000;1.770094
4511.000000;1.769441
4510.000000;1.768328
4509.000000;1.767052
4508.000000;1.766161
4507.000000;1.765935
4506.000000;1.766105
4505.000000;1.766159
4504.000000;1.765889
4503.000000;1.765515
4502.000000;1.765321
4501.000000;1.765287
4500.000000;1.765176
4499.000000;1.764849
4498.000000;1.764372
4497.000000;1.763887
4496.000000;1.763493
4495.000000;1.763234
4494.000000;1.763086
4493.000000;1.762922
4492.000000;1.762584
4491.000000;1.762065
4490.000000;1.761538
4489.000000;1.761113
4488.000000;1.760649
4487.000000;1.759910
4486.000000;1.758907
4485.000000;1.757978
4484.000000;1.757517
4483.000000;1.757659
4482.000000;1.758256
4481.000000;1.759036
4480.000000;1.759743
4479.000000;1.760179
4478.000000;1.760289
4477.000000;1.760240
4476.000000;1.760278
4475.000000;1.760461
4474.000000;1.760600
4473.000000;1.760559
4472.000000;1.760540
4471.000000;1.760950
4470.000000;1.761963
4469.000000;1.763328
4468.000000;1.764642
4467.000000;1.765704
4466.000000;1.766540
4465.000000;1.767166
4464.000000;1.767478
4463.000000;1.767411
4462.000000;1.767088
4461.000000;1.766739
4460.000000;1.766498
4459.000000;1.766366
4458.000000;1.766395
4457.000000;1.766829
4456.000000;1.767947
4455.000000;1.769712
4454.000000;1.771667
4453.000000;1.773275
4452.000000;1.774372
4451.000000;1.775204
4450.000000;1.776039
4449.000000;1.776924
4448.000000;1.777896
4447.000000;1.779219
4446.000000;1.781121
4445.000000;1.783323
4444.000000;1.785126
4443.000000;1.786134
4442.000000;1.786752
4441.000000;1.787774
4440.000000;1.789545
4439.000000;1.791696
4438.000000;1.793661
4437.000000;1.795335
4436.000000;1.797165
4435.000000;1.799610
4434.000000;1.802488
4433.000000;1.804922
4432.000000;1.806166
4431.000000;1.806587
4430.000000;1.807506
4429.000000;1.809828
4428.000000;1.812997
4427.000000;1.815646
4426.000000;1.817194
4425.000000;1.818319
4424.000000;1.819878
4423.000000;1.821989
4422.000000;1.824416
4421.000000;1.827264
4420.000000;1.830709
4419.000000;1.834346
4418.000000;1.837420
4417.000000;1.839697
4416.000000;1.841606
4415.000000;1.843538
4414.000000;1.845490
4413.000000;1.847490
4412.000000;1.849863
4411.000000;1.852826
4410.000000;1.856107
4409.000000;1.859242
4408.000000;1.862079
4407.000000;1.864803
4406.000000;1.867563
4405.000000;1.870279
4404.000000;1.872782
4403.000000;1.875067
4402.000000;1.877458
4401.000000;1.880484
4400.000000;1.884388
4399.000000;1.888796
4398.000000;1.893034
4397.000000;1.896738
4396.000000;1.900011
4395.000000;1.903045
4394.000000;1.905925
4393.000000;1.908808
4392.000000;1.911928
4391.000000;1.915252
4390.000000;1.918415
4389.000000;1.921103
4388.000000;1.923293
4387.000000;1.925021
4386.000000;1.926261
4385.000000;1.927230
4384.000000;1.928548
4383.000000;1.930793
4382.000000;1.933985
4381.000000;1.937556
4380.000000;1.940703
4379.000000;1.942891
4378.000000;1.944345
4377.000000;1.946062
4376.000000;1.948935
4375.000000;1.952766
4374.000000;1.956464
4373.000000;1.959280
4372.000000;1.961338
4371.000000;1.962739
4370.000000;1.962932
4369.000000;1.961614
4368.000000;1.959835
4367.000000;1.959449
4366.000000;1.961574
4365.000000;1.965933
4364.000000;1.971387
4363.000000;1.976659
4362.000000;1.980822
4361.000000;1.983716
4360.000000;1.985940
4359.000000;1.988079
4358.000000;1.990033
4357.000000;1.991446
4356.000000;1.992564
4355.000000;1.994081
4354.000000;1.996217
4353.000000;1.998499
4352.000000;2.000464
4351.000000;2.002004
4350.000000;2.003060
4349.000000;2.003631
4348.000000;2.004282
4347.000000;2.006050
4346.000000;2.009446
4345.000000;2.013803
4344.000000;2.017791
4343.000000;2.020294
4342.000000;2.020780
4341.000000;2.019418
4340.000000;2.017333
4339.000000;2.016423
4338.000000;2.018174
4337.000000;2.022384
4336.000000;2.027181
4335.000000;2.030444
4334.000000;2.031332
4333.000000;2.030540
4332.000000;2.029406
4331.000000;2.029010
4330.000000;2.029984
4329.000000;2.032598
4328.000000;2.036537
4327.000000;2.040744
4326.000000;2.044121
4325.000000;2.046485
4324.000000;2.048373
4323.000000;2.049865
4322.000000;2.050258
4321.000000;2.049203
4320.000000;2.047553
4319.000000;2.046477
4318.000000;2.046252
4317.000000;2.046606
4316.000000;2.047786
4315.000000;2.050272
4314.000000;2.053524
4313.000000;2.056090
4312.000000;2.057366
4311.000000;2.058412
4310.000000;2.060478
4309.000000;2.063405
4308.000000;2.065903
4307.000000;2.067074
4306.000000;2.067229
4305.000000;2.067312
4304.000000;2.067878
4303.000000;2.068689
4302.000000;2.069430
4301.000000;2.070800
4300.000000;2.074146
4299.000000;2.079418
4298.000000;2.084196
4297.000000;2.085961
4296.000000;2.085158
4295.000000;2.084644
4294.000000;2.086362
4293.000000;2.089961
4292.000000;2.094285
4291.000000;2.098619
4290.000000;2.102164
4289.000000;2.103863
4288.000000;2.103847
4287.000000;2.103897
4286.000000;2.105352
4285.000000;2.107470
4284.000000;2.109126
4283.000000;2.111375
4282.000000;2.116446
4281.000000;2.124280
4280.000000;2.131683
4279.000000;2.135585
4278.000000;2.136302
4277.000000;2.136754
4276.000000;2.139160
4275.000000;2.143386
4274.000000;2.148124
4273.000000;2.152750
4272.000000;2.157596
4271.000000;2.162714
4270.000000;2.166856
4269.000000;2.168126
4268.000000;2.165953
4267.000000;2.162293
4266.000000;2.160652
4265.000000;2.163774
4264.000000;2.171583
4263.000000;2.180620
4262.000000;2.186190
4261.000000;2.186723
4260.000000;2.185538
4259.000000;2.186880
4258.000000;2.191329
4257.000000;2.196578
4256.000000;2.201900
4255.000000;2.209310
4254.000000;2.219387
4253.000000;2.228388
4252.000000;2.231550
4251.000000;2.228327
4250.000000;2.222316
4249.000000;2.217320
4248.000000;2.216242
4247.000000;2.221518
4246.000000;2.232689
4245.000000;2.244105
4244.000000;2.248983
4243.000000;2.247304
4242.000000;2.245576
4241.000000;2.248505
4240.000000;2.254611
4239.000000;2.259770
4238.000000;2.261797
4237.000000;2.260789
4236.000000;2.257941
4235.000000;2.256035
4234.000000;2.259092
4233.000000;2.269456
4232.000000;2.285578
4231.000000;2.303195
4230.000000;2.317868
4229.000000;2.325888
4228.000000;2.324684
4227.000000;2.315100
4226.000000;2.302946
4225.000000;2.295241
4224.000000;2.294924
4223.000000;2.300783
4222.000000;2.311115
4221.000000;2.325611
4220.000000;2.344133
4219.000000;2.364454
4218.000000;2.381446
4217.000000;2.389971
4216.000000;2.389677
4215.000000;2.385411
4214.000000;2.382312
4213.000000;2.382327
4212.000000;2.385614
4211.000000;2.392802
4210.000000;2.403336
4209.000000;2.412297
4208.000000;2.412944
4207.000000;2.404794
4206.000000;2.395664
4205.000000;2.393313
4204.000000;2.396797
4203.000000;2.397085
4202.000000;2.388445
4201.000000;2.377761
4200.000000;2.377162
4199.000000;2.390857
4198.000000;2.411927
4197.000000;2.428614
4196.000000;2.434890
4195.000000;2.437017
4194.000000;2.444132
4193.000000;2.455953
4192.000000;2.466133
4191.000000;2.473012
4190.000000;2.481600
4189.000000;2.495612
4188.000000;2.510023
4187.000000;2.512950
4186.000000;2.497852
4185.000000;2.472253
4184.000000;2.451719
4183.000000;2.448189
4182.000000;2.463090
4181.000000;2.485966
4180.000000;2.502363
4179.000000;2.507316
4178.000000;2.505640
4177.000000;2.503916
4176.000000;2.507983
4175.000000;2.521824
4174.000000;2.542122
4173.000000;2.553799
4172.000000;2.543134
4171.000000;2.518667
4170.000000;2.504264
4169.000000;2.513212
4168.000000;2.536001
4167.000000;2.552140
4166.000000;2.555474
4165.000000;2.554479
4164.000000;2.552952
4163.000000;2.548082
4162.000000;2.538055
4161.000000;2.525528
4160.000000;2.516301
4159.000000;2.516303
4158.000000;2.529881
4157.000000;2.558128
4156.000000;2.597571
4155.000000;2.624580
4154.000000;2.606952
4153.000000;2.569912
4152.000000;2.544291
4151.000000;2.519342
4150.000000;2.491666
4149.000000;2.475381
4148.000000;2.477480
4147.000000;2.491778
4146.000000;2.506082
4145.000000;2.510203
4144.000000;2.503726
4143.000000;2.500449
4142.000000;2.515747
4141.000000;2.550884
4140.000000;2.584173
4139.000000;2.583745
4138.000000;2.545461
4137.000000;2.496120
4136.000000;2.464769
4135.000000;2.466845
4134.000000;2.499098
4133.000000;2.537291
4132.000000;2.548879
4131.000000;2.533040
4130.000000;2.523523
4129.000000;2.540826
4128.000000;2.572185
4127.000000;2.591124
4126.000000;2.584023
4125.000000;2.556676
4124.000000;2.526770
4123.000000;2.508683
4122.000000;2.509069
4121.000000;2.529969
4120.000000;2.564224
4119.000000;2.591250
4118.000000;2.598404
4117.000000;2.608751
4116.000000;2.661794
4115.000000;2.770786
4114.000000;2.884413
4113.000000;2.897816
4112.000000;2.817502
4111.000000;2.747083
4110.000000;2.722715
4109.000000;2.719578
4108.000000;2.704841
4107.000000;2.678830
4106.000000;2.658242
4105.000000;2.651948
4104.000000;2.660773
4103.000000;2.638992
4102.000000;2.562956
4101.000000;2.497153
4100.000000;2.477695
4099.000000;2.496242
4098.000000;2.535706
4097.000000;2.587477
4096.000000;2.655073
4095.000000;2.728694
4094.000000;2.747176
4093.000000;2.667595
4092.000000;2.569099
4091.000000;2.529057
4090.000000;2.576054
4089.000000;2.712927
4088.000000;2.884734
4087.000000;2.926465
4086.000000;2.825731
4085.000000;2.733214
4084.000000;2.696240
4083.000000;2.687025
4082.000000;2.660800
4081.000000;2.611581
4080.000000;2.561229
4079.000000;2.528657
4078.000000;2.541768
4077.000000;2.619650
4076.000000;2.730362
4075.000000;2.797558
4074.000000;2.809908
4073.000000;2.811896
4072.000000;2.809286
4071.000000;2.786280
4070.000000;2.751217
4069.000000;2.715440
4068.000000;2.656579
4067.000000;2.563574
4066.000000;2.471398
4065.000000;2.432256
4064.000000;2.479572
4063.000000;2.613453
4062.000000;2.781573
4061.000000;2.839179
4060.000000;2.770332
4059.000000;2.713822
4058.000000;2.626084
4057.000000;2.498264
4056.000000;2.410989
4055.000000;2.367399
4054.000000;2.344562
4053.000000;2.360859
4052.000000;2.468097
4051.000000;2.714050
4050.000000;2.981219
4049.000000;3.006672
4048.000000;2.937556
4047.000000;2.913218
4046.000000;2.966736
4045.000000;2.987626
4044.000000;2.860460
4043.000000;2.708959
4042.000000;2.664729
4041.000000;2.735270
4040.000000;2.888921
4039.000000;3.002437
4038.000000;3.071323
4037.000000;3.235950
4036.000000;3.469742
4035.000000;3.774603
4034.000000;2.871535
4033.000000;2.538596
4032.000000;2.426493
4031.000000;2.428207
4030.000000;2.432065
4029.000000;2.372979
4028.000000;2.316905
4027.000000;2.307491
4026.000000;2.341594
4025.000000;2.367191
4024.000000;2.368356
4023.000000;2.399961
4022.000000;2.472643
4021.000000;2.539184
4020.000000;2.562753
4019.000000;2.568751
4018.000000;2.604052
4017.000000;2.683373
4016.000000;2.769810
4015.000000;2.886647
4014.000000;3.036364
4013.000000;2.984401
4012.000000;2.838451
4011.000000;2.711206
4010.000000;2.648125
4009.000000;2.641406
4008.000000;2.701853
4007.000000;2.890100
4006.000000;2.821941
4005.000000;2.596773
4004.000000;2.561553
4003.000000;2.652132
4002.000000;2.734370
4001.000000;2.701511
4000.000000;2.641126
3999.000000;2.604683
3998.000000;2.564054
3997.000000;2.511335
3996.000000;2.505205
3995.000000;2.578857
3994.000000;2.645199
3993.000000;2.644519
3992.000000;2.623306
3991.000000;2.590156
3990.000000;2.608681
3989.000000;2.727487
3988.000000;2.927246
3987.000000;3.174989
3986.000000;3.575855
3985.000000;3.682162
3984.000000;3.267492
3983.000000;3.073076
3982.000000;2.960881
3981.000000;2.843054
3980.000000;2.719857
3979.000000;2.636342
3978.000000;2.605042
3977.000000;2.602170
3976.000000;2.616032
3975.000000;2.667744
3974.000000;2.794162
3973.000000;3.068018
3972.000000;3.532621
3971.000000;3.723936
3970.000000;3.480453
3969.000000;3.374949
3968.000000;3.447298
3967.000000;3.280141
3966.000000;3.148797
3965.000000;3.168850
3964.000000;3.066216
3963.000000;2.852403
3962.000000;2.689480
3961.000000;2.609820
3960.000000;2.595358
3959.000000;2.622365
3958.000000;2.670365
3957.000000;2.730684
3956.000000;2.739384
3955.000000;2.667933
3954.000000;2.622442
3953.000000;2.650500
3952.000000;2.732949
3951.000000;2.817773
3950.000000;2.852005
3949.000000;2.834127
3948.000000;2.821478
3947.000000;2.877521
3946.000000;3.146470
3945.000000;3.508440
3944.000000;3.293848
3943.000000;3.317200
3942.000000;3.529484
3941.000000;3.559352
3940.000000;3.507044
3939.000000;3.424220
3938.000000;3.093397
3937.000000;2.782643
3936.000000;2.605372
3935.000000;2.548176
3934.000000;2.651685
3933.000000;2.892383
3932.000000;2.962630
3931.000000;2.873574
3930.000000;2.780982
3929.000000;2.713853
3928.000000;2.672717
3927.000000;2.637598
3926.000000;2.634537
3925.000000;2.707830
3924.000000;2.896286
3923.000000;3.206723
3922.000000;3.366111
3921.000000;3.554885
3920.000000;3.507362
3919.000000;3.018014
3918.000000;2.832714
3917.000000;2.775352
3916.000000;2.810073
3915.000000;2.947414
3914.000000;3.118874
3913.000000;3.055130
3912.000000;2.945165
3911.000000;3.058354
3910.000000;3.390675
3909.000000;3.130728
3908.000000;2.858220
3907.000000;2.900263
3906.000000;3.074870
3905.000000;3.071773
3904.000000;3.093302
3903.000000;3.247387
3902.000000;3.349466
3901.000000;3.414396
3900.000000;3.478475
3899.000000;3.546952
3898.000000;3.606245
3897.000000;3.610445
3896.000000;3.603469
3895.000000;3.631616
3894.000000;3.545320
3893.000000;3.397140
3892.000000;3.309411
3891.000000;3.285908
3890.000000;3.257536
3889.000000;3.233624
3888.000000;3.267117
3887.000000;3.225140
3886.000000;3.212483
3885.000000;3.348790
3884.000000;3.606601
3883.000000;3.660284
3882.000000;3.406781
3881.000000;3.276273
3880.000000;3.232155
3879.000000;3.167754
3878.000000;3.075803
3877.000000;3.017221
3876.000000;3.033267
3875.000000;3.107088
3874.000000;3.173171
3873.000000;3.178137
3872.000000;3.123710
3871.000000;3.119498
3870.000000;3.328628
3869.000000;3.519130
3868.000000;3.313880
3867.000000;3.163986
3866.000000;3.149276
3865.000000;3.294651
3864.000000;3.455432
3863.000000;3.453022
3862.000000;3.344286
3861.000000;3.345693
3860.000000;3.502788
3859.000000;3.593927
3858.000000;3.605635
3857.000000;3.505906
3856.000000;3.415682
3855.000000;3.385060
3854.000000;3.350084
3853.000000;3.453147
3852.000000;3.729854
3851.000000;4.079571
3850.000000;4.222721
3849.000000;4.153906
3848.000000;4.167236
3847.000000;4.158356
3846.000000;3.827355
3845.000000;3.520655
3844.000000;3.648416
3843.000000;3.577950
3842.000000;3.206247
3841.000000;3.085080
3840.000000;3.015730
3839.000000;3.027605
3838.000000;3.154072
3837.000000;3.286447
3836.000000;3.333526
3835.000000;3.344549
3834.000000;3.478247
3833.000000;3.783582
3832.000000;3.972606
3831.000000;3.928719
3830.000000;3.758988
3829.000000;3.547396
3828.000000;3.407938
3827.000000;3.355714
3826.000000;3.439394
3825.000000;3.481334
3824.000000;3.281522
3823.000000;3.402136
3822.000000;3.719171
3821.000000;3.534611
3820.000000;3.605032
3819.000000;3.602404
3818.000000;3.487977
3817.000000;3.430144
3816.000000;3.456518
3815.000000;3.487229
3814.000000;3.426448
3813.000000;3.372117
3812.000000;3.361765
3811.000000;3.395110
3810.000000;3.528930
3809.000000;3.573044
3808.000000;3.245214
3807.000000;3.117096
3806.000000;3.357901
3805.000000;3.723806
3804.000000;3.460014
3803.000000;3.486807
3802.000000;3.784859
3801.000000;3.475556
3800.000000;3.194205
3799.000000;2.921917
3798.000000;2.778888
3797.000000;2.857122
3796.000000;3.066047
3795.000000;3.226061
3794.000000;3.395453
3793.000000;3.438141
3792.000000;3.250726
3791.000000;3.123076
3790.000000;3.015150
3789.000000;2.943088
3788.000000;2.981564
3787.000000;3.278821
3786.000000;3.400160
3785.000000;2.981222
3784.000000;2.777731
3783.000000;2.647720
3782.000000;2.599441
3781.000000;2.683931
3780.000000;2.941422
3779.000000;3.329205
3778.000000;3.211143
3777.000000;2.985829
3776.000000;2.911844
3775.000000;3.073205
3774.000000;3.428955
3773.000000;3.185239
3772.000000;2.961308
3771.000000;2.950913
3770.000000;3.061090
3769.000000;3.095040
3768.000000;3.044795
3767.000000;3.138566
3766.000000;3.195102
3765.000000;3.067621
3764.000000;3.026774
3763.000000;3.015889
3762.000000;3.185003
3761.000000;3.674290
3760.000000;3.331514
3759.000000;3.056353
3758.000000;2.941881
3757.000000;2.876640
3756.000000;2.918085
3755.000000;3.077409
3754.000000;3.390769
3753.000000;3.780440
3752.000000;3.770072
3751.000000;3.614693
3750.000000;3.587704
3749.000000;3.663730
3748.000000;3.767354
3747.000000;3.859441
3746.000000;3.962845
3745.000000;4.158891
3744.000000;4.559824
3743.000000;4.419643
3742.000000;4.102675
3741.000000;3.951441
3740.000000;3.886153
3739.000000;3.754393
3738.000000;3.487920
3737.000000;3.249616
3736.000000;3.164253
3735.000000;3.120324
3734.000000;3.072945
3733.000000;3.108658
3732.000000;3.264446
3731.000000;3.511766
3730.000000;3.569501
3729.000000;3.396906
3728.000000;3.275132
3727.000000;3.407953
3726.000000;3.735393
3725.000000;3.436623
3724.000000;3.269562
3723.000000;3.301727
3722.000000;3.231794
3721.000000;3.162650
3720.000000;3.141820
3719.000000;3.184638
3718.000000;3.165220
3717.000000;3.001527
3716.000000;2.897286
3715.000000;2.895195
3714.000000;3.031293
3713.000000;3.309253
3712.000000;3.562308
3711.000000;3.568781
3710.000000;3.624557
3709.000000;3.929301
3708.000000;3.678278
3707.000000;3.812923
3706.000000;3.975333
3705.000000;3.402434
3704.000000;3.294641
3703.000000;3.149528
3702.000000;3.001683
3701.000000;2.949126
3700.000000;2.948771
3699.000000;2.959750
3698.000000;3.105164
3697.000000;3.717547
3696.000000;3.416906
3695.000000;3.069355
3694.000000;3.042633
3693.000000;3.132142
3692.000000;3.407567
3691.000000;3.381952
3690.000000;3.228622
3689.000000;3.265496
3688.000000;3.256808
3687.000000;3.152620
3686.000000;3.080886
3685.000000;3.095807
3684.000000;3.135248
3683.000000;3.185449
3682.000000;3.254538
3681.000000;3.615502
3680.000000;3.715192
3679.000000;3.125029
3678.000000;2.923686
3677.000000;2.862228
3676.000000;2.958993
3675.000000;3.220453
3674.000000;3.402687
3673.000000;3.404573
3672.000000;3.374999
3671.000000;3.489027
3670.000000;3.670278
3669.000000;3.811310
3668.000000;3.965672
3667.000000;3.792848
3666.000000;3.627760
3665.000000;3.587215
3664.000000;3.482227
3663.000000;3.304624
3662.000000;3.065345
3661.000000;2.890797
3660.000000;2.831635
3659.000000;2.862589
3658.000000;2.947441
3657.000000;3.039762
3656.000000;3.099798
3655.000000;3.149141
3654.000000;3.215133
3653.000000;3.299970
3652.000000;3.664756
3651.000000;4.004319
3650.000000;3.593111
3649.000000;3.552369
3648.000000;3.655554
3647.000000;4.074722
3646.000000;4.005908
3645.000000;3.622545
3644.000000;3.540019
3643.000000;3.506122
3642.000000;3.511917
3641.000000;3.444038
3640.000000;3.662273
3639.000000;3.397987
3638.000000;2.971553
3637.000000;2.766253
3636.000000;2.617799
3635.000000;2.561647
3634.000000;2.632734
3633.000000;2.815368
3632.000000;3.064689
3631.000000;3.202383
3630.000000;3.227723
3629.000000;3.399600
3628.000000;3.860017
3627.000000;4.155404
3626.000000;3.675761
3625.000000;3.504221
3624.000000;3.461642
3623.000000;3.419310
3622.000000;3.374529
3621.000000;3.431297
3620.000000;3.268731
3619.000000;3.087987
3618.000000;3.101090
3617.000000;3.233171
3616.000000;3.301086
3615.000000;3.159906
3614.000000;3.071113
3613.000000;3.057807
3612.000000;3.046492
3611.000000;3.002298
3610.000000;2.970669
3609.000000;3.039346
3608.000000;3.184008
3607.000000;3.306699
3606.000000;3.350507
3605.000000;3.292535
3604.000000;3.160037
3603.000000;3.020158
3602.000000;2.907341
3601.000000;2.848877
3600.000000;2.887586
3599.000000;3.067589
3598.000000;3.438378
3597.000000;3.893597
3596.000000;3.588905
3595.000000;3.289543
3594.000000;3.209478
3593.000000;3.233207
3592.000000;3.286946
3591.000000;3.341396
3590.000000;3.381983
3589.000000;3.372146
3588.000000;3.357438
3587.000000;3.419752
3586.000000;3.545204
3585.000000;3.601104
3584.000000;3.502909
3583.000000;3.362074
3582.000000;3.225779
3581.000000;3.067196
3580.000000;2.892222
3579.000000;2.753317
3578.000000;2.687525
3577.000000;2.704328
3576.000000;2.801945
3575.000000;2.984154
3574.000000;3.090784
3573.000000;2.966578
3572.000000;2.882436
3571.000000;2.885247
3570.000000;2.964379
3569.000000;3.090583
3568.000000;3.325525
3567.000000;3.725033
3566.000000;3.496650
3565.000000;3.229336
3564.000000;3.215644
3563.000000;3.500560
3562.000000;3.673774
3561.000000;3.342496
3560.000000;3.081844
3559.000000;2.895334
3558.000000;2.863130
3557.000000;3.065112
3556.000000;3.443005
3555.000000;3.246064
3554.000000;3.093689
3553.000000;3.071475
3552.000000;3.027317
3551.000000;2.978635
3550.000000;2.944228
3549.000000;2.976782
3548.000000;3.162631
3547.000000;3.398307
3546.000000;3.253135
3545.000000;3.126295
3544.000000;3.071009
3543.000000;3.007076
3542.000000;2.943096
3541.000000;2.889268
3540.000000;2.870845
3539.000000;2.916307
3538.000000;3.041691
3537.000000;3.248844
3536.000000;3.402877
3535.000000;3.322336
3534.000000;3.272775
3533.000000;3.267315
3532.000000;3.150604
3531.000000;3.011915
3530.000000;2.957336
3529.000000;2.975652
3528.000000;2.983574
3527.000000;2.914197
3526.000000;2.838015
3525.000000;2.848714
3524.000000;2.991326
3523.000000;3.150861
3522.000000;3.072096
3521.000000;2.987534
3520.000000;3.022201
3519.000000;3.199457
3518.000000;3.286768
3517.000000;3.017598
3516.000000;2.825792
3515.000000;2.747278
3514.000000;2.747883
3513.000000;2.807551
3512.000000;2.918710
3511.000000;3.089185
3510.000000;3.249064
3509.000000;3.205841
3508.000000;2.967458
3507.000000;2.743210
3506.000000;2.619443
3505.000000;2.589818
3504.000000;2.623447
3503.000000;2.704101
3502.000000;2.849345
3501.000000;3.150784
3500.000000;3.374616
3499.000000;3.205387
3498.000000;3.250904
3497.000000;3.412760
3496.000000;3.444634
3495.000000;3.322926
3494.000000;3.134980
3493.000000;3.087415
3492.000000;3.091650
3491.000000;3.023063
3490.000000;2.982311
3489.000000;2.990880
3488.000000;3.127999
3487.000000;3.513889
3486.000000;3.361997
3485.000000;3.072368
3484.000000;3.104784
3483.000000;3.633396
3482.000000;3.384725
3481.000000;2.985026
3480.000000;2.909630
3479.000000;2.874755
3478.000000;2.874234
3477.000000;3.015851
3476.000000;3.907863
3475.000000;3.233088
3474.000000;2.884612
3473.000000;2.852748
3472.000000;2.915354
3471.000000;3.054913
3470.000000;3.024398
3469.000000;2.888817
3468.000000;2.808808
3467.000000;2.784731
3466.000000;2.793810
3465.000000;2.813269
3464.000000;2.841026
3463.000000;2.899063
3462.000000;2.953857
3461.000000;2.948948
3460.000000;2.928888
3459.000000;2.953079
3458.000000;3.014706
3457.000000;3.038331
3456.000000;2.997144
3455.000000;2.991228
3454.000000;3.019387
3453.000000;2.915560
3452.000000;2.770546
3451.000000;2.682450
3450.000000;2.627163
3449.000000;2.610938
3448.000000;2.623983
3447.000000;2.667145
3446.000000;2.760244
3445.000000;2.973712
3444.000000;3.569431
3443.000000;3.518221
3442.000000;3.530951
3441.000000;4.327822
3440.000000;3.457978
3439.000000;3.206919
3438.000000;3.021106
3437.000000;2.874527
3436.000000;2.785265
3435.000000;2.730074
3434.000000;2.693022
3433.000000;2.666479
3432.000000;2.660605
3431.000000;2.681647
3430.000000;2.738819
3429.000000;2.848645
3428.000000;2.944619
3427.000000;2.901419
3426.000000;2.902724
3425.000000;3.027386
3424.000000;2.914145
3423.000000;2.764129
3422.000000;2.758955
3421.000000;2.828788
3420.000000;2.876980
3419.000000;2.844538
3418.000000;2.814956
3417.000000;2.844247
3416.000000;2.915004
3415.000000;2.974505
3414.000000;2.973790
3413.000000;3.013311
3412.000000;3.103389
3411.000000;2.941110
3410.000000;2.785634
3409.000000;2.809918
3408.000000;2.913181
3407.000000;2.876867
3406.000000;2.727843
3405.000000;2.650549
3404.000000;2.688871
3403.000000;2.866375
3402.000000;3.468960
3401.000000;3.156286
3400.000000;2.752170
3399.000000;2.676003
3398.000000;2.690187
3397.000000;2.778246
3396.000000;2.880561
3395.000000;2.970122
3394.000000;3.041342
3393.000000;3.095179
3392.000000;3.161850
3391.000000;3.229398
3390.000000;3.129684
3389.000000;2.998850
3388.000000;2.951829
3387.000000;2.917484
3386.000000;2.871738
3385.000000;2.867566
3384.000000;2.941497
3383.000000;3.102722
3382.000000;3.399846
3381.000000;3.897764
3380.000000;4.179979
3379.000000;3.662276
3378.000000;3.317273
3377.000000;3.149063
3376.000000;3.033606
3375.000000;3.000628
3374.000000;3.057420
3373.000000;3.209986
3372.000000;3.436005
3371.000000;3.624907
3370.000000;4.125406
3369.000000;3.561057
3368.000000;3.357426
3367.000000;3.210342
3366.000000;3.055105
3365.000000;3.120657
3364.000000;3.283538
3363.000000;3.070870
3362.000000;2.965257
3361.000000;3.054302
3360.000000;3.288127
3359.000000;3.342123
3358.000000;3.197166
3357.000000;3.178733
3356.000000;3.195282
3355.000000;3.082359
3354.000000;3.021951
3353.000000;3.104462
3352.000000;3.248779
3351.000000;3.460732
3350.000000;3.465518
3349.000000;3.208007
3348.000000;3.101430
3347.000000;3.261677
3346.000000;3.471121
3345.000000;3.043793
3344.000000;2.818684
3343.000000;2.775632
3342.000000;2.808065
3341.000000;2.846242
3340.000000;2.833094
3339.000000;2.804042
3338.000000;2.794599
3337.000000;2.806658
3336.000000;2.841450
3335.000000;2.841092
3334.000000;2.792026
3333.000000;2.808637
3332.000000;2.913122
3331.000000;3.019838
3330.000000;3.102534
3329.000000;3.318336
3328.000000;3.378402
3327.000000;3.096496
3326.000000;3.032878
3325.000000;3.136465
3324.000000;3.290238
3323.000000;3.289519
3322.000000;3.232922
3321.000000;3.293748
3320.000000;3.439814
3319.000000;3.357151
3318.000000;3.289373
3317.000000;3.442713
3316.000000;3.832447
3315.000000;3.286229
3314.000000;3.029206
3313.000000;2.945043
3312.000000;2.913376
3311.000000;2.943667
3310.000000;3.036626
3309.000000;3.221824
3308.000000;3.486423
3307.000000;3.522557
3306.000000;3.282132
3305.000000;3.049056
3304.000000;2.898796
3303.000000;2.828352
3302.000000;2.822668
3301.000000;2.876911
3300.000000;2.988397
3299.000000;3.096249
3298.000000;3.177385
3297.000000;3.210440
3296.000000;3.766837
3295.000000;3.597439
3294.000000;3.014879
3293.000000;2.936782
3292.000000;3.055669
3291.000000;3.150740
3290.000000;2.983338
3289.000000;2.913716
3288.000000;2.905392
3287.000000;2.881017
3286.000000;2.869096
3285.000000;2.914549
3284.000000;3.076546
3283.000000;3.426145
3282.000000;3.868944
3281.000000;3.109473
3280.000000;2.902526
3279.000000;2.925276
3278.000000;3.190272
3277.000000;3.284496
3276.000000;2.957218
3275.000000;2.813238
3274.000000;2.772704
3273.000000;2.834566
3272.000000;2.949656
3271.000000;3.045605
3270.000000;3.012107
3269.000000;2.867001
3268.000000;2.777668
3267.000000;2.805655
3266.000000;3.075453
3265.000000;3.511767
3264.000000;3.160886
3263.000000;3.088627
3262.000000;3.278021
3261.000000;3.831137
3260.000000;3.590805
3259.000000;3.152933
3258.000000;3.049934
3257.000000;3.187830
3256.000000;3.186833
3255.000000;2.908275
3254.000000;2.773234
3253.000000;2.741262
3252.000000;2.801402
3251.000000;3.055561
3250.000000;3.290188
3249.000000;2.864471
3248.000000;2.747638
3247.000000;2.728024
3246.000000;2.745584
3245.000000;2.807895
3244.000000;3.033033
3243.000000;3.651312
3242.000000;3.755024
3241.000000;3.565776
3240.000000;3.483187
3239.000000;3.146768
3238.000000;2.960224
3237.000000;2.929652
3236.000000;3.155399
3235.000000;3.633409
3234.000000;3.174409
3233.000000;2.959552
3232.000000;2.856992
3231.000000;2.853024
3230.000000;3.027443
3229.000000;3.619351
3228.000000;3.493087
3227.000000;3.213797
3226.000000;3.095706
3225.000000;3.023237
3224.000000;3.056352
3223.000000;3.159563
3222.000000;3.075067
3221.000000;2.892581
3220.000000;2.792399
3219.000000;2.812700
3218.000000;2.952568
3217.000000;3.076216
3216.000000;3.094924
3215.000000;3.181367
3214.000000;3.320967
3213.000000;3.438438
3212.000000;3.225784
3211.000000;3.013650
3210.000000;2.987450
3209.000000;3.095684
3208.000000;3.288445
3207.000000;3.776701
3206.000000;3.694436
3205.000000;3.319161
3204.000000;3.185129
3203.000000;3.064187
3202.000000;2.881591
3201.000000;2.714755
3200.000000;2.626220
3199.000000;2.620140
3198.000000;2.675165
3197.000000;2.783036
3196.000000;2.917556
3195.000000;2.969988
3194.000000;3.045012
3193.000000;3.117821
3192.000000;3.117963
3191.000000;3.467055
3190.000000;3.321702
3189.000000;3.011925
3188.000000;3.101295
3187.000000;3.276719
3186.000000;3.296663
3185.000000;3.246153
3184.000000;3.269731
3183.000000;3.259471
3182.000000;3.327352
3181.000000;3.165345
3180.000000;2.976024
3179.000000;2.969376
3178.000000;3.338266
3177.000000;3.386714
3176.000000;3.005937
3175.000000;2.952521
3174.000000;3.031373
3173.000000;3.110454
3172.000000;3.036060
3171.000000;2.870132
3170.000000;2.729929
3169.000000;2.682630
3168.000000;2.752770
3167.000000;2.927127
3166.000000;2.990347
3165.000000;2.870100
3164.000000;2.822227
3163.000000;2.858593
3162.000000;2.972178
3161.000000;3.140255
3160.000000;3.254370
3159.000000;3.371270
3158.000000;3.498620
3157.000000;3.077781
3156.000000;2.777144
3155.000000;2.666973
3154.000000;2.711479
3153.000000;3.027325
3152.000000;3.356542
3151.000000;3.094352
3150.000000;3.197312
3149.000000;3.370950
3148.000000;3.402348
3147.000000;3.560195
3146.000000;3.252139
3145.000000;3.131278
3144.000000;3.190930
3143.000000;3.370676
3142.000000;3.437939
3141.000000;3.282300
3140.000000;3.041825
3139.000000;2.938928
3138.000000;3.014615
3137.000000;3.398092
3136.000000;3.631322
3135.000000;3.300834
3134.000000;3.170346
3133.000000;3.047310
3132.000000;3.087919
3131.000000;3.329251
3130.000000;3.440186
3129.000000;3.217650
3128.000000;3.017400
3127.000000;2.888928
3126.000000;2.880211
3125.000000;3.016318
3124.000000;3.472791
3123.000000;3.186083
3122.000000;3.068090
3121.000000;3.268283
3120.000000;3.349120
3119.000000;3.249240
3118.000000;3.210663
3117.000000;3.106952
3116.000000;3.124516
3115.000000;3.336444
3114.000000;3.691472
3113.000000;3.463893
3112.000000;3.203001
3111.000000;3.011589
3110.000000;2.910902
3109.000000;2.938656
3108.000000;3.092138
3107.000000;3.288028
3106.000000;3.367275
3105.000000;3.341607
3104.000000;3.282890
3103.000000;3.227401
3102.000000;3.214592
3101.000000;3.256545
3100.000000;3.313309
3099.000000;3.262302
3098.000000;3.231708
3097.000000;3.204544
3096.000000;3.050105
3095.000000;2.911592
3094.000000;2.830213
3093.000000;2.818223
3092.000000;2.881573
3091.000000;2.893678
3090.000000;2.766401
3089.000000;2.676086
3088.000000;2.677062
3087.000000;2.777053
3086.000000;3.027649
3085.000000;3.141054
3084.000000;2.911860
3083.000000;2.868553
3082.000000;2.977850
3081.000000;3.209902
3080.000000;3.471863
3079.000000;3.220865
3078.000000;2.898245
3077.000000;2.767010
3076.000000;2.735706
3075.000000;2.761718
3074.000000;2.824384
3073.000000;2.899561
3072.000000;2.925271
3071.000000;2.953916
3070.000000;3.108711
3069.000000;3.562219
3068.000000;3.481995
3067.000000;3.361861
3066.000000;3.282548
3065.000000;3.083521
3064.000000;2.975889
3063.000000;2.973589
3062.000000;3.082778
3061.000000;3.305260
3060.000000;3.510357
3059.000000;3.727260
3058.000000;3.453827
3057.000000;3.006288
3056.000000;2.793646
3055.000000;2.676144
3054.000000;2.637516
3053.000000;2.674669
3052.000000;2.791509
3051.000000;2.972193
3050.000000;3.203437
3049.000000;3.233000
3048.000000;3.116750
3047.000000;3.174476
3046.000000;3.835986
3045.000000;3.415051
3044.000000;3.300779
3043.000000;3.542774
3042.000000;3.227627
3041.000000;3.116929
3040.000000;3.157131
3039.000000;3.272363
3038.000000;3.574591
3037.000000;3.950060
3036.000000;3.551022
3035.000000;3.221311
3034.000000;3.088628
3033.000000;3.268958
3032.000000;3.633097
3031.000000;3.154252
3030.000000;2.929116
3029.000000;2.868057
3028.000000;2.952791
3027.000000;3.195552
3026.000000;3.592361
3025.000000;3.860254
3024.000000;3.296560
3023.000000;2.975068
3022.000000;2.832749
3021.000000;2.803905
3020.000000;2.913317
3019.000000;3.047621
3018.000000;2.953028
3017.000000;2.831138
3016.000000;2.754823
3015.000000;2.712748
3014.000000;2.741955
3013.000000;2.862847
3012.000000;3.001440
3011.000000;3.090278
3010.000000;3.252911
3009.000000;3.448658
3008.000000;3.468322
3007.000000;3.249670
3006.000000;3.003053
3005.000000;2.881535
3004.000000;2.861147
3003.000000;2.878182
3002.000000;2.861981
3001.000000;2.798397
3000.000000;2.713784
2999.000000;2.650832
2998.000000;2.661408
2997.000000;2.759838
2996.000000;2.844344
2995.000000;2.805430
2994.000000;2.723813
2993.000000;2.670703
2992.000000;2.687478
2991.000000;2.798109
2990.000000;2.973075
2989.000000;3.127083
2988.000000;3.313353
2987.000000;3.377032
2986.000000;3.255202
2985.000000;3.338108
2984.000000;3.361191
2983.000000;3.240125
2982.000000;3.146332
2981.000000;3.018075
2980.000000;3.078251
2979.000000;3.467884
2978.000000;3.608874
2977.000000;3.389742
2976.000000;3.443427
2975.000000;3.389763
2974.000000;3.236984
2973.000000;3.052568
2972.000000;2.925524
2971.000000;2.861371
2970.000000;2.868562
2969.000000;2.928943
2968.000000;2.990353
2967.000000;3.023486
2966.000000;3.041352
2965.000000;3.018336
2964.000000;2.969565
2963.000000;2.992627
2962.000000;3.218992
2961.000000;3.500049
2960.000000;3.098370
2959.000000;2.902492
2958.000000;2.833673
2957.000000;2.841645
2956.000000;2.918470
2955.000000;3.013724
2954.000000;3.062900
2953.000000;3.066102
2952.000000;3.103938
2951.000000;3.255769
2950.000000;3.410719
2949.000000;3.233933
2948.000000;3.084609
2947.000000;3.144850
2946.000000;3.522097
2945.000000;3.355652
2944.000000;3.036151
2943.000000;2.980664
2942.000000;2.972232
2941.000000;3.020691
2940.000000;3.081194
2939.000000;3.041674
2938.000000;3.001528
2937.000000;3.025190
2936.000000;3.057098
2935.000000;3.098985
2934.000000;3.101943
2933.000000;3.126495
2932.000000;3.435626
2931.000000;3.277353
2930.000000;2.906790
2929.000000;2.793414
2928.000000;2.771298
2927.000000;2.803775
2926.000000;2.904695
2925.000000;2.979738
2924.000000;2.943106
2923.000000;2.958257
2922.000000;3.049414
2921.000000;3.200275
2920.000000;3.532659
2919.000000;3.252782
2918.000000;2.943583
2917.000000;2.907760
2916.000000;3.049965
2915.000000;3.290312
2914.000000;3.115447
2913.000000;2.926297
2912.000000;2.877603
2911.000000;2.888277
2910.000000;2.945246
2909.000000;3.035407
2908.000000;3.107560
2907.000000;3.116715
2906.000000;3.130875
2905.000000;3.294984
2904.000000;3.488658
2903.000000;3.112220
2902.000000;2.877583
2901.000000;2.781692
2900.000000;2.751043
2899.000000;2.745888
2898.000000;2.743663
2897.000000;2.766531
2896.000000;2.827809
2895.000000;2.865235
2894.000000;2.816585
2893.000000;2.754379
2892.000000;2.709115
2891.000000;2.660199
2890.000000;2.611281
2889.000000;2.586752
2888.000000;2.589842
2887.000000;2.605658
2886.000000;2.618565
2885.000000;2.590210
2884.000000;2.541169
2883.000000;2.527883
2882.000000;2.555404
2881.000000;2.619662
2880.000000;2.752464
2879.000000;3.008740
2878.000000;3.490795
2877.000000;3.997204
2876.000000;3.374296
2875.000000;3.069369
2874.000000;2.992300
2873.000000;2.968424
2872.000000;2.919748
2871.000000;2.929054
2870.000000;3.076591
2869.000000;3.354318
2868.000000;3.269732
2867.000000;2.997403
2866.000000;2.897352
2865.000000;2.909236
2864.000000;3.040212
2863.000000;3.539429
2862.000000;3.703959
2861.000000;3.156926
2860.000000;2.855801
2859.000000;2.675365
2858.000000;2.636204
2857.000000;2.770358
2856.000000;3.256784
2855.000000;3.389024
2854.000000;3.056195
2853.000000;2.999942
2852.000000;2.977552
2851.000000;2.983703
2850.000000;3.070311
2849.000000;3.132968
2848.000000;2.974741
2847.000000;2.821674
2846.000000;2.783387
2845.000000;2.855525
2844.000000;2.959649
2843.000000;2.938183
2842.000000;2.809273
2841.000000;2.683286
2840.000000;2.640219
2839.000000;2.693132
2838.000000;2.814294
2837.000000;2.964124
2836.000000;3.139191
2835.000000;3.221873
2834.000000;3.086240
2833.000000;3.033472
2832.000000;3.187571
2831.000000;3.652512
2830.000000;3.692505
2829.000000;3.179010
2828.000000;2.954188
2827.000000;2.872035
2826.000000;2.875566
2825.000000;2.934888
2824.000000;3.003394
2823.000000;3.022407
2822.000000;3.018428
2821.000000;3.100234
2820.000000;3.094026
2819.000000;2.908793
2818.000000;2.821672
2817.000000;2.857641
2816.000000;2.874397
2815.000000;2.802783
2814.000000;2.799338
2813.000000;2.921886
2812.000000;3.224400
2811.000000;3.558260
2810.000000;3.167869
2809.000000;2.885455
2808.000000;2.776271
2807.000000;2.778685
2806.000000;2.878132
2805.000000;3.067657
2804.000000;3.337524
2803.000000;3.367237
2802.000000;3.291527
2801.000000;3.316344
2800.000000;3.318348
2799.000000;3.322219
2798.000000;3.257104
2797.000000;3.183953
2796.000000;3.075487
2795.000000;2.912685
2794.000000;2.802203
2793.000000;2.724132
2792.000000;2.668191
2791.000000;2.675420
2790.000000;2.773395
2789.000000;2.870977
2788.000000;2.867090
2787.000000;2.878041
2786.000000;2.962724
2785.000000;3.074993
2784.000000;3.260099
2783.000000;3.567434
2782.000000;3.367889
2781.000000;2.940902
2780.000000;2.770599
2779.000000;2.736220
2778.000000;2.918351
2777.000000;3.630997
2776.000000;3.130986
2775.000000;2.873209
2774.000000;2.859975
2773.000000;2.807844
2772.000000;2.793747
2771.000000;2.810182
2770.000000;2.917098
2769.000000;3.109767
2768.000000;3.169774
2767.000000;3.086696
2766.000000;3.042945
2765.000000;2.998424
2764.000000;2.975630
2763.000000;2.993295
2762.000000;3.067744
2761.000000;3.119897
2760.000000;3.039791
2759.000000;2.955869
2758.000000;3.010762
2757.000000;3.376691
2756.000000;3.573334
2755.000000;3.221992
2754.000000;3.234319
2753.000000;3.541973
2752.000000;3.364028
2751.000000;3.010184
2750.000000;2.841563
2749.000000;2.829097
2748.000000;2.958739
2747.000000;3.275825
2746.000000;3.904029
2745.000000;3.411621
2744.000000;3.120981
2743.000000;2.938512
2742.000000;2.739801
2741.000000;2.656644
2740.000000;2.703779
2739.000000;2.853308
2738.000000;3.015143
2737.000000;3.060263
2736.000000;3.028446
2735.000000;3.110424
2734.000000;3.217482
2733.000000;3.111338
2732.000000;3.013206
2731.000000;3.027748
2730.000000;3.138757
2729.000000;3.231032
2728.000000;3.251814
2727.000000;3.314250
2726.000000;3.476633
2725.000000;3.564869
2724.000000;3.297332
2723.000000;3.083960
2722.000000;3.085241
2721.000000;3.157987
2720.000000;2.975486
2719.000000;2.835926
2718.000000;2.835036
2717.000000;2.894518
2716.000000;2.949983
2715.000000;3.108440
2714.000000;3.590574
2713.000000;3.394972
2712.000000;3.103060
2711.000000;3.096844
2710.000000;3.033700
2709.000000;2.840466
2708.000000;2.695663
2707.000000;2.685607
2706.000000;2.829672
2705.000000;2.926074
2704.000000;2.838703
2703.000000;2.819463
2702.000000;2.918121
2701.000000;3.068297
2700.000000;2.970711
2699.000000;2.772943
2698.000000;2.675648
2697.000000;2.641610
2696.000000;2.659613
2695.000000;2.725841
2694.000000;2.853653
2693.000000;3.040652
2692.000000;3.063875
2691.000000;2.892257
2690.000000;2.787386
2689.000000;2.743171
2688.000000;2.733180
2687.000000;2.764589
2686.000000;2.944084
2685.000000;3.415896
2684.000000;3.155109
2683.000000;2.817455
2682.000000;2.752376
2681.000000;2.804266
2680.000000;3.020537
2679.000000;3.284894
2678.000000;3.125126
2677.000000;2.972830
2676.000000;2.939574
2675.000000;2.945929
2674.000000;2.996864
2673.000000;3.029630
2672.000000;3.006386
2671.000000;3.000661
2670.000000;3.230636
2669.000000;3.597019
2668.000000;3.160049
2667.000000;2.990497
2666.000000;3.029445
2665.000000;3.047634
2664.000000;2.998167
2663.000000;2.978506
2662.000000;3.124616
2661.000000;3.430185
2660.000000;3.801485
2659.000000;3.522447
2658.000000;3.087959
2657.000000;2.879364
2656.000000;2.790834
2655.000000;2.793673
2654.000000;2.874903
2653.000000;3.233424
2652.000000;3.647999
2651.000000;3.095872
2650.000000;2.926071
2649.000000;2.903003
2648.000000;2.935093
2647.000000;3.010363
2646.000000;3.074938
2645.000000;3.331940
2644.000000;3.634849
2643.000000;3.185858
2642.000000;3.026003
2641.000000;3.206237
2640.000000;3.368057
2639.000000;3.246564
2638.000000;3.225221
2637.000000;3.150144
2636.000000;3.051339
2635.000000;3.087769
2634.000000;3.214503
2633.000000;3.081390
2632.000000;2.853939
2631.000000;2.810205
2630.000000;2.980028
2629.000000;3.306197
2628.000000;3.263393
2627.000000;3.070473
2626.000000;2.979637
2625.000000;2.948749
2624.000000;3.041962
2623.000000;3.139602
2622.000000;3.228372
2621.000000;3.609152
2620.000000;3.244351
2619.000000;2.880987
2618.000000;2.765248
2617.000000;2.728634
2616.000000;2.786098
2615.000000;2.964617
2614.000000;3.199060
2613.000000;3.198692
2612.000000;3.190215
2611.000000;3.393468
2610.000000;3.386694
2609.000000;3.557479
2608.000000;3.795901
2607.000000;3.246007
2606.000000;3.141060
2605.000000;3.389225
2604.000000;3.871486
2603.000000;3.403058
2602.000000;3.113069
2601.000000;2.975878
2600.000000;2.888172
2599.000000;2.878476
2598.000000;2.869716
2597.000000;2.829864
2596.000000;2.835982
2595.000000;2.989326
2594.000000;3.163302
2593.000000;3.092203
2592.000000;3.226323
2591.000000;3.740923
2590.000000;3.277471
2589.000000;3.020885
2588.000000;2.965952
2587.000000;2.966983
2586.000000;3.080805
2585.000000;3.362169
2584.000000;3.470457
2583.000000;3.160578
2582.000000;2.983859
2581.000000;2.857192
2580.000000;2.727672
2579.000000;2.657419
2578.000000;2.660848
2577.000000;2.843855
2576.000000;3.257290
2575.000000;2.982701
2574.000000;2.717118
2573.000000;2.690906
2572.000000;2.784058
2571.000000;2.974631
2570.000000;3.085681
2569.000000;3.082625
2568.000000;3.115660
2567.000000;3.206883
2566.000000;3.349557
2565.000000;3.535683
2564.000000;3.908509
2563.000000;3.871812
2562.000000;3.325889
2561.000000;3.048830
2560.000000;2.959399
2559.000000;2.948287
2558.000000;2.929741
2557.000000;2.933006
2556.000000;3.013291
2555.000000;3.152574
2554.000000;3.412578
2553.000000;3.613282
2552.000000;3.294842
2551.000000;3.101246
2550.000000;3.057654
2549.000000;3.095609
2548.000000;3.247250
2547.000000;3.663956
2546.000000;3.562484
2545.000000;3.186649
2544.000000;3.166525
2543.000000;3.419605
2542.000000;3.516994
2541.000000;3.177531
2540.000000;3.042712
2539.000000;2.991467
2538.000000;3.079419
2537.000000;3.365589
2536.000000;3.197747
2535.000000;3.030298
2534.000000;3.127877
2533.000000;3.316422
2532.000000;3.191081
2531.000000;2.962084
2530.000000;2.859879
2529.000000;2.905571
2528.000000;3.075074
2527.000000;3.136414
2526.000000;3.264446
2525.000000;3.522000
2524.000000;3.332281
2523.000000;3.185117
2522.000000;2.995930
2521.000000;2.844790
2520.000000;2.811680
2519.000000;2.837556
2518.000000;2.862625
2517.000000;2.860574
2516.000000;2.861164
2515.000000;2.902075
2514.000000;3.004778
2513.000000;3.033305
2512.000000;2.951927
2511.000000;2.908850
2510.000000;2.945850
2509.000000;3.031825
2508.000000;3.027826
2507.000000;2.985441
2506.000000;3.063966
2505.000000;3.197588
2504.000000;3.260416
2503.000000;3.347530
2502.000000;3.384367
2501.000000;3.297944
2500.000000;3.176817
2499.000000;3.077051
2498.000000;2.993004
2497.000000;2.879378
2496.000000;2.796988
2495.000000;2.797963
2494.000000;2.905609
2493.000000;3.157521
2492.000000;3.598961
2491.000000;4.305690
2490.000000;4.593694
2489.000000;4.394696
2488.000000;3.662454
2487.000000;3.193663
2486.000000;2.981897
2485.000000;2.896770
2484.000000;2.870679
2483.000000;2.863836
2482.000000;2.841204
2481.000000;2.849100
2480.000000;2.925060
2479.000000;3.093478
2478.000000;3.223233
2477.000000;2.921003
2476.000000;2.702912
2475.000000;2.638443
2474.000000;2.649081
2473.000000;2.689631
2472.000000;2.705286
2471.000000;2.713389
2470.000000;2.759591
2469.000000;3.009172
2468.000000;3.533128
2467.000000;3.187136
2466.000000;3.009645
2465.000000;3.043924
2464.000000;3.064339
2463.000000;2.984746
2462.000000;2.875621
2461.000000;2.864280
2460.000000;2.935319
2459.000000;2.988678
2458.000000;3.037301
2457.000000;3.118215
2456.000000;3.105560
2455.000000;3.048778
2454.000000;3.068454
2453.000000;3.149686
2452.000000;3.302735
2451.000000;3.663748
2450.000000;3.586062
2449.000000;3.212223
2448.000000;3.167053
2447.000000;3.516032
2446.000000;3.331556
2445.000000;2.955030
2444.000000;2.903417
2443.000000;3.018704
2442.000000;3.315818
2441.000000;3.385951
2440.000000;3.127476
2439.000000;3.135876
2438.000000;3.236036
2437.000000;3.147916
2436.000000;3.044237
2435.000000;3.302761
2434.000000;3.529529
2433.000000;3.058234
2432.000000;2.921086
2431.000000;3.046546
2430.000000;3.272145
2429.000000;3.057686
2428.000000;2.867648
2427.000000;2.818094
2426.000000;2.794919
2425.000000;2.813913
2424.000000;2.885993
2423.000000;2.980411
2422.000000;3.028894
2421.000000;2.987932
2420.000000;2.966659
2419.000000;3.068472
2418.000000;3.279825
2417.000000;3.377749
2416.000000;3.230601
2415.000000;3.099320
2414.000000;3.188514
2413.000000;3.314966
2412.000000;3.088798
2411.000000;3.008610
2410.000000;3.107612
2409.000000;3.215969
2408.000000;3.191135
2407.000000;3.002155
2406.000000;2.870025
2405.000000;2.900944
2404.000000;3.113993
2403.000000;3.554285
2402.000000;3.440602
2401.000000;3.139421
2400.000000;2.996152
2399.000000;2.931812
2398.000000;2.950766
2397.000000;3.020604
2396.000000;3.137376
2395.000000;3.077485
2394.000000;2.913537
2393.000000;2.888804
2392.000000;3.108520
2391.000000;3.636661
2390.000000;3.287950
2389.000000;3.145589
2388.000000;3.141517
2387.000000;3.127255
2386.000000;3.206619
2385.000000;3.440917
2384.000000;3.946782
2383.000000;3.586780
2382.000000;3.241347
2381.000000;3.254295
2380.000000;3.348996
2379.000000;3.326610
2378.000000;3.284482
2377.000000;3.217244
2376.000000;3.084206
2375.000000;2.948381
2374.000000;2.861331
2373.000000;2.864660
2372.000000;2.998643
2371.000000;3.243724
2370.000000;3.346297
2369.000000;3.325568
2368.000000;3.283724
2367.000000;3.098737
2366.000000;2.930149
2365.000000;2.905027
2364.000000;3.003030
2363.000000;3.085609
2362.000000;3.089228
2361.000000;3.099498
2360.000000;3.062044
2359.000000;2.984361
2358.000000;2.977673
2357.000000;3.139774
2356.000000;3.376469
2355.000000;3.391249
2354.000000;3.431486
2353.000000;3.431719
2352.000000;3.282773
2351.000000;3.450743
2350.000000;3.454725
2349.000000;3.044934
2348.000000;2.894664
2347.000000;2.881945
2346.000000;2.884347
2345.000000;2.829098
2344.000000;2.736308
2343.000000;2.708011
2342.000000;2.842248
2341.000000;3.284159
2340.000000;3.743844
2339.000000;3.423592
2338.000000;3.050561
2337.000000;2.921281
2336.000000;2.921691
2335.000000;2.905039
2334.000000;2.825926
2333.000000;2.767396
2332.000000;2.812453
2331.000000;2.950197
2330.000000;3.092036
2329.000000;3.119198
2328.000000;3.132192
2327.000000;3.187217
2326.000000;3.089155
2325.000000;2.972839
2324.000000;2.974252
2323.000000;3.062274
2322.000000;3.147687
2321.000000;3.108462
2320.000000;3.009204
2319.000000;2.933036
2318.000000;2.935467
2317.000000;3.074503
2316.000000;3.365460
2315.000000;3.576661
2314.000000;3.313456
2313.000000;3.067248
2312.000000;2.927707
2311.000000;2.843001
2310.000000;2.822889
2309.000000;2.858946
2308.000000;2.911810
2307.000000;2.985661
2306.000000;3.217184
2305.000000;3.734382
2304.000000;3.562143
2303.000000;3.408665
2302.000000;3.472148
2301.000000;3.310679
2300.000000;3.138070
2299.000000;3.051292
2298.000000;3.043723
2297.000000;3.124876
2296.000000;3.160149
2295.000000;3.060538
2294.000000;3.096238
2293.000000;3.716416
2292.000000;3.074384
2291.000000;2.806355
2290.000000;2.836517
2289.000000;2.973344
2288.000000;2.909471
2287.000000;2.792636
2286.000000;2.791471
2285.000000;2.864885
2284.000000;2.968286
2283.000000;3.034114
2282.000000;3.039526
2281.000000;3.048592
2280.000000;3.061254
2279.000000;3.111493
2278.000000;3.204958
2277.000000;3.239813
2276.000000;3.341202
2275.000000;3.313485
2274.000000;3.121916
2273.000000;3.040104
2272.000000;2.949502
2271.000000;2.911363
2270.000000;2.980659
2269.000000;3.086737
2268.000000;3.103323
2267.000000;3.028935
2266.000000;2.968080
2265.000000;2.942362
2264.000000;2.936499
2263.000000;2.962359
2262.000000;3.024273
2261.000000;3.104724
2260.000000;3.222742
2259.000000;3.456819
2258.000000;3.751562
2257.000000;3.786249
2256.000000;3.657687
2255.000000;3.735799
2254.000000;4.189082
2253.000000;3.546934
2252.000000;3.358339
2251.000000;3.173443
2250.000000;3.057808
2249.000000;2.967293
2248.000000;2.853198
2247.000000;2.825772
2246.000000;2.937268
2245.000000;3.172714
2244.000000;3.423225
2243.000000;3.617723
2242.000000;3.278025
2241.000000;2.992765
2240.000000;2.878587
2239.000000;2.838660
2238.000000;2.838070
2237.000000;2.877615
2236.000000;2.988566
2235.000000;3.017145
2234.000000;2.873034
2233.000000;2.821047
2232.000000;2.923091
2231.000000;3.181399
2230.000000;3.471529
2229.000000;3.440085
2228.000000;3.317763
2227.000000;3.348602
2226.000000;3.525407
2225.000000;3.447392
2224.000000;3.208221
2223.000000;3.025932
2222.000000;2.895649
2221.000000;2.842558
2220.000000;2.860554
2219.000000;2.951951
2218.000000;3.092043
2217.000000;3.154667
2216.000000;3.131309
2215.000000;3.076566
2214.000000;3.030375
2213.000000;3.058836
2212.000000;3.221575
2211.000000;3.410566
2210.000000;3.894165
2209.000000;3.437435
2208.000000;3.055642
2207.000000;2.983487
2206.000000;3.038009
2205.000000;3.027664
2204.000000;2.990111
2203.000000;2.999268
2202.000000;3.016811
2201.000000;2.986477
2200.000000;2.947764
2199.000000;3.007108
2198.000000;3.194421
2197.000000;3.099865
2196.000000;2.869402
2195.000000;2.839079
2194.000000;2.966071
2193.000000;3.237481
2192.000000;3.311255
2191.000000;3.244904
2190.000000;3.376137
2189.000000;3.379420
2188.000000;3.164901
2187.000000;3.008591
2186.000000;2.929799
2185.000000;2.931116
2184.000000;2.982885
2183.000000;2.950305
2182.000000;2.914051
2181.000000;3.019217
2180.000000;3.209753
2179.000000;3.000840
2178.000000;2.865414
2177.000000;2.893729
2176.000000;3.049257
2175.000000;3.108906
2174.000000;2.878320
2173.000000;2.706988
2172.000000;2.646891
2171.000000;2.669846
2170.000000;2.723126
2169.000000;2.760011
2168.000000;2.780684
2167.000000;2.857350
2166.000000;3.017221
2165.000000;3.522695
2164.000000;3.679378
2163.000000;3.322844
2162.000000;3.396144
2161.000000;3.058295
2160.000000;2.832115
2159.000000;2.778114
2158.000000;2.789107
2157.000000;2.818945
2156.000000;2.913043
2155.000000;3.214535
2154.000000;3.445154
2153.000000;3.072997
2152.000000;2.924489
2151.000000;2.879451
2150.000000;2.961094
2149.000000;3.118002
2148.000000;2.941643
2147.000000;2.788277
2146.000000;2.784321
2145.000000;2.910356
2144.000000;3.173983
2143.000000;3.357162
2142.000000;3.268917
2141.000000;3.279548
2140.000000;3.145508
2139.000000;2.948887
2138.000000;2.901895
2137.000000;3.033477
2136.000000;3.339892
2135.000000;3.419944
2134.000000;3.348802
2133.000000;3.629500
2132.000000;3.642375
2131.000000;3.076847
2130.000000;2.869688
2129.000000;2.886853
2128.000000;3.148362
2127.000000;3.315305
2126.000000;3.046146
2125.000000;3.036054
2124.000000;3.251859
2123.000000;3.507508
2122.000000;3.453193
2121.000000;3.284466
2120.000000;3.154974
2119.000000;3.169929
2118.000000;3.206178
2117.000000;3.289622
2116.000000;3.427596
2115.000000;3.325946
2114.000000;3.058018
2113.000000;2.884719
2112.000000;2.831529
2111.000000;2.847141
2110.000000;2.895454
2109.000000;2.997059
2108.000000;3.286999
2107.000000;3.354053
2106.000000;3.110947
2105.000000;2.959186
2104.000000;2.856244
2103.000000;2.783896
2102.000000;2.688821
2101.000000;2.594005
2100.000000;2.541022
2099.000000;2.560616
2098.000000;2.694149
2097.000000;3.023402
2096.000000;3.227050
2095.000000;2.919618
2094.000000;2.839371
2093.000000;2.837913
2092.000000;2.906484
2091.000000;3.105446
2090.000000;3.566530
2089.000000;3.620050
2088.000000;3.369097
2087.000000;3.139689
2086.000000;2.971970
2085.000000;2.961741
2084.000000;3.127579
2083.000000;3.309180
2082.000000;3.118638
2081.000000;3.026220
2080.000000;3.005164
2079.000000;2.928056
2078.000000;2.941999
2077.000000;3.108837
2076.000000;3.619327
2075.000000;3.307439
2074.000000;2.990080
2073.000000;2.887770
2072.000000;2.937402
2071.000000;3.148030
2070.000000;3.142163
2069.000000;2.835430
2068.000000;2.673192
2067.000000;2.641426
2066.000000;2.717426
2065.000000;2.939653
2064.000000;3.297757
2063.000000;2.970553
2062.000000;2.775720
2061.000000;2.817910
2060.000000;3.184216
2059.000000;3.674095
2058.000000;3.300605
2057.000000;3.794755
2056.000000;3.537656
2055.000000;3.124656
2054.000000;3.050549
2053.000000;3.050067
2052.000000;3.160965
2051.000000;3.431524
2050.000000;3.707827
2049.000000;3.304410
2048.000000;3.083406
2047.000000;2.994242
2046.000000;2.914417
2045.000000;2.798997
2044.000000;2.720865
2043.000000;2.739920
2042.000000;2.881503
2041.000000;3.153221
2040.000000;3.491401
2039.000000;3.697921
2038.000000;3.789258
2037.000000;3.835681
2036.000000;3.940038
2035.000000;3.880491
2034.000000;3.727746
2033.000000;3.787695
2032.000000;3.237184
2031.000000;2.915147
2030.000000;2.822267
2029.000000;2.879386
2028.000000;3.111610
2027.000000;3.430382
2026.000000;3.294535
2025.000000;3.151323
2024.000000;3.153470
2023.000000;3.271533
2022.000000;3.546171
2021.000000;3.488132
2020.000000;3.130183
2019.000000;2.900886
2018.000000;2.840439
2017.000000;2.964119
2016.000000;3.397548
2015.000000;3.676238
2014.000000;3.282344
2013.000000;3.306759
2012.000000;3.483157
2011.000000;3.718906
2010.000000;3.402818
2009.000000;3.204879
2008.000000;3.132474
2007.000000;3.119296
2006.000000;3.130961
2005.000000;3.137538
2004.000000;3.094814
2003.000000;3.019422
2002.000000;3.019609
2001.000000;3.103810
2000.000000;3.150424
1999.000000;3.154726
1998.000000;3.176416
1997.000000;3.218035
1996.000000;3.268201
1995.000000;3.221525
1994.000000;3.089363
1993.000000;2.979585
1992.000000;2.915422
1991.000000;2.833565
1990.000000;2.742883
1989.000000;2.740147
1988.000000;2.893622
1987.000000;3.151417
1986.000000;3.103954
1985.000000;2.981234
1984.000000;2.903159
1983.000000;2.848912
1982.000000;2.812289
1981.000000;2.835780
1980.000000;3.025857
1979.000000;3.368116
1978.000000;3.237928
1977.000000;3.121926
1976.000000;3.227260
1975.000000;3.041989
1974.000000;2.791388
1973.000000;2.674780
1972.000000;2.639022
1971.000000;2.659984
1970.000000;2.751917
1969.000000;3.024455
1968.000000;3.486860
1967.000000;2.966237
1966.000000;2.806762
1965.000000;2.864982
1964.000000;3.091926
1963.000000;3.582484
1962.000000;3.355179
1961.000000;3.144431
1960.000000;3.134312
1959.000000;3.280664
1958.000000;3.482074
1957.000000;3.546318
1956.000000;3.664147
1955.000000;3.536756
1954.000000;3.304454
1953.000000;3.254153
1952.000000;3.321406
1951.000000;3.216498
1950.000000;3.071243
1949.000000;3.179906
1948.000000;3.377749
1947.000000;3.204662
1946.000000;3.114404
1945.000000;3.186706
1944.000000;3.374829
1943.000000;3.415551
1942.000000;3.165968
1941.000000;3.048378
1940.000000;3.027635
1939.000000;3.003739
1938.000000;2.996841
1937.000000;3.063735
1936.000000;3.140314
1935.000000;3.116195
1934.000000;3.105803
1933.000000;3.131427
1932.000000;3.060827
1931.000000;2.893359
1930.000000;2.761649
1929.000000;2.697761
1928.000000;2.705326
1927.000000;2.800255
1926.000000;3.010047
1925.000000;3.343428
1924.000000;3.598644
1923.000000;3.777311
1922.000000;3.571795
1921.000000;3.177165
1920.000000;2.971368
1919.000000;2.886340
1918.000000;2.886684
1917.000000;2.813889
1916.000000;2.654836
1915.000000;2.569983
1914.000000;2.586353
1913.000000;2.685173
1912.000000;2.871645
1911.000000;3.144785
1910.000000;3.303376
1909.000000;3.270445
1908.000000;3.229737
1907.000000;3.288619
1906.000000;3.436812
1905.000000;3.559096
1904.000000;3.610242
1903.000000;3.484715
1902.000000;3.486322
1901.000000;3.491147
1900.000000;3.229728
1899.000000;3.100952
1898.000000;3.225226
1897.000000;3.259437
1896.000000;3.042108
1895.000000;3.006197
1894.000000;3.162856
1893.000000;3.347416
1892.000000;3.290280
1891.000000;3.172213
1890.000000;3.016909
1889.000000;2.819935
1888.000000;2.673022
1887.000000;2.609560
1886.000000;2.630214
1885.000000;2.720813
1884.000000;2.844435
1883.000000;2.948596
1882.000000;3.029506
1881.000000;3.089117
1880.000000;3.099200
1879.000000;3.083416
1878.000000;3.020730
1877.000000;2.921765
1876.000000;2.842678
1875.000000;2.813969
1874.000000;2.845037
1873.000000;2.939315
1872.000000;3.327801
1871.000000;3.570942
1870.000000;3.099394
1869.000000;3.024673
1868.000000;3.086986
1867.000000;3.132281
1866.000000;3.173600
1865.000000;3.329746
1864.000000;3.320288
1863.000000;3.147908
1862.000000;3.043299
1861.000000;3.024539
1860.000000;3.089588
1859.000000;3.112680
1858.000000;3.058473
1857.000000;3.043418
1856.000000;3.110446
1855.000000;3.308253
1854.000000;3.651812
1853.000000;3.718579
1852.000000;3.646521
1851.000000;3.545223
1850.000000;3.382486
1849.000000;3.275792
1848.000000;3.195611
1847.000000;3.118330
1846.000000;2.992902
1845.000000;2.825777
1844.000000;2.691083
1843.000000;2.638851
1842.000000;2.691354
1841.000000;2.854057
1840.000000;3.158115
1839.000000;3.396242
1838.000000;3.301102
1837.000000;3.329487
1836.000000;3.391994
1835.000000;3.278225
1834.000000;3.201094
1833.000000;3.259526
1832.000000;3.610304
1831.000000;3.754004
1830.000000;3.334157
1829.000000;3.319196
1828.000000;3.363621
1827.000000;3.234741
1826.000000;3.147966
1825.000000;3.018572
1824.000000;2.934747
1823.000000;2.957963
1822.000000;3.026946
1821.000000;3.022455
1820.000000;2.956926
1819.000000;2.920299
1818.000000;2.863700
1817.000000;2.798672
1816.000000;2.798602
1815.000000;2.892521
1814.000000;3.281659
1813.000000;3.352182
1812.000000;2.939788
1811.000000;2.850282
1810.000000;3.056406
1809.000000;3.315966
1808.000000;2.985843
1807.000000;2.881129
1806.000000;2.960619
1805.000000;3.042825
1804.000000;3.151373
1803.000000;3.280570
1802.000000;3.257894
1801.000000;3.120130
1800.000000;2.972369
1799.000000;2.888146
1798.000000;2.903158
1797.000000;3.199215
1796.000000;3.808348
1795.000000;3.188030
1794.000000;2.983937
1793.000000;2.912821
1792.000000;2.883428
1791.000000;2.877546
1790.000000;2.858914
1789.000000;2.850961
1788.000000;2.869486
1787.000000;2.916559
1786.000000;2.944490
1785.000000;2.959858
1784.000000;3.078328
1783.000000;3.235790
1782.000000;3.054027
1781.000000;2.910281
1780.000000;2.919079
1779.000000;2.973544
1778.000000;3.024348
1777.000000;3.055773
1776.000000;3.036598
1775.000000;2.948723
1774.000000;2.802653
1773.000000;2.672531
1772.000000;2.616285
1771.000000;2.651653
1770.000000;2.806215
1769.000000;3.033788
1768.000000;3.075373
1767.000000;3.018202
1766.000000;3.002424
1765.000000;2.946572
1764.000000;2.903527
1763.000000;2.930032
1762.000000;3.001667
1761.000000;3.090945
1760.000000;3.171911
1759.000000;3.258140
1758.000000;3.376570
1757.000000;3.248006
1756.000000;3.015454
1755.000000;2.920375
1754.000000;2.994358
1753.000000;3.091535
1752.000000;2.949367
1751.000000;2.800528
1750.000000;2.738506
1749.000000;2.751674
1748.000000;2.843555
1747.000000;3.020772
1746.000000;3.308055
1745.000000;3.659970
1744.000000;3.597902
1743.000000;3.216866
1742.000000;2.989043
1741.000000;2.909520
1740.000000;2.914085
1739.000000;2.897301
1738.000000;2.841159
1737.000000;2.827828
1736.000000;2.875730
1735.000000;2.972580
1734.000000;3.058906
1733.000000;3.079211
1732.000000;3.069079
1731.000000;3.075858
1730.000000;3.058693
1729.000000;3.041583
1728.000000;2.946454
1727.000000;2.951449
1726.000000;3.291128
1725.000000;3.145532
1724.000000;2.866849
1723.000000;2.878514
1722.000000;3.071617
1721.000000;3.484251
1720.000000;3.723795
1719.000000;3.431926
1718.000000;3.279372
1717.000000;3.400727
1716.000000;3.777214
1715.000000;3.473082
1714.000000;3.142601
1713.000000;2.968752
1712.000000;2.898115
1711.000000;2.951222
1710.000000;3.115002
1709.000000;3.361213
1708.000000;3.463597
1707.000000;3.550385
1706.000000;3.780062
1705.000000;3.235456
1704.000000;2.988084
1703.000000;3.150243
1702.000000;3.383632
1701.000000;3.161245
1700.000000;3.006561
1699.000000;2.987840
1698.000000;3.014578
1697.000000;3.004331
1696.000000;2.983979
1695.000000;3.006316
1694.000000;3.092919
1693.000000;3.257061
1692.000000;3.396179
1691.000000;3.406382
1690.000000;3.332509
1689.000000;3.495030
1688.000000;3.554141
1687.000000;3.258094
1686.000000;3.363067
1685.000000;3.396314
1684.000000;3.089796
1683.000000;2.890565
1682.000000;2.771770
1681.000000;2.743296
1680.000000;2.759447
1679.000000;2.814829
1678.000000;2.921371
1677.000000;3.147970
1676.000000;3.672533
1675.000000;3.364249
1674.000000;3.260329
1673.000000;3.686285
1672.000000;3.630848
1671.000000;3.497132
1670.000000;3.681823
1669.000000;3.550334
1668.000000;3.087985
1667.000000;2.922336
1666.000000;2.962474
1665.000000;3.116591
1664.000000;3.363912
1663.000000;3.510109
1662.000000;3.433743
1661.000000;3.343579
1660.000000;3.420509
1659.000000;3.348431
1658.000000;3.146128
1657.000000;2.980474
1656.000000;2.899180
1655.000000;2.872415
1654.000000;2.916173
1653.000000;3.435322
1652.000000;3.370349
1651.000000;2.974571
1650.000000;3.026333
1649.000000;3.147183
1648.000000;3.061960
1647.000000;2.866413
1646.000000;2.821719
1645.000000;3.084810
1644.000000;3.896487
1643.000000;3.245963
1642.000000;3.018107
1641.000000;3.044130
1640.000000;3.106783
1639.000000;3.431963
1638.000000;3.288548
1637.000000;2.826487
1636.000000;2.717945
1635.000000;2.803588
1634.000000;3.026698
1633.000000;3.163870
1632.000000;2.974496
1631.000000;2.861584
1630.000000;2.837489
1629.000000;2.882818
1628.000000;2.919943
1627.000000;2.839382
1626.000000;2.675920
1625.000000;2.517594
1624.000000;2.391407
1623.000000;2.325081
1622.000000;2.352352
1621.000000;2.505543
1620.000000;2.760254
1619.000000;3.176079
1618.000000;3.695952
1617.000000;3.145581
1616.000000;2.930581
1615.000000;2.884046
1614.000000;2.902258
1613.000000;2.998752
1612.000000;3.258339
1611.000000;3.467588
1610.000000;3.090696
1609.000000;2.925706
1608.000000;2.929681
1607.000000;3.036042
1606.000000;3.206703
1605.000000;3.212403
1604.000000;3.020715
1603.000000;2.908519
1602.000000;2.924146
1601.000000;3.062366
1600.000000;3.443839
1599.000000;3.749116
1598.000000;3.192432
1597.000000;2.975221
1596.000000;2.919099
1595.000000;3.073804
1594.000000;3.795978
1593.000000;3.322824
1592.000000;3.046855
1591.000000;3.053179
1590.000000;2.952387
1589.000000;2.870087
1588.000000;2.864032
1587.000000;3.087182
1586.000000;3.574346
1585.000000;3.324317
1584.000000;3.105648
1583.000000;2.943129
1582.000000;2.797775
1581.000000;2.753918
1580.000000;2.803029
1579.000000;2.932903
1578.000000;3.084321
1577.000000;3.339459
1576.000000;3.466705
1575.000000;3.249492
1574.000000;3.191685
1573.000000;3.296722
1572.000000;3.387309
1571.000000;3.220740
1570.000000;3.084763
1569.000000;3.275884
1568.000000;3.639083
1567.000000;3.251048
1566.000000;3.217111
1565.000000;3.495045
1564.000000;3.194865
1563.000000;2.975614
1562.000000;3.012943
1561.000000;3.205212
1560.000000;3.303585
1559.000000;3.219358
1558.000000;3.190428
1557.000000;3.103106
1556.000000;3.039738
1555.000000;2.975793
1554.000000;2.857826
1553.000000;2.829798
1552.000000;2.891666
1551.000000;2.978836
1550.000000;3.003533
1549.000000;3.022147
1548.000000;3.093681
1547.000000;2.947399
1546.000000;2.736798
1545.000000;2.683783
1544.000000;2.761568
1543.000000;2.969061
1542.000000;3.123311
1541.000000;3.162197
1540.000000;3.608183
1539.000000;3.520852
1538.000000;3.244595
1537.000000;3.269573
1536.000000;3.163246
1535.000000;2.967081
1534.000000;2.793996
1533.000000;2.737678
1532.000000;2.804875
1531.000000;2.957504
1530.000000;3.134258
1529.000000;3.170130
1528.000000;3.048022
1527.000000;3.089557
1526.000000;3.397203
1525.000000;3.493865
1524.000000;3.356552
1523.000000;3.205757
1522.000000;2.962967
1521.000000;2.809507
1520.000000;2.746152
1519.000000;2.759943
1518.000000;2.825328
1517.000000;2.928125
1516.000000;3.166365
1515.000000;3.307779
1514.000000;3.127154
1513.000000;3.054616
1512.000000;3.012605
1511.000000;2.929092
1510.000000;2.877236
1509.000000;2.870605
1508.000000;2.911404
1507.000000;2.982929
1506.000000;3.039325
1505.000000;3.045297
1504.000000;3.077462
1503.000000;3.141135
1502.000000;3.206280
1501.000000;3.311534
1500.000000;3.182533
1499.000000;2.987400
1498.000000;2.973194
1497.000000;2.990968
1496.000000;3.055393
1495.000000;3.333060
1494.000000;3.331618
1493.000000;3.067303
1492.000000;3.047785
1491.000000;3.237641
1490.000000;3.219362
1489.000000;3.045972
1488.000000;3.067805
1487.000000;3.326404
1486.000000;3.691239
1485.000000;3.425587
1484.000000;3.295252
1483.000000;3.271282
1482.000000;3.177618
1481.000000;3.037656
1480.000000;3.073506
1479.000000;3.446611
1478.000000;3.254057
1477.000000;2.970245
1476.000000;2.923003
1475.000000;2.914661
1474.000000;2.901165
1473.000000;2.903303
1472.000000;2.922864
1471.000000;2.920901
1470.000000;2.891641
1469.000000;2.858388
1468.000000;2.851274
1467.000000;2.882780
1466.000000;2.976952
1465.000000;3.076662
1464.000000;3.164533
1463.000000;3.150074
1462.000000;3.161911
1461.000000;3.617066
1460.000000;3.449796
1459.000000;3.056134
1458.000000;3.010420
1457.000000;3.050572
1456.000000;3.087270
1455.000000;3.132558
1454.000000;3.159429
1453.000000;3.077404
1452.000000;2.978010
1451.000000;2.975403
1450.000000;3.082502
1449.000000;3.312647
1448.000000;3.462535
1447.000000;3.498050
1446.000000;3.715051
1445.000000;3.452885
1444.000000;3.177554
1443.000000;3.047639
1442.000000;2.959564
1441.000000;2.962783
1440.000000;3.032721
1439.000000;3.019780
1438.000000;2.970191
1437.000000;3.010694
1436.000000;3.128734
1435.000000;3.293066
1434.000000;3.271973
1433.000000;3.070709
1432.000000;2.955506
1431.000000;2.953850
1430.000000;3.024005
1429.000000;3.075807
1428.000000;3.147940
1427.000000;3.390813
1426.000000;3.850319
1425.000000;3.663442
1424.000000;3.194168
1423.000000;3.021423
1422.000000;3.059144
1421.000000;3.164954
1420.000000;3.148118
1419.000000;3.106661
1418.000000;3.141616
1417.000000;3.247935
1416.000000;3.458845
1415.000000;3.447781
1414.000000;3.156653
1413.000000;3.007849
1412.000000;3.026003
1411.000000;3.160094
1410.000000;3.213523
1409.000000;3.243919
1408.000000;3.275300
1407.000000;3.033550
1406.000000;2.817416
1405.000000;2.729715
1404.000000;2.736292
1403.000000;2.788138
1402.000000;2.812981
1401.000000;2.818762
1400.000000;2.867286
1399.000000;3.025429
1398.000000;3.247905
1397.000000;3.570103
1396.000000;3.936528
1395.000000;3.333307
1394.000000;3.139033
1393.000000;3.169107
1392.000000;3.421535
1391.000000;3.903406
1390.000000;3.896340
1389.000000;3.827745
1388.000000;3.580823
1387.000000;3.266428
1386.000000;3.068354
1385.000000;2.947527
1384.000000;2.881215
1383.000000;2.835320
1382.000000;2.842048
1381.000000;2.924246
1380.000000;3.118151
1379.000000;3.795707
1378.000000;3.518706
1377.000000;3.134798
1376.000000;3.064228
1375.000000;3.035700
1374.000000;3.044413
1373.000000;3.095028
1372.000000;3.225549
1371.000000;3.336228
1370.000000;3.408965
1369.000000;3.421968
1368.000000;3.296430
1367.000000;3.232569
1366.000000;3.095413
1365.000000;3.019253
1364.000000;3.092177
1363.000000;3.081421
1362.000000;3.006139
1361.000000;3.037217
1360.000000;3.126932
1359.000000;3.344284
1358.000000;3.581834
1357.000000;3.345091
1356.000000;3.239093
1355.000000;3.341983
1354.000000;3.445593
1353.000000;3.455856
1352.000000;3.377046
1351.000000;3.235939
1350.000000;3.161465
1349.000000;3.187832
1348.000000;3.231982
1347.000000;3.182882
1346.000000;3.103945
1345.000000;3.100146
1344.000000;3.169300
1343.000000;3.448750
1342.000000;3.629057
1341.000000;3.167600
1340.000000;3.115516
1339.000000;3.259858
1338.000000;3.325065
1337.000000;3.416376
1336.000000;3.529769
1335.000000;3.264219
1334.000000;3.130973
1333.000000;3.081982
1332.000000;2.896188
1331.000000;2.737504
1330.000000;2.700920
1329.000000;2.789864
1328.000000;2.984895
1327.000000;3.191065
1326.000000;3.366642
1325.000000;3.490146
1324.000000;3.639255
1323.000000;3.590727
1322.000000;3.280027
1321.000000;3.123924
1320.000000;3.167306
1319.000000;3.172256
1318.000000;2.882446
1317.000000;2.742335
1316.000000;2.800105
1315.000000;3.030705
1314.000000;3.209228
1313.000000;3.175951
1312.000000;3.288852
1311.000000;3.574926
1310.000000;3.542062
1309.000000;3.251850
1308.000000;3.183359
1307.000000;3.254481
1306.000000;3.475478
1305.000000;3.969763
1304.000000;3.507879
1303.000000;3.107645
1302.000000;2.977848
1301.000000;2.985387
1300.000000;3.120808
1299.000000;3.363282
1298.000000;3.511530
1297.000000;3.429989
1296.000000;3.402966
1295.000000;3.201498
1294.000000;2.980861
1293.000000;2.909919
1292.000000;2.942107
1291.000000;2.984897
1290.000000;2.985032
1289.000000;2.974933
1288.000000;2.973989
1287.000000;2.997807
1286.000000;3.150190
1285.000000;3.621964
1284.000000;3.619883
1283.000000;3.406415
1282.000000;3.818163
1281.000000;3.630978
1280.000000;3.397911
1279.000000;3.513845
1278.000000;3.280239
1277.000000;3.078307
1276.000000;3.054820
1275.000000;3.188159
1274.000000;3.362424
1273.000000;3.197625
1272.000000;3.058636
1271.000000;3.080694
1270.000000;3.222926
1269.000000;3.260828
1268.000000;3.164484
1267.000000;3.232632
1266.000000;3.407619
1265.000000;3.317558
1264.000000;3.286411
1263.000000;3.366161
1262.000000;3.365094
1261.000000;3.252655
1260.000000;3.188718
1259.000000;3.209586
1258.000000;3.196469
1257.000000;3.033253
1256.000000;2.837467
1255.000000;2.694742
1254.000000;2.615798
1253.000000;2.597338
1252.000000;2.613440
1251.000000;2.633265
1250.000000;2.681115
1249.000000;2.791587
1248.000000;2.910142
1247.000000;2.961772
1246.000000;2.979893
1245.000000;2.991674
1244.000000;3.019838
1243.000000;3.047767
1242.000000;2.985877
1241.000000;2.925035
1240.000000;2.971276
1239.000000;3.113526
1238.000000;3.277596
1237.000000;3.591549
1236.000000;3.425152
1235.000000;3.138440
1234.000000;3.131283
1233.000000;3.214162
1232.000000;3.263108
1231.000000;3.372646
1230.000000;3.487439
1229.000000;3.298412
1228.000000;3.059203
1227.000000;2.966235
1226.000000;2.956159
1225.000000;2.935809
1224.000000;2.862360
1223.000000;2.802684
1222.000000;2.835295
1221.000000;2.985987
1220.000000;3.599167
1219.000000;3.371635
1218.000000;3.047598
1217.000000;3.043448
1216.000000;3.090814
1215.000000;3.217568
1214.000000;3.283198
1213.000000;3.203565
1212.000000;3.160265
1211.000000;3.192858
1210.000000;3.373219
1209.000000;3.940580
1208.000000;3.345044
1207.000000;2.982519
1206.000000;2.771643
1205.000000;2.652969
1204.000000;2.626289
1203.000000;2.685805
1202.000000;2.777002
1201.000000;2.820366
1200.000000;2.810934
