Criado como novo conjunto de dados;"e0108.spp","-4270484.0 Secs"
cm-1;Abs
10000.000000;1.044779
9999.000000;1.044068
9998.000000;1.044190
9997.000000;1.044623
9996.000000;1.044459
9995.000000;1.043746
9994.000000;1.043135
9993.000000;1.043049
9992.000000;1.043130
9991.000000;1.042980
9990.000000;1.042683
9989.000000;1.042508
9988.000000;1.042349
9987.000000;1.041891
9986.000000;1.041180
9985.000000;1.040646
9984.000000;1.040524
9983.000000;1.040510
9982.000000;1.040109
9981.000000;1.039203
9980.000000;1.038178
9979.000000;1.037533
9978.000000;1.037413
9977.000000;1.037531
9976.000000;1.037542
9975.000000;1.037341
9974.000000;1.036920
9973.000000;1.036167
9972.000000;1.035073
9971.000000;1.034064
9970.000000;1.033794
9969.000000;1.034428
9968.000000;1.035346
9967.000000;1.035765
9966.000000;1.035468
9965.000000;1.034713
9964.000000;1.033710
9963.000000;1.032619
9962.000000;1.031865
9961.000000;1.031857
9960.000000;1.032334
9959.000000;1.032459
9958.000000;1.031746
9957.000000;1.030512
9956.000000;1.029276
9955.000000;1.028166
9954.000000;1.027163
9953.000000;1.026502
9952.000000;1.026400
9951.000000;1.026567
9950.000000;1.026421
9949.000000;1.025752
9948.000000;1.024909
9947.000000;1.024371
9946.000000;1.024428
9945.000000;1.025156
9944.000000;1.026344
9943.000000;1.027421
9942.000000;1.027778
9941.000000;1.027219
9940.000000;1.025956
9939.000000;1.024335
9938.000000;1.022894
9937.000000;1.022542
9936.000000;1.023982
9935.000000;1.026649
9934.000000;1.028673
9933.000000;1.028455
9932.000000;1.026203
9931.000000;1.023584
9930.000000;1.021986
9929.000000;1.021511
9928.000000;1.021556
9927.000000;1.021799
9926.000000;1.022292
9925.000000;1.022807
9924.000000;1.022617
9923.000000;1.021194
9922.000000;1.019018
9921.000000;1.017401
9920.000000;1.017349
9919.000000;1.018640
9918.000000;1.020073
9917.000000;1.020656
9916.000000;1.020439
9915.000000;1.020076
9914.000000;1.019765
9913.000000;1.018940
9912.000000;1.017132
9911.000000;1.014828
9910.000000;1.013129
9909.000000;1.012572
9908.000000;1.012633
9907.000000;1.012461
9906.000000;1.011779
9905.000000;1.010866
9904.000000;1.009991
9903.000000;1.009293
9902.000000;1.009010
9901.000000;1.009346
9900.000000;1.010087
9899.000000;1.010697
9898.000000;1.010842
9897.000000;1.010482
9896.000000;1.009557
9895.000000;1.008183
9894.000000;1.007180
9893.000000;1.007617
9892.000000;1.009447
9891.000000;1.011111
9890.000000;1.011059
9889.000000;1.009395
9888.000000;1.007445
9887.000000;1.006083
9886.000000;1.005181
9885.000000;1.004459
9884.000000;1.004078
9883.000000;1.004302
9882.000000;1.005102
9881.000000;1.006233
9880.000000;1.007251
9879.000000;1.007413
9878.000000;1.006087
9877.000000;1.003517
9876.000000;1.000826
9875.000000;0.999101
9874.000000;0.998656
9873.000000;0.999114
9872.000000;0.999849
9871.000000;1.000338
9870.000000;1.000509
9869.000000;1.000775
9868.000000;1.001347
9867.000000;1.001602
9866.000000;1.000718
9865.000000;0.998992
9864.000000;0.997774
9863.000000;0.997811
9862.000000;0.998363
9861.000000;0.998364
9860.000000;0.997814
9859.000000;0.997406
9858.000000;0.997274
9857.000000;0.997007
9856.000000;0.996709
9855.000000;0.997149
9854.000000;0.998640
9853.000000;1.000383
9852.000000;1.001238
9851.000000;1.000827
9850.000000;0.999628
9849.000000;0.998252
9848.000000;0.996881
9847.000000;0.995320
9846.000000;0.993416
9845.000000;0.991461
9844.000000;0.990114
9843.000000;0.989719
9842.000000;0.989730
9841.000000;0.989171
9840.000000;0.987814
9839.000000;0.986595
9838.000000;0.986681
9837.000000;0.988286
9836.000000;0.990519
9835.000000;0.992234
9834.000000;0.992824
9833.000000;0.992289
9832.000000;0.990929
9831.000000;0.989162
9830.000000;0.987464
9829.000000;0.986222
9828.000000;0.985616
9827.000000;0.985661
9826.000000;0.986240
9825.000000;0.986990
9824.000000;0.987337
9823.000000;0.986964
9822.000000;0.986292
9821.000000;0.986170
9820.000000;0.986916
9819.000000;0.987844
9818.000000;0.987945
9817.000000;0.986930
9816.000000;0.985392
9815.000000;0.984076
9814.000000;0.983329
9813.000000;0.983180
9812.000000;0.983521
9811.000000;0.984072
9810.000000;0.984453
9809.000000;0.984503
9808.000000;0.984344
9807.000000;0.984010
9806.000000;0.983243
9805.000000;0.981895
9804.000000;0.980347
9803.000000;0.979327
9802.000000;0.979374
9801.000000;0.980496
9800.000000;0.982185
9799.000000;0.983629
9798.000000;0.984116
9797.000000;0.983525
9796.000000;0.982422
9795.000000;0.981523
9794.000000;0.981122
9793.000000;0.981038
9792.000000;0.980965
9791.000000;0.980669
9790.000000;0.979995
9789.000000;0.978951
9788.000000;0.977813
9787.000000;0.976981
9786.000000;0.976668
9785.000000;0.976774
9784.000000;0.976939
9783.000000;0.976696
9782.000000;0.975721
9781.000000;0.974174
9780.000000;0.972702
9779.000000;0.971928
9778.000000;0.971960
9777.000000;0.972469
9776.000000;0.973080
9775.000000;0.973521
9774.000000;0.973569
9773.000000;0.973220
9772.000000;0.972882
9771.000000;0.973044
9770.000000;0.973634
9769.000000;0.973957
9768.000000;0.973409
9767.000000;0.972112
9766.000000;0.970730
9765.000000;0.969812
9764.000000;0.969403
9763.000000;0.969140
9762.000000;0.968543
9761.000000;0.967364
9760.000000;0.965856
9759.000000;0.964709
9758.000000;0.964512
9757.000000;0.965216
9756.000000;0.966167
9755.000000;0.966722
9754.000000;0.966794
9753.000000;0.966761
9752.000000;0.966871
9751.000000;0.966838
9750.000000;0.966102
9749.000000;0.964496
9748.000000;0.962635
9747.000000;0.961546
9746.000000;0.961827
9745.000000;0.963080
9744.000000;0.964165
9743.000000;0.964139
9742.000000;0.963111
9741.000000;0.962114
9740.000000;0.962039
9739.000000;0.962715
9738.000000;0.963164
9737.000000;0.962703
9736.000000;0.961594
9735.000000;0.960525
9734.000000;0.959796
9733.000000;0.959280
9732.000000;0.958951
9731.000000;0.958998
9730.000000;0.959408
9729.000000;0.959768
9728.000000;0.959675
9727.000000;0.959116
9726.000000;0.958287
9725.000000;0.957244
9724.000000;0.955956
9723.000000;0.954568
9722.000000;0.953365
9721.000000;0.952521
9720.000000;0.952096
9719.000000;0.952225
9718.000000;0.953020
9717.000000;0.954199
9716.000000;0.955043
9715.000000;0.954941
9714.000000;0.953902
9713.000000;0.952464
9712.000000;0.951214
9711.000000;0.950515
9710.000000;0.950498
9709.000000;0.951030
9708.000000;0.951663
9707.000000;0.951871
9706.000000;0.951469
9705.000000;0.950739
9704.000000;0.950072
9703.000000;0.949629
9702.000000;0.949383
9701.000000;0.949299
9700.000000;0.949314
9699.000000;0.949262
9698.000000;0.949009
9697.000000;0.948641
9696.000000;0.948345
9695.000000;0.948152
9694.000000;0.947962
9693.000000;0.947802
9692.000000;0.947816
9691.000000;0.947944
9690.000000;0.947812
9689.000000;0.947128
9688.000000;0.946112
9687.000000;0.945402
9686.000000;0.945495
9685.000000;0.946289
9684.000000;0.947112
9683.000000;0.947225
9682.000000;0.946473
9681.000000;0.945513
9680.000000;0.945208
9679.000000;0.945695
9678.000000;0.946195
9677.000000;0.945954
9676.000000;0.945177
9675.000000;0.944709
9674.000000;0.944882
9673.000000;0.945138
9672.000000;0.944885
9671.000000;0.944313
9670.000000;0.944029
9669.000000;0.944147
9668.000000;0.944166
9667.000000;0.943682
9666.000000;0.942840
9665.000000;0.942036
9664.000000;0.941439
9663.000000;0.940947
9662.000000;0.940415
9661.000000;0.939795
9660.000000;0.939167
9659.000000;0.938744
9658.000000;0.938683
9657.000000;0.938798
9656.000000;0.938638
9655.000000;0.938030
9654.000000;0.937365
9653.000000;0.937129
9652.000000;0.937294
9651.000000;0.937404
9650.000000;0.937121
9649.000000;0.936441
9648.000000;0.935465
9647.000000;0.934305
9646.000000;0.933206
9645.000000;0.932417
9644.000000;0.931873
9643.000000;0.931339
9642.000000;0.930961
9641.000000;0.931286
9640.000000;0.932495
9639.000000;0.933887
9638.000000;0.934460
9637.000000;0.933941
9636.000000;0.933013
9635.000000;0.932558
9634.000000;0.932869
9633.000000;0.933539
9632.000000;0.933919
9631.000000;0.933648
9630.000000;0.932855
9629.000000;0.931891
9628.000000;0.930945
9627.000000;0.930046
9626.000000;0.929337
9625.000000;0.929044
9624.000000;0.929074
9623.000000;0.928959
9622.000000;0.928419
9621.000000;0.927752
9620.000000;0.927394
9619.000000;0.927306
9618.000000;0.927073
9617.000000;0.926480
9616.000000;0.925691
9615.000000;0.924960
9614.000000;0.924477
9613.000000;0.924425
9612.000000;0.924887
9611.000000;0.925633
9610.000000;0.926204
9609.000000;0.926247
9608.000000;0.925725
9607.000000;0.924904
9606.000000;0.924223
9605.000000;0.923976
9604.000000;0.923943
9603.000000;0.923551
9602.000000;0.922614
9601.000000;0.921652
9600.000000;0.921171
9599.000000;0.920952
9598.000000;0.920515
9597.000000;0.920014
9596.000000;0.919985
9595.000000;0.920345
9594.000000;0.920368
9593.000000;0.919759
9592.000000;0.919061
9591.000000;0.918780
9590.000000;0.918759
9589.000000;0.918698
9588.000000;0.918713
9587.000000;0.918911
9586.000000;0.918930
9585.000000;0.918488
9584.000000;0.918079
9583.000000;0.918518
9582.000000;0.919871
9581.000000;0.921255
9580.000000;0.921682
9579.000000;0.920802
9578.000000;0.918966
9577.000000;0.916970
9576.000000;0.915706
9575.000000;0.915614
9574.000000;0.916329
9573.000000;0.916999
9572.000000;0.916995
9571.000000;0.916200
9570.000000;0.914791
9569.000000;0.913070
9568.000000;0.911478
9567.000000;0.910439
9566.000000;0.910057
9565.000000;0.910110
9564.000000;0.910365
9563.000000;0.910796
9562.000000;0.911496
9561.000000;0.912469
9560.000000;0.913470
9559.000000;0.913961
9558.000000;0.913405
9557.000000;0.911826
9556.000000;0.909997
9555.000000;0.908816
9554.000000;0.908512
9553.000000;0.908634
9552.000000;0.908703
9551.000000;0.908587
9550.000000;0.908273
9549.000000;0.907674
9548.000000;0.906828
9547.000000;0.906021
9546.000000;0.905494
9545.000000;0.905153
9544.000000;0.904783
9543.000000;0.904426
9542.000000;0.904369
9541.000000;0.904730
9540.000000;0.905207
9539.000000;0.905333
9538.000000;0.904994
9537.000000;0.904615
9536.000000;0.904744
9535.000000;0.905449
9534.000000;0.906193
9533.000000;0.906340
9532.000000;0.905702
9531.000000;0.904563
9530.000000;0.903320
9529.000000;0.902264
9528.000000;0.901629
9527.000000;0.901591
9526.000000;0.902186
9525.000000;0.903328
9524.000000;0.904854
9523.000000;0.906353
9522.000000;0.907075
9521.000000;0.906402
9520.000000;0.904601
9519.000000;0.902827
9518.000000;0.902111
9517.000000;0.902426
9516.000000;0.902942
9515.000000;0.903001
9514.000000;0.902530
9513.000000;0.901652
9512.000000;0.900363
9511.000000;0.898798
9510.000000;0.897427
9509.000000;0.896674
9508.000000;0.896467
9507.000000;0.896425
9506.000000;0.896436
9505.000000;0.896781
9504.000000;0.897645
9503.000000;0.898741
9502.000000;0.899515
9501.000000;0.899606
9500.000000;0.899063
9499.000000;0.898235
9498.000000;0.897548
9497.000000;0.897236
9496.000000;0.897178
9495.000000;0.897083
9494.000000;0.896883
9493.000000;0.896818
9492.000000;0.897069
9491.000000;0.897444
9490.000000;0.897494
9489.000000;0.896888
9488.000000;0.895650
9487.000000;0.894210
9486.000000;0.893247
9485.000000;0.893220
9484.000000;0.893835
9483.000000;0.894171
9482.000000;0.893610
9481.000000;0.892516
9480.000000;0.891758
9479.000000;0.891740
9478.000000;0.892129
9477.000000;0.892380
9476.000000;0.892187
9475.000000;0.891508
9474.000000;0.890528
9473.000000;0.889651
9472.000000;0.889274
9471.000000;0.889460
9470.000000;0.889976
9469.000000;0.890602
9468.000000;0.891134
9467.000000;0.891246
9466.000000;0.890743
9465.000000;0.889873
9464.000000;0.889010
9463.000000;0.888121
9462.000000;0.886989
9461.000000;0.885920
9460.000000;0.885662
9459.000000;0.886458
9458.000000;0.887705
9457.000000;0.888761
9456.000000;0.889574
9455.000000;0.890185
9454.000000;0.890197
9453.000000;0.889336
9452.000000;0.888187
9451.000000;0.887670
9450.000000;0.887879
9449.000000;0.888008
9448.000000;0.887497
9447.000000;0.886744
9446.000000;0.886491
9445.000000;0.886859
9444.000000;0.887273
9443.000000;0.887144
9442.000000;0.886407
9441.000000;0.885420
9440.000000;0.884534
9439.000000;0.883897
9438.000000;0.883608
9437.000000;0.883813
9436.000000;0.884432
9435.000000;0.884922
9434.000000;0.884635
9433.000000;0.883526
9432.000000;0.882273
9431.000000;0.881581
9430.000000;0.881613
9429.000000;0.882147
9428.000000;0.882947
9427.000000;0.883743
9426.000000;0.884148
9425.000000;0.883958
9424.000000;0.883441
9423.000000;0.883023
9422.000000;0.882784
9421.000000;0.882481
9420.000000;0.881965
9419.000000;0.881346
9418.000000;0.880804
9417.000000;0.880471
9416.000000;0.880403
9415.000000;0.880493
9414.000000;0.880472
9413.000000;0.880191
9412.000000;0.879792
9411.000000;0.879426
9410.000000;0.878978
9409.000000;0.878304
9408.000000;0.877610
9407.000000;0.877258
9406.000000;0.877276
9405.000000;0.877324
9404.000000;0.877104
9403.000000;0.876555
9402.000000;0.875717
9401.000000;0.874700
9400.000000;0.873786
9399.000000;0.873258
9398.000000;0.873070
9397.000000;0.872885
9396.000000;0.872501
9395.000000;0.872102
9394.000000;0.872120
9393.000000;0.872957
9392.000000;0.874700
9391.000000;0.876789
9390.000000;0.878115
9389.000000;0.877897
9388.000000;0.876502
9387.000000;0.875114
9386.000000;0.874561
9385.000000;0.874716
9384.000000;0.874980
9383.000000;0.874923
9382.000000;0.874385
9381.000000;0.873398
9380.000000;0.872268
9379.000000;0.871415
9378.000000;0.870909
9377.000000;0.870419
9376.000000;0.869820
9375.000000;0.869510
9374.000000;0.869894
9373.000000;0.870763
9372.000000;0.871533
9371.000000;0.871942
9370.000000;0.872164
9369.000000;0.872344
9368.000000;0.872354
9367.000000;0.872042
9366.000000;0.871423
9365.000000;0.870562
9364.000000;0.869508
9363.000000;0.868481
9362.000000;0.867925
9361.000000;0.868171
9360.000000;0.869064
9359.000000;0.870024
9358.000000;0.870450
9357.000000;0.870062
9356.000000;0.868968
9355.000000;0.867552
9354.000000;0.866325
9353.000000;0.865687
9352.000000;0.865648
9351.000000;0.865744
9350.000000;0.865343
9349.000000;0.864207
9348.000000;0.862746
9347.000000;0.861680
9346.000000;0.861435
9345.000000;0.861895
9344.000000;0.862643
9343.000000;0.863333
9342.000000;0.863832
9341.000000;0.864174
9340.000000;0.864476
9339.000000;0.864819
9338.000000;0.865149
9337.000000;0.865283
9336.000000;0.865077
9335.000000;0.864626
9334.000000;0.864208
9333.000000;0.864020
9332.000000;0.863962
9331.000000;0.863770
9330.000000;0.863361
9329.000000;0.863000
9328.000000;0.863002
9327.000000;0.863323
9326.000000;0.863563
9325.000000;0.863407
9324.000000;0.862938
9323.000000;0.862449
9322.000000;0.862098
9321.000000;0.861881
9320.000000;0.861832
9319.000000;0.861957
9318.000000;0.862001
9317.000000;0.861583
9316.000000;0.860694
9315.000000;0.859893
9314.000000;0.859804
9313.000000;0.860440
9312.000000;0.861130
9311.000000;0.861143
9310.000000;0.860317
9309.000000;0.859121
9308.000000;0.858192
9307.000000;0.857861
9306.000000;0.858031
9305.000000;0.858376
9304.000000;0.858672
9303.000000;0.858967
9302.000000;0.859450
9301.000000;0.860092
9300.000000;0.860463
9299.000000;0.860057
9298.000000;0.858895
9297.000000;0.857658
9296.000000;0.857065
9295.000000;0.857166
9294.000000;0.857442
9293.000000;0.857522
9292.000000;0.857562
9291.000000;0.857886
9290.000000;0.858504
9289.000000;0.859082
9288.000000;0.859213
9287.000000;0.858611
9286.000000;0.857268
9285.000000;0.855603
9284.000000;0.854312
9283.000000;0.853822
9282.000000;0.853927
9281.000000;0.854082
9280.000000;0.853927
9279.000000;0.853429
9278.000000;0.852701
9277.000000;0.851943
9276.000000;0.851472
9275.000000;0.851528
9274.000000;0.852064
9273.000000;0.852864
9272.000000;0.853787
9271.000000;0.854677
9270.000000;0.855155
9269.000000;0.854865
9268.000000;0.853967
9267.000000;0.853115
9266.000000;0.852809
9265.000000;0.852958
9264.000000;0.853131
9263.000000;0.853008
9262.000000;0.852530
9261.000000;0.851840
9260.000000;0.851238
9259.000000;0.850995
9258.000000;0.851050
9257.000000;0.851011
9256.000000;0.850578
9255.000000;0.849877
9254.000000;0.849229
9253.000000;0.848762
9252.000000;0.848446
9251.000000;0.848385
9250.000000;0.848786
9249.000000;0.849598
9248.000000;0.850370
9247.000000;0.850570
9246.000000;0.849984
9245.000000;0.848810
9244.000000;0.847503
9243.000000;0.846570
9242.000000;0.846324
9241.000000;0.846665
9240.000000;0.847145
9239.000000;0.847417
9238.000000;0.847605
9237.000000;0.848113
9236.000000;0.849083
9235.000000;0.850208
9234.000000;0.851138
9233.000000;0.851806
9232.000000;0.852187
9231.000000;0.851952
9230.000000;0.850760
9229.000000;0.848894
9228.000000;0.847246
9227.000000;0.846506
9226.000000;0.846586
9225.000000;0.846941
9224.000000;0.847225
9223.000000;0.847436
9222.000000;0.847627
9221.000000;0.847793
9220.000000;0.847992
9219.000000;0.848296
9218.000000;0.848588
9217.000000;0.848611
9216.000000;0.848299
9215.000000;0.847890
9214.000000;0.847643
9213.000000;0.847520
9212.000000;0.847240
9211.000000;0.846558
9210.000000;0.845508
9209.000000;0.844432
9208.000000;0.843805
9207.000000;0.843915
9206.000000;0.844635
9205.000000;0.845456
9204.000000;0.845790
9203.000000;0.845369
9202.000000;0.844488
9201.000000;0.843816
9200.000000;0.843794
9199.000000;0.844189
9198.000000;0.844372
9197.000000;0.844036
9196.000000;0.843449
9195.000000;0.842953
9194.000000;0.842551
9193.000000;0.842146
9192.000000;0.841877
9191.000000;0.841915
9190.000000;0.842111
9189.000000;0.842193
9188.000000;0.842187
9187.000000;0.842311
9186.000000;0.842523
9185.000000;0.842544
9184.000000;0.842308
9183.000000;0.842025
9182.000000;0.841724
9181.000000;0.841096
9180.000000;0.839960
9179.000000;0.838653
9178.000000;0.837760
9177.000000;0.837592
9176.000000;0.838031
9175.000000;0.838720
9174.000000;0.839291
9173.000000;0.839526
9172.000000;0.839414
9171.000000;0.839049
9170.000000;0.838476
9169.000000;0.837731
9168.000000;0.837007
9167.000000;0.836582
9166.000000;0.836552
9165.000000;0.836799
9164.000000;0.837220
9163.000000;0.837777
9162.000000;0.838299
9161.000000;0.838487
9160.000000;0.838216
9159.000000;0.837653
9158.000000;0.837032
9157.000000;0.836528
9156.000000;0.836345
9155.000000;0.836579
9154.000000;0.836888
9153.000000;0.836654
9152.000000;0.835762
9151.000000;0.834933
9150.000000;0.834957
9149.000000;0.835752
9148.000000;0.836467
9147.000000;0.836424
9146.000000;0.835700
9145.000000;0.834895
9144.000000;0.834587
9143.000000;0.834975
9142.000000;0.835733
9141.000000;0.836163
9140.000000;0.835740
9139.000000;0.834621
9138.000000;0.833494
9137.000000;0.832886
9136.000000;0.832764
9135.000000;0.832814
9134.000000;0.832871
9133.000000;0.832992
9132.000000;0.833243
9131.000000;0.833578
9130.000000;0.833884
9129.000000;0.834040
9128.000000;0.833945
9127.000000;0.833565
9126.000000;0.833009
9125.000000;0.832530
9124.000000;0.832389
9123.000000;0.832644
9122.000000;0.833041
9121.000000;0.833218
9120.000000;0.833058
9119.000000;0.832812
9118.000000;0.832808
9117.000000;0.833088
9116.000000;0.833377
9115.000000;0.833343
9114.000000;0.832849
9113.000000;0.832044
9112.000000;0.831301
9111.000000;0.830953
9110.000000;0.830966
9109.000000;0.830939
9108.000000;0.830596
9107.000000;0.830178
9106.000000;0.830152
9105.000000;0.830573
9104.000000;0.830979
9103.000000;0.830993
9102.000000;0.830761
9101.000000;0.830661
9100.000000;0.830784
9099.000000;0.830938
9098.000000;0.831019
9097.000000;0.831065
9096.000000;0.830993
9095.000000;0.830590
9094.000000;0.829893
9093.000000;0.829321
9092.000000;0.829223
9091.000000;0.829444
9090.000000;0.829518
9089.000000;0.829216
9088.000000;0.828723
9087.000000;0.828338
9086.000000;0.828237
9085.000000;0.828481
9084.000000;0.828968
9083.000000;0.829305
9082.000000;0.829038
9081.000000;0.828205
9080.000000;0.827457
9079.000000;0.827378
9078.000000;0.827824
9077.000000;0.828117
9076.000000;0.827845
9075.000000;0.827236
9074.000000;0.826803
9073.000000;0.826814
9072.000000;0.827129
9071.000000;0.827371
9070.000000;0.827271
9069.000000;0.826935
9068.000000;0.826775
9067.000000;0.827049
9066.000000;0.827562
9065.000000;0.827943
9064.000000;0.828075
9063.000000;0.828053
9062.000000;0.827857
9061.000000;0.827404
9060.000000;0.826854
9059.000000;0.826519
9058.000000;0.826455
9057.000000;0.826448
9056.000000;0.826412
9055.000000;0.826440
9054.000000;0.826409
9053.000000;0.825999
9052.000000;0.825281
9051.000000;0.824857
9050.000000;0.825101
9049.000000;0.825591
9048.000000;0.825655
9047.000000;0.825249
9046.000000;0.824865
9045.000000;0.824779
9044.000000;0.824821
9043.000000;0.824798
9042.000000;0.824735
9041.000000;0.824655
9040.000000;0.824528
9039.000000;0.824500
9038.000000;0.824851
9037.000000;0.825560
9036.000000;0.826146
9035.000000;0.826098
9034.000000;0.825350
9033.000000;0.824276
9032.000000;0.823381
9031.000000;0.823074
9030.000000;0.823522
9029.000000;0.824514
9028.000000;0.825538
9027.000000;0.826133
9026.000000;0.826190
9025.000000;0.825931
9024.000000;0.825640
9023.000000;0.825413
9022.000000;0.825102
9021.000000;0.824498
9020.000000;0.823610
9019.000000;0.822746
9018.000000;0.822261
9017.000000;0.822285
9016.000000;0.822700
9015.000000;0.823261
9014.000000;0.823644
9013.000000;0.823522
9012.000000;0.822884
9011.000000;0.822232
9010.000000;0.822241
9009.000000;0.823116
9008.000000;0.824355
9007.000000;0.825128
9006.000000;0.824832
9005.000000;0.823467
9004.000000;0.821717
9003.000000;0.820585
9002.000000;0.820638
9001.000000;0.821543
9000.000000;0.822509
8999.000000;0.823129
8998.000000;0.823531
8997.000000;0.823762
8996.000000;0.823557
8995.000000;0.822899
8994.000000;0.822342
8993.000000;0.822370
8992.000000;0.822690
8991.000000;0.822552
8990.000000;0.821678
8989.000000;0.820555
8988.000000;0.819811
8987.000000;0.819612
8986.000000;0.819690
8985.000000;0.819706
8984.000000;0.819540
8983.000000;0.819388
8982.000000;0.819611
8981.000000;0.820359
8980.000000;0.821326
8979.000000;0.821987
8978.000000;0.822075
8977.000000;0.821693
8976.000000;0.821061
8975.000000;0.820367
8974.000000;0.819876
8973.000000;0.819905
8972.000000;0.820499
8971.000000;0.821282
8970.000000;0.821761
8969.000000;0.821749
8968.000000;0.821412
8967.000000;0.821010
8966.000000;0.820712
8965.000000;0.820611
8964.000000;0.820733
8963.000000;0.820970
8962.000000;0.821111
8961.000000;0.821026
8960.000000;0.820803
8959.000000;0.820612
8958.000000;0.820444
8957.000000;0.820086
8956.000000;0.819462
8955.000000;0.818873
8954.000000;0.818728
8953.000000;0.819028
8952.000000;0.819324
8951.000000;0.819249
8950.000000;0.818943
8949.000000;0.818809
8948.000000;0.819011
8947.000000;0.819373
8946.000000;0.819671
8945.000000;0.819791
8944.000000;0.819644
8943.000000;0.819183
8942.000000;0.818575
8941.000000;0.818149
8940.000000;0.818098
8939.000000;0.818304
8938.000000;0.818509
8937.000000;0.818573
8936.000000;0.818575
8935.000000;0.818745
8934.000000;0.819283
8933.000000;0.820079
8932.000000;0.820603
8931.000000;0.820287
8930.000000;0.819145
8929.000000;0.817883
8928.000000;0.817295
8927.000000;0.817609
8926.000000;0.818441
8925.000000;0.819194
8924.000000;0.819402
8923.000000;0.818909
8922.000000;0.817965
8921.000000;0.817124
8920.000000;0.816830
8919.000000;0.817046
8918.000000;0.817345
8917.000000;0.817375
8916.000000;0.817138
8915.000000;0.816879
8914.000000;0.816784
8913.000000;0.816816
8912.000000;0.816769
8911.000000;0.816490
8910.000000;0.816104
8909.000000;0.815963
8908.000000;0.816271
8907.000000;0.816826
8906.000000;0.817206
8905.000000;0.817202
8904.000000;0.816924
8903.000000;0.816576
8902.000000;0.816295
8901.000000;0.816239
8900.000000;0.816621
8899.000000;0.817474
8898.000000;0.818463
8897.000000;0.819022
8896.000000;0.818746
8895.000000;0.817710
8894.000000;0.816489
8893.000000;0.815818
8892.000000;0.816045
8891.000000;0.816831
8890.000000;0.817490
8889.000000;0.817686
8888.000000;0.817677
8887.000000;0.817849
8886.000000;0.818223
8885.000000;0.818562
8884.000000;0.818756
8883.000000;0.818807
8882.000000;0.818553
8881.000000;0.817770
8880.000000;0.816629
8879.000000;0.815774
8878.000000;0.815708
8877.000000;0.816237
8876.000000;0.816722
8875.000000;0.816801
8874.000000;0.816684
8873.000000;0.816731
8872.000000;0.816992
8871.000000;0.817282
8870.000000;0.817523
8869.000000;0.817816
8868.000000;0.818203
8867.000000;0.818549
8866.000000;0.818722
8865.000000;0.818758
8864.000000;0.818757
8863.000000;0.818704
8862.000000;0.818536
8861.000000;0.818305
8860.000000;0.818131
8859.000000;0.817980
8858.000000;0.817673
8857.000000;0.817186
8856.000000;0.816795
8855.000000;0.816810
8854.000000;0.817210
8853.000000;0.817650
8852.000000;0.817805
8851.000000;0.817592
8850.000000;0.817108
8849.000000;0.816491
8848.000000;0.815910
8847.000000;0.815555
8846.000000;0.815568
8845.000000;0.815945
8844.000000;0.816523
8843.000000;0.817058
8842.000000;0.817342
8841.000000;0.817377
8840.000000;0.817424
8839.000000;0.817789
8838.000000;0.818481
8837.000000;0.819120
8836.000000;0.819288
8835.000000;0.818947
8834.000000;0.818442
8833.000000;0.818128
8832.000000;0.818082
8831.000000;0.818181
8830.000000;0.818317
8829.000000;0.818458
8828.000000;0.818553
8827.000000;0.818550
8826.000000;0.818510
8825.000000;0.818619
8824.000000;0.818970
8823.000000;0.819374
8822.000000;0.819501
8821.000000;0.819250
8820.000000;0.818919
8819.000000;0.818908
8818.000000;0.819240
8817.000000;0.819450
8816.000000;0.819018
8815.000000;0.817951
8814.000000;0.816896
8813.000000;0.816651
8812.000000;0.817508
8811.000000;0.819028
8810.000000;0.820399
8809.000000;0.821050
8808.000000;0.821015
8807.000000;0.820811
8806.000000;0.820963
8805.000000;0.821575
8804.000000;0.822236
8803.000000;0.822376
8802.000000;0.821824
8801.000000;0.821039
8800.000000;0.820710
8799.000000;0.821084
8798.000000;0.821783
8797.000000;0.822279
8796.000000;0.822447
8795.000000;0.822550
8794.000000;0.822788
8793.000000;0.823044
8792.000000;0.823115
8791.000000;0.822991
8790.000000;0.822828
8789.000000;0.822735
8788.000000;0.822730
8787.000000;0.822824
8786.000000;0.823006
8785.000000;0.823154
8784.000000;0.823113
8783.000000;0.822925
8782.000000;0.822870
8781.000000;0.823194
8780.000000;0.823848
8779.000000;0.824569
8778.000000;0.825131
8777.000000;0.825405
8776.000000;0.825246
8775.000000;0.824546
8774.000000;0.823487
8773.000000;0.822601
8772.000000;0.822402
8771.000000;0.822989
8770.000000;0.824044
8769.000000;0.825134
8768.000000;0.825916
8767.000000;0.826137
8766.000000;0.825733
8765.000000;0.825026
8764.000000;0.824645
8763.000000;0.825034
8762.000000;0.826025
8761.000000;0.827040
8760.000000;0.827705
8759.000000;0.828186
8758.000000;0.828886
8757.000000;0.829916
8756.000000;0.830930
8755.000000;0.831433
8754.000000;0.831224
8753.000000;0.830583
8752.000000;0.830098
8751.000000;0.830220
8750.000000;0.830889
8749.000000;0.831578
8748.000000;0.831788
8747.000000;0.831512
8746.000000;0.831141
8745.000000;0.830905
8744.000000;0.830564
8743.000000;0.829785
8742.000000;0.828742
8741.000000;0.828093
8740.000000;0.828301
8739.000000;0.829155
8738.000000;0.830096
8737.000000;0.830883
8736.000000;0.831694
8735.000000;0.832632
8734.000000;0.833445
8733.000000;0.833840
8732.000000;0.833859
8731.000000;0.833739
8730.000000;0.833567
8729.000000;0.833289
8728.000000;0.832995
8727.000000;0.832926
8726.000000;0.833190
8725.000000;0.833668
8724.000000;0.834254
8723.000000;0.834978
8722.000000;0.835798
8721.000000;0.836444
8720.000000;0.836655
8719.000000;0.836470
8718.000000;0.836175
8717.000000;0.836041
8716.000000;0.836229
8715.000000;0.836803
8714.000000;0.837608
8713.000000;0.838182
8712.000000;0.838065
8711.000000;0.837334
8710.000000;0.836670
8709.000000;0.836744
8708.000000;0.837571
8707.000000;0.838560
8706.000000;0.839132
8705.000000;0.839192
8704.000000;0.839072
8703.000000;0.839177
8702.000000;0.839708
8701.000000;0.840564
8700.000000;0.841386
8699.000000;0.841724
8698.000000;0.841321
8697.000000;0.840331
8696.000000;0.839266
8695.000000;0.838644
8694.000000;0.838626
8693.000000;0.838953
8692.000000;0.839231
8691.000000;0.839269
8690.000000;0.839170
8689.000000;0.839173
8688.000000;0.839497
8687.000000;0.840251
8686.000000;0.841314
8685.000000;0.842265
8684.000000;0.842636
8683.000000;0.842414
8682.000000;0.842185
8681.000000;0.842555
8680.000000;0.843454
8679.000000;0.844190
8678.000000;0.844227
8677.000000;0.843703
8676.000000;0.843129
8675.000000;0.842810
8674.000000;0.842744
8673.000000;0.842891
8672.000000;0.843251
8671.000000;0.843694
8670.000000;0.843996
8669.000000;0.844122
8668.000000;0.844280
8667.000000;0.844593
8666.000000;0.844866
8665.000000;0.844836
8664.000000;0.844545
8663.000000;0.844272
8662.000000;0.844162
8661.000000;0.844100
8660.000000;0.843998
8659.000000;0.843970
8658.000000;0.844133
8657.000000;0.844341
8656.000000;0.844328
8655.000000;0.844087
8654.000000;0.843946
8653.000000;0.844192
8652.000000;0.844738
8651.000000;0.845246
8650.000000;0.845556
8649.000000;0.845862
8648.000000;0.846450
8647.000000;0.847317
8646.000000;0.848104
8645.000000;0.848383
8644.000000;0.848018
8643.000000;0.847278
8642.000000;0.846617
8641.000000;0.846290
8640.000000;0.846180
8639.000000;0.846013
8638.000000;0.845723
8637.000000;0.845501
8636.000000;0.845491
8635.000000;0.845553
8634.000000;0.845454
8633.000000;0.845239
8632.000000;0.845259
8631.000000;0.845784
8630.000000;0.846671
8629.000000;0.847476
8628.000000;0.847882
8627.000000;0.847976
8626.000000;0.848076
8625.000000;0.848287
8624.000000;0.848330
8623.000000;0.847921
8622.000000;0.847263
8621.000000;0.846932
8620.000000;0.847188
8619.000000;0.847625
8618.000000;0.847693
8617.000000;0.847430
8616.000000;0.847338
8615.000000;0.847601
8614.000000;0.847822
8613.000000;0.847647
8612.000000;0.847327
8611.000000;0.847370
8610.000000;0.847823
8609.000000;0.848216
8608.000000;0.848186
8607.000000;0.847891
8606.000000;0.847749
8605.000000;0.847953
8604.000000;0.848328
8603.000000;0.848589
8602.000000;0.848604
8601.000000;0.848425
8600.000000;0.848178
8599.000000;0.847998
8598.000000;0.848020
8597.000000;0.848280
8596.000000;0.848553
8595.000000;0.848400
8594.000000;0.847566
8593.000000;0.846380
8592.000000;0.845584
8591.000000;0.845690
8590.000000;0.846560
8589.000000;0.847658
8588.000000;0.848581
8587.000000;0.849238
8586.000000;0.849634
8585.000000;0.849700
8584.000000;0.849377
8583.000000;0.848781
8582.000000;0.848220
8581.000000;0.848016
8580.000000;0.848261
8579.000000;0.848700
8578.000000;0.848942
8577.000000;0.848839
8576.000000;0.848605
8575.000000;0.848535
8574.000000;0.848678
8573.000000;0.848852
8572.000000;0.848867
8571.000000;0.848677
8570.000000;0.848363
8569.000000;0.848090
8568.000000;0.848013
8567.000000;0.848099
8566.000000;0.848092
8565.000000;0.847775
8564.000000;0.847247
8563.000000;0.846842
8562.000000;0.846840
8561.000000;0.847320
8560.000000;0.848217
8559.000000;0.849306
8558.000000;0.850176
8557.000000;0.850429
8556.000000;0.850010
8555.000000;0.849273
8554.000000;0.848675
8553.000000;0.848453
8552.000000;0.848555
8551.000000;0.848750
8550.000000;0.848815
8549.000000;0.848697
8548.000000;0.848519
8547.000000;0.848391
8546.000000;0.848286
8545.000000;0.848182
8544.000000;0.848233
8543.000000;0.848609
8542.000000;0.849224
8541.000000;0.849796
8540.000000;0.850169
8539.000000;0.850400
8538.000000;0.850530
8537.000000;0.850489
8536.000000;0.850285
8535.000000;0.850066
8534.000000;0.849925
8533.000000;0.849777
8532.000000;0.849548
8531.000000;0.849313
8530.000000;0.849163
8529.000000;0.849091
8528.000000;0.849093
8527.000000;0.849233
8526.000000;0.849490
8525.000000;0.849679
8524.000000;0.849666
8523.000000;0.849558
8522.000000;0.849533
8521.000000;0.849588
8520.000000;0.849613
8519.000000;0.849606
8518.000000;0.849638
8517.000000;0.849637
8516.000000;0.849415
8515.000000;0.848937
8514.000000;0.848421
8513.000000;0.848156
8512.000000;0.848266
8511.000000;0.848655
8510.000000;0.849086
8509.000000;0.849338
8508.000000;0.849354
8507.000000;0.849262
8506.000000;0.849221
8505.000000;0.849270
8504.000000;0.849345
8503.000000;0.849402
8502.000000;0.849430
8501.000000;0.849413
8500.000000;0.849348
8499.000000;0.849305
8498.000000;0.849377
8497.000000;0.849591
8496.000000;0.849894
8495.000000;0.850181
8494.000000;0.850331
8493.000000;0.850249
8492.000000;0.849977
8491.000000;0.849698
8490.000000;0.849552
8489.000000;0.849501
8488.000000;0.849418
8487.000000;0.849281
8486.000000;0.849190
8485.000000;0.849232
8484.000000;0.849420
8483.000000;0.849737
8482.000000;0.850137
8481.000000;0.850505
8480.000000;0.850709
8479.000000;0.850696
8478.000000;0.850505
8477.000000;0.850219
8476.000000;0.849943
8475.000000;0.849799
8474.000000;0.849855
8473.000000;0.850051
8472.000000;0.850273
8471.000000;0.850471
8470.000000;0.850668
8469.000000;0.850870
8468.000000;0.851044
8467.000000;0.851165
8466.000000;0.851255
8465.000000;0.851349
8464.000000;0.851453
8463.000000;0.851499
8462.000000;0.851372
8461.000000;0.851053
8460.000000;0.850723
8459.000000;0.850602
8458.000000;0.850647
8457.000000;0.850572
8456.000000;0.850263
8455.000000;0.850016
8454.000000;0.850203
8453.000000;0.850831
8452.000000;0.851572
8451.000000;0.852109
8450.000000;0.852279
8449.000000;0.852001
8448.000000;0.851348
8447.000000;0.850677
8446.000000;0.850411
8445.000000;0.850643
8444.000000;0.851135
8443.000000;0.851685
8442.000000;0.852268
8441.000000;0.852774
8440.000000;0.852924
8439.000000;0.852591
8438.000000;0.851998
8437.000000;0.851415
8436.000000;0.850870
8435.000000;0.850311
8434.000000;0.849893
8433.000000;0.849836
8432.000000;0.850064
8431.000000;0.850234
8430.000000;0.850143
8429.000000;0.849913
8428.000000;0.849755
8427.000000;0.849737
8426.000000;0.849852
8425.000000;0.850163
8424.000000;0.850726
8423.000000;0.851412
8422.000000;0.851923
8421.000000;0.852048
8420.000000;0.851859
8419.000000;0.851634
8418.000000;0.851579
8417.000000;0.851661
8416.000000;0.851724
8415.000000;0.851732
8414.000000;0.851821
8413.000000;0.852120
8412.000000;0.852575
8411.000000;0.853015
8410.000000;0.853327
8409.000000;0.853496
8408.000000;0.853496
8407.000000;0.853240
8406.000000;0.852691
8405.000000;0.852005
8404.000000;0.851500
8403.000000;0.851427
8402.000000;0.851751
8401.000000;0.852203
8400.000000;0.852550
8399.000000;0.852799
8398.000000;0.853054
8397.000000;0.853258
8396.000000;0.853173
8395.000000;0.852712
8394.000000;0.852166
8393.000000;0.852008
8392.000000;0.852441
8391.000000;0.853195
8390.000000;0.853781
8389.000000;0.853934
8388.000000;0.853794
8387.000000;0.853689
8386.000000;0.853774
8385.000000;0.853888
8384.000000;0.853725
8383.000000;0.853117
8382.000000;0.852197
8381.000000;0.851340
8380.000000;0.850927
8379.000000;0.851109
8378.000000;0.851727
8377.000000;0.852495
8376.000000;0.853211
8375.000000;0.853778
8374.000000;0.854043
8373.000000;0.853822
8372.000000;0.853165
8371.000000;0.852490
8370.000000;0.852285
8369.000000;0.852683
8368.000000;0.853392
8367.000000;0.853983
8366.000000;0.854189
8365.000000;0.854019
8364.000000;0.853749
8363.000000;0.853735
8362.000000;0.854086
8361.000000;0.854497
8360.000000;0.854543
8359.000000;0.854147
8358.000000;0.853620
8357.000000;0.853279
8356.000000;0.853174
8355.000000;0.853211
8354.000000;0.853328
8353.000000;0.853478
8352.000000;0.853581
8351.000000;0.853627
8350.000000;0.853737
8349.000000;0.854021
8348.000000;0.854456
8347.000000;0.854957
8346.000000;0.855468
8345.000000;0.855889
8344.000000;0.856048
8343.000000;0.855870
8342.000000;0.855506
8341.000000;0.855173
8340.000000;0.854913
8339.000000;0.854627
8338.000000;0.854304
8337.000000;0.854103
8336.000000;0.854165
8335.000000;0.854425
8334.000000;0.854658
8333.000000;0.854659
8332.000000;0.854391
8331.000000;0.853996
8330.000000;0.853679
8329.000000;0.853596
8328.000000;0.853815
8327.000000;0.854314
8326.000000;0.854926
8325.000000;0.855348
8324.000000;0.855343
8323.000000;0.854983
8322.000000;0.854598
8321.000000;0.854437
8320.000000;0.854477
8319.000000;0.854559
8318.000000;0.854600
8317.000000;0.854596
8316.000000;0.854579
8315.000000;0.854649
8314.000000;0.854915
8313.000000;0.855289
8312.000000;0.855454
8311.000000;0.855204
8310.000000;0.854737
8309.000000;0.854443
8308.000000;0.854447
8307.000000;0.854549
8306.000000;0.854610
8305.000000;0.854771
8304.000000;0.855192
8303.000000;0.855722
8302.000000;0.855984
8301.000000;0.855752
8300.000000;0.855140
8299.000000;0.854426
8298.000000;0.853791
8297.000000;0.853292
8296.000000;0.853051
8295.000000;0.853314
8294.000000;0.854178
8293.000000;0.855297
8292.000000;0.856046
8291.000000;0.856099
8290.000000;0.855752
8289.000000;0.855560
8288.000000;0.855721
8287.000000;0.855959
8286.000000;0.855943
8285.000000;0.855672
8284.000000;0.855426
8283.000000;0.855451
8282.000000;0.855769
8281.000000;0.856198
8280.000000;0.856499
8279.000000;0.856549
8278.000000;0.856401
8277.000000;0.856190
8276.000000;0.856010
8275.000000;0.855897
8274.000000;0.855879
8273.000000;0.855960
8272.000000;0.856083
8271.000000;0.856198
8270.000000;0.856355
8269.000000;0.856621
8268.000000;0.856908
8267.000000;0.856986
8266.000000;0.856725
8265.000000;0.856245
8264.000000;0.855784
8263.000000;0.855494
8262.000000;0.855422
8261.000000;0.855586
8260.000000;0.855951
8259.000000;0.856338
8258.000000;0.856515
8257.000000;0.856429
8256.000000;0.856278
8255.000000;0.856281
8254.000000;0.856399
8253.000000;0.856385
8252.000000;0.856111
8251.000000;0.855735
8250.000000;0.855498
8249.000000;0.855441
8248.000000;0.855444
8247.000000;0.855492
8246.000000;0.855748
8245.000000;0.856320
8244.000000;0.857055
8243.000000;0.857654
8242.000000;0.857897
8241.000000;0.857739
8240.000000;0.857277
8239.000000;0.856739
8238.000000;0.856428
8237.000000;0.856541
8236.000000;0.857008
8235.000000;0.857577
8234.000000;0.858049
8233.000000;0.858355
8232.000000;0.858455
8231.000000;0.858301
8230.000000;0.857940
8229.000000;0.857591
8228.000000;0.857516
8227.000000;0.857773
8226.000000;0.858130
8225.000000;0.858251
8224.000000;0.858019
8223.000000;0.857670
8222.000000;0.857581
8221.000000;0.857895
8220.000000;0.858401
8219.000000;0.858736
8218.000000;0.858657
8217.000000;0.858160
8216.000000;0.857450
8215.000000;0.856847
8214.000000;0.856605
8213.000000;0.856751
8212.000000;0.857119
8211.000000;0.857567
8210.000000;0.858043
8209.000000;0.858436
8208.000000;0.858561
8207.000000;0.858408
8206.000000;0.858265
8205.000000;0.858398
8204.000000;0.858724
8203.000000;0.858985
8202.000000;0.859122
8201.000000;0.859270
8200.000000;0.859437
8199.000000;0.859456
8198.000000;0.859305
8197.000000;0.859199
8196.000000;0.859290
8195.000000;0.859442
8194.000000;0.859429
8193.000000;0.859212
8192.000000;0.858918
8191.000000;0.858669
8190.000000;0.858514
8189.000000;0.858470
8188.000000;0.858516
8187.000000;0.858614
8186.000000;0.858771
8185.000000;0.859015
8184.000000;0.859264
8183.000000;0.859329
8182.000000;0.859096
8181.000000;0.858658
8180.000000;0.858210
8179.000000;0.857914
8178.000000;0.857906
8177.000000;0.858297
8176.000000;0.859032
8175.000000;0.859811
8174.000000;0.860268
8173.000000;0.860244
8172.000000;0.859860
8171.000000;0.859374
8170.000000;0.859012
8169.000000;0.858886
8168.000000;0.858956
8167.000000;0.859058
8166.000000;0.859031
8165.000000;0.858841
8164.000000;0.858615
8163.000000;0.858550
8162.000000;0.858780
8161.000000;0.859256
8160.000000;0.859744
8159.000000;0.860021
8158.000000;0.860097
8157.000000;0.860165
8156.000000;0.860335
8155.000000;0.860507
8154.000000;0.860543
8153.000000;0.860485
8152.000000;0.860500
8151.000000;0.860674
8150.000000;0.860923
8149.000000;0.861072
8148.000000;0.861013
8147.000000;0.860812
8146.000000;0.860703
8145.000000;0.860912
8144.000000;0.861441
8143.000000;0.862057
8142.000000;0.862488
8141.000000;0.862596
8140.000000;0.862358
8139.000000;0.861811
8138.000000;0.861123
8137.000000;0.860605
8136.000000;0.860529
8135.000000;0.860925
8134.000000;0.861568
8133.000000;0.862100
8132.000000;0.862173
8131.000000;0.861668
8130.000000;0.860887
8129.000000;0.860436
8128.000000;0.860716
8127.000000;0.861543
8126.000000;0.862338
8125.000000;0.862660
8124.000000;0.862456
8123.000000;0.861910
8122.000000;0.861258
8121.000000;0.860751
8120.000000;0.860605
8119.000000;0.860855
8118.000000;0.861330
8117.000000;0.861807
8116.000000;0.862148
8115.000000;0.862304
8114.000000;0.862301
8113.000000;0.862247
8112.000000;0.862254
8111.000000;0.862313
8110.000000;0.862314
8109.000000;0.862213
8108.000000;0.862071
8107.000000;0.861914
8106.000000;0.861679
8105.000000;0.861362
8104.000000;0.861105
8103.000000;0.861031
8102.000000;0.861068
8101.000000;0.861060
8100.000000;0.861020
8099.000000;0.861167
8098.000000;0.861696
8097.000000;0.862580
8096.000000;0.863559
8095.000000;0.864273
8094.000000;0.864430
8093.000000;0.864004
8092.000000;0.863332
8091.000000;0.862921
8090.000000;0.863041
8089.000000;0.863497
8088.000000;0.863839
8087.000000;0.863812
8086.000000;0.863569
8085.000000;0.863427
8084.000000;0.863508
8083.000000;0.863657
8082.000000;0.863684
8081.000000;0.863582
8080.000000;0.863490
8079.000000;0.863476
8078.000000;0.863449
8077.000000;0.863274
8076.000000;0.862947
8075.000000;0.862621
8074.000000;0.862485
8073.000000;0.862631
8072.000000;0.863014
8071.000000;0.863515
8070.000000;0.864009
8069.000000;0.864365
8068.000000;0.864429
8067.000000;0.864110
8066.000000;0.863521
8065.000000;0.862978
8064.000000;0.862764
8063.000000;0.862891
8062.000000;0.863138
8061.000000;0.863291
8060.000000;0.863310
8059.000000;0.863270
8058.000000;0.863245
8057.000000;0.863302
8056.000000;0.863513
8055.000000;0.863895
8054.000000;0.864329
8053.000000;0.864634
8052.000000;0.864727
8051.000000;0.864665
8050.000000;0.864531
8049.000000;0.864349
8048.000000;0.864159
8047.000000;0.864112
8046.000000;0.864370
8045.000000;0.864897
8044.000000;0.865416
8043.000000;0.865652
8042.000000;0.865583
8041.000000;0.865382
8040.000000;0.865181
8039.000000;0.864977
8038.000000;0.864779
8037.000000;0.864707
8036.000000;0.864867
8035.000000;0.865198
8034.000000;0.865534
8033.000000;0.865758
8032.000000;0.865824
8031.000000;0.865691
8030.000000;0.865342
8029.000000;0.864898
8028.000000;0.864571
8027.000000;0.864463
8026.000000;0.864494
8025.000000;0.864555
8024.000000;0.864672
8023.000000;0.864936
8022.000000;0.865338
8021.000000;0.865718
8020.000000;0.865891
8019.000000;0.865790
8018.000000;0.865516
8017.000000;0.865276
8016.000000;0.865237
8015.000000;0.865405
8014.000000;0.865651
8013.000000;0.865851
8012.000000;0.865994
8011.000000;0.866134
8010.000000;0.866304
8009.000000;0.866494
8008.000000;0.866627
8007.000000;0.866541
8006.000000;0.866081
8005.000000;0.865321
8004.000000;0.864647
8003.000000;0.864479
8002.000000;0.864880
8001.000000;0.865537
8000.000000;0.866110
7999.000000;0.866513
7998.000000;0.866822
7997.000000;0.867042
7996.000000;0.867096
7995.000000;0.867010
7994.000000;0.866966
7993.000000;0.867150
7992.000000;0.867575
7991.000000;0.868085
7990.000000;0.868484
7989.000000;0.868657
7988.000000;0.868605
7987.000000;0.868411
7986.000000;0.868179
7985.000000;0.867982
7984.000000;0.867855
7983.000000;0.867838
7982.000000;0.867988
7981.000000;0.868313
7980.000000;0.868674
7979.000000;0.868824
7978.000000;0.868615
7977.000000;0.868173
7976.000000;0.867832
7975.000000;0.867828
7974.000000;0.868064
7973.000000;0.868213
7972.000000;0.868051
7971.000000;0.867697
7970.000000;0.867493
7969.000000;0.867682
7968.000000;0.868170
7967.000000;0.868613
7966.000000;0.868744
7965.000000;0.868635
7964.000000;0.868582
7963.000000;0.868738
7962.000000;0.868957
7961.000000;0.869032
7960.000000;0.868985
7959.000000;0.868976
7958.000000;0.868998
7957.000000;0.868886
7956.000000;0.868670
7955.000000;0.868704
7954.000000;0.869269
7953.000000;0.870159
7952.000000;0.870838
7951.000000;0.870964
7950.000000;0.870628
7949.000000;0.870111
7948.000000;0.869608
7947.000000;0.869231
7946.000000;0.869101
7945.000000;0.869292
7944.000000;0.869726
7943.000000;0.870200
7942.000000;0.870527
7941.000000;0.870619
7940.000000;0.870513
7939.000000;0.870363
7938.000000;0.870370
7937.000000;0.870634
7936.000000;0.871056
7935.000000;0.871408
7934.000000;0.871517
7933.000000;0.871403
7932.000000;0.871247
7931.000000;0.871197
7930.000000;0.871208
7929.000000;0.871101
7928.000000;0.870810
7927.000000;0.870525
7926.000000;0.870505
7925.000000;0.870775
7924.000000;0.871120
7923.000000;0.871381
7922.000000;0.871616
7921.000000;0.871910
7920.000000;0.872175
7919.000000;0.872266
7918.000000;0.872222
7917.000000;0.872238
7916.000000;0.872392
7915.000000;0.872568
7914.000000;0.872649
7913.000000;0.872690
7912.000000;0.872813
7911.000000;0.873009
7910.000000;0.873139
7909.000000;0.873113
7908.000000;0.873008
7907.000000;0.872978
7906.000000;0.873071
7905.000000;0.873167
7904.000000;0.873101
7903.000000;0.872840
7902.000000;0.872522
7901.000000;0.872333
7900.000000;0.872378
7899.000000;0.872661
7898.000000;0.873132
7897.000000;0.873694
7896.000000;0.874214
7895.000000;0.874579
7894.000000;0.874746
7893.000000;0.874719
7892.000000;0.874527
7891.000000;0.874268
7890.000000;0.874116
7889.000000;0.874182
7888.000000;0.874356
7887.000000;0.874383
7886.000000;0.874144
7885.000000;0.873798
7884.000000;0.873618
7883.000000;0.873720
7882.000000;0.874003
7881.000000;0.874290
7880.000000;0.874475
7879.000000;0.874551
7878.000000;0.874584
7877.000000;0.874678
7876.000000;0.874902
7875.000000;0.875228
7874.000000;0.875529
7873.000000;0.875676
7872.000000;0.875647
7871.000000;0.875536
7870.000000;0.875473
7869.000000;0.875525
7868.000000;0.875670
7867.000000;0.875843
7866.000000;0.876015
7865.000000;0.876220
7864.000000;0.876507
7863.000000;0.876858
7862.000000;0.877141
7861.000000;0.877185
7860.000000;0.876945
7859.000000;0.876596
7858.000000;0.876424
7857.000000;0.876584
7856.000000;0.876974
7855.000000;0.877340
7854.000000;0.877496
7853.000000;0.877437
7852.000000;0.877298
7851.000000;0.877246
7850.000000;0.877385
7849.000000;0.877702
7848.000000;0.878073
7847.000000;0.878347
7846.000000;0.878435
7845.000000;0.878338
7844.000000;0.878122
7843.000000;0.877906
7842.000000;0.877833
7841.000000;0.877989
7840.000000;0.878326
7839.000000;0.878698
7838.000000;0.878965
7837.000000;0.879051
7836.000000;0.878944
7835.000000;0.878712
7834.000000;0.878521
7833.000000;0.878542
7832.000000;0.878788
7831.000000;0.879067
7830.000000;0.879159
7829.000000;0.879022
7828.000000;0.878802
7827.000000;0.878675
7826.000000;0.878719
7825.000000;0.878913
7824.000000;0.879200
7823.000000;0.879511
7822.000000;0.879802
7821.000000;0.880071
7820.000000;0.880352
7819.000000;0.880646
7818.000000;0.880882
7817.000000;0.880962
7816.000000;0.880868
7815.000000;0.880720
7814.000000;0.880698
7813.000000;0.880904
7812.000000;0.881274
7811.000000;0.881622
7810.000000;0.881782
7809.000000;0.881731
7808.000000;0.881591
7807.000000;0.881518
7806.000000;0.881557
7805.000000;0.881641
7804.000000;0.881704
7803.000000;0.881792
7802.000000;0.882027
7801.000000;0.882452
7800.000000;0.882946
7799.000000;0.883298
7798.000000;0.883353
7797.000000;0.883119
7796.000000;0.882792
7795.000000;0.882648
7794.000000;0.882837
7793.000000;0.883207
7792.000000;0.883402
7791.000000;0.883223
7790.000000;0.882853
7789.000000;0.882675
7788.000000;0.882871
7787.000000;0.883285
7786.000000;0.883640
7785.000000;0.883799
7784.000000;0.883810
7783.000000;0.883782
7782.000000;0.883812
7781.000000;0.883966
7780.000000;0.884239
7779.000000;0.884541
7778.000000;0.884751
7777.000000;0.884826
7776.000000;0.884828
7775.000000;0.884875
7774.000000;0.885060
7773.000000;0.885379
7772.000000;0.885721
7771.000000;0.885945
7770.000000;0.885998
7769.000000;0.885956
7768.000000;0.885916
7767.000000;0.885901
7766.000000;0.885898
7765.000000;0.885931
7764.000000;0.886039
7763.000000;0.886197
7762.000000;0.886336
7761.000000;0.886455
7760.000000;0.886628
7759.000000;0.886865
7758.000000;0.887036
7757.000000;0.887003
7756.000000;0.886792
7755.000000;0.886570
7754.000000;0.886488
7753.000000;0.886621
7752.000000;0.886997
7751.000000;0.887578
7750.000000;0.888181
7749.000000;0.888545
7748.000000;0.888554
7747.000000;0.888330
7746.000000;0.888082
7745.000000;0.887917
7744.000000;0.887879
7743.000000;0.888044
7742.000000;0.888444
7741.000000;0.888921
7740.000000;0.889236
7739.000000;0.889329
7738.000000;0.889360
7737.000000;0.889444
7736.000000;0.889498
7735.000000;0.889452
7734.000000;0.889470
7733.000000;0.889812
7732.000000;0.890506
7731.000000;0.891269
7730.000000;0.891769
7729.000000;0.891891
7728.000000;0.891778
7727.000000;0.891710
7726.000000;0.891919
7725.000000;0.892407
7724.000000;0.892884
7723.000000;0.892991
7722.000000;0.892633
7721.000000;0.892057
7720.000000;0.891595
7719.000000;0.891402
7718.000000;0.891460
7717.000000;0.891723
7716.000000;0.892181
7715.000000;0.892797
7714.000000;0.893480
7713.000000;0.894121
7712.000000;0.894619
7711.000000;0.894885
7710.000000;0.894872
7709.000000;0.894641
7708.000000;0.894360
7707.000000;0.894214
7706.000000;0.894266
7705.000000;0.894417
7704.000000;0.894498
7703.000000;0.894428
7702.000000;0.894296
7701.000000;0.894289
7700.000000;0.894560
7699.000000;0.895149
7698.000000;0.895963
7697.000000;0.896782
7696.000000;0.897325
7695.000000;0.897406
7694.000000;0.897066
7693.000000;0.896555
7692.000000;0.896167
7691.000000;0.896091
7690.000000;0.896344
7689.000000;0.896766
7688.000000;0.897111
7687.000000;0.897248
7686.000000;0.897293
7685.000000;0.897486
7684.000000;0.897884
7683.000000;0.898264
7682.000000;0.898374
7681.000000;0.898219
7680.000000;0.898060
7679.000000;0.898176
7678.000000;0.898659
7677.000000;0.899372
7676.000000;0.900046
7675.000000;0.900443
7674.000000;0.900523
7673.000000;0.900465
7672.000000;0.900493
7671.000000;0.900683
7670.000000;0.900951
7669.000000;0.901177
7668.000000;0.901294
7667.000000;0.901300
7666.000000;0.901257
7665.000000;0.901284
7664.000000;0.901473
7663.000000;0.901790
7662.000000;0.902105
7661.000000;0.902321
7660.000000;0.902440
7659.000000;0.902511
7658.000000;0.902587
7657.000000;0.902730
7656.000000;0.902993
7655.000000;0.903348
7654.000000;0.903689
7653.000000;0.903955
7652.000000;0.904221
7651.000000;0.904623
7650.000000;0.905187
7649.000000;0.905774
7648.000000;0.906181
7647.000000;0.906285
7646.000000;0.906127
7645.000000;0.905886
7644.000000;0.905766
7643.000000;0.905854
7642.000000;0.906078
7641.000000;0.906299
7640.000000;0.906441
7639.000000;0.906525
7638.000000;0.906609
7637.000000;0.906726
7636.000000;0.906889
7635.000000;0.907109
7634.000000;0.907407
7633.000000;0.907802
7632.000000;0.908285
7631.000000;0.908779
7630.000000;0.909176
7629.000000;0.909443
7628.000000;0.909673
7627.000000;0.909959
7626.000000;0.910241
7625.000000;0.910362
7624.000000;0.910302
7623.000000;0.910260
7622.000000;0.910447
7621.000000;0.910855
7620.000000;0.911324
7619.000000;0.911777
7618.000000;0.912279
7617.000000;0.912871
7616.000000;0.913435
7615.000000;0.913794
7614.000000;0.913893
7613.000000;0.913848
7612.000000;0.913853
7611.000000;0.914029
7610.000000;0.914336
7609.000000;0.914614
7608.000000;0.914758
7607.000000;0.914823
7606.000000;0.914937
7605.000000;0.915117
7604.000000;0.915264
7603.000000;0.915342
7602.000000;0.915478
7601.000000;0.915820
7600.000000;0.916360
7599.000000;0.916935
7598.000000;0.917357
7597.000000;0.917521
7596.000000;0.917480
7595.000000;0.917465
7594.000000;0.917744
7593.000000;0.918361
7592.000000;0.919062
7591.000000;0.919551
7590.000000;0.919788
7589.000000;0.919959
7588.000000;0.920225
7587.000000;0.920591
7586.000000;0.920997
7585.000000;0.921390
7584.000000;0.921698
7583.000000;0.921870
7582.000000;0.921967
7581.000000;0.922122
7580.000000;0.922368
7579.000000;0.922593
7578.000000;0.922715
7577.000000;0.922819
7576.000000;0.923049
7575.000000;0.923427
7574.000000;0.923853
7573.000000;0.924235
7572.000000;0.924589
7571.000000;0.924992
7570.000000;0.925495
7569.000000;0.926035
7568.000000;0.926457
7567.000000;0.926642
7566.000000;0.926641
7565.000000;0.926656
7564.000000;0.926873
7563.000000;0.927333
7562.000000;0.927968
7561.000000;0.928675
7560.000000;0.929340
7559.000000;0.929877
7558.000000;0.930289
7557.000000;0.930641
7556.000000;0.930943
7555.000000;0.931122
7554.000000;0.931156
7553.000000;0.931161
7552.000000;0.931279
7551.000000;0.931540
7550.000000;0.931898
7549.000000;0.932343
7548.000000;0.932871
7547.000000;0.933387
7546.000000;0.933748
7545.000000;0.933919
7544.000000;0.934024
7543.000000;0.934201
7542.000000;0.934484
7541.000000;0.934837
7540.000000;0.935231
7539.000000;0.935672
7538.000000;0.936171
7537.000000;0.936729
7536.000000;0.937296
7535.000000;0.937770
7534.000000;0.938075
7533.000000;0.938264
7532.000000;0.938499
7531.000000;0.938887
7530.000000;0.939379
7529.000000;0.939844
7528.000000;0.940222
7527.000000;0.940555
7526.000000;0.940905
7525.000000;0.941279
7524.000000;0.941653
7523.000000;0.942024
7522.000000;0.942415
7521.000000;0.942827
7520.000000;0.943223
7519.000000;0.943589
7518.000000;0.944005
7517.000000;0.944598
7516.000000;0.945380
7515.000000;0.946168
7514.000000;0.946698
7513.000000;0.946836
7512.000000;0.946681
7511.000000;0.946477
7510.000000;0.946475
7509.000000;0.946796
7508.000000;0.947370
7507.000000;0.947987
7506.000000;0.948465
7505.000000;0.948795
7504.000000;0.949094
7503.000000;0.949437
7502.000000;0.949804
7501.000000;0.950170
7500.000000;0.950564
7499.000000;0.951018
7498.000000;0.951474
7497.000000;0.951866
7496.000000;0.952201
7495.000000;0.952526
7494.000000;0.952845
7493.000000;0.953140
7492.000000;0.953454
7491.000000;0.953911
7490.000000;0.954611
7489.000000;0.955526
7488.000000;0.956468
7487.000000;0.957170
7486.000000;0.957436
7485.000000;0.957319
7484.000000;0.957148
7483.000000;0.957318
7482.000000;0.957982
7481.000000;0.958956
7480.000000;0.959906
7479.000000;0.960603
7478.000000;0.960993
7477.000000;0.961127
7476.000000;0.961106
7475.000000;0.961064
7474.000000;0.961128
7473.000000;0.961349
7472.000000;0.961699
7471.000000;0.962137
7470.000000;0.962650
7469.000000;0.963208
7468.000000;0.963745
7467.000000;0.964221
7466.000000;0.964669
7465.000000;0.965152
7464.000000;0.965669
7463.000000;0.966155
7462.000000;0.966564
7461.000000;0.966936
7460.000000;0.967377
7459.000000;0.967957
7458.000000;0.968631
7457.000000;0.969242
7456.000000;0.969632
7455.000000;0.969782
7454.000000;0.969847
7453.000000;0.970031
7452.000000;0.970438
7451.000000;0.971023
7450.000000;0.971667
7449.000000;0.972257
7448.000000;0.972705
7447.000000;0.972976
7446.000000;0.973128
7445.000000;0.973305
7444.000000;0.973646
7443.000000;0.974188
7442.000000;0.974822
7441.000000;0.975352
7440.000000;0.975634
7439.000000;0.975713
7438.000000;0.975816
7437.000000;0.976151
7436.000000;0.976708
7435.000000;0.977304
7434.000000;0.977809
7433.000000;0.978251
7432.000000;0.978690
7431.000000;0.979075
7430.000000;0.979342
7429.000000;0.979550
7428.000000;0.979837
7427.000000;0.980254
7426.000000;0.980732
7425.000000;0.981210
7424.000000;0.981710
7423.000000;0.982238
7422.000000;0.982714
7421.000000;0.983043
7420.000000;0.983234
7419.000000;0.983381
7418.000000;0.983562
7417.000000;0.983809
7416.000000;0.984130
7415.000000;0.984518
7414.000000;0.984923
7413.000000;0.985286
7412.000000;0.985630
7411.000000;0.986070
7410.000000;0.986695
7409.000000;0.987439
7408.000000;0.988100
7407.000000;0.988499
7406.000000;0.988624
7405.000000;0.988638
7404.000000;0.988741
7403.000000;0.989007
7402.000000;0.989325
7401.000000;0.989529
7400.000000;0.989590
7399.000000;0.989661
7398.000000;0.989929
7397.000000;0.990414
7396.000000;0.990970
7395.000000;0.991477
7394.000000;0.991956
7393.000000;0.992476
7392.000000;0.993040
7391.000000;0.993610
7390.000000;0.994180
7389.000000;0.994740
7388.000000;0.995208
7387.000000;0.995494
7386.000000;0.995639
7385.000000;0.995762
7384.000000;0.995919
7383.000000;0.996096
7382.000000;0.996374
7381.000000;0.996911
7380.000000;0.997699
7379.000000;0.998437
7378.000000;0.998807
7377.000000;0.998837
7376.000000;0.998863
7375.000000;0.999190
7374.000000;0.999817
7373.000000;1.000496
7372.000000;1.000948
7371.000000;1.001073
7370.000000;1.001056
7369.000000;1.001282
7368.000000;1.001997
7367.000000;1.003043
7366.000000;1.003987
7365.000000;1.004493
7364.000000;1.004505
7363.000000;1.004227
7362.000000;1.004048
7361.000000;1.004399
7360.000000;1.005412
7359.000000;1.006652
7358.000000;1.007429
7357.000000;1.007482
7356.000000;1.007232
7355.000000;1.007290
7354.000000;1.007874
7353.000000;1.008730
7352.000000;1.009468
7351.000000;1.009860
7350.000000;1.009976
7349.000000;1.010157
7348.000000;1.010736
7347.000000;1.011660
7346.000000;1.012554
7345.000000;1.013229
7344.000000;1.013857
7343.000000;1.014504
7342.000000;1.014839
7341.000000;1.014618
7340.000000;1.014238
7339.000000;1.014366
7338.000000;1.015089
7337.000000;1.015833
7336.000000;1.016161
7335.000000;1.016283
7334.000000;1.016668
7333.000000;1.017463
7332.000000;1.018398
7331.000000;1.019081
7330.000000;1.019296
7329.000000;1.019192
7328.000000;1.019248
7327.000000;1.019846
7326.000000;1.020820
7325.000000;1.021655
7324.000000;1.022181
7323.000000;1.022746
7322.000000;1.023656
7321.000000;1.024729
7320.000000;1.025596
7319.000000;1.026189
7318.000000;1.026711
7317.000000;1.027264
7316.000000;1.027769
7315.000000;1.028195
7314.000000;1.028623
7313.000000;1.029118
7312.000000;1.029738
7311.000000;1.030579
7310.000000;1.031589
7309.000000;1.032416
7308.000000;1.032733
7307.000000;1.032728
7306.000000;1.032992
7305.000000;1.033871
7304.000000;1.035098
7303.000000;1.036151
7302.000000;1.036797
7301.000000;1.037238
7300.000000;1.037885
7299.000000;1.039031
7298.000000;1.040527
7297.000000;1.041749
7296.000000;1.042128
7295.000000;1.041849
7294.000000;1.041817
7293.000000;1.042722
7292.000000;1.044274
7291.000000;1.045609
7290.000000;1.046301
7289.000000;1.046677
7288.000000;1.047244
7287.000000;1.048122
7286.000000;1.049094
7285.000000;1.050017
7284.000000;1.050987
7283.000000;1.052160
7282.000000;1.053559
7281.000000;1.055040
7280.000000;1.056385
7279.000000;1.057467
7278.000000;1.058341
7277.000000;1.059141
7276.000000;1.059931
7275.000000;1.060712
7274.000000;1.061560
7273.000000;1.062644
7272.000000;1.064028
7271.000000;1.065535
7270.000000;1.066916
7269.000000;1.068124
7268.000000;1.069357
7267.000000;1.070791
7266.000000;1.072328
7265.000000;1.073681
7264.000000;1.074698
7263.000000;1.075560
7262.000000;1.076598
7261.000000;1.077946
7260.000000;1.079447
7259.000000;1.080887
7258.000000;1.082248
7257.000000;1.083645
7256.000000;1.085123
7255.000000;1.086581
7254.000000;1.087936
7253.000000;1.089282
7252.000000;1.090795
7251.000000;1.092535
7250.000000;1.094381
7249.000000;1.096164
7248.000000;1.097877
7247.000000;1.099663
7246.000000;1.101557
7245.000000;1.103345
7244.000000;1.104841
7243.000000;1.106267
7242.000000;1.108143
7241.000000;1.110680
7240.000000;1.113467
7239.000000;1.115946
7238.000000;1.117996
7237.000000;1.119864
7236.000000;1.121645
7235.000000;1.123130
7234.000000;1.124247
7233.000000;1.125449
7232.000000;1.127408
7231.000000;1.130400
7230.000000;1.134059
7229.000000;1.137671
7228.000000;1.140683
7227.000000;1.143004
7226.000000;1.144983
7225.000000;1.147073
7224.000000;1.149390
7223.000000;1.151662
7222.000000;1.153691
7221.000000;1.155703
7220.000000;1.158116
7219.000000;1.161035
7218.000000;1.164171
7217.000000;1.167224
7216.000000;1.170176
7215.000000;1.173184
7214.000000;1.176354
7213.000000;1.179655
7212.000000;1.182945
7211.000000;1.186098
7210.000000;1.189163
7209.000000;1.192331
7208.000000;1.195660
7207.000000;1.198907
7206.000000;1.201807
7205.000000;1.204521
7204.000000;1.207596
7203.000000;1.211397
7202.000000;1.215696
7201.000000;1.219915
7200.000000;1.223669
7199.000000;1.226989
7198.000000;1.230146
7197.000000;1.233401
7196.000000;1.236878
7195.000000;1.240594
7194.000000;1.244544
7193.000000;1.248757
7192.000000;1.253233
7191.000000;1.257817
7190.000000;1.262192
7189.000000;1.266100
7188.000000;1.269632
7187.000000;1.273242
7186.000000;1.277388
7185.000000;1.282073
7184.000000;1.286800
7183.000000;1.291087
7182.000000;1.295006
7181.000000;1.299077
7180.000000;1.303636
7179.000000;1.308507
7178.000000;1.313379
7177.000000;1.318216
7176.000000;1.323143
7175.000000;1.328097
7174.000000;1.332876
7173.000000;1.337411
7172.000000;1.341754
7171.000000;1.345878
7170.000000;1.349736
7169.000000;1.353553
7168.000000;1.357810
7167.000000;1.362805
7166.000000;1.368403
7165.000000;1.374223
7164.000000;1.379917
7163.000000;1.385263
7162.000000;1.390235
7161.000000;1.395058
7160.000000;1.399986
7159.000000;1.404968
7158.000000;1.409719
7157.000000;1.414236
7156.000000;1.418969
7155.000000;1.424296
7154.000000;1.430003
7153.000000;1.435528
7152.000000;1.440610
7151.000000;1.445466
7150.000000;1.450446
7149.000000;1.455701
7148.000000;1.461163
7147.000000;1.466656
7146.000000;1.472000
7145.000000;1.477122
7144.000000;1.482090
7143.000000;1.487009
7142.000000;1.491935
7141.000000;1.496961
7140.000000;1.502217
7139.000000;1.507652
7138.000000;1.512987
7137.000000;1.518053
7136.000000;1.523018
7135.000000;1.528095
7134.000000;1.533200
7133.000000;1.538191
7132.000000;1.543247
7131.000000;1.548673
7130.000000;1.554426
7129.000000;1.560148
7128.000000;1.565602
7127.000000;1.570754
7126.000000;1.575453
7125.000000;1.579535
7124.000000;1.583353
7123.000000;1.587746
7122.000000;1.593181
7121.000000;1.599147
7120.000000;1.604662
7119.000000;1.609246
7118.000000;1.613217
7117.000000;1.617245
7116.000000;1.621862
7115.000000;1.627259
7114.000000;1.633200
7113.000000;1.639081
7112.000000;1.644306
7111.000000;1.648776
7110.000000;1.652927
7109.000000;1.657240
7108.000000;1.661814
7107.000000;1.666417
7106.000000;1.670802
7105.000000;1.674901
7104.000000;1.678792
7103.000000;1.682642
7102.000000;1.686738
7101.000000;1.691448
7100.000000;1.696912
7099.000000;1.702683
7098.000000;1.707856
7097.000000;1.711807
7096.000000;1.714848
7095.000000;1.717988
7094.000000;1.721912
7093.000000;1.726327
7092.000000;1.730438
7091.000000;1.733981
7090.000000;1.737543
7089.000000;1.741866
7088.000000;1.747016
7087.000000;1.752287
7086.000000;1.756841
7085.000000;1.760381
7084.000000;1.763214
7083.000000;1.765859
7082.000000;1.768750
7081.000000;1.772197
7080.000000;1.776352
7079.000000;1.781076
7078.000000;1.785862
7077.000000;1.789994
7076.000000;1.792926
7075.000000;1.794651
7074.000000;1.795841
7073.000000;1.797504
7072.000000;1.800224
7071.000000;1.803681
7070.000000;1.807051
7069.000000;1.809907
7068.000000;1.812564
7067.000000;1.815535
7066.000000;1.818968
7065.000000;1.822678
7064.000000;1.826367
7063.000000;1.829623
7062.000000;1.832084
7061.000000;1.833953
7060.000000;1.836100
7059.000000;1.839196
7058.000000;1.842807
7057.000000;1.845737
7056.000000;1.847370
7055.000000;1.848391
7054.000000;1.850043
7053.000000;1.852923
7052.000000;1.856633
7051.000000;1.860407
7050.000000;1.863814
7049.000000;1.866844
7048.000000;1.869474
7047.000000;1.871448
7046.000000;1.872604
7045.000000;1.873161
7044.000000;1.873498
7043.000000;1.873846
7042.000000;1.874526
7041.000000;1.876121
7040.000000;1.878836
7039.000000;1.881775
7038.000000;1.883609
7037.000000;1.884265
7036.000000;1.885305
7035.000000;1.888125
7034.000000;1.892307
7033.000000;1.896239
7032.000000;1.898962
7031.000000;1.900737
7030.000000;1.901993
7029.000000;1.902675
7028.000000;1.902817
7027.000000;1.903083
7026.000000;1.904269
7025.000000;1.906472
7024.000000;1.908913
7023.000000;1.910506
7022.000000;1.910738
7021.000000;1.910311
7020.000000;1.910784
7019.000000;1.913130
7018.000000;1.916631
7017.000000;1.919627
7016.000000;1.921448
7015.000000;1.922991
7014.000000;1.925117
7013.000000;1.927207
7012.000000;1.927950
7011.000000;1.927148
7010.000000;1.925977
7009.000000;1.925544
7008.000000;1.925914
7007.000000;1.926640
7006.000000;1.927574
7005.000000;1.928794
7004.000000;1.930177
7003.000000;1.931563
7002.000000;1.933148
7001.000000;1.935173
7000.000000;1.937222
6999.000000;1.938408
6998.000000;1.938575
6997.000000;1.938916
6996.000000;1.940843
6995.000000;1.944296
6994.000000;1.947527
6993.000000;1.948734
6992.000000;1.947764
6991.000000;1.946083
6990.000000;1.945274
6989.000000;1.945733
6988.000000;1.946623
6987.000000;1.946916
6986.000000;1.946508
6985.000000;1.946310
6984.000000;1.947215
6983.000000;1.949092
6982.000000;1.950964
6981.000000;1.952044
6980.000000;1.952380
6979.000000;1.952548
6978.000000;1.953107
6977.000000;1.954373
6976.000000;1.956195
6975.000000;1.957790
6974.000000;1.958228
6973.000000;1.957380
6972.000000;1.956133
6971.000000;1.955473
6970.000000;1.955636
6969.000000;1.956268
6968.000000;1.957003
6967.000000;1.957627
6966.000000;1.957970
6965.000000;1.958028
6964.000000;1.958024
6963.000000;1.958028
6962.000000;1.957727
6961.000000;1.956902
6960.000000;1.955920
6959.000000;1.955383
6958.000000;1.955457
6957.000000;1.955929
6956.000000;1.956747
6955.000000;1.958073
6954.000000;1.959891
6953.000000;1.961942
6952.000000;1.963956
6951.000000;1.965656
6950.000000;1.966610
6949.000000;1.966445
6948.000000;1.965274
6947.000000;1.963672
6946.000000;1.962191
6945.000000;1.961088
6944.000000;1.960441
6943.000000;1.960320
6942.000000;1.960850
6941.000000;1.962233
6940.000000;1.964521
6939.000000;1.967181
6938.000000;1.969068
6937.000000;1.969285
6936.000000;1.968002
6935.000000;1.966067
6934.000000;1.963925
6933.000000;1.961433
6932.000000;1.958737
6931.000000;1.956726
6930.000000;1.956273
6929.000000;1.957253
6928.000000;1.958601
6927.000000;1.959303
6926.000000;1.959175
6925.000000;1.958740
6924.000000;1.958489
6923.000000;1.958385
6922.000000;1.958030
6921.000000;1.957206
6920.000000;1.956065
6919.000000;1.954891
6918.000000;1.953982
6917.000000;1.953771
6916.000000;1.954595
6915.000000;1.956071
6914.000000;1.957075
6913.000000;1.956817
6912.000000;1.955767
6911.000000;1.955109
6910.000000;1.955384
6909.000000;1.956058
6908.000000;1.956329
6907.000000;1.955912
6906.000000;1.954937
6905.000000;1.953559
6904.000000;1.951951
6903.000000;1.950477
6902.000000;1.949624
6901.000000;1.949689
6900.000000;1.950528
6899.000000;1.951551
6898.000000;1.952146
6897.000000;1.952267
6896.000000;1.952465
6895.000000;1.953147
6894.000000;1.953957
6893.000000;1.954077
6892.000000;1.953092
6891.000000;1.951381
6890.000000;1.949752
6889.000000;1.948904
6888.000000;1.949025
6887.000000;1.949540
6886.000000;1.949413
6885.000000;1.948148
6884.000000;1.946455
6883.000000;1.945589
6882.000000;1.946066
6881.000000;1.947339
6880.000000;1.948547
6879.000000;1.949134
6878.000000;1.948863
6877.000000;1.947825
6876.000000;1.946586
6875.000000;1.945911
6874.000000;1.946089
6873.000000;1.946740
6872.000000;1.947314
6871.000000;1.947529
6870.000000;1.947307
6869.000000;1.946657
6868.000000;1.945752
6867.000000;1.944799
6866.000000;1.943750
6865.000000;1.942494
6864.000000;1.941326
6863.000000;1.940775
6862.000000;1.940854
6861.000000;1.940896
6860.000000;1.940334
6859.000000;1.939328
6858.000000;1.938412
6857.000000;1.937841
6856.000000;1.937536
6855.000000;1.937426
6854.000000;1.937500
6853.000000;1.937594
6852.000000;1.937376
6851.000000;1.936568
6850.000000;1.935199
6849.000000;1.933726
6848.000000;1.932827
6847.000000;1.932827
6846.000000;1.933277
6845.000000;1.933301
6844.000000;1.932457
6843.000000;1.931070
6842.000000;1.929767
6841.000000;1.929002
6840.000000;1.928945
6839.000000;1.929385
6838.000000;1.929684
6837.000000;1.929187
6836.000000;1.927850
6835.000000;1.926160
6834.000000;1.924374
6833.000000;1.922280
6832.000000;1.919901
6831.000000;1.917944
6830.000000;1.917150
6829.000000;1.917394
6828.000000;1.917783
6827.000000;1.917570
6826.000000;1.916727
6825.000000;1.915642
6824.000000;1.914411
6823.000000;1.912600
6822.000000;1.909847
6821.000000;1.906685
6820.000000;1.904425
6819.000000;1.903879
6818.000000;1.904311
6817.000000;1.904062
6816.000000;1.902231
6815.000000;1.899381
6814.000000;1.896630
6813.000000;1.894657
6812.000000;1.893609
6811.000000;1.893215
6810.000000;1.892644
6809.000000;1.890864
6808.000000;1.887738
6807.000000;1.884368
6806.000000;1.881901
6805.000000;1.880377
6804.000000;1.879145
6803.000000;1.877998
6802.000000;1.877254
6801.000000;1.876874
6800.000000;1.876149
6799.000000;1.874421
6798.000000;1.871773
6797.000000;1.868911
6796.000000;1.866570
6795.000000;1.864988
6794.000000;1.863742
6793.000000;1.862136
6792.000000;1.859919
6791.000000;1.857526
6790.000000;1.855435
6789.000000;1.853565
6788.000000;1.851586
6787.000000;1.849589
6786.000000;1.848022
6785.000000;1.847046
6784.000000;1.846320
6783.000000;1.845380
6782.000000;1.843949
6781.000000;1.841950
6780.000000;1.839548
6779.000000;1.837111
6778.000000;1.834860
6777.000000;1.832650
6776.000000;1.830354
6775.000000;1.828234
6774.000000;1.826520
6773.000000;1.824799
6772.000000;1.822426
6771.000000;1.819539
6770.000000;1.817069
6769.000000;1.815591
6768.000000;1.814640
6767.000000;1.813385
6766.000000;1.811550
6765.000000;1.809417
6764.000000;1.807293
6763.000000;1.805293
6762.000000;1.803383
6761.000000;1.801311
6760.000000;1.798752
6759.000000;1.795811
6758.000000;1.793150
6757.000000;1.791304
6756.000000;1.790026
6755.000000;1.788571
6754.000000;1.786582
6753.000000;1.784376
6752.000000;1.782344
6751.000000;1.780397
6750.000000;1.778129
6749.000000;1.775349
6748.000000;1.772285
6747.000000;1.769305
6746.000000;1.766581
6745.000000;1.764065
6744.000000;1.761781
6743.000000;1.760001
6742.000000;1.759012
6741.000000;1.758698
6740.000000;1.758450
6739.000000;1.757545
6738.000000;1.755593
6737.000000;1.752700
6736.000000;1.749378
6735.000000;1.746284
6734.000000;1.743787
6733.000000;1.741687
6732.000000;1.739506
6731.000000;1.737111
6730.000000;1.734884
6729.000000;1.733171
6728.000000;1.731778
6727.000000;1.730170
6726.000000;1.728015
6725.000000;1.725415
6724.000000;1.722727
6723.000000;1.720341
6722.000000;1.718471
6721.000000;1.716942
6720.000000;1.715263
6719.000000;1.713106
6718.000000;1.710666
6717.000000;1.708390
6716.000000;1.706454
6715.000000;1.704726
6714.000000;1.703126
6713.000000;1.701693
6712.000000;1.700266
6711.000000;1.698431
6710.000000;1.695998
6709.000000;1.693385
6708.000000;1.691263
6707.000000;1.689822
6706.000000;1.688544
6705.000000;1.686770
6704.000000;1.684389
6703.000000;1.681927
6702.000000;1.679916
6701.000000;1.678278
6700.000000;1.676462
6699.000000;1.674133
6698.000000;1.671526
6697.000000;1.669068
6696.000000;1.666870
6695.000000;1.664819
6694.000000;1.662973
6693.000000;1.661522
6692.000000;1.660332
6691.000000;1.658842
6690.000000;1.656606
6689.000000;1.653768
6688.000000;1.650866
6687.000000;1.648315
6686.000000;1.646215
6685.000000;1.644508
6684.000000;1.643061
6683.000000;1.641603
6682.000000;1.639814
6681.000000;1.637588
6680.000000;1.635142
6679.000000;1.632779
6678.000000;1.630609
6677.000000;1.628557
6676.000000;1.626555
6675.000000;1.624642
6674.000000;1.622866
6673.000000;1.621210
6672.000000;1.619647
6671.000000;1.618194
6670.000000;1.616831
6669.000000;1.615414
6668.000000;1.613771
6667.000000;1.611868
6666.000000;1.609760
6665.000000;1.607417
6664.000000;1.604749
6663.000000;1.601902
6662.000000;1.599405
6661.000000;1.597803
6660.000000;1.597091
6659.000000;1.596587
6658.000000;1.595448
6657.000000;1.593349
6656.000000;1.590697
6655.000000;1.588228
6654.000000;1.586409
6653.000000;1.585176
6652.000000;1.584130
6651.000000;1.582908
6650.000000;1.581378
6649.000000;1.579585
6648.000000;1.577669
6647.000000;1.575839
6646.000000;1.574257
6645.000000;1.572824
6644.000000;1.571192
6643.000000;1.569136
6642.000000;1.566889
6641.000000;1.564926
6640.000000;1.563415
6639.000000;1.562032
6638.000000;1.560351
6637.000000;1.558326
6636.000000;1.556270
6635.000000;1.554429
6634.000000;1.552708
6633.000000;1.550830
6632.000000;1.548708
6631.000000;1.546593
6630.000000;1.544839
6629.000000;1.543520
6628.000000;1.542355
6627.000000;1.541028
6626.000000;1.539483
6625.000000;1.537844
6624.000000;1.536118
6623.000000;1.534168
6622.000000;1.531999
6621.000000;1.529890
6620.000000;1.528130
6619.000000;1.526711
6618.000000;1.525393
6617.000000;1.524019
6616.000000;1.522642
6615.000000;1.521344
6614.000000;1.520086
6613.000000;1.518764
6612.000000;1.517343
6611.000000;1.515844
6610.000000;1.514258
6609.000000;1.512559
6608.000000;1.510799
6607.000000;1.509112
6606.000000;1.507588
6605.000000;1.506177
6604.000000;1.504757
6603.000000;1.503239
6602.000000;1.501601
6601.000000;1.499848
6600.000000;1.498043
6599.000000;1.496340
6598.000000;1.494906
6597.000000;1.493753
6596.000000;1.492699
6595.000000;1.491529
6594.000000;1.490167
6593.000000;1.488676
6592.000000;1.487168
6591.000000;1.485746
6590.000000;1.484452
6589.000000;1.483173
6588.000000;1.481688
6587.000000;1.479906
6586.000000;1.478023
6585.000000;1.476337
6584.000000;1.474931
6583.000000;1.473646
6582.000000;1.472326
6581.000000;1.470966
6580.000000;1.469584
6579.000000;1.468112
6578.000000;1.466505
6577.000000;1.464836
6576.000000;1.463201
6575.000000;1.461610
6574.000000;1.460076
6573.000000;1.458737
6572.000000;1.457739
6571.000000;1.457002
6570.000000;1.456206
6569.000000;1.455059
6568.000000;1.453511
6567.000000;1.451722
6566.000000;1.449898
6565.000000;1.448195
6564.000000;1.446693
6563.000000;1.445362
6562.000000;1.444065
6561.000000;1.442693
6560.000000;1.441299
6559.000000;1.440049
6558.000000;1.438988
6557.000000;1.437940
6556.000000;1.436700
6555.000000;1.435293
6554.000000;1.433936
6553.000000;1.432755
6552.000000;1.431647
6551.000000;1.430482
6550.000000;1.429314
6549.000000;1.428276
6548.000000;1.427325
6547.000000;1.426231
6546.000000;1.424849
6545.000000;1.423297
6544.000000;1.421822
6543.000000;1.420569
6542.000000;1.419507
6541.000000;1.418514
6540.000000;1.417462
6539.000000;1.416266
6538.000000;1.414926
6537.000000;1.413523
6536.000000;1.412164
6535.000000;1.410918
6534.000000;1.409806
6533.000000;1.408799
6532.000000;1.407794
6531.000000;1.406654
6530.000000;1.405326
6529.000000;1.403918
6528.000000;1.402620
6527.000000;1.401552
6526.000000;1.400679
6525.000000;1.399871
6524.000000;1.398993
6523.000000;1.397960
6522.000000;1.396724
6521.000000;1.395267
6520.000000;1.393644
6519.000000;1.392031
6518.000000;1.390641
6517.000000;1.389550
6516.000000;1.388634
6515.000000;1.387736
6514.000000;1.386831
6513.000000;1.385939
6512.000000;1.384951
6511.000000;1.383704
6510.000000;1.382263
6509.000000;1.380934
6508.000000;1.379919
6507.000000;1.379075
6506.000000;1.378137
6505.000000;1.377082
6504.000000;1.376108
6503.000000;1.375313
6502.000000;1.374547
6501.000000;1.373630
6500.000000;1.372582
6499.000000;1.371568
6498.000000;1.370690
6497.000000;1.369889
6496.000000;1.368999
6495.000000;1.367880
6494.000000;1.366517
6493.000000;1.365026
6492.000000;1.363577
6491.000000;1.362289
6490.000000;1.361206
6489.000000;1.360330
6488.000000;1.359633
6487.000000;1.359035
6486.000000;1.358417
6485.000000;1.357665
6484.000000;1.356705
6483.000000;1.355545
6482.000000;1.354311
6481.000000;1.353201
6480.000000;1.352297
6479.000000;1.351443
6478.000000;1.350390
6477.000000;1.349107
6476.000000;1.347853
6475.000000;1.346899
6474.000000;1.346252
6473.000000;1.345680
6472.000000;1.344960
6471.000000;1.344029
6470.000000;1.342955
6469.000000;1.341863
6468.000000;1.340862
6467.000000;1.339973
6466.000000;1.339096
6465.000000;1.338108
6464.000000;1.337004
6463.000000;1.335916
6462.000000;1.334979
6461.000000;1.334205
6460.000000;1.333500
6459.000000;1.332759
6458.000000;1.331943
6457.000000;1.331088
6456.000000;1.330256
6455.000000;1.329460
6454.000000;1.328624
6453.000000;1.327649
6452.000000;1.326537
6451.000000;1.325407
6450.000000;1.324376
6449.000000;1.323455
6448.000000;1.322590
6447.000000;1.321768
6446.000000;1.321018
6445.000000;1.320319
6444.000000;1.319590
6443.000000;1.318792
6442.000000;1.317990
6441.000000;1.317273
6440.000000;1.316641
6439.000000;1.316018
6438.000000;1.315363
6437.000000;1.314682
6436.000000;1.313938
6435.000000;1.313021
6434.000000;1.311868
6433.000000;1.310600
6432.000000;1.309470
6431.000000;1.308657
6430.000000;1.308116
6429.000000;1.307657
6428.000000;1.307129
6427.000000;1.306507
6426.000000;1.305824
6425.000000;1.305091
6424.000000;1.304313
6423.000000;1.303534
6422.000000;1.302812
6421.000000;1.302146
6420.000000;1.301471
6419.000000;1.300729
6418.000000;1.299917
6417.000000;1.299062
6416.000000;1.298194
6415.000000;1.297342
6414.000000;1.296522
6413.000000;1.295715
6412.000000;1.294909
6411.000000;1.294171
6410.000000;1.293606
6409.000000;1.293204
6408.000000;1.292766
6407.000000;1.292069
6406.000000;1.291091
6405.000000;1.290031
6404.000000;1.289109
6403.000000;1.288384
6402.000000;1.287766
6401.000000;1.287115
6400.000000;1.286330
6399.000000;1.285402
6398.000000;1.284439
6397.000000;1.283611
6396.000000;1.283031
6395.000000;1.282676
6394.000000;1.282411
6393.000000;1.282065
6392.000000;1.281525
6391.000000;1.280792
6390.000000;1.279988
6389.000000;1.279234
6388.000000;1.278529
6387.000000;1.277775
6386.000000;1.276949
6385.000000;1.276201
6384.000000;1.275713
6383.000000;1.275491
6382.000000;1.275328
6381.000000;1.274957
6380.000000;1.274243
6379.000000;1.273245
6378.000000;1.272161
6377.000000;1.271195
6376.000000;1.270433
6375.000000;1.269806
6374.000000;1.269181
6373.000000;1.268492
6372.000000;1.267773
6371.000000;1.267106
6370.000000;1.266547
6369.000000;1.266081
6368.000000;1.265626
6367.000000;1.265098
6366.000000;1.264502
6365.000000;1.263943
6364.000000;1.263499
6363.000000;1.263114
6362.000000;1.262647
6361.000000;1.262034
6360.000000;1.261342
6359.000000;1.260667
6358.000000;1.260027
6357.000000;1.259387
6356.000000;1.258741
6355.000000;1.258126
6354.000000;1.257581
6353.000000;1.257101
6352.000000;1.256628
6351.000000;1.256047
6350.000000;1.255278
6349.000000;1.254395
6348.000000;1.253616
6347.000000;1.253085
6346.000000;1.252692
6345.000000;1.252185
6344.000000;1.251465
6343.000000;1.250691
6342.000000;1.250062
6341.000000;1.249586
6340.000000;1.249112
6339.000000;1.248532
6338.000000;1.247882
6337.000000;1.247289
6336.000000;1.246868
6335.000000;1.246641
6334.000000;1.246460
6333.000000;1.246069
6332.000000;1.245331
6331.000000;1.244404
6330.000000;1.243622
6329.000000;1.243173
6328.000000;1.242972
6327.000000;1.242821
6326.000000;1.242599
6325.000000;1.242259
6324.000000;1.241770
6323.000000;1.241153
6322.000000;1.240518
6321.000000;1.239975
6320.000000;1.239521
6319.000000;1.239059
6318.000000;1.238523
6317.000000;1.237919
6316.000000;1.237289
6315.000000;1.236690
6314.000000;1.236185
6313.000000;1.235784
6312.000000;1.235397
6311.000000;1.234936
6310.000000;1.234433
6309.000000;1.233993
6308.000000;1.233617
6307.000000;1.233177
6306.000000;1.232591
6305.000000;1.231950
6304.000000;1.231423
6303.000000;1.231068
6302.000000;1.230807
6301.000000;1.230530
6300.000000;1.230184
6299.000000;1.229772
6298.000000;1.229327
6297.000000;1.228888
6296.000000;1.228456
6295.000000;1.227967
6294.000000;1.227357
6293.000000;1.226672
6292.000000;1.226055
6291.000000;1.225611
6290.000000;1.225295
6289.000000;1.224976
6288.000000;1.224614
6287.000000;1.224292
6286.000000;1.224059
6285.000000;1.223799
6284.000000;1.223324
6283.000000;1.222610
6282.000000;1.221845
6281.000000;1.221243
6280.000000;1.220864
6279.000000;1.220637
6278.000000;1.220468
6277.000000;1.220279
6276.000000;1.219996
6275.000000;1.219592
6274.000000;1.219126
6273.000000;1.218684
6272.000000;1.218301
6271.000000;1.217976
6270.000000;1.217713
6269.000000;1.217470
6268.000000;1.217128
6267.000000;1.216616
6266.000000;1.216062
6265.000000;1.215691
6264.000000;1.215557
6263.000000;1.215465
6262.000000;1.215195
6261.000000;1.214707
6260.000000;1.214094
6259.000000;1.213442
6258.000000;1.212820
6257.000000;1.212343
6256.000000;1.212097
6255.000000;1.212025
6254.000000;1.211948
6253.000000;1.211723
6252.000000;1.211345
6251.000000;1.210896
6250.000000;1.210465
6249.000000;1.210106
6248.000000;1.209829
6247.000000;1.209592
6246.000000;1.209322
6245.000000;1.208973
6244.000000;1.208556
6243.000000;1.208132
6242.000000;1.207776
6241.000000;1.207521
6240.000000;1.207331
6239.000000;1.207137
6238.000000;1.206909
6237.000000;1.206684
6236.000000;1.206490
6235.000000;1.206297
6234.000000;1.206054
6233.000000;1.205750
6232.000000;1.205404
6231.000000;1.205011
6230.000000;1.204539
6229.000000;1.203980
6228.000000;1.203374
6227.000000;1.202787
6226.000000;1.202280
6225.000000;1.201880
6224.000000;1.201566
6223.000000;1.201286
6222.000000;1.201013
6221.000000;1.200767
6220.000000;1.200571
6219.000000;1.200411
6218.000000;1.200246
6217.000000;1.200056
6216.000000;1.199834
6215.000000;1.199555
6214.000000;1.199199
6213.000000;1.198792
6212.000000;1.198398
6211.000000;1.198065
6210.000000;1.197816
6209.000000;1.197658
6208.000000;1.197572
6207.000000;1.197493
6206.000000;1.197336
6205.000000;1.197078
6204.000000;1.196763
6203.000000;1.196435
6202.000000;1.196090
6201.000000;1.195735
6200.000000;1.195419
6199.000000;1.195176
6198.000000;1.194963
6197.000000;1.194711
6196.000000;1.194430
6195.000000;1.194204
6194.000000;1.194055
6193.000000;1.193872
6192.000000;1.193523
6191.000000;1.193022
6190.000000;1.192536
6189.000000;1.192226
6188.000000;1.192105
6187.000000;1.192054
6186.000000;1.191935
6185.000000;1.191683
6184.000000;1.191331
6183.000000;1.190982
6182.000000;1.190726
6181.000000;1.190559
6180.000000;1.190388
6179.000000;1.190139
6178.000000;1.189842
6177.000000;1.189587
6176.000000;1.189414
6175.000000;1.189273
6174.000000;1.189105
6173.000000;1.188917
6172.000000;1.188773
6171.000000;1.188721
6170.000000;1.188731
6169.000000;1.188695
6168.000000;1.188504
6167.000000;1.188156
6166.000000;1.187772
6165.000000;1.187477
6164.000000;1.187277
6163.000000;1.187091
6162.000000;1.186868
6161.000000;1.186641
6160.000000;1.186439
6159.000000;1.186235
6158.000000;1.185997
6157.000000;1.185762
6156.000000;1.185602
6155.000000;1.185537
6154.000000;1.185511
6153.000000;1.185434
6152.000000;1.185240
6151.000000;1.184913
6150.000000;1.184495
6149.000000;1.184069
6148.000000;1.183719
6147.000000;1.183506
6146.000000;1.183434
6145.000000;1.183416
6144.000000;1.183311
6143.000000;1.183051
6142.000000;1.182734
6141.000000;1.182537
6140.000000;1.182504
6139.000000;1.182510
6138.000000;1.182425
6137.000000;1.182254
6136.000000;1.182076
6135.000000;1.181920
6134.000000;1.181761
6133.000000;1.181594
6132.000000;1.181423
6131.000000;1.181218
6130.000000;1.180958
6129.000000;1.180691
6128.000000;1.180501
6127.000000;1.180421
6126.000000;1.180426
6125.000000;1.180486
6124.000000;1.180555
6123.000000;1.180534
6122.000000;1.180332
6121.000000;1.179983
6120.000000;1.179605
6119.000000;1.179258
6118.000000;1.178892
6117.000000;1.178484
6116.000000;1.178125
6115.000000;1.177910
6114.000000;1.177811
6113.000000;1.177713
6112.000000;1.177551
6111.000000;1.177368
6110.000000;1.177250
6109.000000;1.177248
6108.000000;1.177355
6107.000000;1.177510
6106.000000;1.177618
6105.000000;1.177606
6104.000000;1.177457
6103.000000;1.177195
6102.000000;1.176858
6101.000000;1.176489
6100.000000;1.176142
6099.000000;1.175856
6098.000000;1.175655
6097.000000;1.175558
6096.000000;1.175572
6095.000000;1.175640
6094.000000;1.175644
6093.000000;1.175509
6092.000000;1.175275
6091.000000;1.175040
6090.000000;1.174847
6089.000000;1.174661
6088.000000;1.174455
6087.000000;1.174239
6086.000000;1.174014
6085.000000;1.173770
6084.000000;1.173549
6083.000000;1.173451
6082.000000;1.173530
6081.000000;1.173722
6080.000000;1.173907
6079.000000;1.174006
6078.000000;1.173997
6077.000000;1.173865
6076.000000;1.173610
6075.000000;1.173301
6074.000000;1.173058
6073.000000;1.172967
6072.000000;1.173022
6071.000000;1.173168
6070.000000;1.173347
6069.000000;1.173488
6068.000000;1.173501
6067.000000;1.173325
6066.000000;1.172993
6065.000000;1.172642
6064.000000;1.172422
6063.000000;1.172410
6062.000000;1.172581
6061.000000;1.172833
6060.000000;1.173031
6059.000000;1.173064
6058.000000;1.172907
6057.000000;1.172641
6056.000000;1.172395
6055.000000;1.172246
6054.000000;1.172168
6053.000000;1.172110
6052.000000;1.172074
6051.000000;1.172095
6050.000000;1.172150
6049.000000;1.172154
6048.000000;1.172076
6047.000000;1.171992
6046.000000;1.171979
6045.000000;1.171995
6044.000000;1.171919
6043.000000;1.171708
6042.000000;1.171436
6041.000000;1.171174
6040.000000;1.170927
6039.000000;1.170704
6038.000000;1.170587
6037.000000;1.170661
6036.000000;1.170883
6035.000000;1.171110
6034.000000;1.171232
6033.000000;1.171238
6032.000000;1.171170
6031.000000;1.171074
6030.000000;1.171008
6029.000000;1.171028
6028.000000;1.171132
6027.000000;1.171235
6026.000000;1.171243
6025.000000;1.171144
6024.000000;1.171010
6023.000000;1.170912
6022.000000;1.170856
6021.000000;1.170798
6020.000000;1.170703
6019.000000;1.170583
6018.000000;1.170491
6017.000000;1.170471
6016.000000;1.170509
6015.000000;1.170531
6014.000000;1.170467
6013.000000;1.170324
6012.000000;1.170184
6011.000000;1.170145
6010.000000;1.170256
6009.000000;1.170504
6008.000000;1.170833
6007.000000;1.171176
6006.000000;1.171477
6005.000000;1.171710
6004.000000;1.171898
6003.000000;1.172059
6002.000000;1.172147
6001.000000;1.172073
6000.000000;1.171825
5999.000000;1.171535
5998.000000;1.171383
5997.000000;1.171424
5996.000000;1.171565
5995.000000;1.171710
5994.000000;1.171855
5993.000000;1.172017
5992.000000;1.172146
5991.000000;1.172182
5990.000000;1.172155
5989.000000;1.172160
5988.000000;1.172235
5987.000000;1.172326
5986.000000;1.172386
5985.000000;1.172433
5984.000000;1.172505
5983.000000;1.172601
5982.000000;1.172703
5981.000000;1.172824
5980.000000;1.172991
5979.000000;1.173206
5978.000000;1.173442
5977.000000;1.173674
5976.000000;1.173881
5975.000000;1.174030
5974.000000;1.174076
5973.000000;1.174016
5972.000000;1.173935
5971.000000;1.173978
5970.000000;1.174246
5969.000000;1.174686
5968.000000;1.175118
5967.000000;1.175390
5966.000000;1.175491
5965.000000;1.175524
5964.000000;1.175579
5963.000000;1.175692
5962.000000;1.175889
5961.000000;1.176205
5960.000000;1.176633
5959.000000;1.177100
5958.000000;1.177517
5957.000000;1.177841
5956.000000;1.178061
5955.000000;1.178180
5954.000000;1.178233
5953.000000;1.178284
5952.000000;1.178378
5951.000000;1.178518
5950.000000;1.178706
5949.000000;1.178986
5948.000000;1.179393
5947.000000;1.179881
5946.000000;1.180336
5945.000000;1.180669
5944.000000;1.180872
5943.000000;1.180987
5942.000000;1.181064
5941.000000;1.181137
5940.000000;1.181214
5939.000000;1.181282
5938.000000;1.181356
5937.000000;1.181519
5936.000000;1.181868
5935.000000;1.182382
5934.000000;1.182905
5933.000000;1.183277
5932.000000;1.183485
5931.000000;1.183648
5930.000000;1.183866
5929.000000;1.184128
5928.000000;1.184362
5927.000000;1.184516
5926.000000;1.184579
5925.000000;1.184564
5924.000000;1.184524
5923.000000;1.184561
5922.000000;1.184760
5921.000000;1.185094
5920.000000;1.185434
5919.000000;1.185679
5918.000000;1.185852
5917.000000;1.186053
5916.000000;1.186336
5915.000000;1.186649
5914.000000;1.186907
5913.000000;1.187058
5912.000000;1.187111
5911.000000;1.187094
5910.000000;1.187041
5909.000000;1.186978
5908.000000;1.186931
5907.000000;1.186919
5906.000000;1.186960
5905.000000;1.187057
5904.000000;1.187175
5903.000000;1.187250
5902.000000;1.187235
5901.000000;1.187166
5900.000000;1.187146
5899.000000;1.187256
5898.000000;1.187463
5897.000000;1.187641
5896.000000;1.187700
5895.000000;1.187694
5894.000000;1.187774
5893.000000;1.188040
5892.000000;1.188436
5891.000000;1.188814
5890.000000;1.189059
5889.000000;1.189157
5888.000000;1.189177
5887.000000;1.189197
5886.000000;1.189249
5885.000000;1.189305
5884.000000;1.189327
5883.000000;1.189333
5882.000000;1.189383
5881.000000;1.189494
5880.000000;1.189590
5879.000000;1.189615
5878.000000;1.189653
5877.000000;1.189865
5876.000000;1.190299
5875.000000;1.190791
5874.000000;1.191102
5873.000000;1.191130
5872.000000;1.190981
5871.000000;1.190874
5870.000000;1.190985
5869.000000;1.191351
5868.000000;1.191860
5867.000000;1.192335
5866.000000;1.192664
5865.000000;1.192870
5864.000000;1.193063
5863.000000;1.193329
5862.000000;1.193675
5861.000000;1.194050
5860.000000;1.194406
5859.000000;1.194735
5858.000000;1.195058
5857.000000;1.195381
5856.000000;1.195674
5855.000000;1.195905
5854.000000;1.196100
5853.000000;1.196329
5852.000000;1.196632
5851.000000;1.196993
5850.000000;1.197395
5849.000000;1.197858
5848.000000;1.198389
5847.000000;1.198924
5846.000000;1.199382
5845.000000;1.199742
5844.000000;1.200054
5843.000000;1.200365
5842.000000;1.200692
5841.000000;1.201059
5840.000000;1.201505
5839.000000;1.202033
5838.000000;1.202575
5837.000000;1.203057
5836.000000;1.203470
5835.000000;1.203855
5834.000000;1.204239
5833.000000;1.204605
5832.000000;1.204929
5831.000000;1.205228
5830.000000;1.205549
5829.000000;1.205931
5828.000000;1.206364
5827.000000;1.206806
5826.000000;1.207231
5825.000000;1.207658
5824.000000;1.208115
5823.000000;1.208586
5822.000000;1.209041
5821.000000;1.209517
5820.000000;1.210115
5819.000000;1.210870
5818.000000;1.211650
5817.000000;1.212259
5816.000000;1.212643
5815.000000;1.212951
5814.000000;1.213359
5813.000000;1.213894
5812.000000;1.214453
5811.000000;1.214950
5810.000000;1.215396
5809.000000;1.215844
5808.000000;1.216337
5807.000000;1.216887
5806.000000;1.217474
5805.000000;1.218031
5804.000000;1.218483
5803.000000;1.218837
5802.000000;1.219207
5801.000000;1.219704
5800.000000;1.220324
5799.000000;1.220964
5798.000000;1.221541
5797.000000;1.222060
5796.000000;1.222566
5795.000000;1.223074
5794.000000;1.223567
5793.000000;1.224038
5792.000000;1.224513
5791.000000;1.225036
5790.000000;1.225650
5789.000000;1.226359
5788.000000;1.227088
5787.000000;1.227707
5786.000000;1.228133
5785.000000;1.228426
5784.000000;1.228753
5783.000000;1.229245
5782.000000;1.229898
5781.000000;1.230590
5780.000000;1.231191
5779.000000;1.231654
5778.000000;1.232053
5777.000000;1.232536
5776.000000;1.233207
5775.000000;1.234024
5774.000000;1.234803
5773.000000;1.235382
5772.000000;1.235767
5771.000000;1.236110
5770.000000;1.236561
5769.000000;1.237166
5768.000000;1.237870
5767.000000;1.238579
5766.000000;1.239189
5765.000000;1.239639
5764.000000;1.239966
5763.000000;1.240299
5762.000000;1.240753
5761.000000;1.241332
5760.000000;1.241961
5759.000000;1.242583
5758.000000;1.243198
5757.000000;1.243832
5756.000000;1.244489
5755.000000;1.245149
5754.000000;1.245775
5753.000000;1.246325
5752.000000;1.246788
5751.000000;1.247231
5750.000000;1.247771
5749.000000;1.248475
5748.000000;1.249284
5747.000000;1.250046
5746.000000;1.250627
5745.000000;1.251021
5744.000000;1.251342
5743.000000;1.251733
5742.000000;1.252270
5741.000000;1.252946
5740.000000;1.253706
5739.000000;1.254487
5738.000000;1.255214
5737.000000;1.255838
5736.000000;1.256383
5735.000000;1.256926
5734.000000;1.257488
5733.000000;1.257990
5732.000000;1.258367
5731.000000;1.258702
5730.000000;1.259164
5729.000000;1.259815
5728.000000;1.260548
5727.000000;1.261221
5726.000000;1.261805
5725.000000;1.262379
5724.000000;1.263026
5723.000000;1.263766
5722.000000;1.264556
5721.000000;1.265316
5720.000000;1.265988
5719.000000;1.266591
5718.000000;1.267217
5717.000000;1.267927
5716.000000;1.268668
5715.000000;1.269328
5714.000000;1.269855
5713.000000;1.270308
5712.000000;1.270787
5711.000000;1.271343
5710.000000;1.271976
5709.000000;1.272682
5708.000000;1.273464
5707.000000;1.274303
5706.000000;1.275133
5705.000000;1.275893
5704.000000;1.276605
5703.000000;1.277358
5702.000000;1.278195
5701.000000;1.279034
5700.000000;1.279739
5699.000000;1.280283
5698.000000;1.280768
5697.000000;1.281294
5696.000000;1.281881
5695.000000;1.282496
5694.000000;1.283131
5693.000000;1.283798
5692.000000;1.284491
5691.000000;1.285195
5690.000000;1.285909
5689.000000;1.286638
5688.000000;1.287352
5687.000000;1.288011
5686.000000;1.288623
5685.000000;1.289249
5684.000000;1.289935
5683.000000;1.290652
5682.000000;1.291323
5681.000000;1.291895
5680.000000;1.292400
5679.000000;1.292929
5678.000000;1.293555
5677.000000;1.294288
5676.000000;1.295073
5675.000000;1.295831
5674.000000;1.296494
5673.000000;1.297046
5672.000000;1.297543
5671.000000;1.298081
5670.000000;1.298720
5669.000000;1.299477
5668.000000;1.300363
5667.000000;1.301377
5666.000000;1.302417
5665.000000;1.303268
5664.000000;1.303792
5663.000000;1.304108
5662.000000;1.304471
5661.000000;1.304988
5660.000000;1.305543
5659.000000;1.306003
5658.000000;1.306403
5657.000000;1.306861
5656.000000;1.307407
5655.000000;1.307982
5654.000000;1.308548
5653.000000;1.309113
5652.000000;1.309677
5651.000000;1.310216
5650.000000;1.310715
5649.000000;1.311174
5648.000000;1.311604
5647.000000;1.312051
5646.000000;1.312591
5645.000000;1.313241
5644.000000;1.313902
5643.000000;1.314453
5642.000000;1.314883
5641.000000;1.315291
5640.000000;1.315766
5639.000000;1.316320
5638.000000;1.316931
5637.000000;1.317581
5636.000000;1.318247
5635.000000;1.318882
5634.000000;1.319443
5633.000000;1.319923
5632.000000;1.320356
5631.000000;1.320804
5630.000000;1.321318
5629.000000;1.321893
5628.000000;1.322467
5627.000000;1.322998
5626.000000;1.323529
5625.000000;1.324131
5624.000000;1.324789
5623.000000;1.325385
5622.000000;1.325818
5621.000000;1.326093
5620.000000;1.326307
5619.000000;1.326555
5618.000000;1.326861
5617.000000;1.327182
5616.000000;1.327481
5615.000000;1.327787
5614.000000;1.328183
5613.000000;1.328718
5612.000000;1.329359
5611.000000;1.330022
5610.000000;1.330616
5609.000000;1.331056
5608.000000;1.331318
5607.000000;1.331491
5606.000000;1.331752
5605.000000;1.332185
5604.000000;1.332662
5603.000000;1.332957
5602.000000;1.332997
5601.000000;1.332943
5600.000000;1.333012
5599.000000;1.333254
5598.000000;1.333532
5597.000000;1.333695
5596.000000;1.333757
5595.000000;1.333879
5594.000000;1.334192
5593.000000;1.334637
5592.000000;1.335021
5591.000000;1.335226
5590.000000;1.335328
5589.000000;1.335497
5588.000000;1.335835
5587.000000;1.336324
5586.000000;1.336867
5585.000000;1.337322
5584.000000;1.337546
5583.000000;1.337495
5582.000000;1.337294
5581.000000;1.337153
5580.000000;1.337189
5579.000000;1.337346
5578.000000;1.337491
5577.000000;1.337567
5576.000000;1.337669
5575.000000;1.337956
5574.000000;1.338481
5573.000000;1.339078
5572.000000;1.339488
5571.000000;1.339615
5570.000000;1.339611
5569.000000;1.339676
5568.000000;1.339845
5567.000000;1.340026
5566.000000;1.340170
5565.000000;1.340292
5564.000000;1.340369
5563.000000;1.340352
5562.000000;1.340266
5561.000000;1.340190
5560.000000;1.340142
5559.000000;1.340063
5558.000000;1.339940
5557.000000;1.339831
5556.000000;1.339760
5555.000000;1.339686
5554.000000;1.339630
5553.000000;1.339731
5552.000000;1.340075
5551.000000;1.340542
5550.000000;1.340900
5549.000000;1.341025
5548.000000;1.340976
5547.000000;1.340882
5546.000000;1.340836
5545.000000;1.340851
5544.000000;1.340873
5543.000000;1.340831
5542.000000;1.340720
5541.000000;1.340619
5540.000000;1.340602
5539.000000;1.340654
5538.000000;1.340718
5537.000000;1.340803
5536.000000;1.340971
5535.000000;1.341253
5534.000000;1.341602
5533.000000;1.341935
5532.000000;1.342183
5531.000000;1.342297
5530.000000;1.342266
5529.000000;1.342114
5528.000000;1.341895
5527.000000;1.341670
5526.000000;1.341504
5525.000000;1.341431
5524.000000;1.341431
5523.000000;1.341452
5522.000000;1.341486
5521.000000;1.341577
5520.000000;1.341741
5519.000000;1.341938
5518.000000;1.342130
5517.000000;1.342313
5516.000000;1.342450
5515.000000;1.342443
5514.000000;1.342254
5513.000000;1.342019
5512.000000;1.341934
5511.000000;1.342022
5510.000000;1.342112
5509.000000;1.342084
5508.000000;1.342058
5507.000000;1.342252
5506.000000;1.342698
5505.000000;1.343204
5504.000000;1.343561
5503.000000;1.343710
5502.000000;1.343701
5501.000000;1.343581
5500.000000;1.343408
5499.000000;1.343324
5498.000000;1.343487
5497.000000;1.343856
5496.000000;1.344169
5495.000000;1.344224
5494.000000;1.344136
5493.000000;1.344196
5492.000000;1.344508
5491.000000;1.344889
5490.000000;1.345162
5489.000000;1.345388
5488.000000;1.345719
5487.000000;1.346141
5486.000000;1.346484
5485.000000;1.346672
5484.000000;1.346809
5483.000000;1.347000
5482.000000;1.347236
5481.000000;1.347502
5480.000000;1.347863
5479.000000;1.348313
5478.000000;1.348669
5477.000000;1.348762
5476.000000;1.348732
5475.000000;1.348965
5474.000000;1.349636
5473.000000;1.350459
5472.000000;1.351011
5471.000000;1.351210
5470.000000;1.351342
5469.000000;1.351671
5468.000000;1.352158
5467.000000;1.352608
5466.000000;1.352971
5465.000000;1.353344
5464.000000;1.353757
5463.000000;1.354138
5462.000000;1.354507
5461.000000;1.355047
5460.000000;1.355855
5459.000000;1.356729
5458.000000;1.357346
5457.000000;1.357604
5456.000000;1.357724
5455.000000;1.358050
5454.000000;1.358737
5453.000000;1.359611
5452.000000;1.360345
5451.000000;1.360843
5450.000000;1.361353
5449.000000;1.362104
5448.000000;1.362982
5447.000000;1.363789
5446.000000;1.364652
5445.000000;1.365825
5444.000000;1.367173
5443.000000;1.368239
5442.000000;1.368876
5441.000000;1.369497
5440.000000;1.370528
5439.000000;1.371837
5438.000000;1.372935
5437.000000;1.373577
5436.000000;1.373983
5435.000000;1.374609
5434.000000;1.375762
5433.000000;1.377312
5432.000000;1.378799
5431.000000;1.379888
5430.000000;1.380709
5429.000000;1.381679
5428.000000;1.383005
5427.000000;1.384461
5426.000000;1.385724
5425.000000;1.386762
5424.000000;1.387830
5423.000000;1.389149
5422.000000;1.390657
5421.000000;1.392121
5420.000000;1.393468
5419.000000;1.394917
5418.000000;1.396698
5417.000000;1.398727
5416.000000;1.400707
5415.000000;1.402529
5414.000000;1.404401
5413.000000;1.406488
5412.000000;1.408619
5411.000000;1.410552
5410.000000;1.412352
5409.000000;1.414260
5408.000000;1.416306
5407.000000;1.418327
5406.000000;1.420306
5405.000000;1.422415
5404.000000;1.424704
5403.000000;1.427045
5402.000000;1.429365
5401.000000;1.431734
5400.000000;1.434230
5399.000000;1.436902
5398.000000;1.439800
5397.000000;1.442914
5396.000000;1.446094
5395.000000;1.449177
5394.000000;1.452217
5393.000000;1.455423
5392.000000;1.458853
5391.000000;1.462345
5390.000000;1.465764
5389.000000;1.469155
5388.000000;1.472610
5387.000000;1.476189
5386.000000;1.480001
5385.000000;1.484130
5384.000000;1.488418
5383.000000;1.492598
5382.000000;1.496679
5381.000000;1.500927
5380.000000;1.505465
5379.000000;1.510129
5378.000000;1.514752
5377.000000;1.519421
5376.000000;1.524328
5375.000000;1.529527
5374.000000;1.534946
5373.000000;1.540517
5372.000000;1.546177
5371.000000;1.551867
5370.000000;1.557651
5369.000000;1.563703
5368.000000;1.570037
5367.000000;1.576406
5366.000000;1.582635
5365.000000;1.588943
5364.000000;1.595751
5363.000000;1.603219
5362.000000;1.611112
5361.000000;1.619074
5360.000000;1.626983
5359.000000;1.635041
5358.000000;1.643530
5357.000000;1.652499
5356.000000;1.661679
5355.000000;1.670800
5354.000000;1.679970
5353.000000;1.689524
5352.000000;1.699496
5351.000000;1.709578
5350.000000;1.719682
5349.000000;1.730118
5348.000000;1.741082
5347.000000;1.752308
5346.000000;1.763505
5345.000000;1.774897
5344.000000;1.786969
5343.000000;1.799711
5342.000000;1.812628
5341.000000;1.825557
5340.000000;1.838968
5339.000000;1.853321
5338.000000;1.868431
5337.000000;1.883685
5336.000000;1.898709
5335.000000;1.913615
5334.000000;1.928711
5333.000000;1.944198
5332.000000;1.960078
5331.000000;1.976265
5330.000000;1.992798
5329.000000;2.010023
5328.000000;2.028522
5327.000000;2.048630
5326.000000;2.069853
5325.000000;2.090986
5324.000000;2.111039
5323.000000;2.130041
5322.000000;2.148938
5321.000000;2.168774
5320.000000;2.189962
5319.000000;2.212195
5318.000000;2.234806
5317.000000;2.257189
5316.000000;2.279125
5315.000000;2.300942
5314.000000;2.323285
5313.000000;2.346583
5312.000000;2.370714
5311.000000;2.395206
5310.000000;2.419653
5309.000000;2.443858
5308.000000;2.467854
5307.000000;2.491858
5306.000000;2.515984
5305.000000;2.539993
5304.000000;2.563564
5303.000000;2.586774
5302.000000;2.609850
5301.000000;2.632447
5300.000000;2.653915
5299.000000;2.674372
5298.000000;2.694532
5297.000000;2.714274
5296.000000;2.732473
5295.000000;2.748762
5294.000000;2.764544
5293.000000;2.781481
5292.000000;2.799459
5291.000000;2.816322
5290.000000;2.829166
5289.000000;2.836496
5288.000000;2.840228
5287.000000;2.844778
5286.000000;2.853365
5285.000000;2.865279
5284.000000;2.876944
5283.000000;2.885933
5282.000000;2.893029
5281.000000;2.900340
5280.000000;2.909356
5279.000000;2.920656
5278.000000;2.933178
5277.000000;2.943341
5276.000000;2.947110
5275.000000;2.944478
5274.000000;2.939840
5273.000000;2.937267
5272.000000;2.938206
5271.000000;2.943111
5270.000000;2.951181
5269.000000;2.957914
5268.000000;2.957208
5267.000000;2.948242
5266.000000;2.936881
5265.000000;2.929132
5264.000000;2.926876
5263.000000;2.930128
5262.000000;2.939564
5261.000000;2.954654
5260.000000;2.971037
5259.000000;2.982166
5258.000000;2.984127
5257.000000;2.978168
5256.000000;2.969193
5255.000000;2.962555
5254.000000;2.960783
5253.000000;2.961254
5252.000000;2.959244
5251.000000;2.955267
5250.000000;2.955027
5249.000000;2.961473
5248.000000;2.970518
5247.000000;2.975340
5246.000000;2.973572
5245.000000;2.967893
5244.000000;2.961568
5243.000000;2.957014
5242.000000;2.956320
5241.000000;2.959657
5240.000000;2.964368
5239.000000;2.967875
5238.000000;2.970714
5237.000000;2.975072
5236.000000;2.980995
5235.000000;2.985492
5234.000000;2.985298
5233.000000;2.979624
5232.000000;2.970562
5231.000000;2.962315
5230.000000;2.959289
5229.000000;2.963025
5228.000000;2.970979
5227.000000;2.978586
5226.000000;2.982262
5225.000000;2.981122
5224.000000;2.977020
5223.000000;2.973006
5222.000000;2.971011
5221.000000;2.970854
5220.000000;2.971520
5219.000000;2.972431
5218.000000;2.972653
5217.000000;2.970478
5216.000000;2.965976
5215.000000;2.962992
5214.000000;2.965281
5213.000000;2.970596
5212.000000;2.972504
5211.000000;2.969213
5210.000000;2.965932
5209.000000;2.966620
5208.000000;2.968637
5207.000000;2.968234
5206.000000;2.967091
5205.000000;2.968856
5204.000000;2.972608
5203.000000;2.974359
5202.000000;2.973269
5201.000000;2.971766
5200.000000;2.970361
5199.000000;2.967378
5198.000000;2.963617
5197.000000;2.962996
5196.000000;2.967400
5195.000000;2.973407
5194.000000;2.975680
5193.000000;2.972620
5192.000000;2.967289
5191.000000;2.963531
5190.000000;2.962593
5189.000000;2.963211
5188.000000;2.963922
5187.000000;2.964839
5186.000000;2.966647
5185.000000;2.968078
5184.000000;2.966396
5183.000000;2.961514
5182.000000;2.957364
5181.000000;2.957473
5180.000000;2.960901
5179.000000;2.963701
5178.000000;2.963584
5177.000000;2.961783
5176.000000;2.960553
5175.000000;2.960640
5174.000000;2.961193
5173.000000;2.960755
5172.000000;2.958526
5171.000000;2.955569
5170.000000;2.954134
5169.000000;2.954859
5168.000000;2.955610
5167.000000;2.954379
5166.000000;2.952783
5165.000000;2.954730
5164.000000;2.961343
5163.000000;2.968713
5162.000000;2.971578
5161.000000;2.969127
5160.000000;2.965859
5159.000000;2.966337
5158.000000;2.970226
5157.000000;2.972961
5156.000000;2.971339
5155.000000;2.967309
5154.000000;2.964542
5153.000000;2.963043
5152.000000;2.959816
5151.000000;2.954120
5150.000000;2.949357
5149.000000;2.949219
5148.000000;2.954092
5147.000000;2.961609
5146.000000;2.968747
5145.000000;2.972362
5144.000000;2.970169
5143.000000;2.963466
5142.000000;2.957311
5141.000000;2.955852
5140.000000;2.958301
5139.000000;2.960574
5138.000000;2.960111
5137.000000;2.957552
5136.000000;2.954379
5135.000000;2.951371
5134.000000;2.949459
5133.000000;2.949847
5132.000000;2.952522
5131.000000;2.955623
5130.000000;2.956794
5129.000000;2.955066
5128.000000;2.951606
5127.000000;2.948863
5126.000000;2.948660
5125.000000;2.950885
5124.000000;2.954108
5123.000000;2.956909
5122.000000;2.958109
5121.000000;2.956525
5120.000000;2.951909
5119.000000;2.946617
5118.000000;2.944985
5117.000000;2.949470
5116.000000;2.957796
5115.000000;2.965012
5114.000000;2.968327
5113.000000;2.968633
5112.000000;2.967451
5111.000000;2.964622
5110.000000;2.959799
5109.000000;2.954858
5108.000000;2.953312
5107.000000;2.956778
5106.000000;2.962108
5105.000000;2.963259
5104.000000;2.957937
5103.000000;2.951193
5102.000000;2.950059
5101.000000;2.955499
5100.000000;2.961052
5099.000000;2.960137
5098.000000;2.953372
5097.000000;2.946513
5096.000000;2.944010
5095.000000;2.946777
5094.000000;2.952811
5093.000000;2.957574
5092.000000;2.955909
5091.000000;2.947035
5090.000000;2.937419
5089.000000;2.935613
5088.000000;2.944109
5087.000000;2.956840
5086.000000;2.964492
5085.000000;2.963167
5084.000000;2.957100
5083.000000;2.952665
5082.000000;2.952095
5081.000000;2.952570
5080.000000;2.949867
5079.000000;2.942884
5078.000000;2.934691
5077.000000;2.929382
5076.000000;2.928884
5075.000000;2.933165
5074.000000;2.941575
5073.000000;2.951943
5072.000000;2.959566
5071.000000;2.960833
5070.000000;2.957487
5069.000000;2.953583
5068.000000;2.950289
5067.000000;2.946399
5066.000000;2.942163
5065.000000;2.939965
5064.000000;2.940619
5063.000000;2.941680
5062.000000;2.940728
5061.000000;2.938128
5060.000000;2.935947
5059.000000;2.935876
5058.000000;2.937877
5057.000000;2.939701
5056.000000;2.938361
5055.000000;2.933138
5054.000000;2.926473
5053.000000;2.921289
5052.000000;2.918621
5051.000000;2.918561
5050.000000;2.921942
5049.000000;2.928962
5048.000000;2.936046
5047.000000;2.936748
5046.000000;2.928369
5045.000000;2.916199
5044.000000;2.908875
5043.000000;2.911019
5042.000000;2.920877
5041.000000;2.932700
5040.000000;2.940143
5039.000000;2.938997
5038.000000;2.929456
5037.000000;2.916483
5036.000000;2.906512
5035.000000;2.902987
5034.000000;2.904996
5033.000000;2.909798
5032.000000;2.915974
5031.000000;2.923368
5030.000000;2.930517
5029.000000;2.934045
5028.000000;2.931482
5027.000000;2.923823
5026.000000;2.914848
5025.000000;2.908343
5024.000000;2.906125
5023.000000;2.907876
5022.000000;2.911604
5021.000000;2.914426
5020.000000;2.914228
5019.000000;2.911152
5018.000000;2.906736
5017.000000;2.902145
5016.000000;2.898025
5015.000000;2.894831
5014.000000;2.892590
5013.000000;2.890736
5012.000000;2.888518
5011.000000;2.885828
5010.000000;2.883668
5009.000000;2.883765
5008.000000;2.887336
5007.000000;2.893206
5006.000000;2.897103
5005.000000;2.894852
5004.000000;2.887166
5003.000000;2.878929
5002.000000;2.873282
5001.000000;2.869105
5000.000000;2.864840
4999.000000;2.861850
4998.000000;2.861790
4997.000000;2.862771
4996.000000;2.861247
4995.000000;2.857235
4994.000000;2.854557
4993.000000;2.855881
4992.000000;2.860133
4991.000000;2.864516
4990.000000;2.866764
4989.000000;2.865223
4988.000000;2.859255
4987.000000;2.850911
4986.000000;2.844147
4985.000000;2.841056
4984.000000;2.840269
4983.000000;2.839502
4982.000000;2.837937
4981.000000;2.835292
4980.000000;2.830739
4979.000000;2.824338
4978.000000;2.817844
4977.000000;2.812672
4976.000000;2.808631
4975.000000;2.805728
4974.000000;2.805273
4973.000000;2.807742
4972.000000;2.810802
4971.000000;2.811438
4970.000000;2.809366
4969.000000;2.806257
4968.000000;2.802358
4967.000000;2.796110
4966.000000;2.787275
4965.000000;2.778416
4964.000000;2.772605
4963.000000;2.770877
4962.000000;2.771948
4961.000000;2.773254
4960.000000;2.772751
4959.000000;2.770659
4958.000000;2.768962
4957.000000;2.768582
4956.000000;2.768215
4955.000000;2.766602
4954.000000;2.763993
4953.000000;2.760731
4952.000000;2.756303
4951.000000;2.750830
4950.000000;2.746493
4949.000000;2.745315
4948.000000;2.745752
4947.000000;2.743860
4946.000000;2.738489
4945.000000;2.732707
4944.000000;2.729231
4943.000000;2.726831
4942.000000;2.722850
4941.000000;2.717620
4940.000000;2.714015
4939.000000;2.713063
4938.000000;2.712146
4937.000000;2.708131
4936.000000;2.701217
4935.000000;2.694386
4934.000000;2.689698
4933.000000;2.686634
4932.000000;2.684106
4931.000000;2.682654
4930.000000;2.683346
4929.000000;2.684852
4928.000000;2.683241
4927.000000;2.675960
4926.000000;2.665479
4925.000000;2.657224
4924.000000;2.654364
4923.000000;2.655436
4922.000000;2.656223
4921.000000;2.653686
4920.000000;2.648452
4919.000000;2.643617
4918.000000;2.641317
4917.000000;2.640581
4916.000000;2.638549
4915.000000;2.633684
4914.000000;2.627302
4913.000000;2.621838
4912.000000;2.618398
4911.000000;2.616313
4910.000000;2.614343
4909.000000;2.611762
4908.000000;2.608587
4907.000000;2.605315
4906.000000;2.602465
4905.000000;2.599958
4904.000000;2.597032
4903.000000;2.593256
4902.000000;2.589356
4901.000000;2.586555
4900.000000;2.585189
4899.000000;2.584234
4898.000000;2.582195
4897.000000;2.578309
4896.000000;2.573207
4895.000000;2.568723
4894.000000;2.566518
4893.000000;2.566532
4892.000000;2.567057
4891.000000;2.566492
4890.000000;2.564590
4889.000000;2.561667
4888.000000;2.557273
4887.000000;2.550522
4886.000000;2.541702
4885.000000;2.532672
4884.000000;2.525471
4883.000000;2.521071
4882.000000;2.519304
4881.000000;2.519346
4880.000000;2.520119
4879.000000;2.520394
4878.000000;2.518795
4877.000000;2.514289
4876.000000;2.507289
4875.000000;2.500080
4874.000000;2.495245
4873.000000;2.493342
4872.000000;2.492513
4871.000000;2.490536
4870.000000;2.486733
4869.000000;2.481524
4868.000000;2.475167
4867.000000;2.468090
4866.000000;2.461775
4865.000000;2.457881
4864.000000;2.456436
4863.000000;2.455661
4862.000000;2.453697
4861.000000;2.450225
4860.000000;2.446509
4859.000000;2.444093
4858.000000;2.443274
4857.000000;2.442401
4856.000000;2.439114
4855.000000;2.432890
4854.000000;2.425895
4853.000000;2.420848
4852.000000;2.418642
4851.000000;2.418343
4850.000000;2.418695
4849.000000;2.418762
4848.000000;2.417572
4847.000000;2.414351
4846.000000;2.409382
4845.000000;2.403882
4844.000000;2.398944
4843.000000;2.395130
4842.000000;2.392781
4841.000000;2.391788
4840.000000;2.391041
4839.000000;2.389077
4838.000000;2.385606
4837.000000;2.381684
4836.000000;2.378210
4835.000000;2.374953
4834.000000;2.371259
4833.000000;2.367049
4832.000000;2.362821
4831.000000;2.359188
4830.000000;2.356526
4829.000000;2.354626
4828.000000;2.352735
4827.000000;2.350407
4826.000000;2.348115
4825.000000;2.346309
4824.000000;2.344178
4823.000000;2.340482
4822.000000;2.335726
4821.000000;2.332044
4820.000000;2.330358
4819.000000;2.328947
4818.000000;2.325735
4817.000000;2.321060
4816.000000;2.316814
4815.000000;2.313611
4814.000000;2.310314
4813.000000;2.306114
4812.000000;2.301655
4811.000000;2.297846
4810.000000;2.294693
4809.000000;2.291553
4808.000000;2.287957
4807.000000;2.283838
4806.000000;2.279671
4805.000000;2.276454
4804.000000;2.274944
4803.000000;2.274641
4802.000000;2.274010
4801.000000;2.272031
4800.000000;2.269137
4799.000000;2.266385
4798.000000;2.264120
4797.000000;2.261777
4796.000000;2.258602
4795.000000;2.254268
4794.000000;2.249113
4793.000000;2.244055
4792.000000;2.240044
4791.000000;2.237272
4790.000000;2.235024
4789.000000;2.232439
4788.000000;2.229205
4787.000000;2.225439
4786.000000;2.221322
4785.000000;2.217189
4784.000000;2.213641
4783.000000;2.211094
4782.000000;2.209328
4781.000000;2.207780
4780.000000;2.206184
4779.000000;2.204558
4778.000000;2.202680
4777.000000;2.200101
4776.000000;2.196761
4775.000000;2.193169
4774.000000;2.189855
4773.000000;2.186988
4772.000000;2.184634
4771.000000;2.182937
4770.000000;2.181770
4769.000000;2.180550
4768.000000;2.178737
4767.000000;2.176381
4766.000000;2.173833
4765.000000;2.171108
4764.000000;2.167865
4763.000000;2.163939
4762.000000;2.159546
4761.000000;2.155001
4760.000000;2.150572
4759.000000;2.146603
4758.000000;2.143373
4757.000000;2.140740
4756.000000;2.138236
4755.000000;2.135694
4754.000000;2.133491
4753.000000;2.131970
4752.000000;2.130828
4751.000000;2.129295
4750.000000;2.126842
4749.000000;2.123548
4748.000000;2.119998
4747.000000;2.116993
4746.000000;2.115102
4745.000000;2.114128
4744.000000;2.113148
4743.000000;2.111367
4742.000000;2.108895
4741.000000;2.106328
4740.000000;2.103740
4739.000000;2.100647
4738.000000;2.096956
4737.000000;2.093329
4736.000000;2.090283
4735.000000;2.087478
4734.000000;2.084367
4733.000000;2.081216
4732.000000;2.078843
4731.000000;2.077431
4730.000000;2.076167
4729.000000;2.074097
4728.000000;2.070956
4727.000000;2.067051
4726.000000;2.062866
4725.000000;2.059069
4724.000000;2.056421
4723.000000;2.055067
4722.000000;2.054038
4721.000000;2.052009
4720.000000;2.048733
4719.000000;2.045385
4718.000000;2.043242
4717.000000;2.042348
4716.000000;2.041708
4715.000000;2.040589
4714.000000;2.039221
4713.000000;2.038138
4712.000000;2.037224
4711.000000;2.035718
4710.000000;2.033086
4709.000000;2.029602
4708.000000;2.026018
4707.000000;2.022908
4706.000000;2.020408
4705.000000;2.018356
4704.000000;2.016422
4703.000000;2.014238
4702.000000;2.011706
4701.000000;2.009217
4700.000000;2.007310
4699.000000;2.006001
4698.000000;2.004652
4697.000000;2.002695
4696.000000;2.000279
4695.000000;1.997976
4694.000000;1.996039
4693.000000;1.994300
4692.000000;1.992690
4691.000000;1.991385
4690.000000;1.990346
4689.000000;1.989127
4688.000000;1.987326
4687.000000;1.984983
4686.000000;1.982345
4685.000000;1.979544
4684.000000;1.976785
4683.000000;1.974598
4682.000000;1.973407
4681.000000;1.972844
4680.000000;1.971933
4679.000000;1.970099
4678.000000;1.967724
4677.000000;1.965568
4676.000000;1.963936
4675.000000;1.962603
4674.000000;1.961327
4673.000000;1.960059
4672.000000;1.958734
4671.000000;1.957164
4670.000000;1.955263
4669.000000;1.953195
4668.000000;1.951156
4667.000000;1.949118
4666.000000;1.946947
4665.000000;1.944748
4664.000000;1.942902
4663.000000;1.941617
4662.000000;1.940564
4661.000000;1.939179
4660.000000;1.937302
4659.000000;1.935299
4658.000000;1.933496
4657.000000;1.931801
4656.000000;1.930107
4655.000000;1.928753
4654.000000;1.928137
4653.000000;1.927971
4652.000000;1.927392
4651.000000;1.925940
4650.000000;1.924010
4649.000000;1.922156
4648.000000;1.920350
4647.000000;1.918233
4646.000000;1.915807
4645.000000;1.913472
4644.000000;1.911514
4643.000000;1.909941
4642.000000;1.908737
4641.000000;1.907888
4640.000000;1.907132
4639.000000;1.906032
4638.000000;1.904475
4637.000000;1.902876
4636.000000;1.901700
4635.000000;1.900965
4634.000000;1.900316
4633.000000;1.899410
4632.000000;1.898079
4631.000000;1.896329
4630.000000;1.894430
4629.000000;1.892897
4628.000000;1.892067
4627.000000;1.891629
4626.000000;1.890771
4625.000000;1.888937
4624.000000;1.886356
4623.000000;1.883759
4622.000000;1.881707
4621.000000;1.880273
4620.000000;1.879224
4619.000000;1.878318
4618.000000;1.877458
4617.000000;1.876715
4616.000000;1.876197
4615.000000;1.875787
4614.000000;1.875032
4613.000000;1.873503
4612.000000;1.871367
4611.000000;1.869385
4610.000000;1.868153
4609.000000;1.867464
4608.000000;1.866618
4607.000000;1.865306
4606.000000;1.863931
4605.000000;1.863012
4604.000000;1.862494
4603.000000;1.861795
4602.000000;1.860462
4601.000000;1.858680
4600.000000;1.857127
4599.000000;1.856340
4598.000000;1.856167
4597.000000;1.855860
4596.000000;1.854837
4595.000000;1.853338
4594.000000;1.852159
4593.000000;1.851747
4592.000000;1.851756
4591.000000;1.851541
4590.000000;1.850846
4589.000000;1.849862
4588.000000;1.848814
4587.000000;1.847766
4586.000000;1.846709
4585.000000;1.845596
4584.000000;1.844313
4583.000000;1.842844
4582.000000;1.841465
4581.000000;1.840539
4580.000000;1.840096
4579.000000;1.839796
4578.000000;1.839351
4577.000000;1.838835
4576.000000;1.838509
4575.000000;1.838484
4574.000000;1.838632
4573.000000;1.838711
4572.000000;1.838449
4571.000000;1.837614
4570.000000;1.836178
4569.000000;1.834443
4568.000000;1.832910
4567.000000;1.831917
4566.000000;1.831388
4565.000000;1.830930
4564.000000;1.830228
4563.000000;1.829352
4562.000000;1.828651
4561.000000;1.828347
4560.000000;1.828284
4559.000000;1.828087
4558.000000;1.827482
4557.000000;1.826425
4556.000000;1.825035
4555.000000;1.823534
4554.000000;1.822221
4553.000000;1.821326
4552.000000;1.820824
4551.000000;1.820459
4550.000000;1.819993
4549.000000;1.819389
4548.000000;1.818774
4547.000000;1.818298
4546.000000;1.818025
4545.000000;1.817866
4544.000000;1.817608
4543.000000;1.817128
4542.000000;1.816605
4541.000000;1.816403
4540.000000;1.816671
4539.000000;1.817120
4538.000000;1.817266
4537.000000;1.816865
4536.000000;1.816090
4535.000000;1.815306
4534.000000;1.814740
4533.000000;1.814382
4532.000000;1.814154
4531.000000;1.814107
4530.000000;1.814333
4529.000000;1.814628
4528.000000;1.814404
4527.000000;1.813156
4526.000000;1.811078
4525.000000;1.809040
4524.000000;1.807913
4523.000000;1.807957
4522.000000;1.808807
4521.000000;1.809841
4520.000000;1.810495
4519.000000;1.810409
4518.000000;1.809558
4517.000000;1.808289
4516.000000;1.807141
4515.000000;1.806541
4514.000000;1.806591
4513.000000;1.807026
4512.000000;1.807363
4511.000000;1.807238
4510.000000;1.806708
4509.000000;1.806189
4508.000000;1.806029
4507.000000;1.806210
4506.000000;1.806496
4505.000000;1.806721
4504.000000;1.806814
4503.000000;1.806689
4502.000000;1.806315
4501.000000;1.805885
4500.000000;1.805732
4499.000000;1.806033
4498.000000;1.806662
4497.000000;1.807326
4496.000000;1.807727
4495.000000;1.807647
4494.000000;1.807091
4493.000000;1.806405
4492.000000;1.806110
4491.000000;1.806483
4490.000000;1.807350
4489.000000;1.808298
4488.000000;1.808952
4487.000000;1.809072
4486.000000;1.808613
4485.000000;1.807869
4484.000000;1.807330
4483.000000;1.807134
4482.000000;1.806781
4481.000000;1.805753
4480.000000;1.804403
4479.000000;1.803848
4478.000000;1.804822
4477.000000;1.806883
4476.000000;1.808882
4475.000000;1.810026
4474.000000;1.810331
4473.000000;1.810222
4472.000000;1.810082
4471.000000;1.810151
4470.000000;1.810538
4469.000000;1.811214
4468.000000;1.812074
4467.000000;1.813039
4466.000000;1.814040
4465.000000;1.814985
4464.000000;1.815889
4463.000000;1.816917
4462.000000;1.818083
4461.000000;1.818985
4460.000000;1.819187
4459.000000;1.818913
4458.000000;1.818995
4457.000000;1.819939
4456.000000;1.821310
4455.000000;1.822247
4454.000000;1.822457
4453.000000;1.822412
4452.000000;1.822668
4451.000000;1.823324
4450.000000;1.824202
4449.000000;1.825322
4448.000000;1.826951
4447.000000;1.829153
4446.000000;1.831445
4445.000000;1.833092
4444.000000;1.833815
4443.000000;1.834124
4442.000000;1.834804
4441.000000;1.836168
4440.000000;1.838013
4439.000000;1.840189
4438.000000;1.842827
4437.000000;1.845856
4436.000000;1.848558
4435.000000;1.850017
4434.000000;1.850120
4433.000000;1.849885
4432.000000;1.850675
4431.000000;1.853070
4430.000000;1.856411
4429.000000;1.859383
4428.000000;1.861218
4427.000000;1.862326
4426.000000;1.863630
4425.000000;1.865407
4424.000000;1.867125
4423.000000;1.868427
4422.000000;1.869758
4421.000000;1.871752
4420.000000;1.874409
4419.000000;1.877197
4418.000000;1.879685
4417.000000;1.881752
4416.000000;1.883457
4415.000000;1.885116
4414.000000;1.887285
4413.000000;1.890173
4412.000000;1.893230
4411.000000;1.895734
4410.000000;1.897702
4409.000000;1.899755
4408.000000;1.902255
4407.000000;1.905103
4406.000000;1.908172
4405.000000;1.911248
4404.000000;1.913654
4403.000000;1.914755
4402.000000;1.915019
4401.000000;1.915813
4400.000000;1.917904
4399.000000;1.920793
4398.000000;1.923780
4397.000000;1.926910
4396.000000;1.930387
4395.000000;1.933708
4394.000000;1.936133
4393.000000;1.937707
4392.000000;1.939136
4391.000000;1.940876
4390.000000;1.942979
4389.000000;1.945574
4388.000000;1.948770
4387.000000;1.952130
4386.000000;1.954907
4385.000000;1.956920
4384.000000;1.958745
4383.000000;1.960933
4382.000000;1.963444
4381.000000;1.965958
4380.000000;1.968393
4379.000000;1.970899
4378.000000;1.973534
4377.000000;1.976091
4376.000000;1.978128
4375.000000;1.979209
4374.000000;1.979401
4373.000000;1.979577
4372.000000;1.980924
4371.000000;1.983962
4370.000000;1.988054
4369.000000;1.991935
4368.000000;1.994734
4367.000000;1.996516
4366.000000;1.997989
4365.000000;1.999862
4364.000000;2.002377
4363.000000;2.005203
4362.000000;2.007601
4361.000000;2.008901
4360.000000;2.009166
4359.000000;2.009417
4358.000000;2.010869
4357.000000;2.013775
4356.000000;2.017263
4355.000000;2.020390
4354.000000;2.022952
4353.000000;2.024979
4352.000000;2.026091
4351.000000;2.026210
4350.000000;2.026510
4349.000000;2.028537
4348.000000;2.032376
4347.000000;2.036569
4346.000000;2.040034
4345.000000;2.043122
4344.000000;2.046301
4343.000000;2.049012
4342.000000;2.050700
4341.000000;2.052003
4340.000000;2.053852
4339.000000;2.056117
4338.000000;2.058233
4337.000000;2.060565
4336.000000;2.063805
4335.000000;2.067284
4334.000000;2.069228
4333.000000;2.068947
4332.000000;2.067757
4331.000000;2.067539
4330.000000;2.069279
4329.000000;2.072889
4328.000000;2.077332
4327.000000;2.080823
4326.000000;2.082148
4325.000000;2.082242
4324.000000;2.083371
4323.000000;2.086340
4322.000000;2.089522
4321.000000;2.091201
4320.000000;2.092034
4319.000000;2.094040
4318.000000;2.097753
4317.000000;2.101692
4316.000000;2.104500
4315.000000;2.106376
4314.000000;2.107980
4313.000000;2.108961
4312.000000;2.108456
4311.000000;2.106742
4310.000000;2.105509
4309.000000;2.106301
4308.000000;2.109148
4307.000000;2.112966
4306.000000;2.117106
4305.000000;2.122093
4304.000000;2.128552
4303.000000;2.135875
4302.000000;2.142519
4301.000000;2.147382
4300.000000;2.150249
4299.000000;2.151009
4298.000000;2.149473
4297.000000;2.146439
4296.000000;2.144051
4295.000000;2.144179
4294.000000;2.146571
4293.000000;2.149179
4292.000000;2.150421
4291.000000;2.150737
4290.000000;2.151704
4289.000000;2.154072
4288.000000;2.157067
4287.000000;2.159616
4286.000000;2.161931
4285.000000;2.165561
4284.000000;2.171692
4283.000000;2.179591
4282.000000;2.187255
4281.000000;2.193287
4280.000000;2.197578
4279.000000;2.200831
4278.000000;2.203545
4277.000000;2.205476
4276.000000;2.206291
4275.000000;2.206581
4274.000000;2.207861
4273.000000;2.211062
4272.000000;2.215195
4271.000000;2.218191
4270.000000;2.219102
4269.000000;2.219144
4268.000000;2.220457
4267.000000;2.224353
4266.000000;2.231262
4265.000000;2.240910
4264.000000;2.251021
4263.000000;2.257468
4262.000000;2.258442
4261.000000;2.257296
4260.000000;2.258701
4259.000000;2.263047
4258.000000;2.266778
4257.000000;2.267776
4256.000000;2.267611
4255.000000;2.267874
4254.000000;2.267638
4253.000000;2.266539
4252.000000;2.267322
4251.000000;2.272471
4250.000000;2.279973
4249.000000;2.285686
4248.000000;2.289348
4247.000000;2.294136
4246.000000;2.300354
4245.000000;2.303065
4244.000000;2.298645
4243.000000;2.290916
4242.000000;2.287571
4241.000000;2.293394
4240.000000;2.307582
4239.000000;2.324967
4238.000000;2.338756
4237.000000;2.344393
4236.000000;2.343697
4235.000000;2.344189
4234.000000;2.352124
4233.000000;2.366155
4232.000000;2.378063
4231.000000;2.380928
4230.000000;2.376565
4229.000000;2.372931
4228.000000;2.376274
4227.000000;2.387576
4226.000000;2.403507
4225.000000;2.417974
4224.000000;2.424282
4223.000000;2.418864
4222.000000;2.404979
4221.000000;2.392108
4220.000000;2.388236
4219.000000;2.393958
4218.000000;2.404140
4217.000000;2.411379
4216.000000;2.411092
4215.000000;2.407585
4214.000000;2.409143
4213.000000;2.418607
4212.000000;2.432628
4211.000000;2.445799
4210.000000;2.454256
4209.000000;2.457720
4208.000000;2.459232
4207.000000;2.462363
4206.000000;2.467690
4205.000000;2.472643
4204.000000;2.475905
4203.000000;2.479028
4202.000000;2.481321
4201.000000;2.477747
4200.000000;2.466961
4199.000000;2.457092
4198.000000;2.457969
4197.000000;2.470834
4196.000000;2.488578
4195.000000;2.505228
4194.000000;2.520820
4193.000000;2.534554
4192.000000;2.541042
4191.000000;2.538434
4190.000000;2.532559
4189.000000;2.528318
4188.000000;2.521974
4187.000000;2.509863
4186.000000;2.500692
4185.000000;2.506121
4184.000000;2.526054
4183.000000;2.545084
4182.000000;2.543351
4181.000000;2.519428
4180.000000;2.493571
4179.000000;2.486677
4178.000000;2.506250
4177.000000;2.543395
4176.000000;2.579238
4175.000000;2.599301
4174.000000;2.599035
4173.000000;2.582579
4172.000000;2.558776
4171.000000;2.538031
4170.000000;2.529056
4169.000000;2.532756
4168.000000;2.544998
4167.000000;2.565590
4166.000000;2.595018
4165.000000;2.619446
4164.000000;2.617390
4163.000000;2.589559
4162.000000;2.558070
4161.000000;2.538833
4160.000000;2.525450
4159.000000;2.504250
4158.000000;2.479866
4157.000000;2.470377
4156.000000;2.483529
4155.000000;2.510211
4154.000000;2.538433
4153.000000;2.563336
4152.000000;2.575985
4151.000000;2.563231
4150.000000;2.530851
4149.000000;2.503262
4148.000000;2.503258
4147.000000;2.541005
4146.000000;2.612459
4145.000000;2.692693
4144.000000;2.730172
4143.000000;2.704650
4142.000000;2.647104
4141.000000;2.593805
4140.000000;2.571942
4139.000000;2.579148
4138.000000;2.587128
4137.000000;2.579211
4136.000000;2.570167
4135.000000;2.574070
4134.000000;2.592440
4133.000000;2.621492
4132.000000;2.644167
4131.000000;2.640165
4130.000000;2.612127
4129.000000;2.579244
4128.000000;2.563269
4127.000000;2.575405
4126.000000;2.615501
4125.000000;2.686612
4124.000000;2.787475
4123.000000;2.864687
4122.000000;2.833492
4121.000000;2.760755
4120.000000;2.731862
4119.000000;2.741399
4118.000000;2.735326
4117.000000;2.689166
4116.000000;2.638452
4115.000000;2.626076
4114.000000;2.654987
4113.000000;2.676427
4112.000000;2.646509
4111.000000;2.589928
4110.000000;2.549396
4109.000000;2.543177
4108.000000;2.559319
4107.000000;2.564256
4106.000000;2.537215
4105.000000;2.488467
4104.000000;2.452057
4103.000000;2.462127
4102.000000;2.517345
4101.000000;2.566202
4100.000000;2.567964
4099.000000;2.549665
4098.000000;2.522722
4097.000000;2.481196
4096.000000;2.447265
4095.000000;2.427587
4094.000000;2.415865
4093.000000;2.420373
4092.000000;2.437966
4091.000000;2.461439
4090.000000;2.497869
4089.000000;2.546618
4088.000000;2.593009
4087.000000;2.616419
4086.000000;2.600324
4085.000000;2.556525
4084.000000;2.525006
4083.000000;2.545248
4082.000000;2.642586
4081.000000;2.816870
4080.000000;2.973436
4079.000000;2.944154
4078.000000;2.802667
4077.000000;2.698170
4076.000000;2.660388
4075.000000;2.632713
4074.000000;2.567291
4073.000000;2.505157
4072.000000;2.504691
4071.000000;2.577128
4070.000000;2.678419
4069.000000;2.708142
4068.000000;2.620621
4067.000000;2.525249
4066.000000;2.492214
4065.000000;2.519532
4064.000000;2.564972
4063.000000;2.561360
4062.000000;2.509825
4061.000000;2.452216
4060.000000;2.405250
4059.000000;2.378470
4058.000000;2.373778
4057.000000;2.375004
4056.000000;2.365180
4055.000000;2.359052
4054.000000;2.380790
4053.000000;2.435599
4052.000000;2.515026
4051.000000;2.554668
4050.000000;2.477517
4049.000000;2.376094
4048.000000;2.334709
4047.000000;2.364735
4046.000000;2.448701
4045.000000;2.530516
4044.000000;2.541151
4043.000000;2.510020
4042.000000;2.506889
4041.000000;2.513556
4040.000000;2.484152
4039.000000;2.453033
4038.000000;2.464342
4037.000000;2.535935
4036.000000;2.664225
4035.000000;2.758463
4034.000000;2.669513
4033.000000;2.465009
4032.000000;2.299346
4031.000000;2.234416
4030.000000;2.271990
4029.000000;2.373824
4028.000000;2.447575
4027.000000;2.405029
4026.000000;2.297944
4025.000000;2.232507
4024.000000;2.240608
4023.000000;2.316055
4022.000000;2.439209
4021.000000;2.566062
4020.000000;2.649381
4019.000000;2.667229
4018.000000;2.606266
4017.000000;2.522050
4016.000000;2.465045
4015.000000;2.445747
4014.000000;2.468161
4013.000000;2.531562
4012.000000;2.612086
4011.000000;2.649883
4010.000000;2.605879
4009.000000;2.511615
4008.000000;2.418770
4007.000000;2.365407
4006.000000;2.382677
4005.000000;2.506449
4004.000000;2.890759
4003.000000;3.326995
4002.000000;2.771312
4001.000000;2.741984
4000.000000;2.571641
3999.000000;2.399287
3998.000000;2.346152
3997.000000;2.373382
3996.000000;2.392464
3995.000000;2.356259
3994.000000;2.288887
3993.000000;2.247409
3992.000000;2.262331
3991.000000;2.318995
3990.000000;2.400448
3989.000000;2.522486
3988.000000;2.708324
3987.000000;2.883005
3986.000000;2.910443
3985.000000;3.114701
3984.000000;3.256135
3983.000000;2.893595
3982.000000;2.982500
3981.000000;3.338216
3980.000000;2.677656
3979.000000;2.533084
3978.000000;2.585306
3977.000000;2.807999
3976.000000;3.224881
3975.000000;3.685722
3974.000000;3.190712
3973.000000;2.940484
3972.000000;2.822868
3971.000000;2.921408
3970.000000;3.393611
3969.000000;3.111788
3968.000000;2.781236
3967.000000;2.791712
3966.000000;2.962922
3965.000000;3.491437
3964.000000;3.375980
3963.000000;3.260078
3962.000000;3.372752
3961.000000;3.058025
3960.000000;2.834579
3959.000000;2.771869
3958.000000;2.819073
3957.000000;2.915105
3956.000000;3.076373
3955.000000;3.916761
3954.000000;3.150017
3953.000000;2.899197
3952.000000;2.834285
3951.000000;2.813827
3950.000000;2.775931
3949.000000;2.791836
3948.000000;2.886772
3947.000000;2.973995
3946.000000;2.988338
3945.000000;3.091498
3944.000000;3.284769
3943.000000;3.027941
3942.000000;2.880471
3941.000000;2.973109
3940.000000;3.182302
3939.000000;3.324071
3938.000000;3.301045
3937.000000;3.409674
3936.000000;3.625424
3935.000000;3.260293
3934.000000;2.929716
3933.000000;2.704951
3932.000000;2.562478
3931.000000;2.519279
3930.000000;2.573319
3929.000000;2.710537
3928.000000;2.881803
3927.000000;2.913577
3926.000000;2.779882
3925.000000;2.724297
3924.000000;2.819970
3923.000000;3.046002
3922.000000;3.235733
3921.000000;3.555106
3920.000000;3.521959
3919.000000;2.931210
3918.000000;2.773825
3917.000000;2.713648
3916.000000;2.674119
3915.000000;2.674072
3914.000000;2.801315
3913.000000;3.070255
3912.000000;3.162353
3911.000000;3.044399
3910.000000;2.960558
3909.000000;2.939702
3908.000000;3.000689
3907.000000;3.083836
3906.000000;3.137989
3905.000000;3.108544
3904.000000;2.973100
3903.000000;2.880496
3902.000000;2.908429
3901.000000;3.139128
3900.000000;3.327480
3899.000000;2.993357
3898.000000;3.011274
3897.000000;3.332669
3896.000000;3.398434
3895.000000;3.082353
3894.000000;3.007220
3893.000000;2.989127
3892.000000;3.040911
3891.000000;3.167263
3890.000000;3.281996
3889.000000;3.325190
3888.000000;3.449338
3887.000000;3.620837
3886.000000;3.457177
3885.000000;3.696550
3884.000000;3.663557
3883.000000;3.244984
3882.000000;3.091055
3881.000000;3.123551
3880.000000;3.228371
3879.000000;3.164389
3878.000000;3.112535
3877.000000;3.118419
3876.000000;3.190492
3875.000000;3.402179
3874.000000;3.586947
3873.000000;3.387311
3872.000000;3.165021
3871.000000;3.031909
3870.000000;3.052083
3869.000000;3.224865
3868.000000;3.453267
3867.000000;3.403950
3866.000000;3.088293
3865.000000;2.863493
3864.000000;2.797234
3863.000000;3.018376
3862.000000;3.476035
3861.000000;3.128753
3860.000000;3.064383
3859.000000;3.458251
3858.000000;3.602627
3857.000000;3.442759
3856.000000;3.472460
3855.000000;3.511176
3854.000000;3.599560
3853.000000;3.573220
3852.000000;3.612748
3851.000000;3.636869
3850.000000;3.298670
3849.000000;3.239681
3848.000000;3.313333
3847.000000;3.226165
3846.000000;3.199562
3845.000000;3.257897
3844.000000;3.207456
3843.000000;3.103463
3842.000000;3.071492
3841.000000;3.089425
3840.000000;3.112887
3839.000000;3.098354
3838.000000;3.056796
3837.000000;3.050087
3836.000000;3.093094
3835.000000;3.140492
3834.000000;3.162181
3833.000000;3.163782
3832.000000;3.120142
3831.000000;3.099564
3830.000000;3.141273
3829.000000;3.137494
3828.000000;3.138790
3827.000000;3.174974
3826.000000;3.219250
3825.000000;3.505429
3824.000000;3.725085
3823.000000;3.368295
3822.000000;3.274426
3821.000000;3.393809
3820.000000;3.394665
3819.000000;3.349603
3818.000000;3.450479
3817.000000;3.518199
3816.000000;3.224396
3815.000000;3.122968
3814.000000;3.027408
3813.000000;2.945256
3812.000000;2.974662
3811.000000;3.359620
3810.000000;3.854205
3809.000000;3.209710
3808.000000;3.008184
3807.000000;2.974160
3806.000000;3.135152
3805.000000;3.527135
3804.000000;4.168946
3803.000000;3.855926
3802.000000;4.251841
3801.000000;3.757568
3800.000000;3.357267
3799.000000;3.277635
3798.000000;3.331086
3797.000000;3.932576
3796.000000;3.653470
3795.000000;3.465704
3794.000000;3.412704
3793.000000;3.107072
3792.000000;2.938834
3791.000000;2.856551
3790.000000;2.810960
3789.000000;2.820101
3788.000000;2.871512
3787.000000;2.908809
3786.000000;2.937151
3785.000000;3.009900
3784.000000;3.141194
3783.000000;3.334242
3782.000000;3.647147
3781.000000;3.931748
3780.000000;4.017857
3779.000000;3.910183
3778.000000;3.308039
3777.000000;3.005625
3776.000000;2.954394
3775.000000;3.141676
3774.000000;3.454788
3773.000000;3.734289
3772.000000;3.398138
3771.000000;3.094131
3770.000000;2.992219
3769.000000;2.996672
3768.000000;3.040255
3767.000000;3.085461
3766.000000;3.097561
3765.000000;3.031612
3764.000000;2.945612
3763.000000;2.917572
3762.000000;2.954316
3761.000000;3.020142
3760.000000;3.079979
3759.000000;3.202239
3758.000000;3.306373
3757.000000;3.077281
3756.000000;2.920949
3755.000000;2.942952
3754.000000;3.100219
3753.000000;3.396084
3752.000000;3.666219
3751.000000;3.485814
3750.000000;3.332889
3749.000000;3.361180
3748.000000;3.461817
3747.000000;3.505399
3746.000000;3.417851
3745.000000;3.226917
3744.000000;3.073640
3743.000000;3.008356
3742.000000;2.983338
3741.000000;2.979835
3740.000000;3.001452
3739.000000;3.005820
3738.000000;2.979498
3737.000000;2.994933
3736.000000;3.120751
3735.000000;3.354531
3734.000000;3.415882
3733.000000;3.210818
3732.000000;3.099242
3731.000000;3.058562
3730.000000;3.049648
3729.000000;3.077761
3728.000000;3.270294
3727.000000;3.318068
3726.000000;3.095233
3725.000000;3.255847
3724.000000;3.629253
3723.000000;3.195318
3722.000000;3.006907
3721.000000;3.059978
3720.000000;3.224073
3719.000000;3.409951
3718.000000;3.323151
3717.000000;3.102825
3716.000000;2.975196
3715.000000;2.940843
3714.000000;2.974486
3713.000000;3.107288
3712.000000;3.464449
3711.000000;3.638215
3710.000000;3.311807
3709.000000;3.169073
3708.000000;3.018260
3707.000000;2.926125
3706.000000;2.930292
3705.000000;3.053434
3704.000000;3.505705
3703.000000;3.701841
3702.000000;3.136541
3701.000000;3.080584
3700.000000;3.069262
3699.000000;3.038733
3698.000000;2.996041
3697.000000;3.072704
3696.000000;3.426110
3695.000000;3.564309
3694.000000;3.396050
3693.000000;3.404697
3692.000000;3.464864
3691.000000;3.465316
3690.000000;3.368193
3689.000000;3.348858
3688.000000;3.445003
3687.000000;3.303969
3686.000000;3.159913
3685.000000;3.207772
3684.000000;3.434581
3683.000000;3.186504
3682.000000;3.012215
3681.000000;3.061557
3680.000000;3.216953
3679.000000;3.265650
3678.000000;3.227229
3677.000000;3.163159
3676.000000;3.129099
3675.000000;3.224626
3674.000000;3.468417
3673.000000;3.722720
3672.000000;3.693582
3671.000000;3.515039
3670.000000;3.162268
3669.000000;2.869203
3668.000000;2.733791
3667.000000;2.742606
3666.000000;2.979962
3665.000000;3.410795
3664.000000;3.017473
3663.000000;2.845206
3662.000000;2.837624
3661.000000;2.892561
3660.000000;3.008426
3659.000000;3.120742
3658.000000;3.144773
3657.000000;3.127706
3656.000000;3.260220
3655.000000;3.636393
3654.000000;3.680037
3653.000000;3.525566
3652.000000;3.482157
3651.000000;3.383596
3650.000000;3.269264
3649.000000;3.217756
3648.000000;3.194192
3647.000000;3.160371
3646.000000;3.142298
3645.000000;3.137393
3644.000000;3.271116
3643.000000;3.619628
3642.000000;3.611353
3641.000000;3.360950
3640.000000;3.147885
3639.000000;3.058945
3638.000000;3.091447
3637.000000;3.100066
3636.000000;3.033552
3635.000000;3.008180
3634.000000;3.125068
3633.000000;3.454276
3632.000000;3.716565
3631.000000;3.447738
3630.000000;3.301203
3629.000000;3.279680
3628.000000;3.252171
3627.000000;3.117870
3626.000000;2.993839
3625.000000;2.864856
3624.000000;2.802404
3623.000000;2.871636
3622.000000;3.172087
3621.000000;3.445044
3620.000000;3.076783
3619.000000;2.961452
3618.000000;3.005130
3617.000000;3.091506
3616.000000;3.074350
3615.000000;3.003464
3614.000000;3.090781
3613.000000;3.311299
3612.000000;3.007023
3611.000000;2.857435
3610.000000;2.948060
3609.000000;3.728693
3608.000000;3.233785
3607.000000;2.993607
3606.000000;3.014534
3605.000000;3.067835
3604.000000;3.004422
3603.000000;2.792209
3602.000000;2.642512
3601.000000;2.606402
3600.000000;2.687265
3599.000000;2.831477
3598.000000;2.877553
3597.000000;2.836011
3596.000000;2.843958
3595.000000;2.907058
3594.000000;2.942680
3593.000000;2.931697
3592.000000;2.971939
3591.000000;3.073475
3590.000000;3.143634
3589.000000;3.084724
3588.000000;3.007281
3587.000000;3.022739
3586.000000;3.116173
3585.000000;3.234725
3584.000000;3.297104
3583.000000;3.213828
3582.000000;3.063863
3581.000000;2.954930
3580.000000;2.946085
3579.000000;3.059989
3578.000000;3.290402
3577.000000;3.665251
3576.000000;3.808121
3575.000000;3.568448
3574.000000;3.458943
3573.000000;3.496112
3572.000000;3.852103
3571.000000;3.610331
3570.000000;3.294577
3569.000000;3.577391
3568.000000;3.501712
3567.000000;3.063986
3566.000000;3.168138
3565.000000;3.420497
3564.000000;3.231841
3563.000000;2.925121
3562.000000;2.795819
3561.000000;2.803794
3560.000000;2.922917
3559.000000;3.043879
3558.000000;3.024417
3557.000000;2.953630
3556.000000;2.942177
3555.000000;3.040340
3554.000000;3.672265
3553.000000;3.132687
3552.000000;2.756418
3551.000000;2.630799
3550.000000;2.609534
3549.000000;2.644147
3548.000000;2.694757
3547.000000;2.759038
3546.000000;2.882247
3545.000000;2.929529
3544.000000;2.792233
3543.000000;2.710290
3542.000000;2.719372
3541.000000;2.799600
3540.000000;2.907720
3539.000000;2.955493
3538.000000;2.935454
3537.000000;2.912273
3536.000000;2.853763
3535.000000;2.779512
3534.000000;2.756340
3533.000000;2.796015
3532.000000;2.890574
3531.000000;3.039228
3530.000000;3.208367
3529.000000;3.287989
3528.000000;3.143867
3527.000000;2.900809
3526.000000;2.766346
3525.000000;2.840938
3524.000000;3.185899
3523.000000;2.830690
3522.000000;2.632554
3521.000000;2.652697
3520.000000;2.809869
3519.000000;2.969233
3518.000000;3.004800
3517.000000;3.124010
3516.000000;3.406324
3515.000000;3.653217
3514.000000;3.379727
3513.000000;3.124907
3512.000000;2.917100
3511.000000;2.756815
3510.000000;2.716912
3509.000000;2.851112
3508.000000;3.398159
3507.000000;3.312853
3506.000000;3.061143
3505.000000;3.207518
3504.000000;3.258451
3503.000000;3.108994
3502.000000;2.862322
3501.000000;2.691977
3500.000000;2.645955
3499.000000;2.706894
3498.000000;2.925470
3497.000000;3.602504
3496.000000;3.232496
3495.000000;3.050059
3494.000000;3.094445
3493.000000;3.078737
3492.000000;2.985873
3491.000000;2.945908
3490.000000;2.960170
3489.000000;2.906926
3488.000000;2.804502
3487.000000;2.784020
3486.000000;2.874101
3485.000000;3.037072
3484.000000;3.191418
3483.000000;3.304426
3482.000000;3.431900
3481.000000;3.541105
3480.000000;3.514883
3479.000000;3.552500
3478.000000;3.632971
3477.000000;3.442445
3476.000000;3.558280
3475.000000;3.442952
3474.000000;3.149265
3473.000000;3.105456
3472.000000;3.151450
3471.000000;3.129439
3470.000000;3.090255
3469.000000;3.155415
3468.000000;3.310691
3467.000000;3.432149
3466.000000;3.629296
3465.000000;4.002944
3464.000000;3.776138
3463.000000;3.413897
3462.000000;3.314521
3461.000000;3.149790
3460.000000;2.869390
3459.000000;2.700666
3458.000000;2.656808
3457.000000;2.714437
3456.000000;2.813510
3455.000000;2.860972
3454.000000;2.871841
3453.000000;2.947763
3452.000000;3.186219
3451.000000;3.112461
3450.000000;2.918679
3449.000000;2.918205
3448.000000;3.010749
3447.000000;3.118195
3446.000000;3.113889
3445.000000;2.955854
3444.000000;2.866429
3443.000000;2.863771
3442.000000;2.869059
3441.000000;2.858399
3440.000000;2.871130
3439.000000;2.878862
3438.000000;2.814541
3437.000000;2.733585
3436.000000;2.718438
3435.000000;2.822547
3434.000000;3.032082
3433.000000;2.990495
3432.000000;2.816983
3431.000000;2.790997
3430.000000;2.926725
3429.000000;3.184385
3428.000000;3.225581
3427.000000;3.080328
3426.000000;3.038805
3425.000000;3.551863
3424.000000;3.163095
3423.000000;2.841968
3422.000000;2.892342
3421.000000;3.077426
3420.000000;3.087933
3419.000000;3.010102
3418.000000;3.042980
3417.000000;3.046151
3416.000000;2.923099
3415.000000;2.860444
3414.000000;2.914479
3413.000000;3.044197
3412.000000;3.124668
3411.000000;3.060563
3410.000000;2.929633
3409.000000;2.830802
3408.000000;2.812795
3407.000000;2.889322
3406.000000;3.069500
3405.000000;3.237477
3404.000000;3.307293
3403.000000;3.088859
3402.000000;2.811540
3401.000000;2.718923
3400.000000;2.774886
3399.000000;2.953348
3398.000000;3.192819
3397.000000;3.508641
3396.000000;3.361443
3395.000000;3.037875
3394.000000;2.940515
3393.000000;3.113885
3392.000000;3.493019
3391.000000;3.110160
3390.000000;2.945853
3389.000000;2.847330
3388.000000;2.776402
3387.000000;2.848059
3386.000000;3.150895
3385.000000;3.251478
3384.000000;3.015757
3383.000000;3.105966
3382.000000;3.487363
3381.000000;3.516397
3380.000000;3.206067
3379.000000;3.182590
3378.000000;3.193789
3377.000000;3.136790
3376.000000;3.043938
3375.000000;3.024182
3374.000000;3.222319
3373.000000;3.242918
3372.000000;2.951155
3371.000000;2.797843
3370.000000;2.744975
3369.000000;2.807310
3368.000000;3.231962
3367.000000;3.193980
3366.000000;2.798897
3365.000000;2.708696
3364.000000;2.775192
3363.000000;2.945031
3362.000000;3.068751
3361.000000;3.100335
3360.000000;3.341500
3359.000000;3.278056
3358.000000;2.878232
3357.000000;2.767595
3356.000000;2.815366
3355.000000;3.055396
3354.000000;3.449421
3353.000000;3.314575
3352.000000;3.192865
3351.000000;3.267531
3350.000000;3.308270
3349.000000;3.168638
3348.000000;3.039644
3347.000000;3.004657
3346.000000;3.019111
3345.000000;3.023364
3344.000000;3.021713
3343.000000;3.052297
3342.000000;3.150817
3341.000000;3.238604
3340.000000;3.125700
3339.000000;3.025357
3338.000000;3.038612
3337.000000;3.088292
3336.000000;3.071768
3335.000000;3.063288
3334.000000;3.175865
3333.000000;3.441099
3332.000000;3.529011
3331.000000;3.398019
3330.000000;3.346629
3329.000000;3.219175
3328.000000;3.095883
3327.000000;3.086233
3326.000000;3.241597
3325.000000;3.425765
3324.000000;3.235517
3323.000000;2.968396
3322.000000;2.813339
3321.000000;2.787575
3320.000000;2.879466
3319.000000;2.986695
3318.000000;2.971163
3317.000000;2.945002
3316.000000;3.040443
3315.000000;3.328741
3314.000000;3.498748
3313.000000;3.400229
3312.000000;3.239077
3311.000000;3.040059
3310.000000;2.949921
3309.000000;2.922111
3308.000000;2.840925
3307.000000;2.759704
3306.000000;2.755713
3305.000000;2.951230
3304.000000;3.459611
3303.000000;3.088239
3302.000000;2.839358
3301.000000;2.789385
3300.000000;2.794687
3299.000000;2.824949
3298.000000;2.846273
3297.000000;2.813559
3296.000000;2.733534
3295.000000;2.694034
3294.000000;2.750133
3293.000000;2.933094
3292.000000;3.062788
3291.000000;2.975918
3290.000000;2.901177
3289.000000;2.903743
3288.000000;2.985729
3287.000000;3.242096
3286.000000;3.907399
3285.000000;3.375275
3284.000000;3.190130
3283.000000;3.389589
3282.000000;4.090994
3281.000000;3.192670
3280.000000;2.936000
3279.000000;2.893410
3278.000000;2.956326
3277.000000;2.921958
3276.000000;2.749287
3275.000000;2.671937
3274.000000;2.718648
3273.000000;2.848996
3272.000000;2.904050
3271.000000;2.883665
3270.000000;2.925904
3269.000000;3.029766
3268.000000;3.158804
3267.000000;3.261388
3266.000000;3.318572
3265.000000;3.398779
3264.000000;3.577411
3263.000000;3.495910
3262.000000;3.268183
3261.000000;3.135842
3260.000000;3.047626
3259.000000;2.995189
3258.000000;2.975416
3257.000000;2.973731
3256.000000;2.977870
3255.000000;2.983897
3254.000000;2.996695
3253.000000;3.027106
3252.000000;3.066030
3251.000000;3.078766
3250.000000;3.087705
3249.000000;3.107226
3248.000000;3.091641
3247.000000;3.060704
3246.000000;3.100346
3245.000000;3.412711
3244.000000;3.455914
3243.000000;3.011531
3242.000000;2.850538
3241.000000;2.839962
3240.000000;3.018177
3239.000000;3.370146
3238.000000;3.281533
3237.000000;3.180252
3236.000000;3.274898
3235.000000;3.388968
3234.000000;3.791311
3233.000000;3.460485
3232.000000;3.038722
3231.000000;2.900169
3230.000000;2.901641
3229.000000;2.967050
3228.000000;3.034397
3227.000000;3.115184
3226.000000;3.184041
3225.000000;3.082677
3224.000000;2.914251
3223.000000;2.816169
3222.000000;2.817653
3221.000000;2.943287
3220.000000;3.198360
3219.000000;3.385427
3218.000000;3.199293
3217.000000;2.991890
3216.000000;2.938143
3215.000000;3.131153
3214.000000;3.521393
3213.000000;3.265887
3212.000000;3.095268
3211.000000;3.222587
3210.000000;3.688463
3209.000000;3.550599
3208.000000;3.404469
3207.000000;4.005189
3206.000000;3.733527
3205.000000;3.452400
3204.000000;3.324144
3203.000000;3.094387
3202.000000;2.872293
3201.000000;2.739371
3200.000000;2.740077
3199.000000;2.859632
3198.000000;2.947977
3197.000000;2.881146
3196.000000;2.847792
3195.000000;2.906702
3194.000000;3.194627
3193.000000;3.707083
3192.000000;3.292658
3191.000000;3.165061
3190.000000;3.216242
3189.000000;3.116098
3188.000000;2.930506
3187.000000;2.865326
3186.000000;2.938555
3185.000000;3.083926
3184.000000;3.107073
3183.000000;3.075941
3182.000000;3.087518
3181.000000;3.103585
3180.000000;3.098153
3179.000000;3.013870
3178.000000;2.954240
3177.000000;3.045108
3176.000000;3.442159
3175.000000;3.370511
3174.000000;3.040938
3173.000000;2.971218
3172.000000;3.001448
3171.000000;3.055334
3170.000000;3.120823
3169.000000;3.177106
3168.000000;3.388463
3167.000000;3.742067
3166.000000;3.217515
3165.000000;2.948891
3164.000000;2.882963
3163.000000;2.922302
3162.000000;3.005695
3161.000000;2.982690
3160.000000;2.883280
3159.000000;2.824705
3158.000000;2.818016
3157.000000;2.849777
3156.000000;2.922245
3155.000000;3.019377
3154.000000;3.066051
3153.000000;3.028871
3152.000000;2.987498
3151.000000;3.001530
3150.000000;3.106684
3149.000000;3.207926
3148.000000;3.067032
3147.000000;2.917858
3146.000000;2.881697
3145.000000;2.961462
3144.000000;3.119228
3143.000000;3.220170
3142.000000;3.253983
3141.000000;3.411936
3140.000000;3.843699
3139.000000;3.592283
3138.000000;3.256011
3137.000000;3.210873
3136.000000;3.392715
3135.000000;3.766668
3134.000000;3.455898
3133.000000;3.178127
3132.000000;3.068581
3131.000000;2.962923
3130.000000;2.893314
3129.000000;2.888727
3128.000000;2.930269
3127.000000;2.994987
3126.000000;3.107747
3125.000000;3.300384
3124.000000;3.273278
3123.000000;3.029930
3122.000000;2.887411
3121.000000;2.881093
3120.000000;3.026981
3119.000000;3.128372
3118.000000;2.938709
3117.000000;2.803974
3116.000000;2.791911
3115.000000;2.880556
3114.000000;3.278097
3113.000000;3.806094
3112.000000;3.273196
3111.000000;3.260866
3110.000000;2.972044
3109.000000;2.768362
3108.000000;2.761739
3107.000000;2.914541
3106.000000;3.142539
3105.000000;3.118253
3104.000000;3.074192
3103.000000;3.145878
3102.000000;3.179732
3101.000000;3.152844
3100.000000;3.223660
3099.000000;3.247045
3098.000000;3.205094
3097.000000;3.277080
3096.000000;3.259208
3095.000000;3.189101
3094.000000;3.303521
3093.000000;3.551286
3092.000000;3.249997
3091.000000;2.977210
3090.000000;2.888580
3089.000000;2.897229
3088.000000;2.876142
3087.000000;2.772465
3086.000000;2.688881
3085.000000;2.672826
3084.000000;2.735137
3083.000000;2.888606
3082.000000;3.096787
3081.000000;3.470345
3080.000000;3.805282
3079.000000;3.299565
3078.000000;3.082317
3077.000000;3.136993
3076.000000;3.807094
3075.000000;3.477838
3074.000000;3.052031
3073.000000;2.938949
3072.000000;2.845939
3071.000000;2.809038
3070.000000;2.853488
3069.000000;3.005173
3068.000000;3.183167
3067.000000;3.222923
3066.000000;3.152169
3065.000000;3.096373
3064.000000;3.069051
3063.000000;3.040882
3062.000000;3.025591
3061.000000;2.942501
3060.000000;2.866969
3059.000000;2.918480
3058.000000;3.110942
3057.000000;3.252489
3056.000000;3.201687
3055.000000;3.190243
3054.000000;3.145202
3053.000000;3.026390
3052.000000;2.896587
3051.000000;2.823718
3050.000000;2.842541
3049.000000;2.974882
3048.000000;3.205923
3047.000000;3.236418
3046.000000;3.402182
3045.000000;3.373549
3044.000000;2.869938
3043.000000;2.674760
3042.000000;2.655758
3041.000000;2.728117
3040.000000;2.823627
3039.000000;2.874340
3038.000000;2.945133
3037.000000;3.076165
3036.000000;3.065316
3035.000000;2.907523
3034.000000;2.860575
3033.000000;2.940432
3032.000000;2.976440
3031.000000;2.865214
3030.000000;2.770717
3029.000000;2.728101
3028.000000;2.729205
3027.000000;2.787110
3026.000000;2.902819
3025.000000;3.055302
3024.000000;3.187600
3023.000000;3.220952
3022.000000;3.165401
3021.000000;3.094495
3020.000000;2.997123
3019.000000;2.912197
3018.000000;2.862753
3017.000000;2.870833
3016.000000;2.947489
3015.000000;3.225188
3014.000000;4.038220
3013.000000;3.431678
3012.000000;3.273755
3011.000000;3.279433
3010.000000;3.181537
3009.000000;3.026142
3008.000000;2.910054
3007.000000;2.905563
3006.000000;2.980133
3005.000000;3.107571
3004.000000;3.270202
3003.000000;3.441399
3002.000000;3.943772
3001.000000;3.794865
3000.000000;3.255603
2999.000000;3.153409
2998.000000;3.184238
2997.000000;3.425045
2996.000000;3.779722
2995.000000;3.278742
2994.000000;2.994740
2993.000000;2.903057
2992.000000;2.900686
2991.000000;2.981029
2990.000000;3.084134
2989.000000;3.081688
2988.000000;3.056473
2987.000000;3.054021
2986.000000;2.959393
2985.000000;2.841045
2984.000000;2.774009
2983.000000;2.780968
2982.000000;2.862938
2981.000000;3.138421
2980.000000;3.715640
2979.000000;3.368581
2978.000000;3.292518
2977.000000;3.748724
2976.000000;3.919593
2975.000000;3.579401
2974.000000;3.560927
2973.000000;3.330613
2972.000000;3.122151
2971.000000;3.043990
2970.000000;3.065996
2969.000000;3.164294
2968.000000;3.307004
2967.000000;3.294074
2966.000000;3.146327
2965.000000;3.134586
2964.000000;3.137776
2963.000000;3.001509
2962.000000;2.898364
2961.000000;2.936548
2960.000000;3.013571
2959.000000;2.924661
2958.000000;2.882052
2957.000000;3.003894
2956.000000;3.258739
2955.000000;3.537881
2954.000000;3.837702
2953.000000;4.038061
2952.000000;3.858397
2951.000000;4.149974
2950.000000;4.603503
2949.000000;3.760262
2948.000000;3.324661
2947.000000;3.079209
2946.000000;3.081938
2945.000000;3.304142
2944.000000;3.414630
2943.000000;3.176315
2942.000000;3.105739
2941.000000;3.492135
2940.000000;3.328752
2939.000000;2.941731
2938.000000;2.843859
2937.000000;2.844120
2936.000000;2.887569
2935.000000;2.924962
2934.000000;2.947079
2933.000000;2.946401
2932.000000;2.906099
2931.000000;2.852768
2930.000000;2.826825
2929.000000;2.864335
2928.000000;2.936303
2927.000000;3.132739
2926.000000;3.606220
2925.000000;3.243679
2924.000000;2.936735
2923.000000;2.877849
2922.000000;2.922750
2921.000000;3.325015
2920.000000;3.600592
2919.000000;3.067998
2918.000000;2.980978
2917.000000;3.019721
2916.000000;3.166781
2915.000000;3.363076
2914.000000;3.224840
2913.000000;3.062550
2912.000000;2.997152
2911.000000;2.956634
2910.000000;2.931309
2909.000000;2.955474
2908.000000;2.969131
2907.000000;2.894052
2906.000000;2.807241
2905.000000;2.749110
2904.000000;2.732035
2903.000000;2.787976
2902.000000;2.930634
2901.000000;3.085502
2900.000000;3.191859
2899.000000;3.260828
2898.000000;3.158368
2897.000000;3.033897
2896.000000;2.975054
2895.000000;2.961397
2894.000000;3.114482
2893.000000;3.422610
2892.000000;3.097519
2891.000000;2.842125
2890.000000;2.788547
2889.000000;2.836199
2888.000000;3.022430
2887.000000;3.015187
2886.000000;2.830221
2885.000000;2.799269
2884.000000;2.897757
2883.000000;3.026005
2882.000000;3.077070
2881.000000;3.083650
2880.000000;3.072363
2879.000000;3.084099
2878.000000;3.277331
2877.000000;3.396077
2876.000000;3.134221
2875.000000;3.094609
2874.000000;3.234166
2873.000000;3.269081
2872.000000;3.214053
2871.000000;3.274597
2870.000000;3.381927
2869.000000;3.355264
2868.000000;3.214090
2867.000000;3.120596
2866.000000;3.139033
2865.000000;3.200123
2864.000000;3.194088
2863.000000;3.201725
2862.000000;3.203766
2861.000000;3.119929
2860.000000;3.141813
2859.000000;3.210047
2858.000000;3.102094
2857.000000;2.991733
2856.000000;3.053153
2855.000000;3.167421
2854.000000;3.358399
2853.000000;3.679442
2852.000000;3.081852
2851.000000;2.854214
2850.000000;2.834433
2849.000000;2.866063
2848.000000;2.869316
2847.000000;2.833809
2846.000000;2.858387
2845.000000;2.969019
2844.000000;3.191286
2843.000000;3.568521
2842.000000;3.632124
2841.000000;3.310915
2840.000000;3.109735
2839.000000;2.974243
2838.000000;2.928316
2837.000000;2.975013
2836.000000;3.036938
2835.000000;3.052707
2834.000000;3.120961
2833.000000;3.089191
2832.000000;2.879629
2831.000000;2.737042
2830.000000;2.679937
2829.000000;2.683824
2828.000000;2.753450
2827.000000;2.896301
2826.000000;3.102951
2825.000000;3.249778
2824.000000;3.178722
2823.000000;3.136715
2822.000000;3.208304
2821.000000;3.408865
2820.000000;3.748200
2819.000000;3.350823
2818.000000;3.007948
2817.000000;2.883446
2816.000000;2.928130
2815.000000;3.065833
2814.000000;3.039884
2813.000000;3.143757
2812.000000;3.208037
2811.000000;2.919707
2810.000000;2.792464
2809.000000;2.844400
2808.000000;3.256122
2807.000000;3.429135
2806.000000;2.990636
2805.000000;2.929346
2804.000000;2.988520
2803.000000;3.001289
2802.000000;2.984661
2801.000000;3.034740
2800.000000;3.078422
2799.000000;3.180471
2798.000000;3.627674
2797.000000;3.524173
2796.000000;3.237983
2795.000000;3.344898
2794.000000;3.225021
2793.000000;2.888028
2792.000000;2.709302
2791.000000;2.640041
2790.000000;2.672039
2789.000000;2.799639
2788.000000;2.899674
2787.000000;2.838218
2786.000000;2.722137
2785.000000;2.644422
2784.000000;2.647541
2783.000000;2.752969
2782.000000;3.004259
2781.000000;3.367287
2780.000000;3.243471
2779.000000;3.125209
2778.000000;3.281073
2777.000000;3.678136
2776.000000;4.306328
2775.000000;3.514316
2774.000000;3.056015
2773.000000;2.885930
2772.000000;2.867426
2771.000000;3.008492
2770.000000;3.181761
2769.000000;2.969195
2768.000000;2.789944
2767.000000;2.744642
2766.000000;2.747346
2765.000000;2.756008
2764.000000;2.782533
2763.000000;2.867217
2762.000000;3.224948
2761.000000;3.597493
2760.000000;3.089871
2759.000000;2.971374
2758.000000;3.276947
2757.000000;3.484198
2756.000000;3.011196
2755.000000;2.897977
2754.000000;3.006579
2753.000000;3.496053
2752.000000;3.428388
2751.000000;2.991742
2750.000000;2.890098
2749.000000;2.978838
2748.000000;3.251982
2747.000000;3.080870
2746.000000;2.892677
2745.000000;2.891376
2744.000000;2.920339
2743.000000;2.890194
2742.000000;2.906927
2741.000000;3.057728
2740.000000;3.303556
2739.000000;3.508195
2738.000000;3.332323
2737.000000;3.293823
2736.000000;3.235511
2735.000000;2.972900
2734.000000;2.880129
2733.000000;2.954153
2732.000000;3.255071
2731.000000;3.799381
2730.000000;3.380447
2729.000000;3.054681
2728.000000;2.875521
2727.000000;2.810502
2726.000000;2.861052
2725.000000;3.043948
2724.000000;3.594508
2723.000000;3.633821
2722.000000;3.273675
2721.000000;3.221663
2720.000000;3.204303
2719.000000;3.079121
2718.000000;2.916019
2717.000000;2.873287
2716.000000;3.009446
2715.000000;3.265254
2714.000000;3.277675
2713.000000;3.276557
2712.000000;3.415900
2711.000000;3.671018
2710.000000;4.156636
2709.000000;3.756141
2708.000000;3.447229
2707.000000;3.275086
2706.000000;3.135736
2705.000000;3.099667
2704.000000;3.029131
2703.000000;2.856388
2702.000000;2.756312
2701.000000;2.777225
2700.000000;2.967368
2699.000000;3.185151
2698.000000;2.980153
2697.000000;2.852216
2696.000000;2.928673
2695.000000;3.254745
2694.000000;3.599393
2693.000000;3.289290
2692.000000;3.146307
2691.000000;3.126964
2690.000000;3.421425
2689.000000;3.370685
2688.000000;2.920393
2687.000000;2.824091
2686.000000;2.963155
2685.000000;3.120292
2684.000000;2.960279
2683.000000;2.889697
2682.000000;3.011339
2681.000000;3.353300
2680.000000;3.384795
2679.000000;3.014855
2678.000000;2.886292
2677.000000;2.881088
2676.000000;2.965143
2675.000000;3.105459
2674.000000;3.101904
2673.000000;2.894130
2672.000000;2.747543
2671.000000;2.715180
2670.000000;2.756774
2669.000000;2.859549
2668.000000;2.988535
2667.000000;3.039851
2666.000000;2.988616
2665.000000;2.900994
2664.000000;2.857683
2663.000000;2.892170
2662.000000;2.941561
2661.000000;3.013656
2660.000000;3.174661
2659.000000;3.340801
2658.000000;3.471017
2657.000000;3.592418
2656.000000;3.501398
2655.000000;3.343254
2654.000000;3.226423
2653.000000;3.083544
2652.000000;2.936208
2651.000000;2.838716
2650.000000;2.831738
2649.000000;2.975334
2648.000000;3.104944
2647.000000;2.892894
2646.000000;2.681251
2645.000000;2.573242
2644.000000;2.549283
2643.000000;2.611968
2642.000000;2.736915
2641.000000;2.862362
2640.000000;2.890893
2639.000000;2.850083
2638.000000;2.836744
2637.000000;2.939340
2636.000000;3.181462
2635.000000;3.115302
2634.000000;2.919455
2633.000000;2.903935
2632.000000;3.014572
2631.000000;3.158333
2630.000000;3.177366
2629.000000;3.068709
2628.000000;2.945958
2627.000000;2.861321
2626.000000;2.794368
2625.000000;2.745665
2624.000000;2.766162
2623.000000;2.883992
2622.000000;3.038611
2621.000000;3.079769
2620.000000;3.030604
2619.000000;3.016573
2618.000000;3.064072
2617.000000;3.104772
2616.000000;3.072398
2615.000000;2.972729
2614.000000;2.959107
2613.000000;3.197357
2612.000000;3.252151
2611.000000;2.946591
2610.000000;2.850636
2609.000000;2.892592
2608.000000;3.050657
2607.000000;3.228401
2606.000000;3.172956
2605.000000;3.148502
2604.000000;3.245450
2603.000000;3.383076
2602.000000;3.443519
2601.000000;3.695617
2600.000000;3.662045
2599.000000;3.137455
2598.000000;2.933676
2597.000000;2.823391
2596.000000;2.797671
2595.000000;2.874296
2594.000000;3.096977
2593.000000;3.693933
2592.000000;3.391334
2591.000000;2.983315
2590.000000;2.872878
2589.000000;2.860579
2588.000000;3.046326
2587.000000;3.601523
2586.000000;3.896065
2585.000000;3.824453
2584.000000;3.221789
2583.000000;2.935490
2582.000000;2.898812
2581.000000;3.054346
2580.000000;3.458465
2579.000000;3.406811
2578.000000;3.121791
2577.000000;2.954342
2576.000000;2.903265
2575.000000;3.050397
2574.000000;3.004477
2573.000000;2.762078
2572.000000;2.716624
2571.000000;2.843451
2570.000000;3.206034
2569.000000;3.548417
2568.000000;3.248369
2567.000000;3.203382
2566.000000;3.568334
2565.000000;3.676619
2564.000000;3.276457
2563.000000;3.158572
2562.000000;3.082684
2561.000000;3.101515
2560.000000;3.291991
2559.000000;3.259652
2558.000000;3.023162
2557.000000;2.916054
2556.000000;2.927829
2555.000000;3.032710
2554.000000;3.242609
2553.000000;3.524927
2552.000000;3.638982
2551.000000;3.932012
2550.000000;3.941599
2549.000000;3.242544
2548.000000;2.946930
2547.000000;2.851973
2546.000000;2.922192
2545.000000;3.155863
2544.000000;3.237975
2543.000000;3.071230
2542.000000;2.979896
2541.000000;2.940951
2540.000000;2.949190
2539.000000;2.997191
2538.000000;3.027628
2537.000000;3.044021
2536.000000;3.121187
2535.000000;3.265390
2534.000000;3.298657
2533.000000;3.210595
2532.000000;3.088007
2531.000000;2.948892
2530.000000;2.823973
2529.000000;2.738452
2528.000000;2.711203
2527.000000;2.736753
2526.000000;2.788983
2525.000000;2.867260
2524.000000;2.982201
2523.000000;3.124627
2522.000000;3.291760
2521.000000;3.322542
2520.000000;3.105083
2519.000000;2.919794
2518.000000;2.870200
2517.000000;2.999712
2516.000000;3.267616
2515.000000;3.287272
2514.000000;3.166486
2513.000000;3.291566
2512.000000;3.618189
2511.000000;3.493624
2510.000000;3.315139
2509.000000;3.108149
2508.000000;2.935632
2507.000000;2.915871
2506.000000;2.974137
2505.000000;3.036171
2504.000000;3.080653
2503.000000;3.140689
2502.000000;3.288076
2501.000000;3.413833
2500.000000;3.230974
2499.000000;3.012485
2498.000000;2.891695
2497.000000;2.828607
2496.000000;2.806824
2495.000000;2.834901
2494.000000;3.006066
2493.000000;3.483250
2492.000000;3.334884
2491.000000;3.010125
2490.000000;3.004432
2489.000000;3.098294
2488.000000;3.126611
2487.000000;2.999885
2486.000000;2.877762
2485.000000;2.821453
2484.000000;2.835508
2483.000000;2.910518
2482.000000;3.190271
2481.000000;3.394117
2480.000000;2.923405
2479.000000;2.752147
2478.000000;2.763692
2477.000000;2.870559
2476.000000;2.996220
2475.000000;3.179873
2474.000000;3.721431
2473.000000;3.461602
2472.000000;3.242743
2471.000000;3.269538
2470.000000;3.147609
2469.000000;2.977872
2468.000000;2.913922
2467.000000;3.003951
2466.000000;3.367610
2465.000000;3.889238
2464.000000;3.497081
2463.000000;3.417289
2462.000000;3.320185
2461.000000;3.021232
2460.000000;2.814278
2459.000000;2.766356
2458.000000;2.873391
2457.000000;3.170181
2456.000000;3.609052
2455.000000;3.594133
2454.000000;3.408202
2453.000000;3.394375
2452.000000;3.398061
2451.000000;3.330079
2450.000000;3.190781
2449.000000;3.363791
2448.000000;3.852202
2447.000000;3.061602
2446.000000;2.786429
2445.000000;2.716066
2444.000000;2.754221
2443.000000;2.874465
2442.000000;2.927658
2441.000000;2.942734
2440.000000;2.962478
2439.000000;2.992720
2438.000000;3.082082
2437.000000;3.155196
2436.000000;3.035394
2435.000000;2.950546
2434.000000;2.999342
2433.000000;3.339973
2432.000000;3.807182
2431.000000;3.587209
2430.000000;3.765532
2429.000000;3.251869
2428.000000;2.886456
2427.000000;2.782200
2426.000000;2.807306
2425.000000;3.080891
2424.000000;3.417316
2423.000000;3.047658
2422.000000;2.950099
2421.000000;3.043627
2420.000000;3.073163
2419.000000;3.055357
2418.000000;3.096328
2417.000000;3.237655
2416.000000;3.273623
2415.000000;3.175471
2414.000000;3.139470
2413.000000;3.157181
2412.000000;3.148122
2411.000000;3.063179
2410.000000;2.959441
2409.000000;2.924172
2408.000000;2.979718
2407.000000;3.128419
2406.000000;3.249886
2405.000000;3.205681
2404.000000;3.150823
2403.000000;3.174562
2402.000000;3.256737
2401.000000;3.317515
2400.000000;3.404694
2399.000000;3.402971
2398.000000;3.107376
2397.000000;2.879236
2396.000000;2.783774
2395.000000;2.786134
2394.000000;2.800021
2393.000000;2.774608
2392.000000;2.784928
2391.000000;2.913686
2390.000000;3.151365
2389.000000;3.034024
2388.000000;2.833962
2387.000000;2.809091
2386.000000;2.944662
2385.000000;3.332814
2384.000000;3.333124
2383.000000;3.526657
2382.000000;3.404141
2381.000000;2.725214
2380.000000;2.455279
2379.000000;2.367804
2378.000000;2.414265
2377.000000;2.615438
2376.000000;3.170888
2375.000000;3.151925
2374.000000;2.732052
2373.000000;2.615734
2372.000000;2.567796
2371.000000;2.605123
2370.000000;2.653756
2369.000000;2.689578
2368.000000;2.707573
2367.000000;2.936923
2366.000000;3.138595
2365.000000;2.588652
2364.000000;2.402598
2363.000000;2.391008
2362.000000;2.618264
2361.000000;3.027991
2360.000000;2.627980
2359.000000;2.455625
2358.000000;2.493036
2357.000000;2.684738
2356.000000;2.829827
2355.000000;2.721846
2354.000000;2.695100
2353.000000;2.701246
2352.000000;2.886426
2351.000000;2.790574
2350.000000;2.599375
2349.000000;2.458054
2348.000000;2.369597
2347.000000;2.474756
2346.000000;2.608900
2345.000000;2.643703
2344.000000;2.636605
2343.000000;2.633274
2342.000000;2.571735
2341.000000;2.508767
2340.000000;2.502002
2339.000000;2.692579
2338.000000;3.035500
2337.000000;2.761172
2336.000000;2.639616
2335.000000;2.741365
2334.000000;3.068665
2333.000000;3.317346
2332.000000;2.963142
2331.000000;2.857141
2330.000000;2.803986
2329.000000;2.798570
2328.000000;2.829057
2327.000000;3.069492
2326.000000;3.439635
2325.000000;2.983599
2324.000000;2.804316
2323.000000;2.848768
2322.000000;2.841081
2321.000000;2.824535
2320.000000;2.909745
2319.000000;2.812600
2318.000000;2.608823
2317.000000;2.536146
2316.000000;2.565405
2315.000000;2.684005
2314.000000;2.854470
2313.000000;2.917784
2312.000000;2.799237
2311.000000;2.661339
2310.000000;2.597916
2309.000000;2.671150
2308.000000;2.811386
2307.000000;2.710677
2306.000000;2.577052
2305.000000;2.563150
2304.000000;2.602251
2303.000000;2.690172
2302.000000;2.856666
2301.000000;3.002098
2300.000000;3.066156
2299.000000;3.174337
2298.000000;3.308106
2297.000000;3.224415
2296.000000;2.971981
2295.000000;2.811399
2294.000000;2.794981
2293.000000;2.958295
2292.000000;3.164869
2291.000000;3.037283
2290.000000;2.919498
2289.000000;2.883879
2288.000000;2.895216
2287.000000;2.988008
2286.000000;3.129843
2285.000000;3.262959
2284.000000;3.286306
2283.000000;3.297997
2282.000000;3.335452
2281.000000;3.168888
2280.000000;3.081494
2279.000000;3.072739
2278.000000;3.008019
2277.000000;2.968854
2276.000000;3.011750
2275.000000;3.443834
2274.000000;3.586634
2273.000000;3.019260
2272.000000;2.960239
2271.000000;3.171169
2270.000000;3.213596
2269.000000;2.951937
2268.000000;2.825199
2267.000000;2.816357
2266.000000;2.832188
2265.000000;2.811542
2264.000000;2.788844
2263.000000;2.833480
2262.000000;2.879278
2261.000000;2.828850
2260.000000;2.768354
2259.000000;2.771038
2258.000000;2.834394
2257.000000;3.011832
2256.000000;3.282807
2255.000000;3.526785
2254.000000;3.383482
2253.000000;3.030187
2252.000000;2.879153
2251.000000;2.817802
2250.000000;2.795497
2249.000000;2.814453
2248.000000;2.903120
2247.000000;3.061697
2246.000000;3.277290
2245.000000;3.758023
2244.000000;3.272338
2243.000000;2.884472
2242.000000;2.753545
2241.000000;2.692898
2240.000000;2.698355
2239.000000;2.785178
2238.000000;2.982380
2237.000000;3.128598
2236.000000;3.040227
2235.000000;3.003081
2234.000000;2.984493
2233.000000;3.040706
2232.000000;3.364486
2231.000000;3.213228
2230.000000;2.892510
2229.000000;2.847122
2228.000000;3.039845
2227.000000;3.431281
2226.000000;3.369900
2225.000000;3.250091
2224.000000;3.413336
2223.000000;3.769697
2222.000000;3.313953
2221.000000;2.956559
2220.000000;2.822574
2219.000000;2.761833
2218.000000;2.753393
2217.000000;2.797479
2216.000000;2.897054
2215.000000;3.073565
2214.000000;3.465664
2213.000000;3.622437
2212.000000;3.306824
2211.000000;3.185183
2210.000000;3.124833
2209.000000;3.143894
2208.000000;3.240154
2207.000000;3.344265
2206.000000;3.389359
2205.000000;3.534356
2204.000000;3.516825
2203.000000;3.115810
2202.000000;2.921304
2201.000000;2.899749
2200.000000;3.009487
2199.000000;3.446675
2198.000000;3.602172
2197.000000;3.125999
2196.000000;3.011415
2195.000000;2.990106
2194.000000;3.012589
2193.000000;3.106206
2192.000000;3.420481
2191.000000;3.665930
2190.000000;3.461559
2189.000000;3.556359
2188.000000;3.757573
2187.000000;3.825012
2186.000000;3.479725
2185.000000;3.293872
2184.000000;3.206597
2183.000000;3.125393
2182.000000;3.120424
2181.000000;3.168564
2180.000000;3.241572
2179.000000;3.593693
2178.000000;3.773725
2177.000000;3.413288
2176.000000;3.468600
2175.000000;3.296799
2174.000000;3.177584
2173.000000;3.316430
2172.000000;3.441923
2171.000000;3.370530
2170.000000;3.110936
2169.000000;2.916147
2168.000000;2.865877
2167.000000;2.999644
2166.000000;3.247975
2165.000000;3.169809
2164.000000;3.092751
2163.000000;3.207495
2162.000000;3.326612
2161.000000;3.416906
2160.000000;3.323903
2159.000000;3.393008
2158.000000;3.385488
2157.000000;3.133344
2156.000000;3.013042
2155.000000;3.197524
2154.000000;4.087939
2153.000000;3.444019
2152.000000;3.132048
2151.000000;2.960181
2150.000000;2.830145
2149.000000;2.821128
2148.000000;2.853763
2147.000000;2.922579
2146.000000;3.030140
2145.000000;3.208134
2144.000000;3.234240
2143.000000;3.009831
2142.000000;2.791605
2141.000000;2.678994
2140.000000;2.648921
2139.000000;2.702516
2138.000000;2.823982
2137.000000;3.034099
2136.000000;3.507310
2135.000000;3.241545
2134.000000;2.909666
2133.000000;2.871802
2132.000000;2.959044
2131.000000;3.157778
2130.000000;3.321825
2129.000000;3.304256
2128.000000;3.241199
2127.000000;3.257866
2126.000000;3.339157
2125.000000;3.324662
2124.000000;3.176639
2123.000000;3.019252
2122.000000;2.923611
2121.000000;2.916226
2120.000000;3.003876
2119.000000;3.201813
2118.000000;3.450817
2117.000000;3.355900
2116.000000;3.031745
2115.000000;2.883713
2114.000000;2.867078
2113.000000;2.980808
2112.000000;3.551966
2111.000000;3.374890
2110.000000;2.915239
2109.000000;2.826298
2108.000000;2.778930
2107.000000;2.767229
2106.000000;2.802001
2105.000000;2.908516
2104.000000;3.129255
2103.000000;3.311067
2102.000000;3.192377
2101.000000;3.020251
2100.000000;2.993074
2099.000000;3.034191
2098.000000;2.999472
2097.000000;2.941153
2096.000000;2.867543
2095.000000;2.781493
2094.000000;2.778771
2093.000000;2.879755
2092.000000;2.941353
2091.000000;2.841385
2090.000000;2.750588
2089.000000;2.733407
2088.000000;2.775960
2087.000000;2.874136
2086.000000;3.014458
2085.000000;3.154992
2084.000000;3.191486
2083.000000;3.167562
2082.000000;3.085232
2081.000000;3.015315
2080.000000;2.995017
2079.000000;3.143893
2078.000000;3.566929
2077.000000;3.323751
2076.000000;3.200275
2075.000000;3.094915
2074.000000;2.826913
2073.000000;2.670697
2072.000000;2.628986
2071.000000;2.669886
2070.000000;2.908344
2069.000000;3.439192
2068.000000;3.195717
2067.000000;3.089747
2066.000000;3.394794
2065.000000;3.584142
2064.000000;3.190798
2063.000000;3.031403
2062.000000;3.116149
2061.000000;3.298438
2060.000000;3.390693
2059.000000;3.587476
2058.000000;3.698431
2057.000000;3.456450
2056.000000;3.426410
2055.000000;3.282068
2054.000000;3.241035
2053.000000;3.416212
2052.000000;3.248332
2051.000000;3.006555
2050.000000;2.952789
2049.000000;3.026670
2048.000000;3.319771
2047.000000;3.399723
2046.000000;3.018028
2045.000000;2.864270
2044.000000;2.847628
2043.000000;2.897421
2042.000000;2.982169
2041.000000;3.031812
2040.000000;3.063787
2039.000000;3.106151
2038.000000;3.236250
2037.000000;3.546378
2036.000000;3.340059
2035.000000;3.052495
2034.000000;3.007087
2033.000000;2.976279
2032.000000;2.927152
2031.000000;2.948918
2030.000000;3.051843
2029.000000;3.194745
2028.000000;3.224157
2027.000000;3.124728
2026.000000;3.088530
2025.000000;3.186475
2024.000000;3.447600
2023.000000;3.606738
2022.000000;3.341349
2021.000000;3.148454
2020.000000;3.092044
2019.000000;3.123132
2018.000000;3.243336
2017.000000;3.555240
2016.000000;3.482807
2015.000000;3.099976
2014.000000;2.954987
2013.000000;2.910475
2012.000000;2.878079
2011.000000;2.877458
2010.000000;2.936177
2009.000000;3.031943
2008.000000;3.103296
2007.000000;3.080247
2006.000000;3.016841
2005.000000;2.971533
2004.000000;3.116200
2003.000000;3.276522
2002.000000;2.923634
2001.000000;2.725469
2000.000000;2.797062
1999.000000;3.100898
1998.000000;3.284270
1997.000000;3.412744
1996.000000;3.519449
1995.000000;3.373176
1994.000000;3.270855
1993.000000;3.096216
1992.000000;3.015576
1991.000000;3.152526
1990.000000;3.576941
1989.000000;3.360367
1988.000000;3.079881
1987.000000;2.965413
1986.000000;2.924031
1985.000000;3.012939
1984.000000;3.305181
1983.000000;3.742794
1982.000000;3.271080
1981.000000;2.916799
1980.000000;2.759885
1979.000000;2.756827
1978.000000;2.924836
1977.000000;3.275296
1976.000000;3.605217
1975.000000;3.437693
1974.000000;3.269930
1973.000000;3.226336
1972.000000;3.235876
1971.000000;3.152985
1970.000000;3.027173
1969.000000;3.000204
1968.000000;3.066653
1967.000000;3.140737
1966.000000;3.130670
1965.000000;3.073647
1964.000000;3.096239
1963.000000;3.265903
1962.000000;3.313068
1961.000000;3.131496
1960.000000;2.983378
1959.000000;2.829968
1958.000000;2.722132
1957.000000;2.686383
1956.000000;2.702164
1955.000000;2.757120
1954.000000;2.864828
1953.000000;3.105797
1952.000000;3.175400
1951.000000;2.967514
1950.000000;2.917759
1949.000000;2.906962
1948.000000;2.847447
1947.000000;2.827051
1946.000000;2.864144
1945.000000;2.905968
1944.000000;2.959937
1943.000000;3.030861
1942.000000;2.967868
1941.000000;2.863874
1940.000000;2.872701
1939.000000;2.970817
1938.000000;2.998605
1937.000000;3.043080
1936.000000;3.137433
1935.000000;2.940602
1934.000000;2.743046
1933.000000;2.691978
1932.000000;2.777769
1931.000000;3.027575
1930.000000;3.044134
1929.000000;2.788820
1928.000000;2.715387
1927.000000;2.774138
1926.000000;3.035859
1925.000000;3.641768
1924.000000;3.555344
1923.000000;3.555726
1922.000000;3.565820
1921.000000;3.206122
1920.000000;3.139307
1919.000000;3.437946
1918.000000;3.615824
1917.000000;3.213827
1916.000000;3.150099
1915.000000;3.326198
1914.000000;3.206147
1913.000000;2.986164
1912.000000;2.896113
1911.000000;2.878700
1910.000000;2.896641
1909.000000;2.970865
1908.000000;3.099660
1907.000000;2.983347
1906.000000;2.758144
1905.000000;2.664059
1904.000000;2.685673
1903.000000;2.792939
1902.000000;2.931837
1901.000000;3.017175
1900.000000;3.102223
1899.000000;3.269556
1898.000000;3.369141
1897.000000;3.504136
1896.000000;3.499475
1895.000000;3.227950
1894.000000;3.156693
1893.000000;3.173112
1892.000000;3.172907
1891.000000;3.207463
1890.000000;3.397289
1889.000000;3.588177
1888.000000;3.410734
1887.000000;3.366848
1886.000000;3.240024
1885.000000;2.993366
1884.000000;2.822935
1883.000000;2.740304
1882.000000;2.757033
1881.000000;2.902123
1880.000000;3.101349
1879.000000;3.049492
1878.000000;2.931832
1877.000000;2.899064
1876.000000;2.940565
1875.000000;3.054335
1874.000000;3.100190
1873.000000;3.082620
1872.000000;3.125324
1871.000000;3.181198
1870.000000;3.203997
1869.000000;3.204556
1868.000000;3.201011
1867.000000;3.226202
1866.000000;3.289065
1865.000000;3.296233
1864.000000;3.237513
1863.000000;3.232190
1862.000000;3.307327
1861.000000;3.385230
1860.000000;3.293340
1859.000000;3.064193
1858.000000;2.919561
1857.000000;2.891415
1856.000000;3.092128
1855.000000;3.328540
1854.000000;3.022916
1853.000000;2.920756
1852.000000;2.970917
1851.000000;3.023027
1850.000000;3.049240
1849.000000;3.096224
1848.000000;3.235268
1847.000000;3.285929
1846.000000;3.201492
1845.000000;3.154359
1844.000000;3.273533
1843.000000;3.508476
1842.000000;3.446875
1841.000000;3.319631
1840.000000;3.179586
1839.000000;3.052537
1838.000000;3.007944
1837.000000;3.097241
1836.000000;3.455776
1835.000000;3.621439
1834.000000;3.206441
1833.000000;3.262733
1832.000000;3.894002
1831.000000;3.272576
1830.000000;3.008939
1829.000000;3.009870
1828.000000;3.098788
1827.000000;3.368913
1826.000000;3.704755
1825.000000;3.667072
1824.000000;3.486497
1823.000000;3.327923
1822.000000;3.187859
1821.000000;3.084983
1820.000000;2.997605
1819.000000;2.923933
1818.000000;2.865707
1817.000000;2.873147
1816.000000;2.992581
1815.000000;3.230901
1814.000000;3.315568
1813.000000;3.158160
1812.000000;3.058937
1811.000000;3.043811
1810.000000;3.057399
1809.000000;3.008681
1808.000000;2.924027
1807.000000;2.914677
1806.000000;2.983444
1805.000000;3.190992
1804.000000;3.450211
1803.000000;3.196128
1802.000000;3.068356
1801.000000;3.090248
1800.000000;3.377405
1799.000000;3.802734
1798.000000;3.344116
1797.000000;3.384063
1796.000000;3.711128
1795.000000;3.969376
1794.000000;3.356530
1793.000000;2.950076
1792.000000;2.810805
1791.000000;2.770157
1790.000000;2.780295
1789.000000;2.833433
1788.000000;2.927651
1787.000000;2.964239
1786.000000;2.911955
1785.000000;2.895822
1784.000000;2.980706
1783.000000;3.274411
1782.000000;3.424085
1781.000000;3.175082
1780.000000;3.079516
1779.000000;3.193884
1778.000000;3.512019
1777.000000;3.343451
1776.000000;3.168933
1775.000000;3.213783
1774.000000;3.259955
1773.000000;3.178593
1772.000000;3.115940
1771.000000;3.204619
1770.000000;3.258131
1769.000000;3.113339
1768.000000;2.993038
1767.000000;2.959943
1766.000000;2.915135
1765.000000;2.871079
1764.000000;2.921953
1763.000000;3.108015
1762.000000;3.659840
1761.000000;3.654547
1760.000000;3.387598
1759.000000;3.900450
1758.000000;3.321012
1757.000000;2.929521
1756.000000;2.844602
1755.000000;2.939831
1754.000000;3.323775
1753.000000;3.567052
1752.000000;3.385636
1751.000000;3.401600
1750.000000;3.388851
1749.000000;3.281225
1748.000000;3.209669
1747.000000;3.195872
1746.000000;3.207174
1745.000000;3.249745
1744.000000;3.229267
1743.000000;3.122372
1742.000000;3.067079
1741.000000;3.159673
1740.000000;3.370321
1739.000000;3.527520
1738.000000;3.412204
1737.000000;3.115652
1736.000000;2.927336
1735.000000;2.974586
1734.000000;3.214266
1733.000000;3.185391
1732.000000;3.103062
1731.000000;3.206838
1730.000000;3.157797
1729.000000;3.002162
1728.000000;3.017778
1727.000000;3.139190
1726.000000;3.136808
1725.000000;3.130307
1724.000000;3.169528
1723.000000;3.304262
1722.000000;3.749179
1721.000000;3.437500
1720.000000;3.124154
1719.000000;3.134814
1718.000000;3.263669
1717.000000;3.274164
1716.000000;3.162354
1715.000000;3.113424
1714.000000;3.215871
1713.000000;3.407426
1712.000000;3.394039
1711.000000;3.365109
1710.000000;3.417654
1709.000000;3.461921
1708.000000;3.689952
1707.000000;3.923978
1706.000000;3.693075
1705.000000;3.721620
1704.000000;3.848692
1703.000000;4.097053
1702.000000;3.429345
1701.000000;3.194694
1700.000000;3.355962
1699.000000;3.237640
1698.000000;3.121836
1697.000000;3.180397
1696.000000;3.292598
1695.000000;3.309215
1694.000000;3.360786
1693.000000;3.483559
1692.000000;3.405251
1691.000000;3.263584
1690.000000;3.160210
1689.000000;3.128877
1688.000000;3.157335
1687.000000;3.198954
1686.000000;3.484193
1685.000000;3.426216
1684.000000;2.985237
1683.000000;2.893549
1682.000000;2.950811
1681.000000;3.085161
1680.000000;3.230367
1679.000000;3.169047
1678.000000;2.949644
1677.000000;2.849537
1676.000000;2.993220
1675.000000;2.968150
1674.000000;2.791304
1673.000000;2.774120
1672.000000;2.797299
1671.000000;2.809336
1670.000000;2.774774
1669.000000;2.726441
1668.000000;2.727309
1667.000000;2.796909
1666.000000;2.909139
1665.000000;2.977800
1664.000000;2.929962
1663.000000;2.838187
1662.000000;2.797245
1661.000000;2.833528
1660.000000;2.945490
1659.000000;3.100109
1658.000000;3.357351
1657.000000;3.527017
1656.000000;3.344589
1655.000000;3.056498
1654.000000;3.040322
1653.000000;3.431365
1652.000000;3.115091
1651.000000;2.854809
1650.000000;2.895388
1649.000000;3.187838
1648.000000;3.388493
1647.000000;3.074865
1646.000000;3.173783
1645.000000;3.407089
1644.000000;3.167406
1643.000000;3.129205
1642.000000;3.359384
1641.000000;3.343180
1640.000000;2.981757
1639.000000;2.797834
1638.000000;2.725558
1637.000000;2.729777
1636.000000;2.816790
1635.000000;2.954611
1634.000000;2.991304
1633.000000;2.925486
1632.000000;2.927592
1631.000000;2.908786
1630.000000;2.801793
1629.000000;2.692781
1628.000000;2.672676
1627.000000;2.718176
1626.000000;2.793273
1625.000000;2.834099
1624.000000;3.008510
1623.000000;3.603011
1622.000000;3.224265
1621.000000;2.936586
1620.000000;2.918509
1619.000000;2.914764
1618.000000;3.132239
1617.000000;3.582655
1616.000000;3.079318
1615.000000;2.980451
1614.000000;3.350622
1613.000000;3.387604
1612.000000;2.933516
1611.000000;2.799501
1610.000000;2.817532
1609.000000;2.850984
1608.000000;2.843270
1607.000000;2.837097
1606.000000;2.957520
1605.000000;3.209188
1604.000000;3.166979
1603.000000;2.942763
1602.000000;2.843128
1601.000000;2.817845
1600.000000;2.888370
1599.000000;3.070745
1598.000000;3.266229
1597.000000;3.226821
1596.000000;3.357204
1595.000000;3.558446
1594.000000;3.038483
1593.000000;2.822240
1592.000000;2.853332
1591.000000;3.042493
1590.000000;3.298935
1589.000000;3.197623
1588.000000;3.032151
1587.000000;2.935918
1586.000000;3.130457
1585.000000;3.594778
1584.000000;3.067467
1583.000000;2.919077
1582.000000;2.926502
1581.000000;2.963932
1580.000000;2.995490
1579.000000;2.949981
1578.000000;2.931690
1577.000000;2.925804
1576.000000;2.983967
1575.000000;3.112909
1574.000000;3.256763
1573.000000;3.374680
1572.000000;3.531780
1571.000000;3.445268
1570.000000;3.126246
1569.000000;3.010617
1568.000000;3.052539
1567.000000;3.174024
1566.000000;3.410217
1565.000000;3.281666
1564.000000;3.045154
1563.000000;2.954017
1562.000000;2.956000
1561.000000;2.966673
1560.000000;3.233454
1559.000000;4.117551
1558.000000;3.721463
1557.000000;3.685498
1556.000000;3.261069
1555.000000;3.119890
1554.000000;3.155406
1553.000000;3.210547
1552.000000;3.195444
1551.000000;3.132058
1550.000000;3.069037
1549.000000;3.024644
1548.000000;3.074556
1547.000000;3.299153
1546.000000;3.902802
1545.000000;4.249728
1544.000000;3.942152
1543.000000;4.039535
1542.000000;3.872107
1541.000000;3.806053
1540.000000;3.956838
1539.000000;3.415283
1538.000000;3.104356
1537.000000;3.076232
1536.000000;3.279876
1535.000000;3.310186
1534.000000;3.076864
1533.000000;3.064746
1532.000000;3.177435
1531.000000;3.282308
1530.000000;3.286954
1529.000000;3.211016
1528.000000;3.158504
1527.000000;3.120157
1526.000000;3.076371
1525.000000;3.062850
1524.000000;3.124551
1523.000000;3.278047
1522.000000;3.497682
1521.000000;3.773233
1520.000000;4.446000
1519.000000;4.387819
1518.000000;4.043847
1517.000000;3.699803
1516.000000;3.370681
1515.000000;3.089431
1514.000000;2.942499
1513.000000;2.932705
1512.000000;3.152133
1511.000000;4.112333
1510.000000;3.583167
1509.000000;3.360785
1508.000000;3.370467
1507.000000;3.447345
1506.000000;3.848971
1505.000000;3.565171
1504.000000;3.398661
1503.000000;3.354023
1502.000000;3.208239
1501.000000;3.177393
1500.000000;3.488382
1499.000000;3.918900
1498.000000;3.288031
1497.000000;3.202663
1496.000000;3.350498
1495.000000;3.360679
1494.000000;3.230021
1493.000000;3.233895
1492.000000;3.238507
1491.000000;3.201660
1490.000000;3.186326
1489.000000;3.170154
1488.000000;3.220603
1487.000000;3.370037
1486.000000;3.540005
1485.000000;3.502128
1484.000000;3.331859
1483.000000;3.135467
1482.000000;3.013144
1481.000000;2.997865
1480.000000;2.971900
1479.000000;2.908307
1478.000000;2.944181
1477.000000;3.063165
1476.000000;3.130313
1475.000000;3.222823
1474.000000;3.348737
1473.000000;3.241197
1472.000000;3.015592
1471.000000;2.861978
1470.000000;2.808666
1469.000000;2.833202
1468.000000;2.889746
1467.000000;2.917198
1466.000000;2.897382
1465.000000;2.847393
1464.000000;2.789296
1463.000000;2.776633
1462.000000;2.876598
1461.000000;3.101483
1460.000000;3.170781
1459.000000;3.122504
1458.000000;3.232881
1457.000000;3.425854
1456.000000;3.668152
1455.000000;4.033799
1454.000000;3.781024
1453.000000;3.494522
1452.000000;3.368217
1451.000000;3.307879
1450.000000;3.283774
1449.000000;3.275506
1448.000000;3.377982
1447.000000;3.523340
1446.000000;3.432257
1445.000000;3.385455
1444.000000;3.509845
1443.000000;3.660452
1442.000000;3.700700
1441.000000;3.392549
1440.000000;3.257736
1439.000000;3.488965
1438.000000;3.601457
1437.000000;3.286731
1436.000000;3.276141
1435.000000;3.725207
1434.000000;3.490668
1433.000000;3.163679
1432.000000;3.160527
1431.000000;3.238147
1430.000000;3.467961
1429.000000;3.933089
1428.000000;3.857849
1427.000000;3.606126
1426.000000;3.248271
1425.000000;3.085992
1424.000000;3.080162
1423.000000;3.153864
1422.000000;3.270672
1421.000000;3.196670
1420.000000;3.024645
1419.000000;2.976970
1418.000000;3.024526
1417.000000;3.123006
1416.000000;3.093466
1415.000000;2.900281
1414.000000;2.775826
1413.000000;2.771585
1412.000000;2.838157
1411.000000;2.993008
1410.000000;3.235329
1409.000000;3.367095
1408.000000;3.744904
1407.000000;3.465912
1406.000000;3.010523
1405.000000;2.892151
1404.000000;2.885681
1403.000000;3.063015
1402.000000;3.492024
1401.000000;3.077421
1400.000000;2.836590
1399.000000;2.816694
1398.000000;2.872642
1397.000000;2.969394
1396.000000;3.041335
1395.000000;3.058124
1394.000000;3.043987
1393.000000;3.064413
1392.000000;3.067748
1391.000000;3.007694
1390.000000;2.930771
1389.000000;2.910457
1388.000000;2.961302
1387.000000;3.010903
1386.000000;3.007923
1385.000000;2.975499
1384.000000;2.992525
1383.000000;3.119231
1382.000000;3.361188
1381.000000;3.837967
1380.000000;3.688627
1379.000000;3.265542
1378.000000;3.125222
1377.000000;3.220749
1376.000000;3.583059
1375.000000;3.402673
1374.000000;3.040211
1373.000000;2.818544
1372.000000;2.713957
1371.000000;2.729121
1370.000000;2.831916
1369.000000;2.983355
1368.000000;3.188500
1367.000000;3.567017
1366.000000;3.634113
1365.000000;3.404329
1364.000000;3.526664
1363.000000;3.578982
1362.000000;3.333932
1361.000000;3.140440
1360.000000;3.024440
1359.000000;2.969289
1358.000000;2.956271
1357.000000;2.954826
1356.000000;2.969266
1355.000000;2.994806
1354.000000;2.965361
1353.000000;2.865495
1352.000000;2.817967
1351.000000;2.874484
1350.000000;3.086669
1349.000000;3.484625
1348.000000;3.529133
1347.000000;3.533316
1346.000000;3.200647
1345.000000;2.888374
1344.000000;2.799054
1343.000000;2.862256
1342.000000;3.000910
1341.000000;3.062701
1340.000000;3.045993
1339.000000;3.021360
1338.000000;2.980255
1337.000000;2.886668
1336.000000;2.759684
1335.000000;2.664464
1334.000000;2.649173
1333.000000;2.738158
1332.000000;2.935275
1331.000000;3.099180
1330.000000;3.061833
1329.000000;3.025230
1328.000000;3.031494
1327.000000;3.020080
1326.000000;3.027091
1325.000000;3.099784
1324.000000;3.164166
1323.000000;3.133479
1322.000000;3.096878
1321.000000;3.167547
1320.000000;3.472365
1319.000000;3.611323
1318.000000;3.396251
1317.000000;3.291897
1316.000000;3.139884
1315.000000;3.110639
1314.000000;3.297992
1313.000000;3.468320
1312.000000;3.233369
1311.000000;3.013488
1310.000000;2.911818
1309.000000;2.944728
1308.000000;3.220977
1307.000000;3.555148
1306.000000;3.220262
1305.000000;3.014069
1304.000000;2.925948
1303.000000;2.853546
1302.000000;2.800346
1301.000000;2.789632
1300.000000;2.871264
1299.000000;2.986420
1298.000000;2.989335
1297.000000;2.963486
1296.000000;3.183993
1295.000000;3.529580
1294.000000;2.998309
1293.000000;2.802053
1292.000000;2.797481
1291.000000;2.863193
1290.000000;2.995384
1289.000000;3.167487
1288.000000;3.296373
1287.000000;3.192873
1286.000000;3.046013
1285.000000;2.952732
1284.000000;2.897758
1283.000000;2.902690
1282.000000;3.148388
1281.000000;3.671295
1280.000000;3.402519
1279.000000;3.299927
1278.000000;3.290057
1277.000000;3.174196
1276.000000;3.074426
1275.000000;3.015108
1274.000000;3.045331
1273.000000;3.204226
1272.000000;3.686015
1271.000000;3.833043
1270.000000;3.356374
1269.000000;3.206230
1268.000000;3.216928
1267.000000;3.156928
1266.000000;3.058516
1265.000000;3.062222
1264.000000;3.060131
1263.000000;2.982240
1262.000000;2.937599
1261.000000;2.930639
1260.000000;2.910062
1259.000000;2.932215
1258.000000;3.048705
1257.000000;3.365410
1256.000000;3.722756
1255.000000;3.239800
1254.000000;2.984287
1253.000000;2.895068
1252.000000;2.921604
1251.000000;3.046535
1250.000000;3.175003
1249.000000;3.280034
1248.000000;3.295051
1247.000000;3.197977
1246.000000;3.271795
1245.000000;3.829259
1244.000000;3.525253
1243.000000;3.129529
1242.000000;2.984700
1241.000000;2.876827
1240.000000;2.813382
1239.000000;2.834888
1238.000000;2.953838
1237.000000;3.075887
1236.000000;3.074714
1235.000000;3.023872
1234.000000;2.955546
1233.000000;2.879880
1232.000000;2.846769
1231.000000;2.877624
1230.000000;2.966909
1229.000000;3.111226
1228.000000;3.329469
1227.000000;3.454026
1226.000000;3.258728
1225.000000;3.033137
1224.000000;2.939166
1223.000000;2.994484
1222.000000;3.237078
1221.000000;3.739298
1220.000000;3.687417
1219.000000;3.414518
1218.000000;3.373990
1217.000000;3.676142
1216.000000;3.596082
1215.000000;3.217062
1214.000000;3.149919
1213.000000;3.148251
1212.000000;3.074503
1211.000000;3.084874
1210.000000;3.295547
1209.000000;3.278757
1208.000000;3.001825
1207.000000;2.891263
1206.000000;2.911170
1205.000000;3.070024
1204.000000;3.435778
1203.000000;3.724033
1202.000000;3.656524
1201.000000;3.937013
1200.000000;4.028013
