Criado como novo conjunto de dados;"e0108.spp","-4225661.9 Secs"
cm-1;Abs
10000.000000;1.885107
9999.000000;1.883438
9998.000000;1.880471
9997.000000;1.875442
9996.000000;1.871250
9995.000000;1.872821
9994.000000;1.880622
9993.000000;1.888419
9992.000000;1.889733
9991.000000;1.884751
9990.000000;1.878359
9989.000000;1.874192
9988.000000;1.873115
9987.000000;1.874827
9986.000000;1.878234
9985.000000;1.881121
9984.000000;1.881913
9983.000000;1.881675
9982.000000;1.882625
9981.000000;1.885091
9980.000000;1.887400
9979.000000;1.888249
9978.000000;1.887683
9977.000000;1.886110
9976.000000;1.883799
9975.000000;1.881090
9974.000000;1.878181
9973.000000;1.874848
9972.000000;1.870868
9971.000000;1.866848
9970.000000;1.864301
9969.000000;1.864645
9968.000000;1.868163
9967.000000;1.873750
9966.000000;1.879430
9965.000000;1.883266
9964.000000;1.884135
9963.000000;1.881853
9962.000000;1.876851
9961.000000;1.869990
9960.000000;1.862730
9959.000000;1.857060
9958.000000;1.854493
9957.000000;1.854565
9956.000000;1.854892
9955.000000;1.853408
9954.000000;1.850656
9953.000000;1.849810
9952.000000;1.853803
9951.000000;1.861648
9950.000000;1.867981
9949.000000;1.867751
9948.000000;1.861742
9947.000000;1.855697
9946.000000;1.853971
9945.000000;1.855714
9944.000000;1.857175
9943.000000;1.856668
9942.000000;1.856364
9941.000000;1.859308
9940.000000;1.865495
9939.000000;1.871105
9938.000000;1.871803
9937.000000;1.866974
9936.000000;1.859983
9935.000000;1.854253
9934.000000;1.850556
9933.000000;1.848172
9932.000000;1.847119
9931.000000;1.847917
9930.000000;1.848795
9929.000000;1.846061
9928.000000;1.839146
9927.000000;1.831654
9926.000000;1.826951
9925.000000;1.825816
9924.000000;1.827467
9923.000000;1.830939
9922.000000;1.835437
9921.000000;1.839511
9920.000000;1.840850
9919.000000;1.838964
9918.000000;1.837191
9917.000000;1.839664
9916.000000;1.847080
9915.000000;1.855628
9914.000000;1.859378
9913.000000;1.855450
9912.000000;1.847155
9911.000000;1.840697
9910.000000;1.839966
9909.000000;1.844484
9908.000000;1.850567
9907.000000;1.854746
9906.000000;1.856745
9905.000000;1.858795
9904.000000;1.862071
9903.000000;1.864471
9902.000000;1.862717
9901.000000;1.856914
9900.000000;1.851669
9899.000000;1.851507
9898.000000;1.856084
9897.000000;1.860764
9896.000000;1.861237
9895.000000;1.856608
9894.000000;1.848647
9893.000000;1.839926
9892.000000;1.833070
9891.000000;1.830448
9890.000000;1.833171
9889.000000;1.839728
9888.000000;1.846123
9887.000000;1.848347
9886.000000;1.845448
9885.000000;1.840000
9884.000000;1.834954
9883.000000;1.830549
9882.000000;1.825472
9881.000000;1.820759
9880.000000;1.820269
9879.000000;1.825869
9878.000000;1.833543
9877.000000;1.836421
9876.000000;1.832219
9875.000000;1.825755
9874.000000;1.823647
9873.000000;1.828499
9872.000000;1.837398
9871.000000;1.844091
9870.000000;1.843523
9869.000000;1.835734
9868.000000;1.824835
9867.000000;1.814727
9866.000000;1.807290
9865.000000;1.804278
9864.000000;1.808625
9863.000000;1.821160
9862.000000;1.836242
9861.000000;1.844487
9860.000000;1.842621
9859.000000;1.837401
9858.000000;1.837191
9857.000000;1.843081
9856.000000;1.849319
9855.000000;1.850258
9854.000000;1.845367
9853.000000;1.838084
9852.000000;1.832473
9851.000000;1.831150
9850.000000;1.833973
9849.000000;1.837710
9848.000000;1.838346
9847.000000;1.835350
9846.000000;1.832974
9845.000000;1.835938
9844.000000;1.843466
9843.000000;1.848205
9842.000000;1.843686
9841.000000;1.832785
9840.000000;1.824561
9839.000000;1.823808
9838.000000;1.827174
9837.000000;1.829073
9836.000000;1.828943
9835.000000;1.829873
9834.000000;1.831939
9833.000000;1.831460
9832.000000;1.826737
9831.000000;1.820662
9830.000000;1.816868
9829.000000;1.816320
9828.000000;1.818013
9827.000000;1.820098
9826.000000;1.819767
9825.000000;1.814991
9824.000000;1.807636
9823.000000;1.802509
9822.000000;1.802672
9821.000000;1.807437
9820.000000;1.814601
9819.000000;1.822332
9818.000000;1.828069
9817.000000;1.828197
9816.000000;1.821548
9815.000000;1.812003
9814.000000;1.805217
9813.000000;1.804046
9812.000000;1.808488
9811.000000;1.817092
9810.000000;1.825933
9809.000000;1.828886
9808.000000;1.822473
9807.000000;1.809568
9806.000000;1.796433
9805.000000;1.787926
9804.000000;1.786518
9803.000000;1.792600
9802.000000;1.802926
9801.000000;1.810481
9800.000000;1.809877
9799.000000;1.803106
9798.000000;1.796733
9797.000000;1.794381
9796.000000;1.794577
9795.000000;1.794719
9794.000000;1.794405
9793.000000;1.794437
9792.000000;1.794840
9791.000000;1.795115
9790.000000;1.795223
9789.000000;1.795489
9788.000000;1.796288
9787.000000;1.797975
9786.000000;1.800418
9785.000000;1.802512
9784.000000;1.802491
9783.000000;1.799397
9782.000000;1.794313
9781.000000;1.789728
9780.000000;1.788284
9779.000000;1.791555
9778.000000;1.798333
9777.000000;1.804063
9776.000000;1.803872
9775.000000;1.797375
9774.000000;1.789114
9773.000000;1.783950
9772.000000;1.783526
9771.000000;1.786430
9770.000000;1.790219
9769.000000;1.793271
9768.000000;1.795169
9767.000000;1.796001
9766.000000;1.795651
9765.000000;1.793774
9764.000000;1.790607
9763.000000;1.787480
9762.000000;1.785890
9761.000000;1.786248
9760.000000;1.788231
9759.000000;1.791816
9758.000000;1.796704
9757.000000;1.801041
9756.000000;1.802043
9755.000000;1.798724
9754.000000;1.793411
9753.000000;1.789390
9752.000000;1.787437
9751.000000;1.785697
9750.000000;1.782707
9749.000000;1.779357
9748.000000;1.777495
9747.000000;1.777747
9746.000000;1.779562
9745.000000;1.782537
9744.000000;1.786425
9743.000000;1.790213
9742.000000;1.792535
9741.000000;1.793386
9740.000000;1.794332
9739.000000;1.796054
9738.000000;1.796913
9737.000000;1.795392
9736.000000;1.792637
9735.000000;1.790829
9734.000000;1.790005
9733.000000;1.788437
9732.000000;1.785832
9731.000000;1.784017
9730.000000;1.784080
9729.000000;1.784966
9728.000000;1.785823
9727.000000;1.788011
9726.000000;1.793002
9725.000000;1.799185
9724.000000;1.802264
9723.000000;1.799109
9722.000000;1.790691
9721.000000;1.780914
9720.000000;1.773576
9719.000000;1.770775
9718.000000;1.772839
9717.000000;1.778871
9716.000000;1.787071
9715.000000;1.794467
9714.000000;1.797513
9713.000000;1.794941
9712.000000;1.790005
9711.000000;1.787918
9710.000000;1.790388
9709.000000;1.793461
9708.000000;1.791552
9707.000000;1.783267
9706.000000;1.772289
9705.000000;1.763656
9704.000000;1.760527
9703.000000;1.763235
9702.000000;1.769493
9701.000000;1.775601
9700.000000;1.778769
9699.000000;1.778801
9698.000000;1.777466
9697.000000;1.776622
9696.000000;1.776993
9695.000000;1.777907
9694.000000;1.777731
9693.000000;1.775450
9692.000000;1.772212
9691.000000;1.770297
9690.000000;1.770503
9689.000000;1.771857
9688.000000;1.774177
9687.000000;1.779041
9686.000000;1.786499
9685.000000;1.792175
9684.000000;1.790454
9683.000000;1.780725
9682.000000;1.767878
9681.000000;1.757004
9680.000000;1.750221
9679.000000;1.747663
9678.000000;1.748672
9677.000000;1.751400
9676.000000;1.753126
9675.000000;1.752621
9674.000000;1.751637
9673.000000;1.753135
9672.000000;1.758328
9671.000000;1.765610
9670.000000;1.772101
9669.000000;1.775822
9668.000000;1.776382
9667.000000;1.774475
9666.000000;1.771384
9665.000000;1.768637
9664.000000;1.767146
9663.000000;1.766121
9662.000000;1.763767
9661.000000;1.760083
9660.000000;1.758071
9659.000000;1.760692
9658.000000;1.767032
9657.000000;1.772973
9656.000000;1.776034
9655.000000;1.777588
9654.000000;1.779024
9653.000000;1.778282
9652.000000;1.772710
9651.000000;1.763909
9650.000000;1.756506
9649.000000;1.752799
9648.000000;1.751448
9647.000000;1.751050
9646.000000;1.752405
9645.000000;1.756381
9644.000000;1.761367
9643.000000;1.764243
9642.000000;1.763324
9641.000000;1.759558
9640.000000;1.755331
9639.000000;1.752756
9638.000000;1.752476
9637.000000;1.753579
9636.000000;1.755024
9635.000000;1.756868
9634.000000;1.759476
9633.000000;1.761823
9632.000000;1.761348
9631.000000;1.756351
9630.000000;1.748614
9629.000000;1.743036
9628.000000;1.744062
9627.000000;1.751801
9626.000000;1.761173
9625.000000;1.765431
9624.000000;1.762412
9623.000000;1.756421
9622.000000;1.752068
9621.000000;1.749012
9620.000000;1.744800
9619.000000;1.740505
9618.000000;1.740119
9617.000000;1.744563
9616.000000;1.749598
9615.000000;1.750964
9614.000000;1.749524
9613.000000;1.749137
9612.000000;1.751244
9611.000000;1.753869
9610.000000;1.754853
9609.000000;1.754025
9608.000000;1.752369
9607.000000;1.750757
9606.000000;1.749581
9605.000000;1.748491
9604.000000;1.746644
9603.000000;1.744011
9602.000000;1.742021
9601.000000;1.742101
9600.000000;1.744009
9599.000000;1.746358
9598.000000;1.748214
9597.000000;1.749256
9596.000000;1.749102
9595.000000;1.747884
9594.000000;1.747073
9593.000000;1.747983
9592.000000;1.749114
9591.000000;1.746905
9590.000000;1.740530
9589.000000;1.734298
9588.000000;1.733604
9587.000000;1.739217
9586.000000;1.746145
9585.000000;1.748563
9584.000000;1.745601
9583.000000;1.740911
9582.000000;1.737552
9581.000000;1.735414
9580.000000;1.733679
9579.000000;1.733896
9578.000000;1.738525
9577.000000;1.746465
9576.000000;1.751906
9575.000000;1.749705
9574.000000;1.741688
9573.000000;1.735088
9572.000000;1.735053
9571.000000;1.740271
9570.000000;1.744877
9569.000000;1.743722
9568.000000;1.736338
9567.000000;1.726653
9566.000000;1.719541
9565.000000;1.717440
9564.000000;1.719336
9563.000000;1.722598
9562.000000;1.725877
9561.000000;1.729837
9560.000000;1.734881
9559.000000;1.739487
9558.000000;1.741909
9557.000000;1.742496
9556.000000;1.742635
9555.000000;1.742115
9554.000000;1.739569
9553.000000;1.735453
9552.000000;1.732654
9551.000000;1.733179
9550.000000;1.735338
9549.000000;1.735451
9548.000000;1.731916
9547.000000;1.726532
9546.000000;1.722168
9545.000000;1.720178
9544.000000;1.720069
9543.000000;1.720649
9542.000000;1.721037
9541.000000;1.720908
9540.000000;1.720009
9539.000000;1.717771
9538.000000;1.714091
9537.000000;1.710475
9536.000000;1.709372
9535.000000;1.711684
9534.000000;1.715497
9533.000000;1.718098
9532.000000;1.719015
9531.000000;1.720042
9530.000000;1.722437
9529.000000;1.725272
9528.000000;1.726629
9527.000000;1.725689
9526.000000;1.723275
9525.000000;1.720768
9524.000000;1.718890
9523.000000;1.717383
9522.000000;1.715915
9521.000000;1.715378
9520.000000;1.717558
9519.000000;1.722621
9518.000000;1.727211
9517.000000;1.726697
9516.000000;1.720183
9515.000000;1.711835
9514.000000;1.706850
9513.000000;1.707720
9512.000000;1.713810
9511.000000;1.722502
9510.000000;1.730404
9509.000000;1.734511
9508.000000;1.733650
9507.000000;1.729310
9506.000000;1.724287
9505.000000;1.720478
9504.000000;1.718119
9503.000000;1.716138
9502.000000;1.712970
9501.000000;1.708267
9500.000000;1.704183
9499.000000;1.704029
9498.000000;1.709030
9497.000000;1.716342
9496.000000;1.720921
9495.000000;1.720137
9494.000000;1.716069
9493.000000;1.712922
9492.000000;1.713057
9491.000000;1.715706
9490.000000;1.718637
9489.000000;1.720364
9488.000000;1.720497
9487.000000;1.718303
9486.000000;1.712480
9485.000000;1.703810
9484.000000;1.696911
9483.000000;1.697014
9482.000000;1.704725
9481.000000;1.714921
9480.000000;1.721359
9479.000000;1.722044
9478.000000;1.719099
9477.000000;1.714763
9476.000000;1.710037
9475.000000;1.706329
9474.000000;1.705489
9473.000000;1.707722
9472.000000;1.710867
9471.000000;1.712443
9470.000000;1.712050
9469.000000;1.711233
9468.000000;1.711202
9467.000000;1.711261
9466.000000;1.709783
9465.000000;1.706799
9464.000000;1.704832
9463.000000;1.706178
9462.000000;1.709692
9461.000000;1.711569
9460.000000;1.709698
9459.000000;1.706177
9458.000000;1.704576
9457.000000;1.705744
9456.000000;1.707479
9455.000000;1.707495
9454.000000;1.705421
9453.000000;1.702481
9452.000000;1.700540
9451.000000;1.701190
9450.000000;1.704486
9449.000000;1.708405
9448.000000;1.710382
9447.000000;1.709531
9446.000000;1.706802
9445.000000;1.703298
9444.000000;1.699373
9443.000000;1.695100
9442.000000;1.690875
9441.000000;1.687781
9440.000000;1.687387
9439.000000;1.690603
9438.000000;1.696346
9437.000000;1.701810
9436.000000;1.704853
9435.000000;1.705683
9434.000000;1.705210
9433.000000;1.702951
9432.000000;1.698322
9431.000000;1.692937
9430.000000;1.689702
9429.000000;1.689837
9428.000000;1.691990
9427.000000;1.694229
9426.000000;1.695965
9425.000000;1.697588
9424.000000;1.699479
9423.000000;1.701759
9422.000000;1.703516
9421.000000;1.703045
9420.000000;1.700145
9419.000000;1.697090
9418.000000;1.696457
9417.000000;1.697939
9416.000000;1.698230
9415.000000;1.694801
9414.000000;1.688590
9413.000000;1.682569
9412.000000;1.679375
9411.000000;1.680603
9410.000000;1.686385
9409.000000;1.694195
9408.000000;1.699175
9407.000000;1.697639
9406.000000;1.690401
9405.000000;1.681955
9404.000000;1.676987
9403.000000;1.677581
9402.000000;1.681955
9401.000000;1.685340
9400.000000;1.684103
9399.000000;1.680030
9398.000000;1.678729
9397.000000;1.683350
9396.000000;1.691347
9395.000000;1.697609
9394.000000;1.699490
9393.000000;1.697693
9392.000000;1.693872
9391.000000;1.689606
9390.000000;1.686502
9389.000000;1.685296
9388.000000;1.685428
9387.000000;1.686562
9386.000000;1.689526
9385.000000;1.694413
9384.000000;1.698727
9383.000000;1.699428
9382.000000;1.696714
9381.000000;1.693543
9380.000000;1.691625
9379.000000;1.690190
9378.000000;1.688411
9377.000000;1.687048
9376.000000;1.687089
9375.000000;1.688313
9374.000000;1.690115
9373.000000;1.692636
9372.000000;1.696201
9371.000000;1.700156
9370.000000;1.702864
9369.000000;1.702712
9368.000000;1.699028
9367.000000;1.692653
9366.000000;1.685981
9365.000000;1.681596
9364.000000;1.680266
9363.000000;1.680582
9362.000000;1.680783
9361.000000;1.680505
9360.000000;1.680400
9359.000000;1.680696
9358.000000;1.680932
9357.000000;1.680941
9356.000000;1.681295
9355.000000;1.682427
9354.000000;1.683525
9353.000000;1.682724
9352.000000;1.678965
9351.000000;1.673820
9350.000000;1.671042
9349.000000;1.673446
9348.000000;1.679542
9347.000000;1.683784
9346.000000;1.681630
9345.000000;1.674604
9344.000000;1.668660
9343.000000;1.667493
9342.000000;1.669221
9341.000000;1.669785
9340.000000;1.668376
9339.000000;1.667925
9338.000000;1.670595
9337.000000;1.674993
9336.000000;1.678352
9335.000000;1.679844
9334.000000;1.680405
9333.000000;1.680592
9332.000000;1.680293
9331.000000;1.679667
9330.000000;1.678944
9329.000000;1.677730
9328.000000;1.675756
9327.000000;1.673901
9326.000000;1.672975
9325.000000;1.671990
9324.000000;1.669466
9323.000000;1.666274
9322.000000;1.665042
9321.000000;1.666565
9320.000000;1.668907
9319.000000;1.670427
9318.000000;1.671628
9317.000000;1.673175
9316.000000;1.673882
9315.000000;1.672182
9314.000000;1.668506
9313.000000;1.664707
9312.000000;1.662313
9311.000000;1.662493
9310.000000;1.666200
9309.000000;1.672731
9308.000000;1.678767
9307.000000;1.680843
9306.000000;1.678857
9305.000000;1.675487
9304.000000;1.672633
9303.000000;1.670369
9302.000000;1.669074
9301.000000;1.670445
9300.000000;1.675516
9299.000000;1.682675
9298.000000;1.688479
9297.000000;1.690317
9296.000000;1.688117
9295.000000;1.683874
9294.000000;1.679929
9293.000000;1.677404
9292.000000;1.675857
9291.000000;1.674427
9290.000000;1.672982
9289.000000;1.671808
9288.000000;1.670849
9287.000000;1.670044
9286.000000;1.669708
9285.000000;1.669649
9284.000000;1.668457
9283.000000;1.664957
9282.000000;1.660336
9281.000000;1.657392
9280.000000;1.657535
9279.000000;1.659664
9278.000000;1.661941
9277.000000;1.663857
9276.000000;1.666339
9275.000000;1.670128
9274.000000;1.674120
9273.000000;1.675427
9272.000000;1.671901
9271.000000;1.664948
9270.000000;1.658815
9269.000000;1.656722
9268.000000;1.658341
9267.000000;1.661087
9266.000000;1.663097
9265.000000;1.664137
9264.000000;1.664284
9263.000000;1.663379
9262.000000;1.661965
9261.000000;1.661274
9260.000000;1.661703
9259.000000;1.662537
9258.000000;1.663207
9257.000000;1.663685
9256.000000;1.663804
9255.000000;1.663113
9254.000000;1.661778
9253.000000;1.660382
9252.000000;1.658560
9251.000000;1.655672
9250.000000;1.653062
9249.000000;1.653661
9248.000000;1.658385
9247.000000;1.664248
9246.000000;1.667171
9245.000000;1.665883
9244.000000;1.662029
9243.000000;1.657485
9242.000000;1.653451
9241.000000;1.651305
9240.000000;1.652062
9239.000000;1.654693
9238.000000;1.656460
9237.000000;1.655682
9236.000000;1.653416
9235.000000;1.651962
9234.000000;1.652457
9233.000000;1.654090
9232.000000;1.655054
9231.000000;1.654310
9230.000000;1.652868
9229.000000;1.653083
9228.000000;1.656285
9227.000000;1.661428
9226.000000;1.666430
9225.000000;1.670259
9224.000000;1.672731
9223.000000;1.672898
9222.000000;1.669594
9221.000000;1.663856
9220.000000;1.658881
9219.000000;1.656680
9218.000000;1.655983
9217.000000;1.654221
9216.000000;1.650975
9215.000000;1.648368
9214.000000;1.648414
9213.000000;1.651257
9212.000000;1.655522
9211.000000;1.659259
9210.000000;1.660778
9209.000000;1.659406
9208.000000;1.656002
9207.000000;1.652485
9206.000000;1.650429
9205.000000;1.650230
9204.000000;1.651398
9203.000000;1.653053
9202.000000;1.654074
9201.000000;1.653394
9200.000000;1.650933
9199.000000;1.647997
9198.000000;1.646082
9197.000000;1.645411
9196.000000;1.645078
9195.000000;1.644246
9194.000000;1.642706
9193.000000;1.640584
9192.000000;1.638154
9191.000000;1.636203
9190.000000;1.636152
9189.000000;1.639155
9188.000000;1.644829
9187.000000;1.651173
9186.000000;1.655863
9185.000000;1.657600
9184.000000;1.656578
9183.000000;1.654279
9182.000000;1.652612
9181.000000;1.652408
9180.000000;1.652665
9179.000000;1.651692
9178.000000;1.649066
9177.000000;1.646087
9176.000000;1.644139
9175.000000;1.643136
9174.000000;1.642008
9173.000000;1.640323
9172.000000;1.638915
9171.000000;1.638960
9170.000000;1.640706
9169.000000;1.643066
9168.000000;1.644384
9167.000000;1.643861
9166.000000;1.642206
9165.000000;1.640700
9164.000000;1.640032
9163.000000;1.640339
9162.000000;1.641552
9161.000000;1.642885
9160.000000;1.642657
9159.000000;1.640020
9158.000000;1.636754
9157.000000;1.635884
9156.000000;1.638209
9155.000000;1.641357
9154.000000;1.642715
9153.000000;1.642136
9152.000000;1.640833
9151.000000;1.638996
9150.000000;1.636139
9149.000000;1.633183
9148.000000;1.632438
9147.000000;1.635192
9146.000000;1.640423
9145.000000;1.646124
9144.000000;1.650973
9143.000000;1.654160
9142.000000;1.654300
9141.000000;1.649880
9140.000000;1.641351
9139.000000;1.632012
9138.000000;1.626000
9137.000000;1.625203
9136.000000;1.628014
9135.000000;1.630966
9134.000000;1.631661
9133.000000;1.630149
9132.000000;1.627705
9131.000000;1.625274
9130.000000;1.623567
9129.000000;1.623601
9128.000000;1.626073
9127.000000;1.630348
9126.000000;1.634759
9125.000000;1.637973
9124.000000;1.639728
9123.000000;1.640357
9122.000000;1.640123
9121.000000;1.639102
9120.000000;1.637338
9119.000000;1.635065
9118.000000;1.632913
9117.000000;1.631548
9116.000000;1.630797
9115.000000;1.629716
9114.000000;1.628202
9113.000000;1.627883
9112.000000;1.630304
9111.000000;1.634615
9110.000000;1.638150
9109.000000;1.639419
9108.000000;1.639502
9107.000000;1.640110
9106.000000;1.641290
9105.000000;1.641642
9104.000000;1.640085
9103.000000;1.636853
9102.000000;1.633188
9101.000000;1.630531
9100.000000;1.629704
9099.000000;1.630369
9098.000000;1.631310
9097.000000;1.631487
9096.000000;1.630862
9095.000000;1.630338
9094.000000;1.631193
9093.000000;1.634308
9092.000000;1.639256
9091.000000;1.643918
9090.000000;1.645550
9089.000000;1.642935
9088.000000;1.637568
9087.000000;1.632535
9086.000000;1.630366
9085.000000;1.631653
9084.000000;1.634916
9083.000000;1.637693
9082.000000;1.638399
9081.000000;1.637384
9080.000000;1.636022
9079.000000;1.635145
9078.000000;1.634858
9077.000000;1.635379
9076.000000;1.636831
9075.000000;1.638099
9074.000000;1.637242
9073.000000;1.633794
9072.000000;1.629707
9071.000000;1.627275
9070.000000;1.626980
9069.000000;1.627846
9068.000000;1.629037
9067.000000;1.630280
9066.000000;1.631213
9065.000000;1.631265
9064.000000;1.630156
9063.000000;1.628086
9062.000000;1.625636
9061.000000;1.623659
9060.000000;1.622760
9059.000000;1.622518
9058.000000;1.621935
9057.000000;1.621127
9056.000000;1.621538
9055.000000;1.623487
9054.000000;1.624546
9053.000000;1.622027
9052.000000;1.616881
9051.000000;1.613291
9050.000000;1.614235
9049.000000;1.618951
9048.000000;1.624855
9047.000000;1.630378
9046.000000;1.634877
9045.000000;1.637049
9044.000000;1.635427
9043.000000;1.630638
9042.000000;1.625816
9041.000000;1.624253
9040.000000;1.626908
9039.000000;1.631914
9038.000000;1.636094
9037.000000;1.637293
9036.000000;1.635819
9035.000000;1.633729
9034.000000;1.632626
9033.000000;1.632221
9032.000000;1.631106
9031.000000;1.628677
9030.000000;1.625892
9029.000000;1.624049
9028.000000;1.623329
9027.000000;1.622864
9026.000000;1.621975
9025.000000;1.620903
9024.000000;1.620290
9023.000000;1.620385
9022.000000;1.621004
9021.000000;1.621849
9020.000000;1.622374
9019.000000;1.621856
9018.000000;1.620445
9017.000000;1.619733
9016.000000;1.621338
9015.000000;1.624715
9014.000000;1.626983
9013.000000;1.625817
9012.000000;1.622279
9011.000000;1.619776
9010.000000;1.620587
9009.000000;1.624230
9008.000000;1.628633
9007.000000;1.631964
9006.000000;1.633479
9005.000000;1.633492
9004.000000;1.632805
9003.000000;1.631665
9002.000000;1.629301
9001.000000;1.625244
9000.000000;1.620962
8999.000000;1.619054
8998.000000;1.620607
8997.000000;1.624123
8996.000000;1.627226
8995.000000;1.628554
8994.000000;1.627654
8993.000000;1.624592
8992.000000;1.620436
8991.000000;1.616779
8990.000000;1.614107
8989.000000;1.611559
8988.000000;1.608887
8987.000000;1.607574
8986.000000;1.608953
8985.000000;1.612068
8984.000000;1.614509
8983.000000;1.614963
8982.000000;1.614012
8981.000000;1.612919
8980.000000;1.612906
8979.000000;1.615068
8978.000000;1.619271
8977.000000;1.623107
8976.000000;1.623763
8975.000000;1.621422
8974.000000;1.619032
8973.000000;1.618392
8972.000000;1.618342
8971.000000;1.617320
8970.000000;1.615921
8969.000000;1.615598
8968.000000;1.616235
8967.000000;1.616677
8966.000000;1.616899
8965.000000;1.617833
8964.000000;1.619294
8963.000000;1.619731
8962.000000;1.618433
8961.000000;1.616803
8960.000000;1.616699
8959.000000;1.618116
8958.000000;1.619182
8957.000000;1.618420
8956.000000;1.616572
8955.000000;1.615657
8954.000000;1.616313
8953.000000;1.616740
8952.000000;1.614801
8951.000000;1.610946
8950.000000;1.608086
8949.000000;1.608429
8948.000000;1.611432
8947.000000;1.615172
8946.000000;1.618684
8945.000000;1.621931
8944.000000;1.624184
8943.000000;1.624050
8942.000000;1.621358
8941.000000;1.617784
8940.000000;1.615020
8939.000000;1.613225
8938.000000;1.611646
8937.000000;1.610086
8936.000000;1.609242
8935.000000;1.609758
8934.000000;1.611223
8933.000000;1.612235
8932.000000;1.611721
8931.000000;1.610142
8930.000000;1.608916
8929.000000;1.608626
8928.000000;1.608489
8927.000000;1.607893
8926.000000;1.607569
8925.000000;1.608480
8924.000000;1.610285
8923.000000;1.611914
8922.000000;1.613112
8921.000000;1.614205
8920.000000;1.614709
8919.000000;1.613713
8918.000000;1.611664
8917.000000;1.610286
8916.000000;1.610427
8915.000000;1.611122
8914.000000;1.611131
8913.000000;1.610448
8912.000000;1.609850
8911.000000;1.609912
8910.000000;1.611046
8909.000000;1.613519
8908.000000;1.616602
8907.000000;1.618530
8906.000000;1.618264
8905.000000;1.616788
8904.000000;1.615820
8903.000000;1.615700
8902.000000;1.615383
8901.000000;1.613927
8900.000000;1.611312
8899.000000;1.608386
8898.000000;1.606694
8897.000000;1.607709
8896.000000;1.611211
8895.000000;1.614754
8894.000000;1.615790
8893.000000;1.614320
8892.000000;1.612456
8891.000000;1.611667
8890.000000;1.611622
8889.000000;1.611479
8888.000000;1.611062
8887.000000;1.610550
8886.000000;1.610027
8885.000000;1.609735
8884.000000;1.610102
8883.000000;1.611192
8882.000000;1.612574
8881.000000;1.613881
8880.000000;1.614956
8879.000000;1.615373
8878.000000;1.614620
8877.000000;1.613174
8876.000000;1.612632
8875.000000;1.614180
8874.000000;1.617212
8873.000000;1.619752
8872.000000;1.620122
8871.000000;1.618182
8870.000000;1.615343
8869.000000;1.613518
8868.000000;1.613589
8867.000000;1.614468
8866.000000;1.613922
8865.000000;1.610821
8864.000000;1.606420
8863.000000;1.603249
8862.000000;1.602981
8861.000000;1.605228
8860.000000;1.608016
8859.000000;1.609376
8858.000000;1.608854
8857.000000;1.607700
8856.000000;1.607514
8855.000000;1.608711
8854.000000;1.610379
8853.000000;1.611535
8852.000000;1.612117
8851.000000;1.612579
8850.000000;1.612896
8849.000000;1.612436
8848.000000;1.610826
8847.000000;1.608708
8846.000000;1.607370
8845.000000;1.607554
8844.000000;1.608773
8843.000000;1.609948
8842.000000;1.610778
8841.000000;1.611979
8840.000000;1.613917
8839.000000;1.615639
8838.000000;1.615873
8837.000000;1.614545
8836.000000;1.612588
8835.000000;1.610587
8834.000000;1.608461
8833.000000;1.606435
8832.000000;1.605262
8831.000000;1.605200
8830.000000;1.605622
8829.000000;1.606069
8828.000000;1.606929
8827.000000;1.608495
8826.000000;1.610067
8825.000000;1.610836
8824.000000;1.611245
8823.000000;1.612659
8822.000000;1.615721
8821.000000;1.619206
8820.000000;1.620729
8819.000000;1.619055
8818.000000;1.615429
8817.000000;1.612288
8816.000000;1.610723
8815.000000;1.609408
8814.000000;1.606538
8813.000000;1.602746
8812.000000;1.600815
8811.000000;1.602159
8810.000000;1.604771
8809.000000;1.605522
8808.000000;1.603884
8807.000000;1.602095
8806.000000;1.602100
8805.000000;1.603967
8804.000000;1.607125
8803.000000;1.611357
8802.000000;1.615797
8801.000000;1.618269
8800.000000;1.617271
8799.000000;1.614202
8798.000000;1.612133
8797.000000;1.612575
8796.000000;1.614478
8795.000000;1.616073
8794.000000;1.616656
8793.000000;1.616278
8792.000000;1.614708
8791.000000;1.611752
8790.000000;1.608262
8789.000000;1.605713
8788.000000;1.604708
8787.000000;1.604636
8786.000000;1.604845
8785.000000;1.605512
8784.000000;1.607233
8783.000000;1.610233
8782.000000;1.613991
8781.000000;1.617299
8780.000000;1.618703
8779.000000;1.617497
8778.000000;1.614634
8777.000000;1.612206
8776.000000;1.611564
8775.000000;1.612281
8774.000000;1.613320
8773.000000;1.614756
8772.000000;1.617398
8771.000000;1.620697
8770.000000;1.622235
8769.000000;1.620094
8768.000000;1.615183
8767.000000;1.610385
8766.000000;1.607703
8765.000000;1.606907
8764.000000;1.606865
8763.000000;1.607469
8762.000000;1.609597
8761.000000;1.613237
8760.000000;1.616363
8759.000000;1.616496
8758.000000;1.613514
8757.000000;1.610024
8756.000000;1.608597
8755.000000;1.609418
8754.000000;1.610965
8753.000000;1.612311
8752.000000;1.613845
8751.000000;1.615871
8750.000000;1.617658
8749.000000;1.618305
8748.000000;1.617786
8747.000000;1.616711
8746.000000;1.615597
8745.000000;1.614818
8744.000000;1.614826
8743.000000;1.615864
8742.000000;1.617605
8741.000000;1.619378
8740.000000;1.620729
8739.000000;1.621664
8738.000000;1.622484
8737.000000;1.623411
8736.000000;1.624230
8735.000000;1.624182
8734.000000;1.622586
8733.000000;1.619647
8732.000000;1.616109
8731.000000;1.612468
8730.000000;1.609119
8729.000000;1.607037
8728.000000;1.607404
8727.000000;1.610017
8726.000000;1.612769
8725.000000;1.613611
8724.000000;1.612832
8723.000000;1.612748
8722.000000;1.615189
8721.000000;1.619859
8720.000000;1.624941
8719.000000;1.628533
8718.000000;1.629486
8717.000000;1.627651
8716.000000;1.624101
8715.000000;1.620984
8714.000000;1.620497
8713.000000;1.623323
8712.000000;1.627625
8711.000000;1.629847
8710.000000;1.627548
8709.000000;1.621843
8708.000000;1.616396
8707.000000;1.613996
8706.000000;1.614568
8705.000000;1.616323
8704.000000;1.618079
8703.000000;1.619932
8702.000000;1.622192
8701.000000;1.624428
8700.000000;1.625661
8699.000000;1.625155
8698.000000;1.623100
8697.000000;1.620606
8696.000000;1.618754
8695.000000;1.617564
8694.000000;1.616360
8693.000000;1.615270
8692.000000;1.615615
8691.000000;1.618199
8690.000000;1.621746
8689.000000;1.623897
8688.000000;1.623706
8687.000000;1.622376
8686.000000;1.621498
8685.000000;1.621365
8684.000000;1.621149
8683.000000;1.620165
8682.000000;1.618847
8681.000000;1.618604
8680.000000;1.620487
8679.000000;1.623773
8678.000000;1.626182
8677.000000;1.626033
8676.000000;1.623941
8675.000000;1.621897
8674.000000;1.621175
8673.000000;1.621709
8672.000000;1.622844
8671.000000;1.623754
8670.000000;1.623490
8669.000000;1.621694
8668.000000;1.619280
8667.000000;1.617607
8666.000000;1.617134
8665.000000;1.617606
8664.000000;1.619097
8663.000000;1.621670
8662.000000;1.624102
8661.000000;1.624384
8660.000000;1.622077
8659.000000;1.619063
8658.000000;1.617409
8657.000000;1.617473
8656.000000;1.618448
8655.000000;1.619673
8654.000000;1.620706
8653.000000;1.620979
8652.000000;1.620387
8651.000000;1.619848
8650.000000;1.620502
8649.000000;1.622483
8648.000000;1.624832
8647.000000;1.626423
8646.000000;1.626793
8645.000000;1.626410
8644.000000;1.626315
8643.000000;1.627099
8642.000000;1.628139
8641.000000;1.628448
8640.000000;1.628228
8639.000000;1.628581
8638.000000;1.629473
8637.000000;1.629299
8636.000000;1.627172
8635.000000;1.624485
8634.000000;1.623159
8633.000000;1.623296
8632.000000;1.623739
8631.000000;1.624108
8630.000000;1.624817
8629.000000;1.625612
8628.000000;1.625634
8627.000000;1.624912
8626.000000;1.624416
8625.000000;1.624492
8624.000000;1.624591
8623.000000;1.624800
8622.000000;1.626085
8621.000000;1.628455
8620.000000;1.630215
8619.000000;1.629949
8618.000000;1.628496
8617.000000;1.627901
8616.000000;1.628965
8615.000000;1.630807
8614.000000;1.632393
8613.000000;1.633479
8612.000000;1.633910
8611.000000;1.633080
8610.000000;1.630682
8609.000000;1.627407
8608.000000;1.624481
8607.000000;1.622747
8606.000000;1.622218
8605.000000;1.622450
8604.000000;1.623143
8603.000000;1.624216
8602.000000;1.625399
8601.000000;1.626098
8600.000000;1.625916
8599.000000;1.625249
8598.000000;1.624861
8597.000000;1.624800
8596.000000;1.624307
8595.000000;1.623032
8594.000000;1.621878
8593.000000;1.622170
8592.000000;1.624078
8591.000000;1.626278
8590.000000;1.627296
8589.000000;1.626900
8588.000000;1.626069
8587.000000;1.625947
8586.000000;1.626922
8585.000000;1.628375
8584.000000;1.629119
8583.000000;1.628334
8582.000000;1.626228
8581.000000;1.623687
8580.000000;1.621332
8579.000000;1.619247
8578.000000;1.617766
8577.000000;1.618067
8576.000000;1.621216
8575.000000;1.626431
8574.000000;1.630826
8573.000000;1.631662
8572.000000;1.629042
8571.000000;1.625824
8570.000000;1.624749
8569.000000;1.626072
8568.000000;1.627819
8567.000000;1.627965
8566.000000;1.626347
8565.000000;1.624620
8564.000000;1.624435
8563.000000;1.625724
8562.000000;1.626901
8561.000000;1.626927
8560.000000;1.626624
8559.000000;1.627295
8558.000000;1.628761
8557.000000;1.629642
8556.000000;1.629270
8555.000000;1.628470
8554.000000;1.628210
8553.000000;1.628215
8552.000000;1.627478
8551.000000;1.625719
8550.000000;1.623865
8549.000000;1.623071
8548.000000;1.623477
8547.000000;1.624137
8546.000000;1.624140
8545.000000;1.623642
8544.000000;1.623747
8543.000000;1.625231
8542.000000;1.627411
8541.000000;1.628597
8540.000000;1.627799
8539.000000;1.625672
8538.000000;1.623615
8537.000000;1.622386
8536.000000;1.621889
8535.000000;1.621806
8534.000000;1.621942
8533.000000;1.622204
8532.000000;1.622770
8531.000000;1.624096
8530.000000;1.626198
8529.000000;1.628063
8528.000000;1.628369
8527.000000;1.626896
8526.000000;1.624767
8525.000000;1.623264
8524.000000;1.622895
8523.000000;1.623573
8522.000000;1.625022
8521.000000;1.626593
8520.000000;1.627123
8519.000000;1.625721
8518.000000;1.623013
8517.000000;1.621164
8516.000000;1.622035
8515.000000;1.625364
8514.000000;1.628951
8513.000000;1.630676
8512.000000;1.630198
8511.000000;1.628494
8510.000000;1.626314
8509.000000;1.623924
8508.000000;1.621999
8507.000000;1.621542
8506.000000;1.622587
8505.000000;1.623818
8504.000000;1.624075
8503.000000;1.623588
8502.000000;1.623109
8501.000000;1.622509
8500.000000;1.621186
8499.000000;1.619457
8498.000000;1.618570
8497.000000;1.619334
8496.000000;1.621499
8495.000000;1.624363
8494.000000;1.627246
8493.000000;1.629335
8492.000000;1.629920
8491.000000;1.629043
8490.000000;1.627349
8489.000000;1.625286
8488.000000;1.623096
8487.000000;1.621494
8486.000000;1.621426
8485.000000;1.622820
8484.000000;1.624275
8483.000000;1.624533
8482.000000;1.623633
8481.000000;1.622259
8480.000000;1.620814
8479.000000;1.619596
8478.000000;1.619081
8477.000000;1.619299
8476.000000;1.619438
8475.000000;1.618890
8474.000000;1.618436
8473.000000;1.619501
8472.000000;1.622205
8471.000000;1.624817
8470.000000;1.625412
8469.000000;1.623758
8468.000000;1.621465
8467.000000;1.620556
8466.000000;1.621865
8465.000000;1.624413
8464.000000;1.626222
8463.000000;1.625999
8462.000000;1.624153
8461.000000;1.622139
8460.000000;1.621089
8459.000000;1.621252
8458.000000;1.622301
8457.000000;1.623660
8456.000000;1.624580
8455.000000;1.624300
8454.000000;1.622430
8453.000000;1.619346
8452.000000;1.616376
8451.000000;1.615362
8450.000000;1.617257
8449.000000;1.620756
8448.000000;1.622898
8447.000000;1.621843
8446.000000;1.618822
8445.000000;1.616714
8444.000000;1.617051
8443.000000;1.619073
8442.000000;1.621319
8441.000000;1.623129
8440.000000;1.624431
8439.000000;1.625073
8438.000000;1.625040
8437.000000;1.624809
8436.000000;1.624844
8435.000000;1.624857
8434.000000;1.624026
8433.000000;1.621948
8432.000000;1.619239
8431.000000;1.617304
8430.000000;1.617419
8429.000000;1.619669
8428.000000;1.622586
8427.000000;1.624257
8426.000000;1.624126
8425.000000;1.623246
8424.000000;1.622792
8423.000000;1.623003
8422.000000;1.623469
8421.000000;1.623803
8420.000000;1.623791
8419.000000;1.623340
8418.000000;1.622611
8417.000000;1.621941
8416.000000;1.621526
8415.000000;1.621336
8414.000000;1.621325
8413.000000;1.621365
8412.000000;1.620919
8411.000000;1.619434
8410.000000;1.617459
8409.000000;1.616699
8408.000000;1.618279
8407.000000;1.621284
8406.000000;1.623652
8405.000000;1.624320
8404.000000;1.623725
8403.000000;1.622448
8402.000000;1.620615
8401.000000;1.618855
8400.000000;1.618665
8399.000000;1.620940
8398.000000;1.624653
8397.000000;1.627777
8396.000000;1.629356
8395.000000;1.629991
8394.000000;1.630472
8393.000000;1.630676
8392.000000;1.629952
8391.000000;1.628204
8390.000000;1.626104
8389.000000;1.624350
8388.000000;1.623150
8387.000000;1.622468
8386.000000;1.622330
8385.000000;1.622565
8384.000000;1.622437
8383.000000;1.621134
8382.000000;1.618815
8381.000000;1.616741
8380.000000;1.615984
8379.000000;1.616349
8378.000000;1.616981
8377.000000;1.617742
8376.000000;1.619306
8375.000000;1.621777
8374.000000;1.623909
8373.000000;1.624250
8372.000000;1.622774
8371.000000;1.620884
8370.000000;1.620069
8369.000000;1.620939
8368.000000;1.623219
8367.000000;1.626039
8366.000000;1.628212
8365.000000;1.628763
8364.000000;1.627545
8363.000000;1.625230
8362.000000;1.622688
8361.000000;1.620649
8360.000000;1.619832
8359.000000;1.620773
8358.000000;1.623210
8357.000000;1.625913
8356.000000;1.627498
8355.000000;1.627464
8354.000000;1.626301
8353.000000;1.624861
8352.000000;1.623970
8351.000000;1.624277
8350.000000;1.625825
8349.000000;1.627645
8348.000000;1.628369
8347.000000;1.627639
8346.000000;1.626604
8345.000000;1.626606
8344.000000;1.627620
8343.000000;1.628379
8342.000000;1.627883
8341.000000;1.626232
8340.000000;1.623974
8339.000000;1.621450
8338.000000;1.619206
8337.000000;1.618334
8336.000000;1.619572
8335.000000;1.622134
8334.000000;1.624103
8333.000000;1.624234
8332.000000;1.622980
8331.000000;1.621612
8330.000000;1.620906
8329.000000;1.620980
8328.000000;1.621774
8327.000000;1.623051
8326.000000;1.624119
8325.000000;1.624174
8324.000000;1.623093
8323.000000;1.621688
8322.000000;1.621056
8321.000000;1.621652
8320.000000;1.622886
8319.000000;1.623663
8318.000000;1.623436
8317.000000;1.622736
8316.000000;1.622538
8315.000000;1.623177
8314.000000;1.624176
8313.000000;1.625125
8312.000000;1.626193
8311.000000;1.627426
8310.000000;1.627939
8309.000000;1.626520
8308.000000;1.623220
8307.000000;1.619851
8306.000000;1.618583
8305.000000;1.620186
8304.000000;1.623521
8303.000000;1.626410
8302.000000;1.627151
8301.000000;1.625614
8300.000000;1.623159
8299.000000;1.621499
8298.000000;1.621411
8297.000000;1.622369
8296.000000;1.623343
8295.000000;1.623788
8294.000000;1.623918
8293.000000;1.624359
8292.000000;1.625611
8291.000000;1.627561
8290.000000;1.629300
8289.000000;1.629570
8288.000000;1.627780
8287.000000;1.624732
8286.000000;1.622125
8285.000000;1.621134
8284.000000;1.621418
8283.000000;1.621633
8282.000000;1.620936
8281.000000;1.619742
8280.000000;1.618904
8279.000000;1.618622
8278.000000;1.618577
8277.000000;1.618852
8276.000000;1.620025
8275.000000;1.622172
8274.000000;1.624335
8273.000000;1.625356
8272.000000;1.624971
8271.000000;1.623762
8270.000000;1.622369
8269.000000;1.621212
8268.000000;1.620695
8267.000000;1.621000
8266.000000;1.621607
8265.000000;1.621509
8264.000000;1.620153
8263.000000;1.618010
8262.000000;1.616187
8261.000000;1.615588
8260.000000;1.616337
8259.000000;1.617711
8258.000000;1.618711
8257.000000;1.619004
8256.000000;1.619254
8255.000000;1.620228
8254.000000;1.621657
8253.000000;1.622395
8252.000000;1.621728
8251.000000;1.620096
8250.000000;1.618370
8249.000000;1.616893
8248.000000;1.615549
8247.000000;1.614490
8246.000000;1.614256
8245.000000;1.615151
8244.000000;1.616733
8243.000000;1.617992
8242.000000;1.618174
8241.000000;1.617541
8240.000000;1.617074
8239.000000;1.617312
8238.000000;1.617737
8237.000000;1.617532
8236.000000;1.616784
8235.000000;1.616541
8234.000000;1.617690
8233.000000;1.620120
8232.000000;1.622911
8231.000000;1.624891
8230.000000;1.624935
8229.000000;1.622583
8228.000000;1.618916
8227.000000;1.616196
8226.000000;1.615940
8225.000000;1.617512
8224.000000;1.618963
8223.000000;1.619123
8222.000000;1.618439
8221.000000;1.617900
8220.000000;1.617851
8219.000000;1.618092
8218.000000;1.618546
8217.000000;1.619348
8216.000000;1.620435
8215.000000;1.621367
8214.000000;1.621656
8213.000000;1.621170
8212.000000;1.620255
8211.000000;1.619440
8210.000000;1.618926
8209.000000;1.618435
8208.000000;1.617757
8207.000000;1.617270
8206.000000;1.617559
8205.000000;1.618566
8204.000000;1.619539
8203.000000;1.619869
8202.000000;1.619588
8201.000000;1.618873
8200.000000;1.617584
8199.000000;1.615764
8198.000000;1.614284
8197.000000;1.614322
8196.000000;1.615981
8195.000000;1.617839
8194.000000;1.618247
8193.000000;1.617029
8192.000000;1.615619
8191.000000;1.615599
8190.000000;1.617360
8189.000000;1.620105
8188.000000;1.622749
8187.000000;1.624611
8186.000000;1.625371
8185.000000;1.624812
8184.000000;1.622960
8183.000000;1.620389
8182.000000;1.618073
8181.000000;1.616815
8180.000000;1.616799
8179.000000;1.617594
8178.000000;1.618513
8177.000000;1.619024
8176.000000;1.619024
8175.000000;1.618930
8174.000000;1.619360
8173.000000;1.620486
8172.000000;1.621663
8171.000000;1.621942
8170.000000;1.621054
8169.000000;1.619637
8168.000000;1.618398
8167.000000;1.617462
8166.000000;1.616819
8165.000000;1.616980
8164.000000;1.618521
8163.000000;1.620983
8162.000000;1.622883
8161.000000;1.623170
8160.000000;1.622210
8159.000000;1.620935
8158.000000;1.619613
8157.000000;1.618068
8156.000000;1.616603
8155.000000;1.615866
8154.000000;1.615959
8153.000000;1.616513
8152.000000;1.617596
8151.000000;1.619633
8150.000000;1.622200
8149.000000;1.623808
8148.000000;1.623477
8147.000000;1.621922
8146.000000;1.620563
8145.000000;1.619886
8144.000000;1.619400
8143.000000;1.618777
8142.000000;1.618213
8141.000000;1.617865
8140.000000;1.617650
8139.000000;1.617573
8138.000000;1.617758
8137.000000;1.618165
8136.000000;1.618660
8135.000000;1.619333
8134.000000;1.620297
8133.000000;1.621177
8132.000000;1.621279
8131.000000;1.620384
8130.000000;1.618989
8129.000000;1.617698
8128.000000;1.616763
8127.000000;1.616272
8126.000000;1.616354
8125.000000;1.616977
8124.000000;1.617885
8123.000000;1.618930
8122.000000;1.620163
8121.000000;1.621387
8120.000000;1.621927
8119.000000;1.621265
8118.000000;1.619777
8117.000000;1.618439
8116.000000;1.617958
8115.000000;1.618405
8114.000000;1.619491
8113.000000;1.620951
8112.000000;1.622573
8111.000000;1.623965
8110.000000;1.624509
8109.000000;1.623804
8108.000000;1.622209
8107.000000;1.620703
8106.000000;1.619960
8105.000000;1.619758
8104.000000;1.619513
8103.000000;1.619169
8102.000000;1.619108
8101.000000;1.619251
8100.000000;1.618922
8099.000000;1.617835
8098.000000;1.616746
8097.000000;1.616737
8096.000000;1.618184
8095.000000;1.620601
8094.000000;1.623157
8093.000000;1.625035
8092.000000;1.625632
8091.000000;1.624946
8090.000000;1.623702
8089.000000;1.622760
8088.000000;1.622393
8087.000000;1.622330
8086.000000;1.622335
8085.000000;1.622383
8084.000000;1.622378
8083.000000;1.622066
8082.000000;1.621263
8081.000000;1.620040
8080.000000;1.618802
8079.000000;1.618292
8078.000000;1.619165
8077.000000;1.621199
8076.000000;1.623093
8075.000000;1.623591
8074.000000;1.622872
8073.000000;1.622347
8072.000000;1.622971
8071.000000;1.624182
8070.000000;1.624673
8069.000000;1.623874
8068.000000;1.622392
8067.000000;1.621190
8066.000000;1.620655
8065.000000;1.620406
8064.000000;1.619797
8063.000000;1.618685
8062.000000;1.617742
8061.000000;1.617847
8060.000000;1.619069
8059.000000;1.620499
8058.000000;1.621183
8057.000000;1.621007
8056.000000;1.620565
8055.000000;1.620386
8054.000000;1.620488
8053.000000;1.620543
8052.000000;1.620278
8051.000000;1.619730
8050.000000;1.619247
8049.000000;1.619153
8048.000000;1.619374
8047.000000;1.619537
8046.000000;1.619466
8045.000000;1.619294
8044.000000;1.619018
8043.000000;1.618411
8042.000000;1.617686
8041.000000;1.617807
8040.000000;1.619506
8039.000000;1.622099
8038.000000;1.623852
8037.000000;1.623652
8036.000000;1.621912
8035.000000;1.619809
8034.000000;1.618175
8033.000000;1.617255
8032.000000;1.616943
8031.000000;1.616843
8030.000000;1.616506
8029.000000;1.615991
8028.000000;1.615939
8027.000000;1.616790
8026.000000;1.618106
8025.000000;1.618916
8024.000000;1.618618
8023.000000;1.617380
8022.000000;1.615894
8021.000000;1.614976
8020.000000;1.615190
8019.000000;1.616446
8018.000000;1.617948
8017.000000;1.618857
8016.000000;1.619010
8015.000000;1.618775
8014.000000;1.618347
8013.000000;1.617596
8012.000000;1.616530
8011.000000;1.615463
8010.000000;1.614715
8009.000000;1.614469
8008.000000;1.614860
8007.000000;1.615798
8006.000000;1.616646
8005.000000;1.616574
8004.000000;1.615573
8003.000000;1.614819
8002.000000;1.615565
8001.000000;1.617784
8000.000000;1.620173
7999.000000;1.621450
7998.000000;1.621423
7997.000000;1.620743
7996.000000;1.619995
7995.000000;1.619364
7994.000000;1.618963
7993.000000;1.619003
7992.000000;1.619425
7991.000000;1.619628
7990.000000;1.619001
7989.000000;1.617755
7988.000000;1.616932
7987.000000;1.617363
7986.000000;1.618803
7985.000000;1.620264
7984.000000;1.621047
7983.000000;1.621244
7982.000000;1.621368
7981.000000;1.621785
7980.000000;1.622531
7979.000000;1.623376
7978.000000;1.623952
7977.000000;1.623960
7976.000000;1.623367
7975.000000;1.622336
7974.000000;1.621025
7973.000000;1.619583
7972.000000;1.618273
7971.000000;1.617396
7970.000000;1.617064
7969.000000;1.617235
7968.000000;1.617908
7967.000000;1.619079
7966.000000;1.620445
7965.000000;1.621395
7964.000000;1.621460
7963.000000;1.620668
7962.000000;1.619401
7961.000000;1.618069
7960.000000;1.617005
7959.000000;1.616564
7958.000000;1.617154
7957.000000;1.618992
7956.000000;1.621578
7955.000000;1.623468
7954.000000;1.623159
7953.000000;1.620689
7952.000000;1.617971
7951.000000;1.616935
7950.000000;1.617535
7949.000000;1.618116
7948.000000;1.617672
7947.000000;1.616970
7946.000000;1.617213
7945.000000;1.618385
7944.000000;1.619530
7943.000000;1.620153
7942.000000;1.620661
7941.000000;1.621527
7940.000000;1.622600
7939.000000;1.623257
7938.000000;1.622941
7937.000000;1.621627
7936.000000;1.620000
7935.000000;1.619033
7934.000000;1.619097
7933.000000;1.619591
7932.000000;1.619643
7931.000000;1.619031
7930.000000;1.618165
7929.000000;1.617480
7928.000000;1.617181
7927.000000;1.617342
7926.000000;1.617836
7925.000000;1.618371
7924.000000;1.618977
7923.000000;1.620170
7922.000000;1.622125
7921.000000;1.623836
7920.000000;1.623808
7919.000000;1.621741
7918.000000;1.618932
7917.000000;1.616928
7916.000000;1.616354
7915.000000;1.617055
7914.000000;1.618589
7913.000000;1.620219
7912.000000;1.621032
7911.000000;1.620739
7910.000000;1.620127
7909.000000;1.620172
7908.000000;1.620834
7907.000000;1.621156
7906.000000;1.620471
7905.000000;1.619107
7904.000000;1.617861
7903.000000;1.617144
7902.000000;1.616888
7901.000000;1.617010
7900.000000;1.617591
7899.000000;1.618593
7898.000000;1.619686
7897.000000;1.620436
7896.000000;1.620547
7895.000000;1.619893
7894.000000;1.618507
7893.000000;1.616785
7892.000000;1.615573
7891.000000;1.615632
7890.000000;1.616852
7889.000000;1.618228
7888.000000;1.618836
7887.000000;1.618695
7886.000000;1.618444
7885.000000;1.618440
7884.000000;1.618547
7883.000000;1.618666
7882.000000;1.619013
7881.000000;1.619730
7880.000000;1.620497
7879.000000;1.620754
7878.000000;1.620252
7877.000000;1.619360
7876.000000;1.618784
7875.000000;1.618924
7874.000000;1.619450
7873.000000;1.619680
7872.000000;1.619487
7871.000000;1.619547
7870.000000;1.620428
7869.000000;1.621729
7868.000000;1.622556
7867.000000;1.622627
7866.000000;1.622382
7865.000000;1.622063
7864.000000;1.621371
7863.000000;1.620209
7862.000000;1.619114
7861.000000;1.618635
7860.000000;1.618711
7859.000000;1.618984
7858.000000;1.619337
7857.000000;1.619806
7856.000000;1.620304
7855.000000;1.620804
7854.000000;1.621484
7853.000000;1.622253
7852.000000;1.622464
7851.000000;1.621654
7850.000000;1.620494
7849.000000;1.620336
7848.000000;1.621646
7847.000000;1.623343
7846.000000;1.624006
7845.000000;1.623482
7844.000000;1.622915
7843.000000;1.623310
7842.000000;1.624448
7841.000000;1.625217
7840.000000;1.624788
7839.000000;1.623329
7838.000000;1.621687
7837.000000;1.620607
7836.000000;1.620293
7835.000000;1.620447
7834.000000;1.620521
7833.000000;1.620081
7832.000000;1.619187
7831.000000;1.618459
7830.000000;1.618577
7829.000000;1.619631
7828.000000;1.621033
7827.000000;1.622028
7826.000000;1.622238
7825.000000;1.621851
7824.000000;1.621455
7823.000000;1.621638
7822.000000;1.622487
7821.000000;1.623410
7820.000000;1.623746
7819.000000;1.623539
7818.000000;1.623407
7817.000000;1.623686
7816.000000;1.624149
7815.000000;1.624609
7814.000000;1.625230
7813.000000;1.625991
7812.000000;1.626314
7811.000000;1.625728
7810.000000;1.624622
7809.000000;1.623862
7808.000000;1.623823
7807.000000;1.624256
7806.000000;1.624915
7805.000000;1.625753
7804.000000;1.626452
7803.000000;1.626393
7802.000000;1.625432
7801.000000;1.624275
7800.000000;1.623709
7799.000000;1.623726
7798.000000;1.623768
7797.000000;1.623714
7796.000000;1.624119
7795.000000;1.625333
7794.000000;1.626750
7793.000000;1.627282
7792.000000;1.626508
7791.000000;1.625048
7790.000000;1.623784
7789.000000;1.623041
7788.000000;1.622703
7787.000000;1.622767
7786.000000;1.623335
7785.000000;1.624159
7784.000000;1.624693
7783.000000;1.624786
7782.000000;1.624944
7781.000000;1.625632
7780.000000;1.626525
7779.000000;1.626799
7778.000000;1.626097
7777.000000;1.624937
7776.000000;1.624152
7775.000000;1.624170
7774.000000;1.624821
7773.000000;1.625637
7772.000000;1.626256
7771.000000;1.626647
7770.000000;1.627026
7769.000000;1.627514
7768.000000;1.627936
7767.000000;1.628029
7766.000000;1.627756
7765.000000;1.627387
7764.000000;1.627322
7763.000000;1.627825
7762.000000;1.628841
7761.000000;1.629937
7760.000000;1.630463
7759.000000;1.629959
7758.000000;1.628513
7757.000000;1.626742
7756.000000;1.625396
7755.000000;1.624920
7754.000000;1.625214
7753.000000;1.625701
7752.000000;1.625738
7751.000000;1.625162
7750.000000;1.624445
7749.000000;1.624296
7748.000000;1.625087
7747.000000;1.626613
7746.000000;1.628242
7745.000000;1.629311
7744.000000;1.629569
7743.000000;1.629346
7742.000000;1.629166
7741.000000;1.629142
7740.000000;1.628902
7739.000000;1.628251
7738.000000;1.627718
7737.000000;1.628066
7736.000000;1.629273
7735.000000;1.630291
7734.000000;1.629977
7733.000000;1.628229
7732.000000;1.626166
7731.000000;1.625224
7730.000000;1.626034
7729.000000;1.627961
7728.000000;1.629666
7727.000000;1.630243
7726.000000;1.629899
7725.000000;1.629498
7724.000000;1.629554
7723.000000;1.629857
7722.000000;1.630026
7721.000000;1.630132
7720.000000;1.630596
7719.000000;1.631571
7718.000000;1.632633
7717.000000;1.633128
7716.000000;1.632773
7715.000000;1.631840
7714.000000;1.630825
7713.000000;1.630056
7712.000000;1.629573
7711.000000;1.629180
7710.000000;1.628588
7709.000000;1.627667
7708.000000;1.626682
7707.000000;1.626215
7706.000000;1.626687
7705.000000;1.627912
7704.000000;1.629291
7703.000000;1.630383
7702.000000;1.631037
7701.000000;1.631050
7700.000000;1.630190
7699.000000;1.628786
7698.000000;1.627936
7697.000000;1.628678
7696.000000;1.630938
7695.000000;1.633481
7694.000000;1.634863
7693.000000;1.634458
7692.000000;1.632758
7691.000000;1.630914
7690.000000;1.629882
7689.000000;1.629772
7688.000000;1.629991
7687.000000;1.630111
7686.000000;1.630457
7685.000000;1.631691
7684.000000;1.633914
7683.000000;1.636382
7682.000000;1.638014
7681.000000;1.638013
7680.000000;1.636212
7679.000000;1.633254
7678.000000;1.630446
7677.000000;1.629039
7676.000000;1.629373
7675.000000;1.630758
7674.000000;1.632213
7673.000000;1.633184
7672.000000;1.633586
7671.000000;1.633481
7670.000000;1.633018
7669.000000;1.632559
7668.000000;1.632585
7667.000000;1.633328
7666.000000;1.634513
7665.000000;1.635566
7664.000000;1.636104
7663.000000;1.636216
7662.000000;1.636202
7661.000000;1.636119
7660.000000;1.635752
7659.000000;1.635073
7658.000000;1.634562
7657.000000;1.634834
7656.000000;1.635943
7655.000000;1.637197
7654.000000;1.637737
7653.000000;1.637273
7652.000000;1.636233
7651.000000;1.635225
7650.000000;1.634503
7649.000000;1.634050
7648.000000;1.634087
7647.000000;1.635139
7646.000000;1.637328
7645.000000;1.639809
7644.000000;1.641324
7643.000000;1.641391
7642.000000;1.640584
7641.000000;1.639591
7640.000000;1.638483
7639.000000;1.637140
7638.000000;1.635923
7637.000000;1.635484
7636.000000;1.636110
7635.000000;1.637611
7634.000000;1.639627
7633.000000;1.641657
7632.000000;1.643005
7631.000000;1.643165
7630.000000;1.642295
7629.000000;1.641026
7628.000000;1.639909
7627.000000;1.639297
7626.000000;1.639508
7625.000000;1.640588
7624.000000;1.641950
7623.000000;1.642738
7622.000000;1.642670
7621.000000;1.642227
7620.000000;1.642030
7619.000000;1.642368
7618.000000;1.643236
7617.000000;1.644291
7616.000000;1.644741
7615.000000;1.643933
7614.000000;1.642294
7613.000000;1.641177
7612.000000;1.641430
7611.000000;1.642471
7610.000000;1.643068
7609.000000;1.642775
7608.000000;1.642256
7607.000000;1.642361
7606.000000;1.643244
7605.000000;1.644325
7604.000000;1.644941
7603.000000;1.645034
7602.000000;1.645202
7601.000000;1.645927
7600.000000;1.646853
7599.000000;1.647227
7598.000000;1.647061
7597.000000;1.647295
7596.000000;1.648512
7595.000000;1.650012
7594.000000;1.650618
7593.000000;1.650074
7592.000000;1.649100
7591.000000;1.648313
7590.000000;1.647786
7589.000000;1.647586
7588.000000;1.648038
7587.000000;1.649229
7586.000000;1.650722
7585.000000;1.651996
7584.000000;1.652827
7583.000000;1.653061
7582.000000;1.652454
7581.000000;1.651176
7580.000000;1.650150
7579.000000;1.650335
7578.000000;1.651646
7577.000000;1.652962
7576.000000;1.653313
7575.000000;1.652816
7574.000000;1.652264
7573.000000;1.652134
7572.000000;1.652334
7571.000000;1.652756
7570.000000;1.653552
7569.000000;1.654697
7568.000000;1.655644
7567.000000;1.655778
7566.000000;1.655062
7565.000000;1.653931
7564.000000;1.652691
7563.000000;1.651420
7562.000000;1.650478
7561.000000;1.650590
7560.000000;1.652087
7559.000000;1.654300
7558.000000;1.656073
7557.000000;1.656886
7556.000000;1.657207
7555.000000;1.657699
7554.000000;1.658355
7553.000000;1.658606
7552.000000;1.658181
7551.000000;1.657618
7550.000000;1.657769
7549.000000;1.658864
7548.000000;1.660267
7547.000000;1.661250
7546.000000;1.661795
7545.000000;1.662387
7544.000000;1.663166
7543.000000;1.663672
7542.000000;1.663445
7541.000000;1.662525
7540.000000;1.661274
7539.000000;1.660050
7538.000000;1.659302
7537.000000;1.659619
7536.000000;1.661274
7535.000000;1.663718
7534.000000;1.665769
7533.000000;1.666427
7532.000000;1.665591
7531.000000;1.664126
7530.000000;1.663283
7529.000000;1.663804
7528.000000;1.665308
7527.000000;1.666576
7526.000000;1.666605
7525.000000;1.665436
7524.000000;1.663975
7523.000000;1.663198
7522.000000;1.663565
7521.000000;1.664873
7520.000000;1.666406
7519.000000;1.667454
7518.000000;1.667931
7517.000000;1.668313
7516.000000;1.668804
7515.000000;1.668899
7514.000000;1.668146
7513.000000;1.667046
7512.000000;1.666674
7511.000000;1.667443
7510.000000;1.668683
7509.000000;1.669483
7508.000000;1.669599
7507.000000;1.669426
7506.000000;1.669480
7505.000000;1.670062
7504.000000;1.671185
7503.000000;1.672494
7502.000000;1.673537
7501.000000;1.673929
7500.000000;1.673727
7499.000000;1.673117
7498.000000;1.672334
7497.000000;1.672074
7496.000000;1.672969
7495.000000;1.674898
7494.000000;1.676824
7493.000000;1.677787
7492.000000;1.677864
7491.000000;1.677910
7490.000000;1.678451
7489.000000;1.679161
7488.000000;1.679392
7487.000000;1.678892
7486.000000;1.677887
7485.000000;1.676748
7484.000000;1.675783
7483.000000;1.675241
7482.000000;1.675251
7481.000000;1.675667
7480.000000;1.676132
7479.000000;1.676451
7478.000000;1.676898
7477.000000;1.677957
7476.000000;1.679678
7475.000000;1.681400
7474.000000;1.682267
7473.000000;1.682022
7472.000000;1.681204
7471.000000;1.680553
7470.000000;1.680322
7469.000000;1.680203
7468.000000;1.679882
7467.000000;1.679605
7466.000000;1.680062
7465.000000;1.681629
7464.000000;1.683821
7463.000000;1.685730
7462.000000;1.686998
7461.000000;1.688020
7460.000000;1.689048
7459.000000;1.689569
7458.000000;1.688985
7457.000000;1.687636
7456.000000;1.686598
7455.000000;1.686502
7454.000000;1.687010
7453.000000;1.687510
7452.000000;1.687927
7451.000000;1.688589
7450.000000;1.689566
7449.000000;1.690432
7448.000000;1.690653
7447.000000;1.690090
7446.000000;1.689157
7445.000000;1.688533
7444.000000;1.688629
7443.000000;1.689273
7442.000000;1.689984
7441.000000;1.690504
7440.000000;1.690884
7439.000000;1.691134
7438.000000;1.691119
7437.000000;1.690887
7436.000000;1.690821
7435.000000;1.691251
7434.000000;1.692141
7433.000000;1.693277
7432.000000;1.694477
7431.000000;1.695407
7430.000000;1.695524
7429.000000;1.694623
7428.000000;1.693326
7427.000000;1.692611
7426.000000;1.692847
7425.000000;1.693556
7424.000000;1.694120
7423.000000;1.694421
7422.000000;1.694696
7421.000000;1.695089
7420.000000;1.695576
7419.000000;1.696164
7418.000000;1.696832
7417.000000;1.697301
7416.000000;1.697104
7415.000000;1.696091
7414.000000;1.694767
7413.000000;1.693949
7412.000000;1.694117
7411.000000;1.695178
7410.000000;1.696799
7409.000000;1.698785
7408.000000;1.701025
7407.000000;1.703222
7406.000000;1.704895
7405.000000;1.705679
7404.000000;1.705519
7403.000000;1.704625
7402.000000;1.703395
7401.000000;1.702370
7400.000000;1.702065
7399.000000;1.702678
7398.000000;1.704018
7397.000000;1.705659
7396.000000;1.707037
7395.000000;1.707508
7394.000000;1.706812
7393.000000;1.705567
7392.000000;1.704899
7391.000000;1.705327
7390.000000;1.706291
7389.000000;1.706962
7388.000000;1.707200
7387.000000;1.707357
7386.000000;1.707523
7385.000000;1.707518
7384.000000;1.707481
7383.000000;1.707892
7382.000000;1.708884
7381.000000;1.709931
7380.000000;1.710441
7379.000000;1.710385
7378.000000;1.710101
7377.000000;1.709740
7376.000000;1.709249
7375.000000;1.708775
7374.000000;1.708633
7373.000000;1.708880
7372.000000;1.709278
7371.000000;1.709730
7370.000000;1.710425
7369.000000;1.711451
7368.000000;1.712504
7367.000000;1.713181
7366.000000;1.713503
7365.000000;1.713892
7364.000000;1.714554
7363.000000;1.715114
7362.000000;1.715008
7361.000000;1.714124
7360.000000;1.712939
7359.000000;1.712105
7358.000000;1.712056
7357.000000;1.712848
7356.000000;1.714104
7355.000000;1.715148
7354.000000;1.715505
7353.000000;1.715451
7352.000000;1.715839
7351.000000;1.717221
7350.000000;1.719248
7349.000000;1.721089
7348.000000;1.722283
7347.000000;1.722921
7346.000000;1.723135
7345.000000;1.722850
7344.000000;1.722205
7343.000000;1.721772
7342.000000;1.722006
7341.000000;1.722685
7340.000000;1.723120
7339.000000;1.722876
7338.000000;1.722138
7337.000000;1.721374
7336.000000;1.720870
7335.000000;1.720691
7334.000000;1.720860
7333.000000;1.721408
7332.000000;1.722307
7331.000000;1.723379
7330.000000;1.724332
7329.000000;1.724916
7328.000000;1.725029
7327.000000;1.724740
7326.000000;1.724316
7325.000000;1.724196
7324.000000;1.724854
7323.000000;1.726431
7322.000000;1.728452
7321.000000;1.730089
7320.000000;1.730801
7319.000000;1.730685
7318.000000;1.730239
7317.000000;1.729937
7316.000000;1.729993
7315.000000;1.730425
7314.000000;1.731281
7313.000000;1.732627
7312.000000;1.734238
7311.000000;1.735523
7310.000000;1.735995
7309.000000;1.735807
7308.000000;1.735617
7307.000000;1.735968
7306.000000;1.736879
7305.000000;1.738012
7304.000000;1.739125
7303.000000;1.740242
7302.000000;1.741338
7301.000000;1.742117
7300.000000;1.742289
7299.000000;1.741974
7298.000000;1.741677
7297.000000;1.741820
7296.000000;1.742322
7295.000000;1.742708
7294.000000;1.742671
7293.000000;1.742424
7292.000000;1.742368
7291.000000;1.742609
7290.000000;1.742952
7289.000000;1.743291
7288.000000;1.743832
7287.000000;1.744857
7286.000000;1.746298
7285.000000;1.747688
7284.000000;1.748668
7283.000000;1.749450
7282.000000;1.750574
7281.000000;1.752251
7280.000000;1.754047
7279.000000;1.755254
7278.000000;1.755513
7277.000000;1.755027
7276.000000;1.754301
7275.000000;1.753829
7274.000000;1.754016
7273.000000;1.755093
7272.000000;1.756897
7271.000000;1.758841
7270.000000;1.760364
7269.000000;1.761530
7268.000000;1.762992
7267.000000;1.765188
7266.000000;1.767633
7265.000000;1.769274
7264.000000;1.769614
7263.000000;1.769320
7262.000000;1.769567
7261.000000;1.770908
7260.000000;1.772829
7259.000000;1.774325
7258.000000;1.774841
7257.000000;1.774709
7256.000000;1.774765
7255.000000;1.775561
7254.000000;1.776927
7253.000000;1.778355
7252.000000;1.779764
7251.000000;1.781620
7250.000000;1.784244
7249.000000;1.787196
7248.000000;1.789632
7247.000000;1.791332
7246.000000;1.792874
7245.000000;1.794669
7244.000000;1.796295
7243.000000;1.797072
7242.000000;1.797107
7241.000000;1.797286
7240.000000;1.798209
7239.000000;1.799613
7238.000000;1.800853
7237.000000;1.801785
7236.000000;1.802976
7235.000000;1.804864
7234.000000;1.807101
7233.000000;1.808982
7232.000000;1.810285
7231.000000;1.811452
7230.000000;1.813093
7229.000000;1.815470
7228.000000;1.818400
7227.000000;1.821479
7226.000000;1.824296
7225.000000;1.826576
7224.000000;1.828377
7223.000000;1.830169
7222.000000;1.832471
7221.000000;1.835192
7220.000000;1.837529
7219.000000;1.838817
7218.000000;1.839381
7217.000000;1.840218
7216.000000;1.841896
7215.000000;1.844147
7214.000000;1.846573
7213.000000;1.849377
7212.000000;1.853042
7211.000000;1.857412
7210.000000;1.861527
7209.000000;1.864555
7208.000000;1.866603
7207.000000;1.868465
7206.000000;1.870727
7205.000000;1.873287
7204.000000;1.875689
7203.000000;1.877682
7202.000000;1.879479
7201.000000;1.881590
7200.000000;1.884433
7199.000000;1.887991
7198.000000;1.891777
7197.000000;1.895196
7196.000000;1.898035
7195.000000;1.900626
7194.000000;1.903567
7193.000000;1.907210
7192.000000;1.911358
7191.000000;1.915442
7190.000000;1.919107
7189.000000;1.922623
7188.000000;1.926579
7187.000000;1.931114
7186.000000;1.935719
7185.000000;1.939978
7184.000000;1.944200
7183.000000;1.948936
7182.000000;1.954000
7181.000000;1.958414
7180.000000;1.961399
7179.000000;1.963188
7178.000000;1.964889
7177.000000;1.967694
7176.000000;1.972026
7175.000000;1.977125
7174.000000;1.981554
7173.000000;1.984432
7172.000000;1.986314
7171.000000;1.988663
7170.000000;1.992366
7169.000000;1.996978
7168.000000;2.001466
7167.000000;2.005348
7166.000000;2.008991
7165.000000;2.013085
7164.000000;2.018014
7163.000000;2.023571
7162.000000;2.029118
7161.000000;2.034154
7160.000000;2.038723
7159.000000;2.043038
7158.000000;2.046811
7157.000000;2.049472
7156.000000;2.051134
7155.000000;2.052847
7154.000000;2.055593
7153.000000;2.059386
7152.000000;2.063616
7151.000000;2.067879
7150.000000;2.072183
7149.000000;2.076639
7148.000000;2.081236
7147.000000;2.085759
7146.000000;2.089948
7145.000000;2.093922
7144.000000;2.098229
7143.000000;2.103052
7142.000000;2.107577
7141.000000;2.110850
7140.000000;2.113238
7139.000000;2.116198
7138.000000;2.120326
7137.000000;2.124458
7136.000000;2.127334
7135.000000;2.129510
7134.000000;2.132745
7133.000000;2.137950
7132.000000;2.144532
7131.000000;2.151296
7130.000000;2.157151
7129.000000;2.161344
7128.000000;2.164102
7127.000000;2.166882
7126.000000;2.170931
7125.000000;2.175608
7124.000000;2.179272
7123.000000;2.182006
7122.000000;2.186035
7121.000000;2.192675
7120.000000;2.200070
7119.000000;2.205144
7118.000000;2.207253
7117.000000;2.208727
7116.000000;2.211954
7115.000000;2.217102
7114.000000;2.222825
7113.000000;2.227982
7112.000000;2.232079
7111.000000;2.234863
7110.000000;2.236393
7109.000000;2.237334
7108.000000;2.238714
7107.000000;2.241366
7106.000000;2.245537
7105.000000;2.250719
7104.000000;2.255741
7103.000000;2.259401
7102.000000;2.261428
7101.000000;2.262763
7100.000000;2.264494
7099.000000;2.266622
7098.000000;2.268380
7097.000000;2.269803
7096.000000;2.272307
7095.000000;2.277339
7094.000000;2.284694
7093.000000;2.292477
7092.000000;2.298496
7091.000000;2.301705
7090.000000;2.302836
7089.000000;2.303881
7088.000000;2.306598
7087.000000;2.311026
7086.000000;2.315546
7085.000000;2.318828
7084.000000;2.321491
7083.000000;2.325031
7082.000000;2.329295
7081.000000;2.332134
7080.000000;2.332140
7079.000000;2.330990
7078.000000;2.331970
7077.000000;2.336315
7076.000000;2.341663
7075.000000;2.344340
7074.000000;2.343222
7073.000000;2.340945
7072.000000;2.341090
7071.000000;2.344626
7070.000000;2.349267
7069.000000;2.352167
7068.000000;2.352874
7067.000000;2.353176
7066.000000;2.354565
7065.000000;2.356777
7064.000000;2.358734
7063.000000;2.360075
7062.000000;2.361413
7061.000000;2.363553
7060.000000;2.366843
7059.000000;2.371024
7058.000000;2.375442
7057.000000;2.379520
7056.000000;2.383180
7055.000000;2.386619
7054.000000;2.389638
7053.000000;2.391739
7052.000000;2.392819
7051.000000;2.392919
7050.000000;2.391322
7049.000000;2.387119
7048.000000;2.381238
7047.000000;2.376970
7046.000000;2.377613
7045.000000;2.383580
7044.000000;2.391845
7043.000000;2.398281
7042.000000;2.400724
7041.000000;2.400130
7040.000000;2.399544
7039.000000;2.401667
7038.000000;2.406428
7037.000000;2.410955
7036.000000;2.412345
7035.000000;2.410551
7034.000000;2.408463
7033.000000;2.409201
7032.000000;2.413402
7031.000000;2.419217
7030.000000;2.424615
7029.000000;2.428831
7028.000000;2.431809
7027.000000;2.433256
7026.000000;2.432599
7025.000000;2.430108
7024.000000;2.427618
7023.000000;2.427163
7022.000000;2.428885
7021.000000;2.431048
7020.000000;2.432338
7019.000000;2.433227
7018.000000;2.434360
7017.000000;2.434775
7016.000000;2.433127
7015.000000;2.430235
7014.000000;2.428885
7013.000000;2.430954
7012.000000;2.435782
7011.000000;2.441412
7010.000000;2.446174
7009.000000;2.448573
7008.000000;2.447080
7007.000000;2.441705
7006.000000;2.435518
7005.000000;2.433150
7004.000000;2.437127
7003.000000;2.445562
7002.000000;2.453115
7001.000000;2.454574
7000.000000;2.448651
6999.000000;2.438953
6998.000000;2.431491
6997.000000;2.430791
6996.000000;2.437144
6995.000000;2.446752
6994.000000;2.454307
6993.000000;2.456171
6992.000000;2.452331
6991.000000;2.445746
6990.000000;2.440077
6989.000000;2.437870
6988.000000;2.439691
6987.000000;2.444187
6986.000000;2.449184
6985.000000;2.453221
6984.000000;2.456152
6983.000000;2.458389
6982.000000;2.460028
6981.000000;2.461005
6980.000000;2.461630
6979.000000;2.462184
6978.000000;2.461963
6977.000000;2.459484
6976.000000;2.454184
6975.000000;2.447533
6974.000000;2.442188
6973.000000;2.440209
6972.000000;2.441929
6971.000000;2.445989
6970.000000;2.450366
6969.000000;2.453824
6968.000000;2.456395
6967.000000;2.458202
6966.000000;2.458525
6965.000000;2.457073
6964.000000;2.455744
6963.000000;2.457214
6962.000000;2.461380
6961.000000;2.464703
6960.000000;2.464263
6959.000000;2.461598
6958.000000;2.460760
6957.000000;2.463280
6956.000000;2.466737
6955.000000;2.467987
6954.000000;2.466221
6953.000000;2.462662
6952.000000;2.459017
6951.000000;2.456671
6950.000000;2.456327
6949.000000;2.457592
6948.000000;2.459378
6947.000000;2.461592
6946.000000;2.465141
6945.000000;2.469675
6944.000000;2.472818
6943.000000;2.472480
6942.000000;2.469151
6941.000000;2.465092
6940.000000;2.462037
6939.000000;2.460480
6938.000000;2.460262
6937.000000;2.460739
6936.000000;2.460947
6935.000000;2.460827
6934.000000;2.461988
6933.000000;2.465937
6932.000000;2.471584
6931.000000;2.475586
6930.000000;2.475437
6929.000000;2.471398
6928.000000;2.465483
6927.000000;2.459873
6926.000000;2.456337
6925.000000;2.455968
6924.000000;2.458287
6923.000000;2.460858
6922.000000;2.461153
6921.000000;2.458881
6920.000000;2.455726
6919.000000;2.453073
6918.000000;2.450943
6917.000000;2.449126
6916.000000;2.448333
6915.000000;2.449712
6914.000000;2.453505
6913.000000;2.458411
6912.000000;2.462394
6911.000000;2.464116
6910.000000;2.463575
6909.000000;2.461819
6908.000000;2.460156
6907.000000;2.459220
6906.000000;2.458564
6905.000000;2.457273
6904.000000;2.455120
6903.000000;2.452893
6902.000000;2.451556
6901.000000;2.451574
6900.000000;2.452991
6899.000000;2.455453
6898.000000;2.458062
6897.000000;2.459682
6896.000000;2.459884
6895.000000;2.459480
6894.000000;2.459543
6893.000000;2.460281
6892.000000;2.461151
6891.000000;2.461413
6890.000000;2.460250
6889.000000;2.457001
6888.000000;2.452143
6887.000000;2.447806
6886.000000;2.446420
6885.000000;2.448440
6884.000000;2.451755
6883.000000;2.453880
6882.000000;2.454268
6881.000000;2.454143
6880.000000;2.454805
6879.000000;2.456436
6878.000000;2.458313
6877.000000;2.459832
6876.000000;2.461029
6875.000000;2.462057
6874.000000;2.462557
6873.000000;2.461953
6872.000000;2.460228
6871.000000;2.458008
6870.000000;2.455827
6869.000000;2.453750
6868.000000;2.452087
6867.000000;2.451754
6866.000000;2.453086
6865.000000;2.454990
6864.000000;2.456224
6863.000000;2.456986
6862.000000;2.458122
6861.000000;2.459072
6860.000000;2.457915
6859.000000;2.453760
6858.000000;2.448184
6857.000000;2.443893
6856.000000;2.442833
6855.000000;2.445477
6854.000000;2.450470
6853.000000;2.454598
6852.000000;2.454746
6851.000000;2.451102
6850.000000;2.447172
6849.000000;2.445867
6848.000000;2.446939
6847.000000;2.448611
6846.000000;2.450095
6845.000000;2.451196
6844.000000;2.450682
6843.000000;2.447412
6842.000000;2.442874
6841.000000;2.440424
6840.000000;2.441583
6839.000000;2.444188
6838.000000;2.444550
6837.000000;2.441095
6836.000000;2.435852
6835.000000;2.432799
6834.000000;2.434676
6833.000000;2.440466
6832.000000;2.445538
6831.000000;2.445395
6830.000000;2.439982
6829.000000;2.433593
6828.000000;2.430542
6827.000000;2.431789
6826.000000;2.435346
6825.000000;2.438477
6824.000000;2.439139
6823.000000;2.436656
6822.000000;2.432211
6821.000000;2.428306
6820.000000;2.426768
6819.000000;2.427239
6818.000000;2.427928
6817.000000;2.427722
6816.000000;2.427035
6815.000000;2.426426
6814.000000;2.425538
6813.000000;2.423978
6812.000000;2.422320
6811.000000;2.421569
6810.000000;2.421508
6809.000000;2.420175
6808.000000;2.415844
6807.000000;2.409448
6806.000000;2.404285
6805.000000;2.402921
6804.000000;2.404758
6803.000000;2.406895
6802.000000;2.407298
6801.000000;2.406580
6800.000000;2.406433
6799.000000;2.407200
6798.000000;2.407649
6797.000000;2.406786
6796.000000;2.405175
6795.000000;2.404166
6794.000000;2.404241
6793.000000;2.404560
6792.000000;2.404095
6791.000000;2.402807
6790.000000;2.401454
6789.000000;2.400430
6788.000000;2.399248
6787.000000;2.397306
6786.000000;2.394825
6785.000000;2.392602
6784.000000;2.390947
6783.000000;2.389303
6782.000000;2.387048
6781.000000;2.384358
6780.000000;2.382052
6779.000000;2.380711
6778.000000;2.380123
6777.000000;2.379584
6776.000000;2.378599
6775.000000;2.377267
6774.000000;2.376042
6773.000000;2.375115
6772.000000;2.374053
6771.000000;2.372065
6770.000000;2.368793
6769.000000;2.365031
6768.000000;2.362564
6767.000000;2.362827
6766.000000;2.365397
6765.000000;2.367875
6764.000000;2.367659
6763.000000;2.364131
6762.000000;2.359068
6761.000000;2.354929
6760.000000;2.352891
6759.000000;2.352275
6758.000000;2.351427
6757.000000;2.349147
6756.000000;2.345740
6755.000000;2.342804
6754.000000;2.341556
6753.000000;2.341416
6752.000000;2.340755
6751.000000;2.339018
6750.000000;2.337329
6749.000000;2.336724
6748.000000;2.336625
6747.000000;2.335691
6746.000000;2.333628
6745.000000;2.331260
6744.000000;2.329013
6743.000000;2.326373
6742.000000;2.323037
6741.000000;2.319863
6740.000000;2.318096
6739.000000;2.317977
6738.000000;2.318486
6737.000000;2.318312
6736.000000;2.316925
6735.000000;2.314706
6734.000000;2.312324
6733.000000;2.310220
6732.000000;2.308432
6731.000000;2.306584
6730.000000;2.304060
6729.000000;2.300553
6728.000000;2.296770
6727.000000;2.294346
6726.000000;2.294500
6725.000000;2.296747
6724.000000;2.299213
6723.000000;2.300296
6722.000000;2.299722
6721.000000;2.297992
6720.000000;2.295585
6719.000000;2.293092
6718.000000;2.291433
6717.000000;2.291105
6716.000000;2.291375
6715.000000;2.290790
6714.000000;2.288473
6713.000000;2.284653
6712.000000;2.280305
6711.000000;2.276755
6710.000000;2.275230
6709.000000;2.275966
6708.000000;2.277584
6707.000000;2.278130
6706.000000;2.276762
6705.000000;2.273933
6704.000000;2.271022
6703.000000;2.268597
6702.000000;2.266550
6701.000000;2.264267
6700.000000;2.261043
6699.000000;2.256867
6698.000000;2.252840
6697.000000;2.250200
6696.000000;2.248940
6695.000000;2.248016
6694.000000;2.247013
6693.000000;2.246825
6692.000000;2.248172
6691.000000;2.250054
6690.000000;2.250348
6689.000000;2.247932
6688.000000;2.243778
6687.000000;2.239981
6686.000000;2.238156
6685.000000;2.238558
6684.000000;2.240167
6683.000000;2.241495
6682.000000;2.241411
6681.000000;2.239332
6680.000000;2.235065
6679.000000;2.229137
6678.000000;2.223194
6677.000000;2.219220
6676.000000;2.217842
6675.000000;2.217654
6674.000000;2.216716
6673.000000;2.214644
6672.000000;2.212783
6671.000000;2.212400
6670.000000;2.213210
6669.000000;2.213770
6668.000000;2.213007
6667.000000;2.211095
6666.000000;2.208862
6665.000000;2.206670
6664.000000;2.204169
6663.000000;2.201170
6662.000000;2.198388
6661.000000;2.196906
6660.000000;2.196830
6659.000000;2.196973
6658.000000;2.196176
6657.000000;2.194593
6656.000000;2.193241
6655.000000;2.192592
6654.000000;2.192177
6653.000000;2.191494
6652.000000;2.190675
6651.000000;2.189967
6650.000000;2.188948
6649.000000;2.186776
6648.000000;2.183255
6647.000000;2.179253
6646.000000;2.175909
6645.000000;2.173680
6644.000000;2.172339
6643.000000;2.171648
6642.000000;2.171596
6641.000000;2.171862
6640.000000;2.171593
6639.000000;2.170165
6638.000000;2.167937
6637.000000;2.165776
6636.000000;2.163988
6635.000000;2.162199
6634.000000;2.160179
6633.000000;2.158230
6632.000000;2.156704
6631.000000;2.155653
6630.000000;2.155094
6629.000000;2.155029
6628.000000;2.154924
6627.000000;2.153808
6626.000000;2.151436
6625.000000;2.148954
6624.000000;2.147782
6623.000000;2.148024
6622.000000;2.148436
6621.000000;2.147901
6620.000000;2.146359
6619.000000;2.144166
6618.000000;2.141268
6617.000000;2.137506
6616.000000;2.133438
6615.000000;2.130347
6614.000000;2.129271
6613.000000;2.130116
6612.000000;2.131742
6611.000000;2.132912
6610.000000;2.133097
6609.000000;2.132348
6608.000000;2.130680
6607.000000;2.128031
6606.000000;2.124860
6605.000000;2.122255
6604.000000;2.120976
6603.000000;2.120570
6602.000000;2.119769
6601.000000;2.117788
6600.000000;2.114992
6599.000000;2.112355
6598.000000;2.110574
6597.000000;2.109675
6596.000000;2.109166
6595.000000;2.108450
6594.000000;2.107333
6593.000000;2.106211
6592.000000;2.105672
6591.000000;2.105879
6590.000000;2.106397
6589.000000;2.106548
6588.000000;2.105849
6587.000000;2.104206
6586.000000;2.101897
6585.000000;2.099335
6584.000000;2.096797
6583.000000;2.094466
6582.000000;2.092735
6581.000000;2.092149
6580.000000;2.092817
6579.000000;2.093990
6578.000000;2.094541
6577.000000;2.093858
6576.000000;2.092082
6575.000000;2.089625
6574.000000;2.086849
6573.000000;2.084182
6572.000000;2.082095
6571.000000;2.080761
6570.000000;2.079990
6569.000000;2.079533
6568.000000;2.079187
6567.000000;2.078655
6566.000000;2.077683
6565.000000;2.076441
6564.000000;2.075379
6563.000000;2.074512
6562.000000;2.073200
6561.000000;2.070984
6560.000000;2.068426
6559.000000;2.066611
6558.000000;2.065823
6557.000000;2.065176
6556.000000;2.063747
6555.000000;2.061756
6554.000000;2.060323
6553.000000;2.060161
6552.000000;2.060771
6551.000000;2.060888
6550.000000;2.059618
6549.000000;2.057108
6548.000000;2.054265
6547.000000;2.051948
6546.000000;2.050447
6545.000000;2.049598
6544.000000;2.049213
6543.000000;2.049297
6542.000000;2.049832
6541.000000;2.050491
6540.000000;2.050692
6539.000000;2.050004
6538.000000;2.048440
6537.000000;2.046318
6536.000000;2.043947
6535.000000;2.041573
6534.000000;2.039551
6533.000000;2.038333
6532.000000;2.038105
6531.000000;2.038507
6530.000000;2.038820
6529.000000;2.038475
6528.000000;2.037395
6527.000000;2.035930
6526.000000;2.034532
6525.000000;2.033413
6524.000000;2.032397
6523.000000;2.031128
6522.000000;2.029485
6521.000000;2.027814
6520.000000;2.026654
6519.000000;2.026231
6518.000000;2.026257
6517.000000;2.026228
6516.000000;2.025823
6515.000000;2.025044
6514.000000;2.024016
6513.000000;2.022765
6512.000000;2.021255
6511.000000;2.019642
6510.000000;2.018366
6509.000000;2.017826
6508.000000;2.017899
6507.000000;2.017958
6506.000000;2.017480
6505.000000;2.016515
6504.000000;2.015455
6503.000000;2.014468
6502.000000;2.013347
6501.000000;2.011804
6500.000000;2.009767
6499.000000;2.007441
6498.000000;2.005296
6497.000000;2.003920
6496.000000;2.003611
6495.000000;2.003993
6494.000000;2.004195
6493.000000;2.003534
6492.000000;2.002028
6491.000000;2.000268
6490.000000;1.998979
6489.000000;1.998675
6488.000000;1.999408
6487.000000;2.000571
6486.000000;2.001127
6485.000000;2.000343
6484.000000;1.998408
6483.000000;1.996194
6482.000000;1.994424
6481.000000;1.993160
6480.000000;1.992066
6479.000000;1.990965
6478.000000;1.990015
6477.000000;1.989370
6476.000000;1.988869
6475.000000;1.988168
6474.000000;1.987138
6473.000000;1.986034
6472.000000;1.985214
6471.000000;1.984768
6470.000000;1.984506
6469.000000;1.984239
6468.000000;1.983907
6467.000000;1.983404
6466.000000;1.982480
6465.000000;1.980993
6464.000000;1.979217
6463.000000;1.977762
6462.000000;1.977083
6461.000000;1.977106
6460.000000;1.977314
6459.000000;1.977158
6458.000000;1.976400
6457.000000;1.975147
6456.000000;1.973686
6455.000000;1.972351
6454.000000;1.971451
6453.000000;1.971110
6452.000000;1.971100
6451.000000;1.970946
6450.000000;1.970303
6449.000000;1.969218
6448.000000;1.967940
6447.000000;1.966608
6446.000000;1.965269
6445.000000;1.964137
6444.000000;1.963551
6443.000000;1.963544
6442.000000;1.963612
6441.000000;1.963107
6440.000000;1.961846
6439.000000;1.960247
6438.000000;1.958896
6437.000000;1.958075
6436.000000;1.957647
6435.000000;1.957244
6434.000000;1.956544
6433.000000;1.955499
6432.000000;1.954381
6431.000000;1.953601
6430.000000;1.953396
6429.000000;1.953576
6428.000000;1.953567
6427.000000;1.952811
6426.000000;1.951305
6425.000000;1.949697
6424.000000;1.948697
6423.000000;1.948366
6422.000000;1.948166
6421.000000;1.947753
6420.000000;1.947450
6419.000000;1.947669
6418.000000;1.948088
6417.000000;1.947805
6416.000000;1.946400
6415.000000;1.944486
6414.000000;1.943016
6413.000000;1.942287
6412.000000;1.941899
6411.000000;1.941469
6410.000000;1.941031
6409.000000;1.940691
6408.000000;1.940244
6407.000000;1.939363
6406.000000;1.938070
6405.000000;1.936810
6404.000000;1.936060
6403.000000;1.935900
6402.000000;1.935958
6401.000000;1.935708
6400.000000;1.934922
6399.000000;1.933840
6398.000000;1.932851
6397.000000;1.932008
6396.000000;1.931005
6395.000000;1.929694
6394.000000;1.928458
6393.000000;1.927835
6392.000000;1.927876
6391.000000;1.928121
6390.000000;1.928184
6389.000000;1.928080
6388.000000;1.927874
6387.000000;1.927358
6386.000000;1.926367
6385.000000;1.925228
6384.000000;1.924528
6383.000000;1.924414
6382.000000;1.924389
6381.000000;1.923888
6380.000000;1.922866
6379.000000;1.921766
6378.000000;1.921062
6377.000000;1.920908
6376.000000;1.921063
6375.000000;1.921045
6374.000000;1.920498
6373.000000;1.919535
6372.000000;1.918650
6371.000000;1.918169
6370.000000;1.917842
6369.000000;1.917094
6368.000000;1.915643
6367.000000;1.913766
6366.000000;1.912024
6365.000000;1.910855
6364.000000;1.910370
6363.000000;1.910344
6362.000000;1.910363
6361.000000;1.910125
6360.000000;1.909691
6359.000000;1.909348
6358.000000;1.909193
6357.000000;1.909003
6356.000000;1.908621
6355.000000;1.908255
6354.000000;1.908146
6353.000000;1.908028
6352.000000;1.907269
6351.000000;1.905701
6350.000000;1.904067
6349.000000;1.903366
6348.000000;1.903847
6347.000000;1.904820
6346.000000;1.905375
6345.000000;1.905066
6344.000000;1.903929
6343.000000;1.902189
6342.000000;1.900175
6341.000000;1.898353
6340.000000;1.897177
6339.000000;1.896813
6338.000000;1.897068
6337.000000;1.897525
6336.000000;1.897714
6335.000000;1.897321
6334.000000;1.896444
6333.000000;1.895591
6332.000000;1.895258
6331.000000;1.895453
6330.000000;1.895713
6329.000000;1.895581
6328.000000;1.894953
6327.000000;1.894066
6326.000000;1.893333
6325.000000;1.893138
6324.000000;1.893503
6323.000000;1.893880
6322.000000;1.893532
6321.000000;1.892294
6320.000000;1.890765
6319.000000;1.889596
6318.000000;1.888810
6317.000000;1.888036
6316.000000;1.887198
6315.000000;1.886587
6314.000000;1.886297
6313.000000;1.885967
6312.000000;1.885239
6311.000000;1.884234
6310.000000;1.883408
6309.000000;1.883085
6308.000000;1.883223
6307.000000;1.883484
6306.000000;1.883420
6305.000000;1.882749
6304.000000;1.881630
6303.000000;1.880581
6302.000000;1.879991
6301.000000;1.879789
6300.000000;1.879705
6299.000000;1.879728
6298.000000;1.880034
6297.000000;1.880512
6296.000000;1.880651
6295.000000;1.880076
6294.000000;1.879001
6293.000000;1.877967
6292.000000;1.877212
6291.000000;1.876520
6290.000000;1.875645
6289.000000;1.874703
6288.000000;1.874045
6287.000000;1.873863
6286.000000;1.874019
6285.000000;1.874204
6284.000000;1.874146
6283.000000;1.873685
6282.000000;1.872790
6281.000000;1.871624
6280.000000;1.870537
6279.000000;1.869857
6278.000000;1.869631
6277.000000;1.869623
6276.000000;1.869587
6275.000000;1.869458
6274.000000;1.869269
6273.000000;1.868994
6272.000000;1.868604
6271.000000;1.868224
6270.000000;1.868084
6269.000000;1.868266
6268.000000;1.868559
6267.000000;1.868623
6266.000000;1.868241
6265.000000;1.867452
6264.000000;1.866514
6263.000000;1.865742
6262.000000;1.865297
6261.000000;1.865047
6260.000000;1.864695
6259.000000;1.864105
6258.000000;1.863479
6257.000000;1.863164
6256.000000;1.863313
6255.000000;1.863755
6254.000000;1.864146
6253.000000;1.864209
6252.000000;1.863867
6251.000000;1.863201
6250.000000;1.862302
6249.000000;1.861188
6248.000000;1.859907
6247.000000;1.858685
6246.000000;1.857841
6245.000000;1.857500
6244.000000;1.857475
6243.000000;1.857508
6242.000000;1.857527
6241.000000;1.857614
6240.000000;1.857811
6239.000000;1.858076
6238.000000;1.858341
6237.000000;1.858499
6236.000000;1.858386
6235.000000;1.857951
6234.000000;1.857398
6233.000000;1.856997
6232.000000;1.856742
6231.000000;1.856333
6230.000000;1.855542
6229.000000;1.854501
6228.000000;1.853580
6227.000000;1.853061
6226.000000;1.852949
6225.000000;1.852980
6224.000000;1.852789
6223.000000;1.852205
6222.000000;1.851454
6221.000000;1.850948
6220.000000;1.850813
6219.000000;1.850724
6218.000000;1.850300
6217.000000;1.849569
6216.000000;1.848917
6215.000000;1.848649
6214.000000;1.848728
6213.000000;1.848905
6212.000000;1.848979
6211.000000;1.848883
6210.000000;1.848626
6209.000000;1.848233
6208.000000;1.847755
6207.000000;1.847326
6206.000000;1.847166
6205.000000;1.847423
6204.000000;1.847950
6203.000000;1.848268
6202.000000;1.847907
6201.000000;1.846852
6200.000000;1.845664
6199.000000;1.845057
6198.000000;1.845268
6197.000000;1.845775
6196.000000;1.845726
6195.000000;1.844763
6194.000000;1.843411
6193.000000;1.842553
6192.000000;1.842558
6191.000000;1.843021
6190.000000;1.843284
6189.000000;1.843026
6188.000000;1.842316
6187.000000;1.841384
6186.000000;1.840498
6185.000000;1.839907
6184.000000;1.839679
6183.000000;1.839639
6182.000000;1.839610
6181.000000;1.839619
6180.000000;1.839768
6179.000000;1.840002
6178.000000;1.840203
6177.000000;1.840405
6176.000000;1.840689
6175.000000;1.840877
6174.000000;1.840598
6173.000000;1.839739
6172.000000;1.838638
6171.000000;1.837717
6170.000000;1.837061
6169.000000;1.836450
6168.000000;1.835688
6167.000000;1.834864
6166.000000;1.834341
6165.000000;1.834502
6164.000000;1.835346
6163.000000;1.836319
6162.000000;1.836706
6161.000000;1.836294
6160.000000;1.835534
6159.000000;1.834974
6158.000000;1.834682
6157.000000;1.834366
6156.000000;1.833886
6155.000000;1.833431
6154.000000;1.833198
6153.000000;1.833137
6152.000000;1.833085
6151.000000;1.833022
6150.000000;1.833070
6149.000000;1.833266
6148.000000;1.833467
6147.000000;1.833499
6146.000000;1.833317
6145.000000;1.832968
6144.000000;1.832464
6143.000000;1.831822
6142.000000;1.831224
6141.000000;1.830975
6140.000000;1.831186
6139.000000;1.831568
6138.000000;1.831679
6137.000000;1.831371
6136.000000;1.830868
6135.000000;1.830442
6134.000000;1.830126
6133.000000;1.829800
6132.000000;1.829421
6131.000000;1.829117
6130.000000;1.829101
6129.000000;1.829496
6128.000000;1.830156
6127.000000;1.830685
6126.000000;1.830777
6125.000000;1.830551
6124.000000;1.830389
6123.000000;1.830407
6122.000000;1.830278
6121.000000;1.829712
6120.000000;1.828907
6119.000000;1.828354
6118.000000;1.828291
6117.000000;1.828539
6116.000000;1.828795
6115.000000;1.828886
6114.000000;1.828726
6113.000000;1.828239
6112.000000;1.827448
6111.000000;1.826551
6110.000000;1.825843
6109.000000;1.825571
6108.000000;1.825808
6107.000000;1.826361
6106.000000;1.826806
6105.000000;1.826768
6104.000000;1.826241
6103.000000;1.825575
6102.000000;1.825081
6101.000000;1.824741
6100.000000;1.824338
6099.000000;1.823785
6098.000000;1.823253
6097.000000;1.823012
6096.000000;1.823201
6095.000000;1.823729
6094.000000;1.824319
6093.000000;1.824676
6092.000000;1.824667
6091.000000;1.824383
6090.000000;1.824002
6089.000000;1.823603
6088.000000;1.823128
6087.000000;1.822515
6086.000000;1.821843
6085.000000;1.821295
6084.000000;1.821006
6083.000000;1.820939
6082.000000;1.820948
6081.000000;1.820910
6080.000000;1.820823
6079.000000;1.820771
6078.000000;1.820828
6077.000000;1.820991
6076.000000;1.821174
6075.000000;1.821289
6074.000000;1.821341
6073.000000;1.821414
6072.000000;1.821519
6071.000000;1.821522
6070.000000;1.821317
6069.000000;1.821030
6068.000000;1.820917
6067.000000;1.821026
6066.000000;1.821111
6065.000000;1.820943
6064.000000;1.820564
6063.000000;1.820156
6062.000000;1.819780
6061.000000;1.819368
6060.000000;1.818889
6059.000000;1.818416
6058.000000;1.818086
6057.000000;1.818072
6056.000000;1.818468
6055.000000;1.819085
6054.000000;1.819481
6053.000000;1.819401
6052.000000;1.819098
6051.000000;1.819033
6050.000000;1.819317
6049.000000;1.819666
6048.000000;1.819863
6047.000000;1.819969
6046.000000;1.820043
6045.000000;1.819956
6044.000000;1.819636
6043.000000;1.819273
6042.000000;1.819097
6041.000000;1.819092
6040.000000;1.819073
6039.000000;1.818946
6038.000000;1.818754
6037.000000;1.818557
6036.000000;1.818397
6035.000000;1.818285
6034.000000;1.818104
6033.000000;1.817657
6032.000000;1.816961
6031.000000;1.816396
6030.000000;1.816382
6029.000000;1.816943
6028.000000;1.817721
6027.000000;1.818314
6026.000000;1.818467
6025.000000;1.818070
6024.000000;1.817258
6023.000000;1.816494
6022.000000;1.816274
6021.000000;1.816615
6020.000000;1.817010
6019.000000;1.817002
6018.000000;1.816679
6017.000000;1.816498
6016.000000;1.816727
6015.000000;1.817182
6014.000000;1.817458
6013.000000;1.817343
6012.000000;1.817020
6011.000000;1.816908
6010.000000;1.817286
6009.000000;1.818010
6008.000000;1.818599
6007.000000;1.818634
6006.000000;1.818068
6005.000000;1.817221
6004.000000;1.816550
6003.000000;1.816390
6002.000000;1.816755
6001.000000;1.817317
6000.000000;1.817664
5999.000000;1.817664
5998.000000;1.817546
5997.000000;1.817582
5996.000000;1.817736
5995.000000;1.817715
5994.000000;1.817329
5993.000000;1.816736
5992.000000;1.816312
5991.000000;1.816313
5990.000000;1.816668
5989.000000;1.817087
5988.000000;1.817334
5987.000000;1.817367
5986.000000;1.817252
5985.000000;1.817049
5984.000000;1.816861
5983.000000;1.816892
5982.000000;1.817301
5981.000000;1.818003
5980.000000;1.818722
5979.000000;1.819267
5978.000000;1.819646
5977.000000;1.819911
5976.000000;1.820032
5975.000000;1.819972
5974.000000;1.819760
5973.000000;1.819421
5972.000000;1.818942
5971.000000;1.818414
5970.000000;1.818115
5969.000000;1.818285
5968.000000;1.818840
5967.000000;1.819388
5966.000000;1.819542
5965.000000;1.819201
5964.000000;1.818601
5963.000000;1.818173
5962.000000;1.818262
5961.000000;1.818862
5960.000000;1.819617
5959.000000;1.820173
5958.000000;1.820531
5957.000000;1.820960
5956.000000;1.821599
5955.000000;1.822277
5954.000000;1.822733
5953.000000;1.822922
5952.000000;1.823042
5951.000000;1.823310
5950.000000;1.823776
5949.000000;1.824318
5948.000000;1.824740
5947.000000;1.824912
5946.000000;1.824860
5945.000000;1.824776
5944.000000;1.824906
5943.000000;1.825388
5942.000000;1.826097
5941.000000;1.826674
5940.000000;1.826790
5939.000000;1.826476
5938.000000;1.826119
5937.000000;1.826092
5936.000000;1.826420
5935.000000;1.826867
5934.000000;1.827264
5933.000000;1.827617
5932.000000;1.827927
5931.000000;1.828064
5930.000000;1.827903
5929.000000;1.827513
5928.000000;1.827151
5927.000000;1.827071
5926.000000;1.827351
5925.000000;1.827858
5924.000000;1.828368
5923.000000;1.828761
5922.000000;1.829117
5921.000000;1.829560
5920.000000;1.830007
5919.000000;1.830178
5918.000000;1.829924
5917.000000;1.829477
5916.000000;1.829225
5915.000000;1.829286
5914.000000;1.829398
5913.000000;1.829277
5912.000000;1.828975
5911.000000;1.828774
5910.000000;1.828793
5909.000000;1.828836
5908.000000;1.828664
5907.000000;1.828302
5906.000000;1.827998
5905.000000;1.827958
5904.000000;1.828216
5903.000000;1.828711
5902.000000;1.829351
5901.000000;1.829963
5900.000000;1.830323
5899.000000;1.830300
5898.000000;1.829939
5897.000000;1.829383
5896.000000;1.828797
5895.000000;1.828383
5894.000000;1.828345
5893.000000;1.828720
5892.000000;1.829306
5891.000000;1.829829
5890.000000;1.830131
5889.000000;1.830171
5888.000000;1.829957
5887.000000;1.829613
5886.000000;1.829414
5885.000000;1.829539
5884.000000;1.829798
5883.000000;1.829776
5882.000000;1.829307
5881.000000;1.828682
5880.000000;1.828319
5879.000000;1.828365
5878.000000;1.828687
5877.000000;1.829113
5876.000000;1.829568
5875.000000;1.830036
5874.000000;1.830510
5873.000000;1.830980
5872.000000;1.831384
5871.000000;1.831577
5870.000000;1.831438
5869.000000;1.831050
5868.000000;1.830708
5867.000000;1.830702
5866.000000;1.831089
5865.000000;1.831697
5864.000000;1.832357
5863.000000;1.833058
5862.000000;1.833820
5861.000000;1.834453
5860.000000;1.834640
5859.000000;1.834336
5858.000000;1.833953
5857.000000;1.833980
5856.000000;1.834469
5855.000000;1.835035
5854.000000;1.835332
5853.000000;1.835349
5852.000000;1.835239
5851.000000;1.835116
5850.000000;1.835126
5849.000000;1.835501
5848.000000;1.836309
5847.000000;1.837226
5846.000000;1.837771
5845.000000;1.837806
5844.000000;1.837664
5843.000000;1.837798
5842.000000;1.838381
5841.000000;1.839228
5840.000000;1.839989
5839.000000;1.840393
5838.000000;1.840427
5837.000000;1.840355
5836.000000;1.840529
5835.000000;1.841126
5834.000000;1.842026
5833.000000;1.842940
5832.000000;1.843624
5831.000000;1.844024
5830.000000;1.844270
5829.000000;1.844539
5828.000000;1.844901
5827.000000;1.845298
5826.000000;1.845650
5825.000000;1.845935
5824.000000;1.846170
5823.000000;1.846392
5822.000000;1.846687
5821.000000;1.847136
5820.000000;1.847670
5819.000000;1.848077
5818.000000;1.848247
5817.000000;1.848307
5816.000000;1.848424
5815.000000;1.848565
5814.000000;1.848651
5813.000000;1.848832
5812.000000;1.849382
5811.000000;1.850306
5810.000000;1.851293
5809.000000;1.852116
5808.000000;1.852857
5807.000000;1.853641
5806.000000;1.854355
5805.000000;1.854796
5804.000000;1.854945
5803.000000;1.854919
5802.000000;1.854794
5801.000000;1.854649
5800.000000;1.854723
5799.000000;1.855275
5798.000000;1.856272
5797.000000;1.857355
5796.000000;1.858181
5795.000000;1.858683
5794.000000;1.859012
5793.000000;1.859316
5792.000000;1.859628
5791.000000;1.859904
5790.000000;1.860133
5789.000000;1.860437
5788.000000;1.860980
5787.000000;1.861737
5786.000000;1.862442
5785.000000;1.862924
5784.000000;1.863414
5783.000000;1.864308
5782.000000;1.865609
5781.000000;1.866835
5780.000000;1.867564
5779.000000;1.867867
5778.000000;1.868075
5777.000000;1.868301
5776.000000;1.868416
5775.000000;1.868389
5774.000000;1.868387
5773.000000;1.868545
5772.000000;1.868809
5771.000000;1.869070
5770.000000;1.869303
5769.000000;1.869535
5768.000000;1.869769
5767.000000;1.870014
5766.000000;1.870338
5765.000000;1.870816
5764.000000;1.871458
5763.000000;1.872173
5762.000000;1.872818
5761.000000;1.873278
5760.000000;1.873594
5759.000000;1.873975
5758.000000;1.874630
5757.000000;1.875560
5756.000000;1.876579
5755.000000;1.877519
5754.000000;1.878322
5753.000000;1.878928
5752.000000;1.879216
5751.000000;1.879161
5750.000000;1.878967
5749.000000;1.878933
5748.000000;1.879202
5747.000000;1.879707
5746.000000;1.880334
5745.000000;1.881044
5744.000000;1.881818
5743.000000;1.882570
5742.000000;1.883158
5741.000000;1.883467
5740.000000;1.883487
5739.000000;1.883342
5738.000000;1.883270
5737.000000;1.883516
5736.000000;1.884157
5735.000000;1.885007
5734.000000;1.885753
5733.000000;1.886254
5732.000000;1.886681
5731.000000;1.887297
5730.000000;1.888101
5729.000000;1.888793
5728.000000;1.889109
5727.000000;1.889078
5726.000000;1.888898
5725.000000;1.888701
5724.000000;1.888598
5723.000000;1.888816
5722.000000;1.889537
5721.000000;1.890593
5720.000000;1.891561
5719.000000;1.892260
5718.000000;1.892964
5717.000000;1.893986
5716.000000;1.895211
5715.000000;1.896208
5714.000000;1.896694
5713.000000;1.896725
5712.000000;1.896547
5711.000000;1.896454
5710.000000;1.896762
5709.000000;1.897645
5708.000000;1.898940
5707.000000;1.900225
5706.000000;1.901174
5705.000000;1.901740
5704.000000;1.902023
5703.000000;1.902104
5702.000000;1.902124
5701.000000;1.902219
5700.000000;1.902579
5699.000000;1.903190
5698.000000;1.903933
5697.000000;1.904776
5696.000000;1.905647
5695.000000;1.906403
5694.000000;1.906936
5693.000000;1.907308
5692.000000;1.907639
5691.000000;1.907935
5690.000000;1.908128
5689.000000;1.908261
5688.000000;1.908530
5687.000000;1.909102
5686.000000;1.909972
5685.000000;1.910991
5684.000000;1.911949
5683.000000;1.912623
5682.000000;1.912873
5681.000000;1.912789
5680.000000;1.912738
5679.000000;1.913154
5678.000000;1.914193
5677.000000;1.915587
5676.000000;1.916861
5675.000000;1.917718
5674.000000;1.918192
5673.000000;1.918444
5672.000000;1.918505
5671.000000;1.918315
5670.000000;1.917960
5669.000000;1.917705
5668.000000;1.917732
5667.000000;1.917982
5666.000000;1.918324
5665.000000;1.918801
5664.000000;1.919545
5663.000000;1.920502
5662.000000;1.921383
5661.000000;1.921941
5660.000000;1.922195
5659.000000;1.922355
5658.000000;1.922581
5657.000000;1.922855
5656.000000;1.923048
5655.000000;1.923062
5654.000000;1.922983
5653.000000;1.923093
5652.000000;1.923685
5651.000000;1.924785
5650.000000;1.926106
5649.000000;1.927297
5648.000000;1.928192
5647.000000;1.928776
5646.000000;1.929004
5645.000000;1.928819
5644.000000;1.928373
5643.000000;1.928065
5642.000000;1.928228
5641.000000;1.928786
5640.000000;1.929333
5639.000000;1.929571
5638.000000;1.929613
5637.000000;1.929813
5636.000000;1.930367
5635.000000;1.931162
5634.000000;1.931989
5633.000000;1.932775
5632.000000;1.933558
5631.000000;1.934308
5630.000000;1.934889
5629.000000;1.935198
5628.000000;1.935285
5627.000000;1.935313
5626.000000;1.935433
5625.000000;1.935731
5624.000000;1.936228
5623.000000;1.936885
5622.000000;1.937576
5621.000000;1.938104
5620.000000;1.938284
5619.000000;1.938068
5618.000000;1.937576
5617.000000;1.937008
5616.000000;1.936541
5615.000000;1.936335
5614.000000;1.936565
5613.000000;1.937308
5612.000000;1.938345
5611.000000;1.939194
5610.000000;1.939504
5609.000000;1.939395
5608.000000;1.939314
5607.000000;1.939558
5606.000000;1.940077
5605.000000;1.940680
5604.000000;1.941259
5603.000000;1.941752
5602.000000;1.942076
5601.000000;1.942218
5600.000000;1.942291
5599.000000;1.942395
5598.000000;1.942511
5597.000000;1.942637
5596.000000;1.942886
5595.000000;1.943287
5594.000000;1.943589
5593.000000;1.943518
5592.000000;1.943201
5591.000000;1.943081
5590.000000;1.943343
5589.000000;1.943664
5588.000000;1.943649
5587.000000;1.943349
5586.000000;1.943159
5585.000000;1.943286
5584.000000;1.943515
5583.000000;1.943487
5582.000000;1.943115
5581.000000;1.942689
5580.000000;1.942632
5579.000000;1.943106
5578.000000;1.943847
5577.000000;1.944390
5576.000000;1.944516
5575.000000;1.944389
5574.000000;1.944259
5573.000000;1.944174
5572.000000;1.944074
5571.000000;1.944015
5570.000000;1.944109
5569.000000;1.944326
5568.000000;1.944535
5567.000000;1.944747
5566.000000;1.945094
5565.000000;1.945548
5564.000000;1.945823
5563.000000;1.945661
5562.000000;1.945122
5561.000000;1.944507
5560.000000;1.944062
5559.000000;1.943799
5558.000000;1.943541
5557.000000;1.943120
5556.000000;1.942586
5555.000000;1.942225
5554.000000;1.942321
5553.000000;1.942862
5552.000000;1.943551
5551.000000;1.944122
5550.000000;1.944554
5549.000000;1.944931
5548.000000;1.945224
5547.000000;1.945329
5546.000000;1.945209
5545.000000;1.944907
5544.000000;1.944442
5543.000000;1.943817
5542.000000;1.943108
5541.000000;1.942469
5540.000000;1.942065
5539.000000;1.942014
5538.000000;1.942316
5537.000000;1.942764
5536.000000;1.943042
5535.000000;1.943019
5534.000000;1.942888
5533.000000;1.942945
5532.000000;1.943274
5531.000000;1.943734
5530.000000;1.944087
5529.000000;1.944075
5528.000000;1.943540
5527.000000;1.942666
5526.000000;1.941989
5525.000000;1.941924
5524.000000;1.942289
5523.000000;1.942501
5522.000000;1.942259
5521.000000;1.941807
5520.000000;1.941560
5519.000000;1.941708
5518.000000;1.942204
5517.000000;1.942875
5516.000000;1.943410
5515.000000;1.943500
5514.000000;1.943115
5513.000000;1.942535
5512.000000;1.942069
5511.000000;1.941863
5510.000000;1.941983
5509.000000;1.942451
5508.000000;1.943122
5507.000000;1.943662
5506.000000;1.943839
5505.000000;1.943775
5504.000000;1.943720
5503.000000;1.943695
5502.000000;1.943546
5501.000000;1.943245
5500.000000;1.942990
5499.000000;1.942941
5498.000000;1.942990
5497.000000;1.942922
5496.000000;1.942728
5495.000000;1.942635
5494.000000;1.942828
5493.000000;1.943217
5492.000000;1.943556
5491.000000;1.943743
5490.000000;1.943904
5489.000000;1.944154
5488.000000;1.944416
5487.000000;1.944568
5486.000000;1.944666
5485.000000;1.944888
5484.000000;1.945330
5483.000000;1.946032
5482.000000;1.947093
5481.000000;1.948477
5480.000000;1.949760
5479.000000;1.950437
5478.000000;1.950540
5477.000000;1.950581
5476.000000;1.950789
5475.000000;1.950783
5474.000000;1.950096
5473.000000;1.948781
5472.000000;1.947428
5471.000000;1.946678
5470.000000;1.946787
5469.000000;1.947595
5468.000000;1.948825
5467.000000;1.950320
5466.000000;1.951969
5465.000000;1.953501
5464.000000;1.954507
5463.000000;1.954703
5462.000000;1.954161
5461.000000;1.953262
5460.000000;1.952460
5459.000000;1.952039
5458.000000;1.952036
5457.000000;1.952394
5456.000000;1.953093
5455.000000;1.954085
5454.000000;1.955135
5453.000000;1.956007
5452.000000;1.956799
5451.000000;1.957795
5450.000000;1.958968
5449.000000;1.959929
5448.000000;1.960521
5447.000000;1.961044
5446.000000;1.961702
5445.000000;1.962250
5444.000000;1.962391
5443.000000;1.962265
5442.000000;1.962303
5441.000000;1.962677
5440.000000;1.963122
5439.000000;1.963302
5438.000000;1.963155
5437.000000;1.962902
5436.000000;1.962850
5435.000000;1.963160
5434.000000;1.963740
5433.000000;1.964435
5432.000000;1.965244
5431.000000;1.966237
5430.000000;1.967339
5429.000000;1.968452
5428.000000;1.969682
5427.000000;1.971085
5426.000000;1.972446
5425.000000;1.973676
5424.000000;1.975072
5423.000000;1.976900
5422.000000;1.978821
5421.000000;1.980000
5420.000000;1.979973
5419.000000;1.979343
5418.000000;1.979288
5417.000000;1.980426
5416.000000;1.982440
5415.000000;1.984652
5414.000000;1.986753
5413.000000;1.988958
5412.000000;1.991482
5411.000000;1.994111
5410.000000;1.996390
5409.000000;1.998117
5408.000000;1.999551
5407.000000;2.001139
5406.000000;2.003095
5405.000000;2.005259
5404.000000;2.007377
5403.000000;2.009397
5402.000000;2.011279
5401.000000;2.012809
5400.000000;2.013974
5399.000000;2.015193
5398.000000;2.016894
5397.000000;2.019081
5396.000000;2.021556
5395.000000;2.024285
5394.000000;2.027365
5393.000000;2.030797
5392.000000;2.034344
5391.000000;2.037826
5390.000000;2.041334
5389.000000;2.044821
5388.000000;2.048034
5387.000000;2.050963
5386.000000;2.053808
5385.000000;2.056553
5384.000000;2.058986
5383.000000;2.061198
5382.000000;2.063772
5381.000000;2.067067
5380.000000;2.070747
5379.000000;2.074527
5378.000000;2.078711
5377.000000;2.083559
5376.000000;2.088695
5375.000000;2.093473
5374.000000;2.097666
5373.000000;2.101600
5372.000000;2.105724
5371.000000;2.110270
5370.000000;2.115300
5369.000000;2.120746
5368.000000;2.126326
5367.000000;2.131683
5366.000000;2.136682
5365.000000;2.141449
5364.000000;2.146252
5363.000000;2.151448
5362.000000;2.157351
5361.000000;2.164022
5360.000000;2.171174
5359.000000;2.178370
5358.000000;2.185319
5357.000000;2.192082
5356.000000;2.199115
5355.000000;2.206845
5354.000000;2.215235
5353.000000;2.223870
5352.000000;2.232297
5351.000000;2.240253
5350.000000;2.247804
5349.000000;2.255150
5348.000000;2.262438
5347.000000;2.269966
5346.000000;2.277947
5345.000000;2.286066
5344.000000;2.293975
5343.000000;2.302167
5342.000000;2.311580
5341.000000;2.322246
5340.000000;2.333141
5339.000000;2.343618
5338.000000;2.354281
5337.000000;2.365994
5336.000000;2.378533
5335.000000;2.390990
5334.000000;2.402983
5333.000000;2.414595
5332.000000;2.425767
5331.000000;2.436612
5330.000000;2.447859
5329.000000;2.460161
5328.000000;2.473185
5327.000000;2.486198
5326.000000;2.499332
5325.000000;2.513141
5324.000000;2.527107
5323.000000;2.540031
5322.000000;2.551962
5321.000000;2.564321
5320.000000;2.577853
5319.000000;2.591915
5318.000000;2.606167
5317.000000;2.621428
5316.000000;2.638045
5315.000000;2.654707
5314.000000;2.669897
5313.000000;2.683494
5312.000000;2.696041
5311.000000;2.707532
5310.000000;2.717888
5309.000000;2.727690
5308.000000;2.737378
5307.000000;2.746503
5306.000000;2.754922
5305.000000;2.763936
5304.000000;2.775036
5303.000000;2.788175
5302.000000;2.802087
5301.000000;2.815663
5300.000000;2.828276
5299.000000;2.839446
5298.000000;2.849090
5297.000000;2.857662
5296.000000;2.865435
5295.000000;2.872377
5294.000000;2.879301
5293.000000;2.887980
5292.000000;2.899105
5291.000000;2.910737
5290.000000;2.919752
5289.000000;2.924843
5288.000000;2.927293
5287.000000;2.928923
5286.000000;2.930508
5285.000000;2.932066
5284.000000;2.933586
5283.000000;2.935187
5282.000000;2.936912
5281.000000;2.938335
5280.000000;2.938461
5279.000000;2.936927
5278.000000;2.935296
5277.000000;2.935835
5276.000000;2.938648
5275.000000;2.941082
5274.000000;2.940880
5273.000000;2.939248
5272.000000;2.939491
5271.000000;2.942956
5270.000000;2.947465
5269.000000;2.949982
5268.000000;2.949896
5267.000000;2.948847
5266.000000;2.948188
5265.000000;2.947819
5264.000000;2.947241
5263.000000;2.946849
5262.000000;2.947599
5261.000000;2.949682
5260.000000;2.952487
5259.000000;2.955688
5258.000000;2.959560
5257.000000;2.964027
5256.000000;2.967917
5255.000000;2.969916
5254.000000;2.970128
5253.000000;2.969768
5252.000000;2.969390
5251.000000;2.968131
5250.000000;2.965021
5249.000000;2.960734
5248.000000;2.957526
5247.000000;2.957676
5246.000000;2.961955
5245.000000;2.968863
5244.000000;2.975089
5243.000000;2.977438
5242.000000;2.975115
5241.000000;2.969333
5240.000000;2.961337
5239.000000;2.952522
5238.000000;2.945420
5237.000000;2.942858
5236.000000;2.945749
5235.000000;2.951994
5234.000000;2.957817
5233.000000;2.960489
5232.000000;2.960145
5231.000000;2.959101
5230.000000;2.959612
5229.000000;2.961795
5228.000000;2.963283
5227.000000;2.961778
5226.000000;2.958033
5225.000000;2.955306
5224.000000;2.955723
5223.000000;2.958019
5222.000000;2.959493
5221.000000;2.959423
5220.000000;2.959373
5219.000000;2.960626
5218.000000;2.962490
5217.000000;2.963307
5216.000000;2.962589
5215.000000;2.961596
5214.000000;2.962184
5213.000000;2.965305
5212.000000;2.969983
5211.000000;2.973627
5210.000000;2.974213
5209.000000;2.972336
5208.000000;2.970193
5207.000000;2.968684
5206.000000;2.966691
5205.000000;2.963324
5204.000000;2.959769
5203.000000;2.958012
5202.000000;2.958323
5201.000000;2.958978
5200.000000;2.958631
5199.000000;2.958128
5198.000000;2.959230
5197.000000;2.962171
5196.000000;2.965298
5195.000000;2.966784
5194.000000;2.966291
5193.000000;2.965014
5192.000000;2.964595
5191.000000;2.965741
5190.000000;2.966880
5189.000000;2.965292
5188.000000;2.960996
5187.000000;2.958057
5186.000000;2.960814
5185.000000;2.968964
5184.000000;2.977055
5183.000000;2.980079
5182.000000;2.978812
5181.000000;2.977475
5180.000000;2.977603
5179.000000;2.976873
5178.000000;2.973457
5177.000000;2.968849
5176.000000;2.965733
5175.000000;2.965026
5174.000000;2.965808
5173.000000;2.966933
5172.000000;2.967359
5171.000000;2.966117
5170.000000;2.963521
5169.000000;2.961375
5168.000000;2.961116
5167.000000;2.962383
5166.000000;2.963930
5165.000000;2.965335
5164.000000;2.966711
5163.000000;2.967029
5162.000000;2.964271
5161.000000;2.958027
5160.000000;2.951085
5159.000000;2.947394
5158.000000;2.948605
5157.000000;2.952717
5156.000000;2.956072
5155.000000;2.956747
5154.000000;2.955638
5153.000000;2.954748
5152.000000;2.955182
5151.000000;2.956503
5150.000000;2.958004
5149.000000;2.959979
5148.000000;2.962886
5147.000000;2.966002
5146.000000;2.967850
5145.000000;2.967578
5144.000000;2.965265
5143.000000;2.961338
5142.000000;2.956637
5141.000000;2.952776
5140.000000;2.951463
5139.000000;2.952992
5138.000000;2.955824
5137.000000;2.958170
5136.000000;2.959664
5135.000000;2.961167
5134.000000;2.963413
5133.000000;2.966235
5132.000000;2.968830
5131.000000;2.970391
5130.000000;2.970559
5129.000000;2.969508
5128.000000;2.967630
5127.000000;2.965369
5126.000000;2.963703
5125.000000;2.964043
5124.000000;2.966436
5123.000000;2.968052
5122.000000;2.965047
5121.000000;2.957053
5120.000000;2.948605
5119.000000;2.945013
5118.000000;2.947751
5117.000000;2.954162
5116.000000;2.960556
5115.000000;2.964415
5114.000000;2.964219
5113.000000;2.959858
5112.000000;2.953952
5111.000000;2.950733
5110.000000;2.952545
5109.000000;2.957805
5108.000000;2.962719
5107.000000;2.964796
5106.000000;2.964334
5105.000000;2.963025
5104.000000;2.962165
5103.000000;2.961967
5102.000000;2.961509
5101.000000;2.959269
5100.000000;2.954701
5099.000000;2.949646
5098.000000;2.947366
5097.000000;2.949658
5096.000000;2.954876
5095.000000;2.958870
5094.000000;2.958331
5093.000000;2.953557
5092.000000;2.947856
5091.000000;2.944898
5090.000000;2.946806
5089.000000;2.953086
5088.000000;2.960282
5087.000000;2.963277
5086.000000;2.958532
5085.000000;2.947473
5084.000000;2.936148
5083.000000;2.930752
5082.000000;2.933379
5081.000000;2.941525
5080.000000;2.951099
5079.000000;2.959282
5078.000000;2.964563
5077.000000;2.965910
5076.000000;2.963532
5075.000000;2.959660
5074.000000;2.956427
5073.000000;2.953599
5072.000000;2.950023
5071.000000;2.945880
5070.000000;2.942857
5069.000000;2.943136
5068.000000;2.948058
5067.000000;2.956816
5066.000000;2.965904
5065.000000;2.970689
5064.000000;2.968961
5063.000000;2.962796
5062.000000;2.956241
5061.000000;2.951782
5060.000000;2.949430
5059.000000;2.948463
5058.000000;2.948997
5057.000000;2.951260
5056.000000;2.953758
5055.000000;2.953907
5054.000000;2.951051
5053.000000;2.947049
5052.000000;2.943867
5051.000000;2.942179
5050.000000;2.941553
5049.000000;2.941220
5048.000000;2.940975
5047.000000;2.941381
5046.000000;2.942900
5045.000000;2.944942
5044.000000;2.946335
5043.000000;2.946923
5042.000000;2.947834
5041.000000;2.949494
5040.000000;2.950369
5039.000000;2.948736
5038.000000;2.945209
5037.000000;2.942512
5036.000000;2.942897
5035.000000;2.946424
5034.000000;2.951233
5033.000000;2.954691
5032.000000;2.954712
5031.000000;2.950968
5030.000000;2.945100
5029.000000;2.939593
5028.000000;2.936370
5027.000000;2.936068
5026.000000;2.938292
5025.000000;2.942057
5024.000000;2.945914
5023.000000;2.948441
5022.000000;2.948911
5021.000000;2.947350
5020.000000;2.944265
5019.000000;2.940422
5018.000000;2.936509
5017.000000;2.932889
5016.000000;2.929725
5015.000000;2.927224
5014.000000;2.925548
5013.000000;2.924636
5012.000000;2.924485
5011.000000;2.925493
5010.000000;2.927857
5009.000000;2.930402
5008.000000;2.930994
5007.000000;2.929201
5006.000000;2.927734
5005.000000;2.929720
5004.000000;2.934620
5003.000000;2.937819
5002.000000;2.934946
5001.000000;2.926440
5000.000000;2.916616
4999.000000;2.909575
4998.000000;2.907038
4997.000000;2.908284
4996.000000;2.912059
4995.000000;2.917352
4994.000000;2.922380
4993.000000;2.925201
4992.000000;2.925125
4991.000000;2.923056
4990.000000;2.920855
4989.000000;2.919778
4988.000000;2.919302
4987.000000;2.917915
4986.000000;2.915013
4985.000000;2.911390
4984.000000;2.908045
4983.000000;2.905447
4982.000000;2.903890
4981.000000;2.903843
4980.000000;2.905672
4979.000000;2.909118
4978.000000;2.912984
4977.000000;2.915079
4976.000000;2.913166
4975.000000;2.907188
4974.000000;2.900283
4973.000000;2.896364
4972.000000;2.896310
4971.000000;2.897083
4970.000000;2.895263
4969.000000;2.891080
4968.000000;2.887690
4967.000000;2.886877
4966.000000;2.887156
4965.000000;2.886380
4964.000000;2.884756
4963.000000;2.883944
4962.000000;2.884052
4961.000000;2.883426
4960.000000;2.881600
4959.000000;2.880526
4958.000000;2.881822
4957.000000;2.884370
4956.000000;2.886137
4955.000000;2.887622
4954.000000;2.891142
4953.000000;2.896260
4952.000000;2.898146
4951.000000;2.892574
4950.000000;2.881724
4949.000000;2.872280
4948.000000;2.868318
4947.000000;2.868248
4946.000000;2.868401
4945.000000;2.867928
4944.000000;2.869090
4943.000000;2.873479
4942.000000;2.879392
4941.000000;2.883307
4940.000000;2.883351
4939.000000;2.880438
4938.000000;2.876190
4937.000000;2.871256
4936.000000;2.866017
4935.000000;2.861741
4934.000000;2.859981
4933.000000;2.860614
4932.000000;2.861312
4931.000000;2.859933
4930.000000;2.856960
4929.000000;2.854538
4928.000000;2.853499
4927.000000;2.852554
4926.000000;2.850713
4925.000000;2.849193
4924.000000;2.849843
4923.000000;2.852322
4922.000000;2.853827
4921.000000;2.851951
4920.000000;2.847219
4919.000000;2.842140
4918.000000;2.838414
4917.000000;2.835744
4916.000000;2.833046
4915.000000;2.830202
4914.000000;2.828057
4913.000000;2.827162
4912.000000;2.827430
4911.000000;2.828668
4910.000000;2.830458
4909.000000;2.831580
4908.000000;2.830593
4907.000000;2.827094
4906.000000;2.821920
4905.000000;2.816354
4904.000000;2.811568
4903.000000;2.808742
4902.000000;2.808603
4901.000000;2.810345
4900.000000;2.811629
4899.000000;2.810315
4898.000000;2.806507
4897.000000;2.802556
4896.000000;2.800905
4895.000000;2.802069
4894.000000;2.804363
4893.000000;2.805298
4892.000000;2.803331
4891.000000;2.798628
4890.000000;2.792662
4889.000000;2.787227
4888.000000;2.783679
4887.000000;2.782705
4886.000000;2.784199
4885.000000;2.787254
4884.000000;2.790346
4883.000000;2.791560
4882.000000;2.789212
4881.000000;2.783277
4880.000000;2.776524
4879.000000;2.773204
4878.000000;2.775397
4877.000000;2.780576
4876.000000;2.783678
4875.000000;2.782211
4874.000000;2.778261
4873.000000;2.774923
4872.000000;2.772715
4871.000000;2.770596
4870.000000;2.768672
4869.000000;2.767773
4868.000000;2.767011
4867.000000;2.764110
4866.000000;2.758800
4865.000000;2.754082
4864.000000;2.753022
4863.000000;2.755341
4862.000000;2.757758
4861.000000;2.757155
4860.000000;2.753032
4859.000000;2.747088
4858.000000;2.741309
4857.000000;2.736937
4856.000000;2.734565
4855.000000;2.734375
4854.000000;2.736046
4853.000000;2.738324
4852.000000;2.739090
4851.000000;2.736647
4850.000000;2.731245
4849.000000;2.725100
4848.000000;2.720693
4847.000000;2.719076
4846.000000;2.719464
4845.000000;2.720358
4844.000000;2.720956
4843.000000;2.721161
4842.000000;2.720616
4841.000000;2.718577
4840.000000;2.715020
4839.000000;2.711414
4838.000000;2.709734
4837.000000;2.710535
4836.000000;2.712161
4835.000000;2.712040
4834.000000;2.708901
4833.000000;2.703660
4832.000000;2.698346
4831.000000;2.694520
4830.000000;2.692678
4829.000000;2.692682
4828.000000;2.694338
4827.000000;2.697273
4826.000000;2.700192
4825.000000;2.700830
4824.000000;2.697607
4823.000000;2.691476
4822.000000;2.685298
4821.000000;2.680997
4820.000000;2.678036
4819.000000;2.675183
4818.000000;2.672800
4817.000000;2.672103
4816.000000;2.672619
4815.000000;2.671994
4814.000000;2.668892
4813.000000;2.665087
4812.000000;2.663692
4811.000000;2.665765
4810.000000;2.669270
4809.000000;2.671093
4808.000000;2.669716
4807.000000;2.665977
4806.000000;2.661873
4805.000000;2.659047
4804.000000;2.657950
4803.000000;2.657751
4802.000000;2.656997
4801.000000;2.654877
4800.000000;2.652014
4799.000000;2.649720
4798.000000;2.648469
4797.000000;2.647236
4796.000000;2.644482
4795.000000;2.639938
4794.000000;2.635072
4793.000000;2.631733
4792.000000;2.630649
4791.000000;2.631126
4790.000000;2.631806
4789.000000;2.631723
4788.000000;2.630891
4787.000000;2.629895
4786.000000;2.628879
4785.000000;2.627151
4784.000000;2.624158
4783.000000;2.620701
4782.000000;2.618372
4781.000000;2.617648
4780.000000;2.617339
4779.000000;2.616211
4778.000000;2.614253
4777.000000;2.611835
4776.000000;2.608589
4775.000000;2.604151
4774.000000;2.599424
4773.000000;2.596047
4772.000000;2.594813
4771.000000;2.595344
4770.000000;2.596919
4769.000000;2.598827
4768.000000;2.600232
4767.000000;2.600656
4766.000000;2.600530
4765.000000;2.600376
4764.000000;2.599454
4763.000000;2.596438
4762.000000;2.591699
4761.000000;2.587234
4760.000000;2.584155
4759.000000;2.581822
4758.000000;2.579662
4757.000000;2.578394
4756.000000;2.578573
4755.000000;2.578923
4754.000000;2.577379
4753.000000;2.573509
4752.000000;2.568846
4751.000000;2.564910
4750.000000;2.561899
4749.000000;2.559227
4748.000000;2.556449
4747.000000;2.553540
4746.000000;2.550812
4745.000000;2.548821
4744.000000;2.548057
4743.000000;2.548417
4742.000000;2.549002
4741.000000;2.548480
4740.000000;2.545836
4739.000000;2.541322
4738.000000;2.536848
4737.000000;2.534769
4736.000000;2.535685
4735.000000;2.537688
4734.000000;2.538333
4733.000000;2.537241
4732.000000;2.536062
4731.000000;2.535994
4730.000000;2.536283
4729.000000;2.535323
4728.000000;2.532514
4727.000000;2.528566
4726.000000;2.524350
4725.000000;2.520237
4724.000000;2.516619
4723.000000;2.514258
4722.000000;2.513573
4721.000000;2.513816
4720.000000;2.513537
4719.000000;2.512133
4718.000000;2.510525
4717.000000;2.509784
4716.000000;2.509403
4715.000000;2.507816
4714.000000;2.504681
4713.000000;2.501561
4712.000000;2.499817
4711.000000;2.498809
4710.000000;2.497022
4709.000000;2.494302
4708.000000;2.491825
4707.000000;2.490192
4706.000000;2.488773
4705.000000;2.487016
4704.000000;2.485356
4703.000000;2.484473
4702.000000;2.484442
4701.000000;2.485021
4700.000000;2.486062
4699.000000;2.487166
4698.000000;2.487538
4697.000000;2.486683
4696.000000;2.484753
4695.000000;2.481895
4694.000000;2.477913
4693.000000;2.473166
4692.000000;2.469228
4691.000000;2.467746
4690.000000;2.468645
4689.000000;2.469958
4688.000000;2.469573
4687.000000;2.466883
4686.000000;2.462865
4685.000000;2.459107
4684.000000;2.456779
4683.000000;2.455993
4682.000000;2.455915
4681.000000;2.455636
4680.000000;2.454959
4679.000000;2.454108
4678.000000;2.452846
4677.000000;2.450509
4676.000000;2.447077
4675.000000;2.443692
4674.000000;2.441672
4673.000000;2.441300
4672.000000;2.441865
4671.000000;2.442542
4670.000000;2.442785
4669.000000;2.442074
4668.000000;2.439915
4667.000000;2.436321
4666.000000;2.432083
4665.000000;2.428430
4664.000000;2.426446
4663.000000;2.426500
4662.000000;2.427891
4661.000000;2.429160
4660.000000;2.429181
4659.000000;2.428008
4658.000000;2.426481
4657.000000;2.425133
4656.000000;2.423836
4655.000000;2.422318
4654.000000;2.420473
4653.000000;2.418182
4652.000000;2.415487
4651.000000;2.413162
4650.000000;2.412419
4649.000000;2.413536
4648.000000;2.415172
4647.000000;2.415560
4646.000000;2.414172
4645.000000;2.411790
4644.000000;2.409352
4643.000000;2.407358
4642.000000;2.406036
4641.000000;2.405286
4640.000000;2.404608
4639.000000;2.403811
4638.000000;2.403610
4637.000000;2.404684
4636.000000;2.406150
4635.000000;2.405976
4634.000000;2.403307
4633.000000;2.399551
4632.000000;2.396660
4631.000000;2.395176
4630.000000;2.394411
4629.000000;2.393685
4628.000000;2.392595
4627.000000;2.390630
4626.000000;2.387615
4625.000000;2.384397
4624.000000;2.382253
4623.000000;2.381575
4622.000000;2.381579
4621.000000;2.381274
4620.000000;2.380288
4619.000000;2.378879
4618.000000;2.377687
4617.000000;2.377490
4616.000000;2.378626
4615.000000;2.380422
4614.000000;2.381532
4613.000000;2.381043
4612.000000;2.379018
4611.000000;2.375955
4610.000000;2.372262
4609.000000;2.368498
4608.000000;2.365614
4607.000000;2.364384
4606.000000;2.364592
4605.000000;2.365094
4604.000000;2.364833
4603.000000;2.363707
4602.000000;2.362388
4601.000000;2.361361
4600.000000;2.360373
4599.000000;2.358978
4598.000000;2.357490
4597.000000;2.356880
4596.000000;2.357546
4595.000000;2.358630
4594.000000;2.358970
4593.000000;2.358443
4592.000000;2.357867
4591.000000;2.357706
4590.000000;2.357481
4589.000000;2.356608
4588.000000;2.355244
4587.000000;2.353956
4586.000000;2.352998
4585.000000;2.352289
4584.000000;2.351748
4583.000000;2.351228
4582.000000;2.350372
4581.000000;2.349101
4580.000000;2.348194
4579.000000;2.348702
4578.000000;2.350485
4577.000000;2.351735
4576.000000;2.350534
4575.000000;2.346992
4574.000000;2.343351
4573.000000;2.341804
4572.000000;2.342570
4571.000000;2.344160
4570.000000;2.344998
4569.000000;2.344447
4568.000000;2.342552
4567.000000;2.339526
4566.000000;2.335792
4565.000000;2.332212
4564.000000;2.329831
4563.000000;2.329306
4562.000000;2.330549
4561.000000;2.332700
4560.000000;2.334374
4559.000000;2.334354
4558.000000;2.332512
4557.000000;2.329936
4556.000000;2.327837
4555.000000;2.326433
4554.000000;2.325165
4553.000000;2.323809
4552.000000;2.322892
4551.000000;2.322969
4550.000000;2.323833
4549.000000;2.324571
4548.000000;2.324315
4547.000000;2.322956
4546.000000;2.321310
4545.000000;2.320553
4544.000000;2.321198
4543.000000;2.322466
4542.000000;2.322897
4541.000000;2.321751
4540.000000;2.319728
4539.000000;2.318239
4538.000000;2.318179
4537.000000;2.319372
4536.000000;2.320899
4535.000000;2.321779
4534.000000;2.321524
4533.000000;2.320362
4532.000000;2.319047
4531.000000;2.318318
4530.000000;2.318191
4529.000000;2.317779
4528.000000;2.316231
4527.000000;2.313944
4526.000000;2.312381
4525.000000;2.312393
4524.000000;2.313089
4523.000000;2.312874
4522.000000;2.311453
4521.000000;2.309985
4520.000000;2.309264
4519.000000;2.308736
4518.000000;2.307653
4517.000000;2.306306
4516.000000;2.305522
4515.000000;2.305565
4514.000000;2.306242
4513.000000;2.307517
4512.000000;2.309163
4511.000000;2.310184
4510.000000;2.309630
4509.000000;2.307977
4508.000000;2.306825
4507.000000;2.307127
4506.000000;2.308332
4505.000000;2.309296
4504.000000;2.309360
4503.000000;2.308458
4502.000000;2.306969
4501.000000;2.305588
4500.000000;2.304754
4499.000000;2.304107
4498.000000;2.303073
4497.000000;2.302088
4496.000000;2.302502
4495.000000;2.304771
4494.000000;2.307336
4493.000000;2.308028
4492.000000;2.306508
4491.000000;2.304633
4490.000000;2.304399
4489.000000;2.306047
4488.000000;2.308078
4487.000000;2.308700
4486.000000;2.307419
4485.000000;2.305468
4484.000000;2.304682
4483.000000;2.305751
4482.000000;2.307504
4481.000000;2.308003
4480.000000;2.306504
4479.000000;2.304180
4478.000000;2.302835
4477.000000;2.303117
4476.000000;2.303992
4475.000000;2.303995
4474.000000;2.302945
4473.000000;2.302172
4472.000000;2.302915
4471.000000;2.304876
4470.000000;2.306654
4469.000000;2.307296
4468.000000;2.306859
4467.000000;2.305703
4466.000000;2.304059
4465.000000;2.302425
4464.000000;2.301649
4463.000000;2.302315
4462.000000;2.304508
4461.000000;2.308127
4460.000000;2.312911
4459.000000;2.318019
4458.000000;2.321892
4457.000000;2.322924
4456.000000;2.320502
4455.000000;2.315546
4454.000000;2.310335
4453.000000;2.307605
4452.000000;2.308898
4451.000000;2.313171
4450.000000;2.317377
4449.000000;2.319060
4448.000000;2.318324
4447.000000;2.317012
4446.000000;2.316628
4445.000000;2.317592
4444.000000;2.319785
4443.000000;2.322842
4442.000000;2.326002
4441.000000;2.328483
4440.000000;2.330123
4439.000000;2.331277
4438.000000;2.332297
4437.000000;2.333449
4436.000000;2.335021
4435.000000;2.337026
4434.000000;2.338941
4433.000000;2.340116
4432.000000;2.340317
4431.000000;2.339618
4430.000000;2.338144
4429.000000;2.336446
4428.000000;2.335808
4427.000000;2.337512
4426.000000;2.341681
4425.000000;2.347044
4424.000000;2.351892
4423.000000;2.355217
4422.000000;2.357256
4421.000000;2.359048
4420.000000;2.361007
4419.000000;2.361857
4418.000000;2.359879
4417.000000;2.355647
4416.000000;2.352472
4415.000000;2.353326
4414.000000;2.357862
4413.000000;2.363173
4412.000000;2.367164
4411.000000;2.370148
4410.000000;2.373331
4409.000000;2.376888
4408.000000;2.379538
4407.000000;2.379394
4406.000000;2.375716
4405.000000;2.370633
4404.000000;2.368453
4403.000000;2.372045
4402.000000;2.379884
4401.000000;2.387366
4400.000000;2.391423
4399.000000;2.392946
4398.000000;2.394207
4397.000000;2.395876
4396.000000;2.397584
4395.000000;2.399709
4394.000000;2.402817
4393.000000;2.406098
4392.000000;2.407887
4391.000000;2.407762
4390.000000;2.407138
4389.000000;2.407799
4388.000000;2.410601
4387.000000;2.415277
4386.000000;2.420587
4385.000000;2.424778
4384.000000;2.426793
4383.000000;2.427339
4382.000000;2.428259
4381.000000;2.430726
4380.000000;2.434319
4379.000000;2.437664
4378.000000;2.439453
4377.000000;2.439227
4376.000000;2.438027
4375.000000;2.438157
4374.000000;2.441452
4373.000000;2.447436
4372.000000;2.453556
4371.000000;2.457525
4370.000000;2.458908
4369.000000;2.458440
4368.000000;2.456917
4367.000000;2.455186
4366.000000;2.454090
4365.000000;2.453601
4364.000000;2.452826
4363.000000;2.451539
4362.000000;2.450848
4361.000000;2.451476
4360.000000;2.452149
4359.000000;2.451085
4358.000000;2.449110
4357.000000;2.449610
4356.000000;2.454887
4355.000000;2.463175
4354.000000;2.469649
4353.000000;2.470934
4352.000000;2.468250
4351.000000;2.465773
4350.000000;2.466518
4349.000000;2.469748
4348.000000;2.472019
4347.000000;2.470951
4346.000000;2.467911
4345.000000;2.466414
4344.000000;2.468220
4343.000000;2.471690
4342.000000;2.473980
4341.000000;2.474508
4340.000000;2.475651
4339.000000;2.480033
4338.000000;2.487739
4337.000000;2.496077
4336.000000;2.501832
4335.000000;2.503768
4334.000000;2.502584
4333.000000;2.499070
4332.000000;2.493824
4331.000000;2.488647
4330.000000;2.486431
4329.000000;2.488405
4328.000000;2.491980
4327.000000;2.492990
4326.000000;2.490478
4325.000000;2.487467
4324.000000;2.486381
4323.000000;2.485811
4322.000000;2.483217
4321.000000;2.479330
4320.000000;2.477860
4319.000000;2.481313
4318.000000;2.488529
4317.000000;2.496167
4316.000000;2.501581
4315.000000;2.504095
4314.000000;2.504571
4313.000000;2.504781
4312.000000;2.506417
4311.000000;2.509675
4310.000000;2.513069
4309.000000;2.515303
4308.000000;2.517065
4307.000000;2.520126
4306.000000;2.524507
4305.000000;2.527378
4304.000000;2.525770
4303.000000;2.520535
4302.000000;2.516410
4301.000000;2.517093
4300.000000;2.521232
4299.000000;2.523934
4298.000000;2.522332
4297.000000;2.518712
4296.000000;2.517075
4295.000000;2.518323
4294.000000;2.520569
4293.000000;2.522939
4292.000000;2.526356
4291.000000;2.530648
4290.000000;2.533571
4289.000000;2.533726
4288.000000;2.533158
4287.000000;2.536046
4286.000000;2.545128
4285.000000;2.558588
4284.000000;2.569429
4283.000000;2.569965
4282.000000;2.559818
4281.000000;2.548186
4280.000000;2.546017
4279.000000;2.556119
4278.000000;2.570344
4277.000000;2.577474
4276.000000;2.574332
4275.000000;2.566447
4274.000000;2.560587
4273.000000;2.560185
4272.000000;2.565557
4271.000000;2.574908
4270.000000;2.584643
4269.000000;2.590608
4268.000000;2.590825
4267.000000;2.587047
4266.000000;2.583062
4265.000000;2.581839
4264.000000;2.584091
4263.000000;2.588386
4262.000000;2.592232
4261.000000;2.593662
4260.000000;2.592380
4259.000000;2.589992
4258.000000;2.589545
4257.000000;2.593301
4256.000000;2.599335
4255.000000;2.602554
4254.000000;2.601997
4253.000000;2.603829
4252.000000;2.613378
4251.000000;2.626734
4250.000000;2.633339
4249.000000;2.628032
4248.000000;2.616607
4247.000000;2.606831
4246.000000;2.600130
4245.000000;2.593822
4244.000000;2.587077
4243.000000;2.582007
4242.000000;2.581455
4241.000000;2.587782
4240.000000;2.601063
4239.000000;2.616575
4238.000000;2.627263
4237.000000;2.631822
4236.000000;2.636078
4235.000000;2.642514
4234.000000;2.643911
4233.000000;2.632476
4232.000000;2.612481
4231.000000;2.598144
4230.000000;2.599335
4229.000000;2.612802
4228.000000;2.625788
4227.000000;2.627747
4226.000000;2.620488
4225.000000;2.615627
4224.000000;2.622173
4223.000000;2.637510
4222.000000;2.649131
4221.000000;2.647386
4220.000000;2.637255
4219.000000;2.632049
4218.000000;2.637934
4217.000000;2.649761
4216.000000;2.660377
4215.000000;2.668036
4214.000000;2.672683
4213.000000;2.672740
4212.000000;2.667882
4211.000000;2.660428
4210.000000;2.653395
4209.000000;2.650352
4208.000000;2.654891
4207.000000;2.665068
4206.000000;2.671770
4205.000000;2.667856
4204.000000;2.654857
4203.000000;2.640170
4202.000000;2.632562
4201.000000;2.637239
4200.000000;2.651860
4199.000000;2.667523
4198.000000;2.675936
4197.000000;2.677631
4196.000000;2.678623
4195.000000;2.681383
4194.000000;2.685666
4193.000000;2.687143
4192.000000;2.682593
4191.000000;2.682084
4190.000000;2.693432
4189.000000;2.705998
4188.000000;2.702338
4187.000000;2.683837
4186.000000;2.671448
4185.000000;2.680624
4184.000000;2.707427
4183.000000;2.731109
4182.000000;2.730020
4181.000000;2.701696
4180.000000;2.663400
4179.000000;2.634682
4178.000000;2.627707
4177.000000;2.646533
4176.000000;2.680771
4175.000000;2.705365
4174.000000;2.707769
4173.000000;2.696498
4172.000000;2.680241
4171.000000;2.665335
4170.000000;2.660370
4169.000000;2.674083
4168.000000;2.706293
4167.000000;2.739120
4166.000000;2.751492
4165.000000;2.743567
4164.000000;2.732684
4163.000000;2.735679
4162.000000;2.750362
4161.000000;2.758394
4160.000000;2.751312
4159.000000;2.740540
4158.000000;2.733279
4157.000000;2.717434
4156.000000;2.687749
4155.000000;2.658834
4154.000000;2.645556
4153.000000;2.656903
4152.000000;2.687802
4151.000000;2.715066
4150.000000;2.716686
4149.000000;2.695433
4148.000000;2.674309
4147.000000;2.669291
4146.000000;2.680663
4145.000000;2.700116
4144.000000;2.712559
4143.000000;2.705872
4142.000000;2.688654
4141.000000;2.678503
4140.000000;2.685955
4139.000000;2.708422
4138.000000;2.727768
4137.000000;2.724947
4136.000000;2.713895
4135.000000;2.728320
4134.000000;2.780622
4133.000000;2.850160
4132.000000;2.888759
4131.000000;2.863734
4130.000000;2.807765
4129.000000;2.767018
4128.000000;2.738035
4127.000000;2.682192
4126.000000;2.601941
4125.000000;2.543458
4124.000000;2.534437
4123.000000;2.572949
4122.000000;2.634396
4121.000000;2.685738
4120.000000;2.716817
4119.000000;2.743101
4118.000000;2.772596
4117.000000;2.797501
4116.000000;2.804903
4115.000000;2.795664
4114.000000;2.762661
4113.000000;2.708449
4112.000000;2.677055
4111.000000;2.683161
4110.000000;2.691762
4109.000000;2.669327
4108.000000;2.638151
4107.000000;2.639850
4106.000000;2.675896
4105.000000;2.697358
4104.000000;2.660907
4103.000000;2.592123
4102.000000;2.539514
4101.000000;2.522849
4100.000000;2.534788
4099.000000;2.556841
4098.000000;2.570645
4097.000000;2.566344
4096.000000;2.552283
4095.000000;2.547883
4094.000000;2.558993
4093.000000;2.565451
4092.000000;2.541895
4091.000000;2.511222
4090.000000;2.521719
4089.000000;2.582412
4088.000000;2.643451
4087.000000;2.659408
4086.000000;2.655238
4085.000000;2.650408
4084.000000;2.645467
4083.000000;2.639010
4082.000000;2.625264
4081.000000;2.600991
4080.000000;2.568280
4079.000000;2.531150
4078.000000;2.498659
4077.000000;2.484984
4076.000000;2.491709
4075.000000;2.502775
4074.000000;2.506871
4073.000000;2.493145
4072.000000;2.465452
4071.000000;2.444308
4070.000000;2.429011
4069.000000;2.412598
4068.000000;2.403555
4067.000000;2.417976
4066.000000;2.458343
4065.000000;2.493907
4064.000000;2.488543
4063.000000;2.457217
4062.000000;2.441481
4061.000000;2.457996
4060.000000;2.497635
4059.000000;2.541805
4058.000000;2.556285
4057.000000;2.518613
4056.000000;2.469563
4055.000000;2.446758
4054.000000;2.460404
4053.000000;2.501427
4052.000000;2.534784
4051.000000;2.538152
4050.000000;2.538609
4049.000000;2.566647
4048.000000;2.614868
4047.000000;2.652742
4046.000000;2.648882
4045.000000;2.573764
4044.000000;2.456328
4043.000000;2.361892
4042.000000;2.331141
4041.000000;2.380384
4040.000000;2.502806
4039.000000;2.654868
4038.000000;2.735492
4037.000000;2.749864
4036.000000;2.811000
4035.000000;2.906451
4034.000000;2.851884
4033.000000;2.693074
4032.000000;2.634499
4031.000000;2.713146
4030.000000;2.853653
4029.000000;2.819307
4028.000000;2.663686
4027.000000;2.528224
4026.000000;2.447330
4025.000000;2.436366
4024.000000;2.495849
4023.000000;2.615027
4022.000000;2.765284
4021.000000;2.894294
4020.000000;2.921166
4019.000000;2.826707
4018.000000;2.675504
4017.000000;2.538350
4016.000000;2.471305
4015.000000;2.489588
4014.000000;2.541511
4013.000000;2.553017
4012.000000;2.557681
4011.000000;2.603286
4010.000000;2.672578
4009.000000;2.695865
4008.000000;2.644299
4007.000000;2.598570
4006.000000;2.628473
4005.000000;2.687128
4004.000000;2.599934
4003.000000;2.486282
4002.000000;2.468609
4001.000000;2.544054
4000.000000;2.692538
3999.000000;2.856091
3998.000000;2.952855
3997.000000;3.026515
3996.000000;2.962104
3995.000000;2.802221
3994.000000;2.725842
3993.000000;2.704494
3992.000000;2.694782
3991.000000;2.681821
3990.000000;2.669040
3989.000000;2.639991
3988.000000;2.576634
3987.000000;2.499291
3986.000000;2.437821
3985.000000;2.403604
3984.000000;2.404358
3983.000000;2.453563
3982.000000;2.556531
3981.000000;2.685742
3980.000000;2.776168
3979.000000;2.804241
3978.000000;2.817226
3977.000000;2.808057
3976.000000;2.709878
3975.000000;2.567714
3974.000000;2.480662
3973.000000;2.488104
3972.000000;2.597339
3971.000000;2.803402
3970.000000;3.023803
3969.000000;3.109263
3968.000000;3.224340
3967.000000;3.436542
3966.000000;3.487752
3965.000000;3.361866
3964.000000;3.089963
3963.000000;2.953937
3962.000000;3.022103
3961.000000;3.352435
3960.000000;3.758354
3959.000000;3.294457
3958.000000;3.078341
3957.000000;2.950078
3956.000000;2.826151
3955.000000;2.759161
3954.000000;2.769122
3953.000000;2.830877
3952.000000;2.922166
3951.000000;3.025213
3950.000000;3.004971
3949.000000;2.926998
3948.000000;2.935228
3947.000000;3.005050
3946.000000;3.117018
3945.000000;3.104254
3944.000000;2.879858
3943.000000;2.718838
3942.000000;2.661342
3941.000000;2.689404
3940.000000;2.806247
3939.000000;2.940030
3938.000000;2.961590
3937.000000;3.009741
3936.000000;3.305129
3935.000000;3.744346
3934.000000;3.581032
3933.000000;3.734633
3932.000000;3.226959
3931.000000;2.971758
3930.000000;2.907678
3929.000000;2.887493
3928.000000;2.876736
3927.000000;2.932057
3926.000000;3.074345
3925.000000;3.099412
3924.000000;3.029454
3923.000000;3.062006
3922.000000;3.153185
3921.000000;3.123054
3920.000000;3.063160
3919.000000;3.083582
3918.000000;3.408636
3917.000000;3.738586
3916.000000;3.164484
3915.000000;2.969939
3914.000000;2.876929
3913.000000;2.807051
3912.000000;2.748483
3911.000000;2.724172
3910.000000;2.706329
3909.000000;2.673833
3908.000000;2.660604
3907.000000;2.695282
3906.000000;2.783582
3905.000000;2.898661
3904.000000;3.006999
3903.000000;3.131721
3902.000000;3.361822
3901.000000;3.327514
3900.000000;3.076846
3899.000000;2.997065
3898.000000;3.023966
3897.000000;3.119567
3896.000000;3.332981
3895.000000;3.798384
3894.000000;3.676089
3893.000000;3.459377
3892.000000;3.461319
3891.000000;3.299366
3890.000000;3.176601
3889.000000;3.099740
3888.000000;3.035137
3887.000000;3.036669
3886.000000;3.156622
3885.000000;3.380860
3884.000000;3.397158
3883.000000;3.156446
3882.000000;3.039348
3881.000000;3.156080
3880.000000;3.497395
3879.000000;3.857441
3878.000000;3.929137
3877.000000;3.372560
3876.000000;3.155621
3875.000000;3.202276
3874.000000;3.455527
3873.000000;3.861798
3872.000000;3.497767
3871.000000;3.502974
3870.000000;3.566537
3869.000000;3.188969
3868.000000;2.973092
3867.000000;2.853064
3866.000000;2.814689
3865.000000;2.857974
3864.000000;2.991520
3863.000000;3.240672
3862.000000;3.318728
3861.000000;3.199361
3860.000000;3.218410
3859.000000;3.354888
3858.000000;3.634242
3857.000000;3.638701
3856.000000;3.334171
3855.000000;3.337268
3854.000000;3.494441
3853.000000;3.529923
3852.000000;3.453629
3851.000000;3.329714
3850.000000;3.276345
3849.000000;3.443694
3848.000000;3.807016
3847.000000;3.437424
3846.000000;3.502599
3845.000000;3.941397
3844.000000;3.417531
3843.000000;3.300684
3842.000000;3.509972
3841.000000;3.920109
3840.000000;3.436910
3839.000000;3.228374
3838.000000;3.181566
3837.000000;3.170041
3836.000000;3.137926
3835.000000;3.080255
3834.000000;3.033813
3833.000000;3.084443
3832.000000;3.211137
3831.000000;3.159842
3830.000000;3.054635
3829.000000;3.069265
3828.000000;3.144470
3827.000000;3.134640
3826.000000;3.073085
3825.000000;2.997591
3824.000000;2.911276
3823.000000;2.946582
3822.000000;3.140651
3821.000000;3.330131
3820.000000;3.459594
3819.000000;3.473434
3818.000000;3.332752
3817.000000;3.222191
3816.000000;3.194011
3815.000000;3.217178
3814.000000;3.223590
3813.000000;3.201455
3812.000000;3.183926
3811.000000;3.388593
3810.000000;3.595567
3809.000000;3.060759
3808.000000;2.921340
3807.000000;3.186532
3806.000000;3.644298
3805.000000;3.248234
3804.000000;2.986171
3803.000000;2.985815
3802.000000;3.065009
3801.000000;3.121337
3800.000000;3.178647
3799.000000;3.261279
3798.000000;3.334427
3797.000000;3.409923
3796.000000;3.380540
3795.000000;3.195546
3794.000000;2.994510
3793.000000;2.858193
3792.000000;2.793017
3791.000000;2.746697
3790.000000;2.699618
3789.000000;2.697051
3788.000000;2.773783
3787.000000;2.951262
3786.000000;3.162089
3785.000000;3.242661
3784.000000;3.343218
3783.000000;3.707443
3782.000000;3.835376
3781.000000;3.379711
3780.000000;3.281969
3779.000000;3.358446
3778.000000;3.637212
3777.000000;3.853865
3776.000000;3.419192
3775.000000;3.195442
3774.000000;3.225877
3773.000000;3.606063
3772.000000;3.089655
3771.000000;2.819997
3770.000000;2.824078
3769.000000;2.926285
3768.000000;3.082938
3767.000000;3.293272
3766.000000;3.482196
3765.000000;3.393118
3764.000000;3.156561
3763.000000;2.928725
3762.000000;2.809617
3761.000000;2.836880
3760.000000;3.122659
3759.000000;3.545611
3758.000000;3.198392
3757.000000;3.072606
3756.000000;3.104172
3755.000000;3.209488
3754.000000;3.350747
3753.000000;3.397637
3752.000000;3.327191
3751.000000;3.229190
3750.000000;3.205052
3749.000000;3.255138
3748.000000;3.328923
3747.000000;3.222632
3746.000000;2.940669
3745.000000;2.871737
3744.000000;2.982440
3743.000000;3.102687
3742.000000;3.214981
3741.000000;3.356679
3740.000000;3.485952
3739.000000;3.495402
3738.000000;3.357113
3737.000000;3.238211
3736.000000;3.201969
3735.000000;3.233089
3734.000000;3.293504
3733.000000;3.216354
3732.000000;3.130043
3731.000000;3.148273
3730.000000;3.184379
3729.000000;3.170437
3728.000000;3.170859
3727.000000;3.210088
3726.000000;3.218463
3725.000000;3.208741
3724.000000;3.249993
3723.000000;3.348036
3722.000000;3.380402
3721.000000;3.335997
3720.000000;3.316596
3719.000000;3.378894
3718.000000;3.521708
3717.000000;3.422172
3716.000000;3.243737
3715.000000;3.194349
3714.000000;3.239426
3713.000000;3.325163
3712.000000;3.419595
3711.000000;3.451571
3710.000000;3.428311
3709.000000;3.461772
3708.000000;3.584301
3707.000000;3.679079
3706.000000;3.652059
3705.000000;3.547806
3704.000000;3.458657
3703.000000;3.340869
3702.000000;3.105681
3701.000000;2.965487
3700.000000;2.925891
3699.000000;2.910182
3698.000000;2.958852
3697.000000;3.183231
3696.000000;3.471286
3695.000000;3.350818
3694.000000;3.233761
3693.000000;3.180070
3692.000000;3.273565
3691.000000;3.643989
3690.000000;3.268270
3689.000000;3.036809
3688.000000;3.027788
3687.000000;3.082369
3686.000000;3.187418
3685.000000;3.516492
3684.000000;3.887551
3683.000000;3.424152
3682.000000;3.520539
3681.000000;3.602407
3680.000000;3.407856
3679.000000;3.478876
3678.000000;3.723198
3677.000000;3.554303
3676.000000;3.431675
3675.000000;3.438622
3674.000000;3.437288
3673.000000;3.457872
3672.000000;3.432618
3671.000000;3.317374
3670.000000;3.196511
3669.000000;3.170768
3668.000000;3.261594
3667.000000;3.364808
3666.000000;3.370327
3665.000000;3.386625
3664.000000;3.343438
3663.000000;3.296985
3662.000000;3.408656
3661.000000;3.550982
3660.000000;3.395691
3659.000000;3.114351
3658.000000;2.891304
3657.000000;2.821635
3656.000000;2.891250
3655.000000;3.039974
3654.000000;3.200997
3653.000000;3.105549
3652.000000;2.957596
3651.000000;3.035094
3650.000000;3.181460
3649.000000;3.135451
3648.000000;3.094569
3647.000000;3.128929
3646.000000;3.149410
3645.000000;3.196982
3644.000000;3.323845
3643.000000;3.317460
3642.000000;3.135584
3641.000000;3.000789
3640.000000;2.963801
3639.000000;3.025062
3638.000000;3.145323
3637.000000;3.179496
3636.000000;3.070340
3635.000000;3.017016
3634.000000;3.030929
3633.000000;3.041506
3632.000000;3.009418
3631.000000;3.133811
3630.000000;3.529013
3629.000000;3.308270
3628.000000;3.171671
3627.000000;3.136777
3626.000000;3.085088
3625.000000;3.099978
3624.000000;3.183829
3623.000000;3.393899
3622.000000;3.626867
3621.000000;3.480367
3620.000000;3.455619
3619.000000;3.657780
3618.000000;3.536618
3617.000000;3.300157
3616.000000;3.133583
3615.000000;2.989242
3614.000000;2.882308
3613.000000;2.818987
3612.000000;2.809260
3611.000000;2.872182
3610.000000;2.975992
3609.000000;3.015600
3608.000000;3.005393
3607.000000;3.009352
3606.000000;3.040623
3605.000000;3.078431
3604.000000;3.065672
3603.000000;3.007857
3602.000000;2.974342
3601.000000;2.986467
3600.000000;3.021695
3599.000000;3.048277
3598.000000;3.033099
3597.000000;2.985897
3596.000000;2.970540
3595.000000;3.050110
3594.000000;3.262267
3593.000000;3.711735
3592.000000;4.013776
3591.000000;3.651199
3590.000000;3.515812
3589.000000;3.514341
3588.000000;3.695151
3587.000000;3.806253
3586.000000;3.477643
3585.000000;3.207966
3584.000000;3.064313
3583.000000;3.069675
3582.000000;3.208437
3581.000000;3.274662
3580.000000;3.341880
3579.000000;3.259160
3578.000000;2.990876
3577.000000;2.885853
3576.000000;2.939082
3575.000000;3.153908
3574.000000;3.178205
3573.000000;2.927912
3572.000000;2.843863
3571.000000;2.897736
3570.000000;3.064823
3569.000000;3.289521
3568.000000;3.560300
3567.000000;4.152283
3566.000000;4.002447
3565.000000;3.478568
3564.000000;3.213594
3563.000000;3.098606
3562.000000;3.157568
3561.000000;3.427341
3560.000000;3.881359
3559.000000;3.959069
3558.000000;3.740812
3557.000000;3.435666
3556.000000;3.228667
3555.000000;3.210679
3554.000000;3.354794
3553.000000;3.356524
3552.000000;3.165316
3551.000000;3.085699
3550.000000;3.132234
3549.000000;3.263795
3548.000000;3.519855
3547.000000;4.026698
3546.000000;3.850349
3545.000000;3.549547
3544.000000;3.521032
3543.000000;3.360552
3542.000000;3.047218
3541.000000;2.861901
3540.000000;2.831589
3539.000000;2.914966
3538.000000;3.055353
3537.000000;3.213089
3536.000000;3.487860
3535.000000;3.842303
3534.000000;3.675507
3533.000000;3.701495
3532.000000;4.282509
3531.000000;4.606468
3530.000000;3.856823
3529.000000;3.456489
3528.000000;3.310999
3527.000000;3.355949
3526.000000;3.416706
3525.000000;3.313858
3524.000000;3.225626
3523.000000;3.269180
3522.000000;3.374797
3521.000000;3.204804
3520.000000;2.964838
3519.000000;2.869606
3518.000000;2.912765
3517.000000;3.074645
3516.000000;3.300041
3515.000000;3.339713
3514.000000;3.181244
3513.000000;3.139667
3512.000000;3.253783
3511.000000;3.517712
3510.000000;4.005519
3509.000000;4.309876
3508.000000;3.838369
3507.000000;3.499411
3506.000000;3.278430
3505.000000;3.221455
3504.000000;3.374058
3503.000000;3.453263
3502.000000;3.332805
3501.000000;3.303165
3500.000000;3.238670
3499.000000;3.197619
3498.000000;3.203456
3497.000000;3.154616
3496.000000;3.113074
3495.000000;3.253144
3494.000000;3.544253
3493.000000;3.268023
3492.000000;3.058710
3491.000000;3.038077
3490.000000;3.154328
3489.000000;3.432665
3488.000000;3.478402
3487.000000;3.346212
3486.000000;3.386914
3485.000000;3.372696
3484.000000;3.437058
3483.000000;3.636396
3482.000000;3.338482
3481.000000;3.174381
3480.000000;3.312375
3479.000000;3.725591
3478.000000;4.181781
3477.000000;3.620473
3476.000000;3.331439
3475.000000;3.295729
3474.000000;3.501453
3473.000000;3.729046
3472.000000;3.335317
3471.000000;3.092125
3470.000000;3.029024
3469.000000;3.098866
3468.000000;3.271530
3467.000000;3.379219
3466.000000;3.391749
3465.000000;3.335576
3464.000000;3.165046
3463.000000;3.024865
3462.000000;3.016985
3461.000000;3.150584
3460.000000;3.196507
3459.000000;3.115315
3458.000000;3.185431
3457.000000;3.412300
3456.000000;3.529072
3455.000000;3.398111
3454.000000;3.223085
3453.000000;3.129034
3452.000000;3.126774
3451.000000;3.275222
3450.000000;3.826789
3449.000000;3.783197
3448.000000;3.348436
3447.000000;3.153917
3446.000000;3.024863
3445.000000;2.968535
3444.000000;2.965607
3443.000000;3.002792
3442.000000;3.131210
3441.000000;3.328717
3440.000000;3.213456
3439.000000;3.081536
3438.000000;3.061314
3437.000000;3.021509
3436.000000;3.000454
3435.000000;3.045751
3434.000000;3.221417
3433.000000;3.310185
3432.000000;3.102161
3431.000000;2.969942
3430.000000;2.920014
3429.000000;2.935836
3428.000000;3.027611
3427.000000;3.124196
3426.000000;3.185119
3425.000000;3.447123
3424.000000;3.785289
3423.000000;3.288980
3422.000000;3.082837
3421.000000;3.049975
3420.000000;3.115989
3419.000000;3.189686
3418.000000;3.425716
3417.000000;3.768816
3416.000000;3.124786
3415.000000;2.947068
3414.000000;3.000586
3413.000000;3.091128
3412.000000;3.177695
3411.000000;3.196654
3410.000000;3.084119
3409.000000;2.963892
3408.000000;2.892124
3407.000000;2.824616
3406.000000;2.779384
3405.000000;2.790283
3404.000000;2.877554
3403.000000;3.071580
3402.000000;3.388908
3401.000000;3.343624
3400.000000;3.178659
3399.000000;3.229547
3398.000000;3.460696
3397.000000;3.610587
3396.000000;3.376999
3395.000000;3.259329
3394.000000;3.449378
3393.000000;3.614628
3392.000000;3.180449
3391.000000;2.963223
3390.000000;2.872627
3389.000000;2.810622
3388.000000;2.779250
3387.000000;2.771090
3386.000000;2.806266
3385.000000;2.887661
3384.000000;2.963956
3383.000000;2.988461
3382.000000;3.011829
3381.000000;3.059924
3380.000000;3.137416
3379.000000;3.204878
3378.000000;3.197642
3377.000000;3.172245
3376.000000;3.178927
3375.000000;3.233929
3374.000000;3.281891
3373.000000;3.239228
3372.000000;3.267393
3371.000000;3.424290
3370.000000;3.414167
3369.000000;3.262871
3368.000000;3.269903
3367.000000;3.236620
3366.000000;3.198797
3365.000000;3.447247
3364.000000;3.328651
3363.000000;3.064375
3362.000000;3.059998
3361.000000;3.154037
3360.000000;3.283577
3359.000000;3.447095
3358.000000;3.612743
3357.000000;3.728279
3356.000000;3.930584
3355.000000;3.652442
3354.000000;3.523572
3353.000000;3.665945
3352.000000;3.144984
3351.000000;2.813326
3350.000000;2.741874
3349.000000;2.811671
3348.000000;3.023668
3347.000000;3.340777
3346.000000;3.606846
3345.000000;4.254654
3344.000000;3.752252
3343.000000;3.426058
3342.000000;3.485495
3341.000000;3.631930
3340.000000;3.894975
3339.000000;3.698946
3338.000000;3.343238
3337.000000;3.150318
3336.000000;3.068270
3335.000000;3.083206
3334.000000;3.180343
3333.000000;3.450933
3332.000000;3.622026
3331.000000;3.267064
3330.000000;3.089661
3329.000000;3.056949
3328.000000;3.104510
3327.000000;3.126820
3326.000000;3.034802
3325.000000;2.940611
3324.000000;2.907038
3323.000000;2.956062
3322.000000;3.080039
3321.000000;3.104646
3320.000000;2.955333
3319.000000;2.843056
3318.000000;2.817331
3317.000000;2.878841
3316.000000;3.039046
3315.000000;3.309126
3314.000000;3.656520
3313.000000;3.756753
3312.000000;3.676196
3311.000000;3.706866
3310.000000;3.613363
3309.000000;3.401038
3308.000000;3.285838
3307.000000;3.212902
3306.000000;3.111898
3305.000000;3.018782
3304.000000;2.966173
3303.000000;2.950775
3302.000000;2.937672
3301.000000;2.920854
3300.000000;2.923095
3299.000000;2.969245
3298.000000;3.059919
3297.000000;3.210449
3296.000000;3.575263
3295.000000;3.549759
3294.000000;3.117614
3293.000000;2.910487
3292.000000;2.821750
3291.000000;2.830394
3290.000000;2.918571
3289.000000;3.042989
3288.000000;3.143455
3287.000000;3.185284
3286.000000;3.180825
3285.000000;3.100638
3284.000000;2.986681
3283.000000;2.921193
3282.000000;2.954436
3281.000000;3.090959
3280.000000;3.331162
3279.000000;3.437657
3278.000000;3.193650
3277.000000;3.000467
3276.000000;2.903197
3275.000000;2.903311
3274.000000;2.994846
3273.000000;3.059970
3272.000000;3.081417
3271.000000;3.142163
3270.000000;3.150559
3269.000000;3.049083
3268.000000;2.960621
3267.000000;2.935838
3266.000000;3.034342
3265.000000;3.225001
3264.000000;3.466852
3263.000000;3.911721
3262.000000;3.488918
3261.000000;3.196138
3260.000000;3.158197
3259.000000;3.175838
3258.000000;3.248663
3257.000000;3.327223
3256.000000;3.384181
3255.000000;3.366965
3254.000000;3.269005
3253.000000;3.150790
3252.000000;3.304695
3251.000000;3.665559
3250.000000;3.282477
3249.000000;3.064003
3248.000000;2.959086
3247.000000;2.908226
3246.000000;2.967758
3245.000000;3.265980
3244.000000;3.463865
3243.000000;3.142046
3242.000000;3.083229
3241.000000;3.123569
3240.000000;3.154129
3239.000000;3.128452
3238.000000;3.036222
3237.000000;2.987759
3236.000000;2.988611
3235.000000;3.072538
3234.000000;3.275270
3233.000000;3.273923
3232.000000;3.107380
3231.000000;3.106731
3230.000000;3.219913
3229.000000;3.569389
3228.000000;3.724075
3227.000000;3.220227
3226.000000;3.061607
3225.000000;3.046592
3224.000000;3.032941
3223.000000;2.957222
3222.000000;2.884602
3221.000000;2.969823
3220.000000;3.210835
3219.000000;3.179299
3218.000000;3.069245
3217.000000;3.188364
3216.000000;3.251270
3215.000000;3.119093
3214.000000;3.044489
3213.000000;3.110137
3212.000000;3.203698
3211.000000;3.163046
3210.000000;3.115409
3209.000000;3.124383
3208.000000;3.127645
3207.000000;3.050293
3206.000000;2.986531
3205.000000;3.020763
3204.000000;3.128487
3203.000000;3.305126
3202.000000;3.255301
3201.000000;2.969671
3200.000000;2.825842
3199.000000;2.830578
3198.000000;2.967738
3197.000000;3.218221
3196.000000;3.380371
3195.000000;3.326171
3194.000000;3.231244
3193.000000;3.176800
3192.000000;3.182017
3191.000000;3.197304
3190.000000;3.179513
3189.000000;3.177084
3188.000000;3.218279
3187.000000;3.271188
3186.000000;3.289169
3185.000000;3.255478
3184.000000;3.171576
3183.000000;3.056005
3182.000000;2.953843
3181.000000;2.924691
3180.000000;3.002787
3179.000000;3.213265
3178.000000;3.466325
3177.000000;3.379370
3176.000000;3.159579
3175.000000;3.052836
3174.000000;3.069753
3173.000000;3.291124
3172.000000;3.315086
3171.000000;2.967415
3170.000000;2.834159
3169.000000;2.861142
3168.000000;2.988607
3167.000000;3.158173
3166.000000;3.273795
3165.000000;3.257620
3164.000000;3.138633
3163.000000;3.089965
3162.000000;3.116899
3161.000000;3.163470
3160.000000;3.204603
3159.000000;3.257690
3158.000000;3.277516
3157.000000;3.249081
3156.000000;3.233764
3155.000000;3.256261
3154.000000;3.297809
3153.000000;3.404946
3152.000000;3.579928
3151.000000;3.578244
3150.000000;3.486482
3149.000000;3.394964
3148.000000;3.311253
3147.000000;3.367793
3146.000000;3.392264
3145.000000;3.188722
3144.000000;3.034085
3143.000000;2.969276
3142.000000;2.983679
3141.000000;3.090956
3140.000000;3.261570
3139.000000;3.600885
3138.000000;3.926895
3137.000000;3.513451
3136.000000;3.223085
3135.000000;3.089148
3134.000000;3.123478
3133.000000;3.349014
3132.000000;3.686635
3131.000000;3.712611
3130.000000;3.839422
3129.000000;3.972988
3128.000000;3.354773
3127.000000;3.024478
3126.000000;2.874124
3125.000000;2.855399
3124.000000;2.979098
3123.000000;3.065294
3122.000000;2.982038
3121.000000;2.977004
3120.000000;3.053497
3119.000000;3.081775
3118.000000;3.095691
3117.000000;3.161581
3116.000000;3.191187
3115.000000;3.166667
3114.000000;3.343623
3113.000000;3.839128
3112.000000;3.842515
3111.000000;3.504193
3110.000000;3.380582
3109.000000;3.564893
3108.000000;3.437309
3107.000000;3.084742
3106.000000;2.951284
3105.000000;2.948901
3104.000000;3.046297
3103.000000;3.274749
3102.000000;3.738914
3101.000000;3.722225
3100.000000;3.390775
3099.000000;3.116357
3098.000000;2.930479
3097.000000;2.882685
3096.000000;2.889480
3095.000000;2.947565
3094.000000;3.038668
3093.000000;3.016763
3092.000000;2.960826
3091.000000;3.052209
3090.000000;3.409920
3089.000000;3.442615
3088.000000;3.084503
3087.000000;3.044217
3086.000000;3.203455
3085.000000;3.126350
3084.000000;2.869747
3083.000000;2.754436
3082.000000;2.738915
3081.000000;2.793973
3080.000000;2.947101
3079.000000;3.247045
3078.000000;3.764105
3077.000000;4.012382
3076.000000;3.633904
3075.000000;3.458863
3074.000000;3.424980
3073.000000;3.447096
3072.000000;3.550651
3071.000000;3.599791
3070.000000;3.455254
3069.000000;3.156818
3068.000000;2.941752
3067.000000;2.817465
3066.000000;2.791298
3065.000000;2.840577
3064.000000;3.091362
3063.000000;3.622897
3062.000000;3.224043
3061.000000;3.028385
3060.000000;2.973652
3059.000000;2.924898
3058.000000;2.934434
3057.000000;2.968111
3056.000000;3.027985
3055.000000;3.161579
3054.000000;3.335370
3053.000000;3.211072
3052.000000;3.083616
3051.000000;3.113924
3050.000000;3.206354
3049.000000;3.186168
3048.000000;3.104625
3047.000000;3.137443
3046.000000;3.224365
3045.000000;3.175277
3044.000000;3.090462
3043.000000;3.078214
3042.000000;3.113857
3041.000000;3.161838
3040.000000;3.185635
3039.000000;3.145397
3038.000000;3.115310
3037.000000;3.113067
3036.000000;3.070372
3035.000000;3.072923
3034.000000;3.160483
3033.000000;3.532542
3032.000000;3.879004
3031.000000;3.256655
3030.000000;3.099780
3029.000000;3.317165
3028.000000;3.547991
3027.000000;3.126614
3026.000000;2.947902
3025.000000;2.953769
3024.000000;3.044108
3023.000000;3.165973
3022.000000;3.170507
3021.000000;3.169767
3020.000000;3.177486
3019.000000;3.135835
3018.000000;3.145082
3017.000000;3.260492
3016.000000;3.386826
3015.000000;3.361928
3014.000000;3.241001
3013.000000;3.074840
3012.000000;2.955025
3011.000000;2.899930
3010.000000;3.054825
3009.000000;3.485409
3008.000000;3.190634
3007.000000;2.999420
3006.000000;3.035633
3005.000000;3.121995
3004.000000;3.207418
3003.000000;3.217896
3002.000000;3.193284
3001.000000;3.252448
3000.000000;3.582613
2999.000000;3.443131
2998.000000;3.147119
2997.000000;3.178558
2996.000000;3.309980
2995.000000;3.180164
2994.000000;3.022369
2993.000000;2.997225
2992.000000;3.054937
2991.000000;3.152502
2990.000000;3.299417
2989.000000;3.461686
2988.000000;3.335377
2987.000000;3.174570
2986.000000;3.144632
2985.000000;3.170786
2984.000000;3.191205
2983.000000;3.146070
2982.000000;3.086044
2981.000000;3.125233
2980.000000;3.321078
2979.000000;3.308098
2978.000000;3.067569
2977.000000;2.923106
2976.000000;2.859269
2975.000000;2.877908
2974.000000;3.014203
2973.000000;3.378177
2972.000000;3.391576
2971.000000;3.094625
2970.000000;3.033397
2969.000000;2.994349
2968.000000;2.932554
2967.000000;2.908098
2966.000000;2.989878
2965.000000;3.196096
2964.000000;3.478391
2963.000000;3.935113
2962.000000;3.854745
2961.000000;3.626439
2960.000000;3.585132
2959.000000;3.500105
2958.000000;3.399214
2957.000000;3.558740
2956.000000;4.106442
2955.000000;3.592925
2954.000000;3.415318
2953.000000;3.682193
2952.000000;3.692927
2951.000000;3.244145
2950.000000;3.029542
2949.000000;2.929765
2948.000000;2.917787
2947.000000;2.998392
2946.000000;3.107285
2945.000000;3.117570
2944.000000;2.992094
2943.000000;2.917558
2942.000000;2.974648
2941.000000;3.154349
2940.000000;3.337074
2939.000000;3.458185
2938.000000;3.789197
2937.000000;4.162905
2936.000000;3.804324
2935.000000;3.617345
2934.000000;3.636757
2933.000000;3.665497
2932.000000;3.549887
2931.000000;3.425621
2930.000000;3.249264
2929.000000;3.066066
2928.000000;2.922401
2927.000000;2.864001
2926.000000;2.900116
2925.000000;3.152440
2924.000000;3.407489
2923.000000;3.209980
2922.000000;3.434276
2921.000000;3.224911
2920.000000;2.802030
2919.000000;2.679839
2918.000000;2.655900
2917.000000;2.718238
2916.000000;2.831405
2915.000000;3.036437
2914.000000;3.686568
2913.000000;3.327562
2912.000000;2.998127
2911.000000;2.987087
2910.000000;3.060738
2909.000000;3.255234
2908.000000;3.294243
2907.000000;3.159133
2906.000000;3.147392
2905.000000;3.327604
2904.000000;3.575283
2903.000000;3.500646
2902.000000;3.311018
2901.000000;3.088195
2900.000000;2.961277
2899.000000;2.974456
2898.000000;3.202909
2897.000000;3.508784
2896.000000;3.243132
2895.000000;3.034060
2894.000000;2.920748
2893.000000;2.871385
2892.000000;2.909822
2891.000000;3.098181
2890.000000;3.301636
2889.000000;3.180699
2888.000000;3.124078
2887.000000;3.255577
2886.000000;3.665193
2885.000000;3.634517
2884.000000;3.191784
2883.000000;2.985801
2882.000000;2.913549
2881.000000;2.938300
2880.000000;2.988716
2879.000000;3.025876
2878.000000;3.163092
2877.000000;3.165750
2876.000000;2.926858
2875.000000;2.820365
2874.000000;2.936442
2873.000000;3.349775
2872.000000;3.196118
2871.000000;2.887797
2870.000000;2.857772
2869.000000;3.206678
2868.000000;3.504895
2867.000000;2.942705
2866.000000;2.869233
2865.000000;3.030295
2864.000000;3.280948
2863.000000;3.294816
2862.000000;3.191571
2861.000000;3.199107
2860.000000;3.377084
2859.000000;3.341858
2858.000000;3.008940
2857.000000;2.886441
2856.000000;2.900751
2855.000000;2.980163
2854.000000;3.069253
2853.000000;3.137385
2852.000000;3.213263
2851.000000;3.353204
2850.000000;3.360839
2849.000000;3.137571
2848.000000;3.011357
2847.000000;3.020174
2846.000000;3.145399
2845.000000;3.281957
2844.000000;3.313646
2843.000000;3.421319
2842.000000;3.536895
2841.000000;3.558651
2840.000000;3.969758
2839.000000;3.888110
2838.000000;3.337000
2837.000000;3.121923
2836.000000;3.028775
2835.000000;3.040888
2834.000000;3.119630
2833.000000;3.193930
2832.000000;3.262610
2831.000000;3.369065
2830.000000;3.396132
2829.000000;3.376181
2828.000000;3.277215
2827.000000;3.108835
2826.000000;3.077913
2825.000000;3.229512
2824.000000;3.505063
2823.000000;3.542801
2822.000000;3.436789
2821.000000;3.427762
2820.000000;3.403714
2819.000000;3.306516
2818.000000;3.217762
2817.000000;3.121909
2816.000000;3.035284
2815.000000;2.992002
2814.000000;2.909426
2813.000000;2.784317
2812.000000;2.702077
2811.000000;2.702505
2810.000000;2.795268
2809.000000;2.984332
2808.000000;3.129963
2807.000000;3.022134
2806.000000;2.874016
2805.000000;2.820511
2804.000000;2.865028
2803.000000;3.050798
2802.000000;3.519128
2801.000000;3.669973
2800.000000;3.528769
2799.000000;3.648343
2798.000000;3.633985
2797.000000;3.465353
2796.000000;3.256013
2795.000000;3.191404
2794.000000;3.229089
2793.000000;3.168390
2792.000000;3.047757
2791.000000;2.995995
2790.000000;3.020157
2789.000000;3.164517
2788.000000;3.444833
2787.000000;3.351621
2786.000000;3.099864
2785.000000;2.965961
2784.000000;2.898092
2783.000000;2.930302
2782.000000;3.072906
2781.000000;3.245610
2780.000000;3.445885
2779.000000;3.901378
2778.000000;3.607404
2777.000000;3.339471
2776.000000;3.239338
2775.000000;3.086130
2774.000000;2.986586
2773.000000;2.938547
2772.000000;2.900532
2771.000000;2.863894
2770.000000;2.839009
2769.000000;2.835440
2768.000000;2.875814
2767.000000;2.993922
2766.000000;3.200838
2765.000000;3.383895
2764.000000;3.426072
2763.000000;3.458428
2762.000000;3.268229
2761.000000;2.988202
2760.000000;2.815730
2759.000000;2.746334
2758.000000;2.770867
2757.000000;2.899704
2756.000000;3.156646
2755.000000;3.133758
2754.000000;2.913818
2753.000000;2.853291
2752.000000;2.893059
2751.000000;2.958125
2750.000000;2.985597
2749.000000;2.997625
2748.000000;2.999931
2747.000000;2.995946
2746.000000;3.084543
2745.000000;3.371736
2744.000000;3.642399
2743.000000;3.503657
2742.000000;3.364111
2741.000000;3.108821
2740.000000;2.919813
2739.000000;2.898398
2738.000000;3.059666
2737.000000;3.511891
2736.000000;3.839904
2735.000000;3.376756
2734.000000;3.240771
2733.000000;3.251495
2732.000000;3.193993
2731.000000;3.071579
2730.000000;3.018060
2729.000000;3.163261
2728.000000;3.657919
2727.000000;3.354265
2726.000000;3.087615
2725.000000;3.134012
2724.000000;3.441902
2723.000000;3.541318
2722.000000;3.086850
2721.000000;2.879619
2720.000000;2.813058
2719.000000;2.843000
2718.000000;2.951124
2717.000000;3.042504
2716.000000;3.088072
2715.000000;3.187478
2714.000000;3.450471
2713.000000;3.525858
2712.000000;3.278510
2711.000000;3.259695
2710.000000;3.323631
2709.000000;3.253155
2708.000000;3.118658
2707.000000;3.064505
2706.000000;3.106601
2705.000000;3.141065
2704.000000;3.208224
2703.000000;3.524077
2702.000000;3.377581
2701.000000;3.079329
2700.000000;3.029025
2699.000000;3.052273
2698.000000;3.090333
2697.000000;3.151499
2696.000000;3.306688
2695.000000;3.228168
2694.000000;2.982257
2693.000000;2.882248
2692.000000;2.920034
2691.000000;3.052176
2690.000000;3.135065
2689.000000;3.107777
2688.000000;3.140661
2687.000000;3.234816
2686.000000;3.191181
2685.000000;3.122138
2684.000000;3.176841
2683.000000;3.225503
2682.000000;3.210791
2681.000000;3.298385
2680.000000;3.508754
2679.000000;4.086218
2678.000000;3.830948
2677.000000;3.282943
2676.000000;3.136469
2675.000000;3.134681
2674.000000;3.240352
2673.000000;3.296233
2672.000000;3.201386
2671.000000;3.074966
2670.000000;2.960234
2669.000000;2.893964
2668.000000;2.898739
2667.000000;2.961653
2666.000000;3.015750
2665.000000;3.010048
2664.000000;2.999824
2663.000000;3.025195
2662.000000;3.056654
2661.000000;3.083461
2660.000000;3.185794
2659.000000;3.360774
2658.000000;3.229977
2657.000000;2.954544
2656.000000;2.785716
2655.000000;2.727631
2654.000000;2.783860
2653.000000;2.955264
2652.000000;3.215475
2651.000000;3.410994
2650.000000;3.373413
2649.000000;3.224794
2648.000000;3.121367
2647.000000;3.115622
2646.000000;3.162380
2645.000000;3.221318
2644.000000;3.293886
2643.000000;3.460116
2642.000000;3.707805
2641.000000;3.416543
2640.000000;3.346707
2639.000000;3.658976
2638.000000;3.444519
2637.000000;3.150890
2636.000000;3.041629
2635.000000;3.053766
2634.000000;3.250327
2633.000000;3.523032
2632.000000;3.504236
2631.000000;3.510765
2630.000000;3.594959
2629.000000;3.862676
2628.000000;3.357334
2627.000000;3.039045
2626.000000;2.960162
2625.000000;2.994416
2624.000000;3.113497
2623.000000;3.294151
2622.000000;3.577397
2621.000000;3.401995
2620.000000;3.098854
2619.000000;3.008930
2618.000000;3.074005
2617.000000;3.287499
2616.000000;3.619351
2615.000000;3.601000
2614.000000;3.211423
2613.000000;2.966563
2612.000000;2.909523
2611.000000;3.020029
2610.000000;3.093998
2609.000000;3.003302
2608.000000;2.942002
2607.000000;2.938042
2606.000000;3.004982
2605.000000;3.051848
2604.000000;2.958996
2603.000000;2.850222
2602.000000;2.818773
2601.000000;2.884385
2600.000000;3.170314
2599.000000;3.646868
2598.000000;3.201225
2597.000000;2.914803
2596.000000;2.776794
2595.000000;2.713184
2594.000000;2.741174
2593.000000;2.872125
2592.000000;3.140190
2591.000000;3.362864
2590.000000;3.315997
2589.000000;3.332578
2588.000000;3.453366
2587.000000;3.748131
2586.000000;3.567904
2585.000000;3.312425
2584.000000;3.458766
2583.000000;3.545673
2582.000000;3.150530
2581.000000;3.040416
2580.000000;3.070520
2579.000000;3.111490
2578.000000;3.076443
2577.000000;2.992986
2576.000000;2.944986
2575.000000;2.957926
2574.000000;3.023477
2573.000000;3.123879
2572.000000;3.264677
2571.000000;3.387810
2570.000000;3.374850
2569.000000;3.312657
2568.000000;3.272262
2567.000000;3.244637
2566.000000;3.206862
2565.000000;3.143122
2564.000000;3.092864
2563.000000;3.100326
2562.000000;3.140088
2561.000000;3.177299
2560.000000;3.189580
2559.000000;3.143185
2558.000000;3.077345
2557.000000;3.020542
2556.000000;3.031216
2555.000000;3.255627
2554.000000;3.697388
2553.000000;3.217489
2552.000000;3.025928
2551.000000;3.015578
2550.000000;3.125639
2549.000000;3.475727
2548.000000;3.861838
2547.000000;3.358898
2546.000000;3.278398
2545.000000;3.601456
2544.000000;4.044325
2543.000000;3.567439
2542.000000;3.512564
2541.000000;3.661902
2540.000000;3.654897
2539.000000;3.297549
2538.000000;3.000885
2537.000000;2.843785
2536.000000;2.791390
2535.000000;2.812362
2534.000000;2.897801
2533.000000;3.051206
2532.000000;3.227608
2531.000000;3.291433
2530.000000;3.249671
2529.000000;3.260786
2528.000000;3.374531
2527.000000;3.528043
2526.000000;3.795922
2525.000000;4.045527
2524.000000;3.456845
2523.000000;3.321069
2522.000000;3.343321
2521.000000;3.210247
2520.000000;3.009232
2519.000000;2.912735
2518.000000;2.932372
2517.000000;3.092576
2516.000000;3.250994
2515.000000;3.135724
2514.000000;3.034408
2513.000000;3.026506
2512.000000;3.036634
2511.000000;2.977183
2510.000000;2.868280
2509.000000;2.816169
2508.000000;2.863266
2507.000000;3.006783
2506.000000;3.137024
2505.000000;3.128077
2504.000000;3.222329
2503.000000;3.733504
2502.000000;3.720330
2501.000000;3.516350
2500.000000;3.615519
2499.000000;3.775530
2498.000000;3.734574
2497.000000;3.425228
2496.000000;3.229817
2495.000000;3.286708
2494.000000;3.694563
2493.000000;4.085387
2492.000000;3.687438
2491.000000;3.316292
2490.000000;3.223774
2489.000000;3.379278
2488.000000;3.279012
2487.000000;3.097115
2486.000000;3.077633
2485.000000;3.170341
2484.000000;3.549197
2483.000000;3.409410
2482.000000;3.133207
2481.000000;3.131532
2480.000000;3.269536
2479.000000;3.379733
2478.000000;3.373363
2477.000000;3.392463
2476.000000;3.578856
2475.000000;4.139215
2474.000000;3.639199
2473.000000;3.448316
2472.000000;3.223982
2471.000000;3.086420
2470.000000;3.124640
2469.000000;3.316277
2468.000000;3.445080
2467.000000;3.420023
2466.000000;3.821223
2465.000000;3.869128
2464.000000;3.483039
2463.000000;3.920462
2462.000000;3.574533
2461.000000;3.269094
2460.000000;3.296787
2459.000000;3.745814
2458.000000;3.705529
2457.000000;3.147619
2456.000000;2.969624
2455.000000;2.963450
2454.000000;3.070995
2453.000000;3.205402
2452.000000;3.415634
2451.000000;3.778624
2450.000000;3.701063
2449.000000;3.429129
2448.000000;3.336322
2447.000000;3.418803
2446.000000;3.648890
2445.000000;3.967737
2444.000000;3.387924
2443.000000;3.012192
2442.000000;2.849465
2441.000000;2.845202
2440.000000;2.963652
2439.000000;3.051330
2438.000000;2.982143
2437.000000;2.880938
2436.000000;2.807591
2435.000000;2.793768
2434.000000;2.870604
2433.000000;3.072109
2432.000000;3.425385
2431.000000;3.657115
2430.000000;3.590321
2429.000000;3.770183
2428.000000;3.758471
2427.000000;3.217183
2426.000000;3.024364
2425.000000;3.092181
2424.000000;3.433015
2423.000000;3.153384
2422.000000;2.947121
2421.000000;2.903481
2420.000000;2.874701
2419.000000;2.859449
2418.000000;2.931540
2417.000000;3.076066
2416.000000;3.117797
2415.000000;3.067692
2414.000000;3.061906
2413.000000;3.110994
2412.000000;3.286168
2411.000000;3.646943
2410.000000;3.487979
2409.000000;3.258551
2408.000000;3.215244
2407.000000;3.143211
2406.000000;3.084694
2405.000000;3.133549
2404.000000;3.376136
2403.000000;3.497324
2402.000000;3.303663
2401.000000;3.171176
2400.000000;3.136414
2399.000000;3.191887
2398.000000;3.304715
2397.000000;3.480213
2396.000000;3.631735
2395.000000;3.529803
2394.000000;3.508067
2393.000000;3.415417
2392.000000;3.227888
2391.000000;3.116139
2390.000000;3.080975
2389.000000;3.220807
2388.000000;3.367444
2387.000000;3.054251
2386.000000;2.930649
2385.000000;2.965509
2384.000000;3.101803
2383.000000;3.246273
2382.000000;3.635502
2381.000000;3.764659
2380.000000;3.304371
2379.000000;3.229265
2378.000000;3.532278
2377.000000;3.652710
2376.000000;3.290693
2375.000000;3.156353
2374.000000;3.131348
2373.000000;3.179652
2372.000000;3.264938
2371.000000;3.365158
2370.000000;3.385414
2369.000000;3.187968
2368.000000;3.066664
2367.000000;3.097653
2366.000000;3.258767
2365.000000;3.486956
2364.000000;3.681770
2363.000000;3.698310
2362.000000;3.751084
2361.000000;3.734012
2360.000000;3.327643
2359.000000;3.186040
2358.000000;3.217827
2357.000000;3.346641
2356.000000;3.480126
2355.000000;3.627667
2354.000000;3.423448
2353.000000;3.164532
2352.000000;3.096238
2351.000000;3.132762
2350.000000;3.230613
2349.000000;3.375990
2348.000000;3.562447
2347.000000;3.500455
2346.000000;3.294728
2345.000000;3.182813
2344.000000;3.162627
2343.000000;3.243634
2342.000000;3.445253
2341.000000;3.703976
2340.000000;3.655706
2339.000000;3.493420
2338.000000;3.379771
2337.000000;3.280907
2336.000000;3.191891
2335.000000;3.136979
2334.000000;3.156110
2333.000000;3.292937
2332.000000;3.370604
2331.000000;3.239578
2330.000000;3.254789
2329.000000;3.394637
2328.000000;3.433424
2327.000000;3.339909
2326.000000;3.298581
2325.000000;3.295403
2324.000000;3.266891
2323.000000;3.215362
2322.000000;3.215190
2321.000000;3.316643
2320.000000;3.534546
2319.000000;3.609917
2318.000000;3.467094
2317.000000;3.378303
2316.000000;3.421309
2315.000000;3.609753
2314.000000;3.897323
2313.000000;3.891971
2312.000000;3.505331
2311.000000;3.237683
2310.000000;3.049345
2309.000000;2.921396
2308.000000;2.862226
2307.000000;2.872327
2306.000000;2.945072
2305.000000;3.058418
2304.000000;3.205974
2303.000000;3.377769
2302.000000;3.489156
2301.000000;3.482952
2300.000000;3.482593
2299.000000;3.529977
2298.000000;3.739417
2297.000000;4.040368
2296.000000;3.656355
2295.000000;3.406984
2294.000000;3.223484
2293.000000;3.070563
2292.000000;3.013254
2291.000000;3.064123
2290.000000;3.248352
2289.000000;3.584567
2288.000000;3.459113
2287.000000;3.422848
2286.000000;3.326142
2285.000000;3.179375
2284.000000;3.295668
2283.000000;3.730360
2282.000000;3.244346
2281.000000;3.055778
2280.000000;3.058900
2279.000000;3.257468
2278.000000;3.621182
2277.000000;3.391927
2276.000000;3.108137
2275.000000;2.998510
2274.000000;2.973641
2273.000000;3.006352
2272.000000;3.062612
2271.000000;3.140628
2270.000000;3.242170
2269.000000;3.294288
2268.000000;3.210288
2267.000000;3.061816
2266.000000;2.931539
2265.000000;2.897064
2264.000000;3.003201
2263.000000;3.447413
2262.000000;3.585886
2261.000000;3.231102
2260.000000;3.186138
2259.000000;3.169666
2258.000000;3.101693
2257.000000;3.086011
2256.000000;3.136174
2255.000000;3.167007
2254.000000;3.171020
2253.000000;3.232434
2252.000000;3.348302
2251.000000;3.649820
2250.000000;3.734975
2249.000000;3.341551
2248.000000;3.258949
2247.000000;3.229494
2246.000000;3.097036
2245.000000;2.917334
2244.000000;2.813141
2243.000000;2.799558
2242.000000;2.843402
2241.000000;2.865118
2240.000000;2.873244
2239.000000;2.950248
2238.000000;3.133509
2237.000000;3.078456
2236.000000;2.910181
2235.000000;2.856685
2234.000000;2.888623
2233.000000;2.965922
2232.000000;3.074171
2231.000000;3.268545
2230.000000;3.766105
2229.000000;3.449062
2228.000000;3.033050
2227.000000;2.873138
2226.000000;2.856598
2225.000000;2.972186
2224.000000;3.165670
2223.000000;3.266214
2222.000000;3.174651
2221.000000;3.066837
2220.000000;3.035820
2219.000000;3.051729
2218.000000;3.064692
2217.000000;3.072913
2216.000000;3.097390
2215.000000;3.146948
2214.000000;3.200760
2213.000000;3.320475
2212.000000;3.188929
2211.000000;2.906498
2210.000000;2.776051
2209.000000;2.786875
2208.000000;2.927795
2207.000000;3.201710
2206.000000;3.760384
2205.000000;3.362900
2204.000000;3.068901
2203.000000;3.036838
2202.000000;3.259054
2201.000000;3.546825
2200.000000;3.305310
2199.000000;3.280502
2198.000000;3.356964
2197.000000;3.549055
2196.000000;3.268683
2195.000000;3.012050
2194.000000;2.996451
2193.000000;3.115956
2192.000000;3.291076
2191.000000;3.374724
2190.000000;3.445507
2189.000000;3.534326
2188.000000;3.325593
2187.000000;3.148803
2186.000000;3.115401
2185.000000;3.159324
2184.000000;3.230968
2183.000000;3.238677
2182.000000;3.130792
2181.000000;3.032923
2180.000000;3.010095
2179.000000;3.052238
2178.000000;3.106968
2177.000000;3.117404
2176.000000;3.108824
2175.000000;3.100609
2174.000000;3.074693
2173.000000;3.064683
2172.000000;3.150399
2171.000000;3.450705
2170.000000;3.479298
2169.000000;3.181984
2168.000000;3.087046
2167.000000;2.985952
2166.000000;2.905569
2165.000000;2.862824
2164.000000;2.869569
2163.000000;2.917315
2162.000000;2.967462
2161.000000;2.989402
2160.000000;2.976875
2159.000000;2.948126
2158.000000;2.957602
2157.000000;3.011594
2156.000000;3.032534
2155.000000;3.003871
2154.000000;2.992932
2153.000000;2.991209
2152.000000;2.976170
2151.000000;2.981684
2150.000000;3.013915
2149.000000;3.020937
2148.000000;3.010968
2147.000000;3.141130
2146.000000;3.523988
2145.000000;3.489881
2144.000000;3.301000
2143.000000;3.284703
2142.000000;3.261812
2141.000000;3.273832
2140.000000;3.351207
2139.000000;3.524279
2138.000000;3.628504
2137.000000;3.532243
2136.000000;3.393726
2135.000000;3.302874
2134.000000;3.274102
2133.000000;3.131976
2132.000000;3.015684
2131.000000;3.037848
2130.000000;3.164171
2129.000000;3.310656
2128.000000;3.408051
2127.000000;3.427872
2126.000000;3.440383
2125.000000;3.521779
2124.000000;3.394309
2123.000000;3.082092
2122.000000;2.865141
2121.000000;2.762888
2120.000000;2.765557
2119.000000;2.850458
2118.000000;2.942523
2117.000000;2.953521
2116.000000;2.960964
2115.000000;3.006082
2114.000000;3.029568
2113.000000;3.022643
2112.000000;3.040500
2111.000000;3.203695
2110.000000;3.417955
2109.000000;3.185589
2108.000000;3.018705
2107.000000;3.006505
2106.000000;3.035861
2105.000000;3.055636
2104.000000;3.105589
2103.000000;3.201304
2102.000000;3.141137
2101.000000;3.021715
2100.000000;3.014197
2099.000000;3.154441
2098.000000;3.484817
2097.000000;3.595832
2096.000000;3.318270
2095.000000;3.182591
2094.000000;3.185853
2093.000000;3.265711
2092.000000;3.214117
2091.000000;3.179781
2090.000000;3.216976
2089.000000;3.186810
2088.000000;3.139559
2087.000000;3.152505
2086.000000;3.212517
2085.000000;3.319757
2084.000000;3.658814
2083.000000;4.115434
2082.000000;3.694143
2081.000000;3.635420
2080.000000;3.489403
2079.000000;3.265752
2078.000000;3.238845
2077.000000;3.509052
2076.000000;3.305771
2075.000000;3.099337
2074.000000;3.101360
2073.000000;3.174806
2072.000000;3.129837
2071.000000;2.940356
2070.000000;2.804951
2069.000000;2.795864
2068.000000;2.897365
2067.000000;3.003411
2066.000000;3.068897
2065.000000;3.330087
2064.000000;3.815825
2063.000000;3.587517
2062.000000;3.913898
2061.000000;3.833246
2060.000000;3.428057
2059.000000;3.287008
2058.000000;3.180740
2057.000000;3.150744
2056.000000;3.208350
2055.000000;3.401554
2054.000000;3.522690
2053.000000;3.466785
2052.000000;3.337254
2051.000000;3.247061
2050.000000;3.267815
2049.000000;3.346885
2048.000000;3.385880
2047.000000;3.308834
2046.000000;3.159547
2045.000000;3.031541
2044.000000;2.978578
2043.000000;3.027147
2042.000000;3.176897
2041.000000;3.337834
2040.000000;3.336997
2039.000000;3.280941
2038.000000;3.346036
2037.000000;3.689034
2036.000000;4.120719
2035.000000;3.830236
2034.000000;3.591529
2033.000000;3.401650
2032.000000;3.841766
2031.000000;3.579848
2030.000000;3.203484
2029.000000;3.299453
2028.000000;3.409293
2027.000000;3.293479
2026.000000;3.179012
2025.000000;3.183756
2024.000000;3.336668
2023.000000;3.573335
2022.000000;3.630012
2021.000000;3.341726
2020.000000;3.105882
2019.000000;3.064331
2018.000000;3.203139
2017.000000;3.516568
2016.000000;3.887567
2015.000000;3.740140
2014.000000;3.483034
2013.000000;3.314518
2012.000000;3.181688
2011.000000;3.103523
2010.000000;3.103200
2009.000000;3.167631
2008.000000;3.296460
2007.000000;3.546402
2006.000000;3.986158
2005.000000;3.822574
2004.000000;3.621933
2003.000000;3.686467
2002.000000;3.430946
2001.000000;3.159896
2000.000000;3.027362
1999.000000;3.006934
1998.000000;3.128946
1997.000000;3.417030
1996.000000;3.589883
1995.000000;3.878529
1994.000000;4.052257
1993.000000;4.778543
1992.000000;3.705495
1991.000000;3.370894
1990.000000;3.169459
1989.000000;3.023462
1988.000000;2.965370
1987.000000;3.004435
1986.000000;3.117552
1985.000000;3.228830
1984.000000;3.189860
1983.000000;3.030219
1982.000000;2.929723
1981.000000;2.953975
1980.000000;3.138375
1979.000000;3.545289
1978.000000;3.613763
1977.000000;3.353279
1976.000000;3.308785
1975.000000;3.323968
1974.000000;3.905775
1973.000000;3.510347
1972.000000;3.065009
1971.000000;2.894008
1970.000000;2.799844
1969.000000;2.818726
1968.000000;2.979578
1967.000000;3.331281
1966.000000;3.159790
1965.000000;3.022157
1964.000000;3.045569
1963.000000;3.073487
1962.000000;2.991566
1961.000000;2.907817
1960.000000;2.914591
1959.000000;3.174624
1958.000000;3.834154
1957.000000;3.127386
1956.000000;2.990033
1955.000000;2.979931
1954.000000;3.090699
1953.000000;3.249560
1952.000000;3.327298
1951.000000;3.203005
1950.000000;2.960212
1949.000000;2.817511
1948.000000;2.801024
1947.000000;2.905344
1946.000000;3.153194
1945.000000;3.686989
1944.000000;3.584549
1943.000000;3.386857
1942.000000;3.426399
1941.000000;3.664968
1940.000000;3.934480
1939.000000;3.408407
1938.000000;3.226183
1937.000000;3.217415
1936.000000;3.181747
1935.000000;3.057648
1934.000000;2.998692
1933.000000;3.050979
1932.000000;3.223726
1931.000000;3.464131
1930.000000;3.403506
1929.000000;3.248168
1928.000000;3.278566
1927.000000;3.341528
1926.000000;3.314896
1925.000000;3.294737
1924.000000;3.407543
1923.000000;3.454399
1922.000000;3.235897
1921.000000;3.092439
1920.000000;3.056917
1919.000000;3.103319
1918.000000;3.232797
1917.000000;3.534767
1916.000000;3.215956
1915.000000;2.966208
1914.000000;2.973752
1913.000000;3.024708
1912.000000;2.830167
1911.000000;2.719914
1910.000000;2.759069
1909.000000;2.901586
1908.000000;3.052393
1907.000000;3.100972
1906.000000;3.047113
1905.000000;2.956235
1904.000000;2.916984
1903.000000;3.017183
1902.000000;3.370975
1901.000000;3.401297
1900.000000;3.142962
1899.000000;3.171490
1898.000000;3.211155
1897.000000;3.120981
1896.000000;2.960322
1895.000000;2.888751
1894.000000;2.908995
1893.000000;2.998809
1892.000000;3.155993
1891.000000;3.404588
1890.000000;3.405077
1889.000000;3.289097
1888.000000;3.562497
1887.000000;3.373402
1886.000000;2.982024
1885.000000;2.822634
1884.000000;2.730585
1883.000000;2.677537
1882.000000;2.711495
1881.000000;2.875081
1880.000000;3.239554
1879.000000;3.567145
1878.000000;3.294699
1877.000000;3.320967
1876.000000;3.492345
1875.000000;3.588085
1874.000000;3.636468
1873.000000;3.742273
1872.000000;3.617663
1871.000000;3.440852
1870.000000;3.288703
1869.000000;3.178357
1868.000000;3.121785
1867.000000;3.109403
1866.000000;3.107875
1865.000000;3.123388
1864.000000;3.227668
1863.000000;3.339264
1862.000000;3.341983
1861.000000;3.238706
1860.000000;3.117876
1859.000000;3.147465
1858.000000;3.643526
1857.000000;3.355108
1856.000000;2.978512
1855.000000;2.848487
1854.000000;2.838801
1853.000000;3.043180
1852.000000;3.533856
1851.000000;3.110440
1850.000000;2.981922
1849.000000;3.025386
1848.000000;3.140482
1847.000000;3.323764
1846.000000;3.570946
1845.000000;3.469223
1844.000000;3.311046
1843.000000;3.250859
1842.000000;3.110381
1841.000000;2.988646
1840.000000;3.019055
1839.000000;3.351444
1838.000000;3.269742
1837.000000;3.108995
1836.000000;3.329126
1835.000000;3.256793
1834.000000;3.114709
1833.000000;3.306661
1832.000000;3.822787
1831.000000;3.250570
1830.000000;3.143082
1829.000000;3.215378
1828.000000;3.203791
1827.000000;3.102824
1826.000000;3.059707
1825.000000;3.079866
1824.000000;3.159347
1823.000000;3.316762
1822.000000;3.518090
1821.000000;3.356955
1820.000000;3.116184
1819.000000;3.085947
1818.000000;3.077697
1817.000000;2.983928
1816.000000;2.966854
1815.000000;3.069426
1814.000000;3.076006
1813.000000;3.003015
1812.000000;3.063644
1811.000000;3.306933
1810.000000;3.912423
1809.000000;3.768494
1808.000000;3.503288
1807.000000;3.213025
1806.000000;2.966906
1805.000000;2.876473
1804.000000;2.930024
1803.000000;3.125828
1802.000000;3.323279
1801.000000;3.270760
1800.000000;3.244698
1799.000000;3.225666
1798.000000;3.150371
1797.000000;3.175982
1796.000000;3.284647
1795.000000;3.225260
1794.000000;3.208506
1793.000000;3.372597
1792.000000;3.496590
1791.000000;3.435176
1790.000000;3.343132
1789.000000;3.284883
1788.000000;3.330220
1787.000000;3.844138
1786.000000;3.610399
1785.000000;3.170902
1784.000000;2.986577
1783.000000;2.867333
1782.000000;2.860817
1781.000000;2.967236
1780.000000;3.037905
1779.000000;2.988785
1778.000000;3.021089
1777.000000;3.168456
1776.000000;3.198672
1775.000000;3.112108
1774.000000;3.116377
1773.000000;3.309542
1772.000000;3.719184
1771.000000;3.547568
1770.000000;3.312298
1769.000000;3.306679
1768.000000;3.437279
1767.000000;3.485900
1766.000000;3.321098
1765.000000;3.199915
1764.000000;3.222556
1763.000000;3.291984
1762.000000;3.225693
1761.000000;3.070675
1760.000000;2.956085
1759.000000;2.909839
1758.000000;2.926721
1757.000000;3.017506
1756.000000;3.197503
1755.000000;3.589713
1754.000000;3.555384
1753.000000;3.142974
1752.000000;3.033917
1751.000000;3.137923
1750.000000;3.428935
1749.000000;3.837787
1748.000000;3.390633
1747.000000;3.113176
1746.000000;2.985887
1745.000000;2.950931
1744.000000;2.954795
1743.000000;2.996907
1742.000000;3.155265
1741.000000;3.624712
1740.000000;3.587470
1739.000000;3.130604
1738.000000;2.947543
1737.000000;2.791714
1736.000000;2.721489
1735.000000;2.775495
1734.000000;2.954699
1733.000000;3.176862
1732.000000;3.306228
1731.000000;3.329733
1730.000000;3.284741
1729.000000;3.216540
1728.000000;3.127397
1727.000000;3.056152
1726.000000;3.069888
1725.000000;3.251071
1724.000000;4.089426
1723.000000;3.495348
1722.000000;3.274212
1721.000000;3.323951
1720.000000;3.423693
1719.000000;3.424542
1718.000000;3.572249
1717.000000;3.846278
1716.000000;3.590838
1715.000000;3.521119
1714.000000;3.594111
1713.000000;3.399080
1712.000000;3.052288
1711.000000;2.878995
1710.000000;2.827484
1709.000000;2.836778
1708.000000;2.851044
1707.000000;2.862444
1706.000000;2.903322
1705.000000;2.988128
1704.000000;3.100700
1703.000000;3.202735
1702.000000;3.229410
1701.000000;3.202023
1700.000000;3.176906
1699.000000;3.168099
1698.000000;3.402328
1697.000000;3.338489
1696.000000;2.878432
1695.000000;2.810864
1694.000000;2.907641
1693.000000;3.170315
1692.000000;3.831560
1691.000000;3.087620
1690.000000;2.869843
1689.000000;2.789101
1688.000000;2.747866
1687.000000;2.768643
1686.000000;2.944777
1685.000000;3.534052
1684.000000;3.916224
1683.000000;3.512735
1682.000000;3.483428
1681.000000;3.549643
1680.000000;3.657502
1679.000000;3.400911
1678.000000;3.281120
1677.000000;3.511905
1676.000000;3.982076
1675.000000;3.638623
1674.000000;3.603065
1673.000000;3.522041
1672.000000;3.233327
1671.000000;3.151279
1670.000000;3.263596
1669.000000;3.521917
1668.000000;3.467342
1667.000000;3.237272
1666.000000;3.191408
1665.000000;3.282487
1664.000000;3.663106
1663.000000;4.278315
1662.000000;3.375859
1661.000000;3.178264
1660.000000;3.147310
1659.000000;3.248861
1658.000000;3.342084
1657.000000;3.343937
1656.000000;3.365595
1655.000000;3.427493
1654.000000;3.575876
1653.000000;3.514947
1652.000000;3.412674
1651.000000;3.605715
1650.000000;3.679753
1649.000000;3.392214
1648.000000;3.232766
1647.000000;3.188426
1646.000000;3.192106
1645.000000;3.274598
1644.000000;3.670434
1643.000000;3.738197
1642.000000;3.345182
1641.000000;3.299244
1640.000000;3.471261
1639.000000;3.754180
1638.000000;3.564643
1637.000000;3.361786
1636.000000;3.305517
1635.000000;3.245775
1634.000000;3.133111
1633.000000;3.057504
1632.000000;3.080771
1631.000000;3.198624
1630.000000;3.333542
1629.000000;3.390352
1628.000000;3.352066
1627.000000;3.252805
1626.000000;3.161321
1625.000000;3.123805
1624.000000;3.172342
1623.000000;3.274387
1622.000000;3.261833
1621.000000;3.068111
1620.000000;2.886788
1619.000000;2.794025
1618.000000;2.937167
1617.000000;3.439102
1616.000000;3.184081
1615.000000;3.059076
1614.000000;3.107034
1613.000000;3.134670
1612.000000;3.146466
1611.000000;3.172806
1610.000000;3.245870
1609.000000;3.136295
1608.000000;2.982422
1607.000000;2.942970
1606.000000;2.997278
1605.000000;3.141943
1604.000000;3.366663
1603.000000;3.708477
1602.000000;4.126355
1601.000000;3.674826
1600.000000;3.391411
1599.000000;3.316233
1598.000000;3.304194
1597.000000;3.291969
1596.000000;3.247379
1595.000000;3.233519
1594.000000;3.306441
1593.000000;3.407524
1592.000000;3.461292
1591.000000;3.660809
1590.000000;3.757795
1589.000000;3.395225
1588.000000;3.228305
1587.000000;3.269020
1586.000000;3.375546
1585.000000;3.643947
1584.000000;3.613341
1583.000000;3.042167
1582.000000;2.891256
1581.000000;2.924948
1580.000000;3.075709
1579.000000;3.253701
1578.000000;3.116147
1577.000000;3.024799
1576.000000;3.182763
1575.000000;3.421207
1574.000000;3.431172
1573.000000;3.271658
1572.000000;3.143843
1571.000000;3.165755
1570.000000;3.280518
1569.000000;3.288139
1568.000000;3.226756
1567.000000;3.341396
1566.000000;3.730527
1565.000000;3.484817
1564.000000;3.346224
1563.000000;3.456002
1562.000000;3.812705
1561.000000;4.139480
1560.000000;3.625518
1559.000000;3.529556
1558.000000;3.422475
1557.000000;3.193754
1556.000000;3.057152
1555.000000;3.045554
1554.000000;3.124749
1553.000000;3.222381
1552.000000;3.394004
1551.000000;3.604938
1550.000000;3.493809
1549.000000;3.456471
1548.000000;3.817134
1547.000000;4.055176
1546.000000;3.545796
1545.000000;3.284564
1544.000000;3.134648
1543.000000;3.075753
1542.000000;3.088067
1541.000000;3.173910
1540.000000;3.315490
1539.000000;3.357863
1538.000000;3.340553
1537.000000;3.370558
1536.000000;3.423406
1535.000000;3.620600
1534.000000;3.953267
1533.000000;3.698403
1532.000000;3.545396
1531.000000;3.561868
1530.000000;3.685830
1529.000000;3.518821
1528.000000;3.240744
1527.000000;3.162330
1526.000000;3.240253
1525.000000;3.459905
1524.000000;3.708618
1523.000000;3.923624
1522.000000;4.228931
1521.000000;3.773955
1520.000000;3.504634
1519.000000;3.453306
1518.000000;3.476835
1517.000000;3.528316
1516.000000;3.583555
1515.000000;3.732783
1514.000000;3.700208
1513.000000;3.565630
1512.000000;3.633985
1511.000000;3.536802
1510.000000;3.340459
1509.000000;3.250476
1508.000000;3.229494
1507.000000;3.258556
1506.000000;3.285004
1505.000000;3.323471
1504.000000;3.357193
1503.000000;3.251159
1502.000000;3.142700
1501.000000;3.164162
1500.000000;3.286409
1499.000000;3.338578
1498.000000;3.242255
1497.000000;3.202782
1496.000000;3.266452
1495.000000;3.412331
1494.000000;3.708081
1493.000000;3.631170
1492.000000;3.443201
1491.000000;3.393586
1490.000000;3.247843
1489.000000;3.106132
1488.000000;3.053544
1487.000000;3.109184
1486.000000;3.316568
1485.000000;3.886296
1484.000000;3.881131
1483.000000;3.516246
1482.000000;3.379889
1481.000000;3.282841
1480.000000;3.245333
1479.000000;3.230928
1478.000000;3.222059
1477.000000;3.243034
1476.000000;3.382207
1475.000000;3.573224
1474.000000;3.540981
1473.000000;3.520160
1472.000000;3.438947
1471.000000;3.365937
1470.000000;3.445417
1469.000000;3.711416
1468.000000;4.029641
1467.000000;3.487030
1466.000000;3.111987
1465.000000;2.936208
1464.000000;2.914142
1463.000000;3.063651
1462.000000;3.080883
1461.000000;2.962825
1460.000000;2.959519
1459.000000;3.014606
1458.000000;3.104162
1457.000000;3.373609
1456.000000;3.918673
1455.000000;3.458707
1454.000000;3.420636
1453.000000;3.598750
1452.000000;3.306399
1451.000000;3.273023
1450.000000;3.647652
1449.000000;3.986119
1448.000000;3.587819
1447.000000;3.891092
1446.000000;4.177761
1445.000000;3.456065
1444.000000;3.294907
1443.000000;3.281653
1442.000000;3.313767
1441.000000;3.267338
1440.000000;3.147399
1439.000000;3.022484
1438.000000;2.981617
1437.000000;3.061987
1436.000000;3.214870
1435.000000;3.371226
1434.000000;3.401629
1433.000000;3.341302
1432.000000;3.276253
1431.000000;3.228079
1430.000000;3.237881
1429.000000;3.381141
1428.000000;3.670726
1427.000000;3.462706
1426.000000;3.219984
1425.000000;3.179119
1424.000000;3.312149
1423.000000;3.454654
1422.000000;3.289275
1421.000000;3.230572
1420.000000;3.362726
1419.000000;3.804984
1418.000000;4.021263
1417.000000;3.411644
1416.000000;3.205741
1415.000000;3.097016
1414.000000;3.084068
1413.000000;3.156109
1412.000000;3.316119
1411.000000;3.516369
1410.000000;3.330403
1409.000000;3.095980
1408.000000;3.064802
1407.000000;3.236046
1406.000000;3.176172
1405.000000;3.012190
1404.000000;2.993733
1403.000000;3.157143
1402.000000;3.715058
1401.000000;3.371376
1400.000000;3.071780
1399.000000;3.006144
1398.000000;2.994895
1397.000000;3.045869
1396.000000;3.125395
1395.000000;3.239095
1394.000000;3.327467
1393.000000;3.516434
1392.000000;3.799511
1391.000000;3.395463
1390.000000;3.316649
1389.000000;3.354779
1388.000000;3.107457
1387.000000;2.987223
1386.000000;3.032147
1385.000000;3.095231
1384.000000;3.018867
1383.000000;2.976191
1382.000000;3.055616
1381.000000;3.131437
1380.000000;3.156473
1379.000000;3.308165
1378.000000;3.750197
1377.000000;3.883402
1376.000000;3.696441
1375.000000;3.519001
1374.000000;3.330935
1373.000000;3.235891
1372.000000;3.195647
1371.000000;3.182334
1370.000000;3.175754
1369.000000;3.211249
1368.000000;3.340145
1367.000000;3.380517
1366.000000;3.337132
1365.000000;3.370736
1364.000000;3.211663
1363.000000;3.067583
1362.000000;3.100420
1361.000000;3.338549
1360.000000;3.928471
1359.000000;3.647278
1358.000000;3.219676
1357.000000;3.063231
1356.000000;3.002149
1355.000000;3.035734
1354.000000;3.156118
1353.000000;3.307533
1352.000000;3.384698
1351.000000;3.222479
1350.000000;3.071509
1349.000000;3.059677
1348.000000;3.153758
1347.000000;3.296404
1346.000000;3.366762
1345.000000;3.305067
1344.000000;3.184738
1343.000000;3.192188
1342.000000;3.344013
1341.000000;3.373166
1340.000000;3.404511
1339.000000;3.540061
1338.000000;3.468231
1337.000000;3.269053
1336.000000;3.115817
1335.000000;3.041502
1334.000000;3.040657
1333.000000;3.091919
1332.000000;3.238983
1331.000000;3.687309
1330.000000;4.055484
1329.000000;3.627350
1328.000000;3.335593
1327.000000;3.162105
1326.000000;3.194202
1325.000000;3.353204
1324.000000;3.445122
1323.000000;3.493617
1322.000000;3.502330
1321.000000;3.373475
1320.000000;3.204530
1319.000000;3.054064
1318.000000;2.965323
1317.000000;2.983514
1316.000000;3.116934
1315.000000;3.228603
1314.000000;3.199217
1313.000000;3.120001
1312.000000;3.011036
1311.000000;2.940075
1310.000000;2.912784
1309.000000;2.894146
1308.000000;2.898994
1307.000000;2.948164
1306.000000;3.051062
1305.000000;3.222461
1304.000000;3.316164
1303.000000;3.160034
1302.000000;3.033848
1301.000000;3.017997
1300.000000;3.131145
1299.000000;3.308293
1298.000000;3.516581
1297.000000;4.102074
1296.000000;3.738550
1295.000000;3.264569
1294.000000;3.035008
1293.000000;2.956575
1292.000000;3.055488
1291.000000;3.288996
1290.000000;3.368601
1289.000000;3.343335
1288.000000;3.488261
1287.000000;3.632162
1286.000000;3.684533
1285.000000;3.754783
1284.000000;3.785320
1283.000000;3.517927
1282.000000;3.189016
1281.000000;3.020874
1280.000000;2.993133
1279.000000;3.050241
1278.000000;3.109601
1277.000000;3.139120
1276.000000;3.230716
1275.000000;3.482496
1274.000000;3.644914
1273.000000;3.528137
1272.000000;3.461294
1271.000000;3.374244
1270.000000;3.247506
1269.000000;3.180337
1268.000000;3.207576
1267.000000;3.377563
1266.000000;3.672817
1265.000000;3.517614
1264.000000;3.253333
1263.000000;3.117697
1262.000000;3.069640
1261.000000;3.092395
1260.000000;3.076464
1259.000000;2.969742
1258.000000;2.868308
1257.000000;2.836638
1256.000000;2.891897
1255.000000;3.038462
1254.000000;3.311975
1253.000000;3.547628
1252.000000;3.392062
1251.000000;3.270284
1250.000000;3.227444
1249.000000;3.180297
1248.000000;3.065918
1247.000000;2.969750
1246.000000;2.973515
1245.000000;3.144155
1244.000000;3.446595
1243.000000;3.273311
1242.000000;3.037278
1241.000000;2.929986
1240.000000;2.887500
1239.000000;2.955643
1238.000000;3.115362
1237.000000;3.505019
1236.000000;4.120032
1235.000000;3.546577
1234.000000;3.554401
1233.000000;3.471375
1232.000000;3.241845
1231.000000;3.213646
1230.000000;3.273191
1229.000000;3.361096
1228.000000;3.406114
1227.000000;3.602157
1226.000000;3.511970
1225.000000;3.145913
1224.000000;3.006016
1223.000000;3.038074
1222.000000;3.216097
1221.000000;3.611704
1220.000000;4.253062
1219.000000;4.007062
1218.000000;3.776531
1217.000000;3.597654
1216.000000;3.554644
1215.000000;3.521494
1214.000000;3.308450
1213.000000;3.251372
1212.000000;3.386040
1211.000000;3.592331
1210.000000;3.520411
1209.000000;3.279444
1208.000000;3.119530
1207.000000;2.997322
1206.000000;2.929322
1205.000000;2.937541
1204.000000;3.090789
1203.000000;3.511274
1202.000000;3.303005
1201.000000;3.072503
1200.000000;3.008300
