Criado como novo conjunto de dados;"e0108.spp","-4211260.7 Secs"
cm-1;Abs
10000.000000;1.103693
9999.000000;1.102140
9998.000000;1.101849
9997.000000;1.102514
9996.000000;1.103178
9995.000000;1.103156
9994.000000;1.102322
9993.000000;1.100794
9992.000000;1.098853
9991.000000;1.097227
9990.000000;1.096851
9989.000000;1.097946
9988.000000;1.099618
9987.000000;1.100677
9986.000000;1.100701
9985.000000;1.099997
9984.000000;1.098825
9983.000000;1.097229
9982.000000;1.095620
9981.000000;1.094895
9980.000000;1.095575
9979.000000;1.096981
9978.000000;1.097624
9977.000000;1.096577
9976.000000;1.094412
9975.000000;1.092692
9974.000000;1.092498
9973.000000;1.093489
9972.000000;1.094402
9971.000000;1.094350
9970.000000;1.093473
9969.000000;1.092380
9968.000000;1.091372
9967.000000;1.090442
9966.000000;1.089628
9965.000000;1.088887
9964.000000;1.087889
9963.000000;1.086482
9962.000000;1.085268
9961.000000;1.085138
9960.000000;1.086084
9959.000000;1.086982
9958.000000;1.086826
9957.000000;1.085854
9956.000000;1.085144
9955.000000;1.085326
9954.000000;1.086005
9953.000000;1.086314
9952.000000;1.085691
9951.000000;1.084192
9950.000000;1.082348
9949.000000;1.080755
9948.000000;1.079705
9947.000000;1.079207
9946.000000;1.079292
9945.000000;1.080009
9944.000000;1.080985
9943.000000;1.081339
9942.000000;1.080450
9941.000000;1.078752
9940.000000;1.077447
9939.000000;1.077374
9938.000000;1.078329
9937.000000;1.079403
9936.000000;1.079830
9935.000000;1.079603
9934.000000;1.079377
9933.000000;1.079680
9932.000000;1.080153
9931.000000;1.079679
9930.000000;1.077562
9929.000000;1.074581
9928.000000;1.072422
9927.000000;1.071991
9926.000000;1.072612
9925.000000;1.072989
9924.000000;1.072693
9923.000000;1.072349
9922.000000;1.072529
9921.000000;1.073005
9920.000000;1.073174
9919.000000;1.072832
9918.000000;1.072279
9917.000000;1.071836
9916.000000;1.071534
9915.000000;1.071189
9914.000000;1.070574
9913.000000;1.069532
9912.000000;1.068134
9911.000000;1.066750
9910.000000;1.065818
9909.000000;1.065419
9908.000000;1.065163
9907.000000;1.064523
9906.000000;1.063296
9905.000000;1.061824
9904.000000;1.060857
9903.000000;1.061040
9902.000000;1.062276
9901.000000;1.063650
9900.000000;1.064170
9899.000000;1.063613
9898.000000;1.062452
9897.000000;1.061046
9896.000000;1.059413
9895.000000;1.057852
9894.000000;1.057151
9893.000000;1.057718
9892.000000;1.058910
9891.000000;1.059759
9890.000000;1.060089
9889.000000;1.060318
9888.000000;1.060351
9887.000000;1.059541
9886.000000;1.057924
9885.000000;1.056665
9884.000000;1.056776
9883.000000;1.057886
9882.000000;1.058732
9881.000000;1.058517
9880.000000;1.057316
9879.000000;1.055461
9878.000000;1.053165
9877.000000;1.050764
9876.000000;1.048830
9875.000000;1.047813
9874.000000;1.047707
9873.000000;1.048145
9872.000000;1.048707
9871.000000;1.049235
9870.000000;1.049968
9869.000000;1.051163
9868.000000;1.052471
9867.000000;1.053012
9866.000000;1.052347
9865.000000;1.051061
9864.000000;1.049968
9863.000000;1.049051
9862.000000;1.047763
9861.000000;1.046163
9860.000000;1.045058
9859.000000;1.044981
9858.000000;1.045639
9857.000000;1.046476
9856.000000;1.047211
9855.000000;1.047600
9854.000000;1.047272
9853.000000;1.046284
9852.000000;1.045443
9851.000000;1.045584
9850.000000;1.046636
9849.000000;1.047679
9848.000000;1.047783
9847.000000;1.046627
9846.000000;1.044534
9845.000000;1.042232
9844.000000;1.040528
9843.000000;1.039913
9842.000000;1.040303
9841.000000;1.041165
9840.000000;1.041839
9839.000000;1.041745
9838.000000;1.040619
9837.000000;1.038775
9836.000000;1.037020
9835.000000;1.036120
9834.000000;1.036334
9833.000000;1.037376
9832.000000;1.038582
9831.000000;1.039110
9830.000000;1.038383
9829.000000;1.036639
9828.000000;1.034837
9827.000000;1.033795
9826.000000;1.033592
9825.000000;1.033819
9824.000000;1.034095
9823.000000;1.034145
9822.000000;1.033752
9821.000000;1.033072
9820.000000;1.032747
9819.000000;1.033135
9818.000000;1.033577
9817.000000;1.032989
9816.000000;1.031145
9815.000000;1.028954
9814.000000;1.027454
9813.000000;1.026964
9812.000000;1.027216
9811.000000;1.027722
9810.000000;1.027834
9809.000000;1.027000
9808.000000;1.025390
9807.000000;1.023990
9806.000000;1.023699
9805.000000;1.024433
9804.000000;1.025270
9803.000000;1.025314
9802.000000;1.024313
9801.000000;1.022727
9800.000000;1.021406
9799.000000;1.021044
9798.000000;1.021648
9797.000000;1.022524
9796.000000;1.022988
9795.000000;1.023033
9794.000000;1.023033
9793.000000;1.023040
9792.000000;1.022737
9791.000000;1.021936
9790.000000;1.020848
9789.000000;1.019876
9788.000000;1.019304
9787.000000;1.019162
9786.000000;1.019107
9785.000000;1.018460
9784.000000;1.016780
9783.000000;1.014604
9782.000000;1.013275
9781.000000;1.013649
9780.000000;1.015080
9779.000000;1.016074
9778.000000;1.015983
9777.000000;1.015607
9776.000000;1.015953
9775.000000;1.016843
9774.000000;1.017188
9773.000000;1.016430
9772.000000;1.015175
9771.000000;1.014285
9770.000000;1.013787
9769.000000;1.012959
9768.000000;1.011294
9767.000000;1.009134
9766.000000;1.007361
9765.000000;1.006625
9764.000000;1.006827
9763.000000;1.007311
9762.000000;1.007564
9761.000000;1.007688
9760.000000;1.008059
9759.000000;1.008610
9758.000000;1.008812
9757.000000;1.008459
9756.000000;1.008072
9755.000000;1.008189
9754.000000;1.008526
9753.000000;1.008294
9752.000000;1.007263
9751.000000;1.006075
9750.000000;1.005484
9749.000000;1.005649
9748.000000;1.006207
9747.000000;1.006722
9746.000000;1.006883
9745.000000;1.006489
9744.000000;1.005517
9743.000000;1.004223
9742.000000;1.003140
9741.000000;1.002865
9740.000000;1.003567
9739.000000;1.004522
9738.000000;1.004383
9737.000000;1.002370
9736.000000;0.999263
9735.000000;0.996888
9734.000000;0.996530
9733.000000;0.997994
9732.000000;1.000026
9731.000000;1.001340
9730.000000;1.001345
9729.000000;1.000358
9728.000000;0.999243
9727.000000;0.998623
9726.000000;0.998343
9725.000000;0.997902
9724.000000;0.997252
9723.000000;0.996748
9722.000000;0.996366
9721.000000;0.995610
9720.000000;0.994329
9719.000000;0.993064
9718.000000;0.992331
9717.000000;0.992112
9716.000000;0.992348
9715.000000;0.993287
9714.000000;0.994795
9713.000000;0.995862
9712.000000;0.995570
9711.000000;0.994297
9710.000000;0.993172
9709.000000;0.992543
9708.000000;0.991810
9707.000000;0.990684
9706.000000;0.989744
9705.000000;0.989533
9704.000000;0.989769
9703.000000;0.989801
9702.000000;0.989389
9701.000000;0.988684
9700.000000;0.987776
9699.000000;0.986693
9698.000000;0.985663
9697.000000;0.985052
9696.000000;0.985082
9695.000000;0.985723
9694.000000;0.986683
9693.000000;0.987368
9692.000000;0.987110
9691.000000;0.985770
9690.000000;0.984042
9689.000000;0.982959
9688.000000;0.982983
9687.000000;0.983643
9686.000000;0.984106
9685.000000;0.983990
9684.000000;0.983555
9683.000000;0.983251
9682.000000;0.983305
9681.000000;0.983777
9680.000000;0.984735
9679.000000;0.986045
9678.000000;0.987037
9677.000000;0.986811
9676.000000;0.985174
9675.000000;0.983079
9674.000000;0.981807
9673.000000;0.981782
9672.000000;0.982322
9671.000000;0.982395
9670.000000;0.981387
9669.000000;0.979355
9668.000000;0.976980
9667.000000;0.975325
9666.000000;0.975224
9665.000000;0.976535
9664.000000;0.978101
9663.000000;0.978685
9662.000000;0.977989
9661.000000;0.976685
9660.000000;0.975533
9659.000000;0.974703
9658.000000;0.973922
9657.000000;0.973083
9656.000000;0.972503
9655.000000;0.972558
9654.000000;0.973200
9653.000000;0.974024
9652.000000;0.974713
9651.000000;0.975175
9650.000000;0.975245
9649.000000;0.974621
9648.000000;0.973315
9647.000000;0.971878
9646.000000;0.970871
9645.000000;0.970239
9644.000000;0.969538
9643.000000;0.968672
9642.000000;0.968063
9641.000000;0.968067
9640.000000;0.968536
9639.000000;0.969025
9638.000000;0.969163
9637.000000;0.968786
9636.000000;0.967982
9635.000000;0.967117
9634.000000;0.966582
9633.000000;0.966343
9632.000000;0.965858
9631.000000;0.964554
9630.000000;0.962358
9629.000000;0.959806
9628.000000;0.957744
9627.000000;0.956909
9626.000000;0.957555
9625.000000;0.959326
9624.000000;0.961473
9623.000000;0.963278
9622.000000;0.964348
9621.000000;0.964671
9620.000000;0.964531
9619.000000;0.964248
9618.000000;0.963817
9617.000000;0.962894
9616.000000;0.961309
9615.000000;0.959452
9614.000000;0.957945
9613.000000;0.957083
9612.000000;0.956814
9611.000000;0.957028
9610.000000;0.957462
9609.000000;0.957530
9608.000000;0.956824
9607.000000;0.955848
9606.000000;0.955661
9605.000000;0.956570
9604.000000;0.957592
9603.000000;0.957507
9602.000000;0.956158
9601.000000;0.954442
9600.000000;0.953290
9599.000000;0.953010
9598.000000;0.953334
9597.000000;0.953686
9596.000000;0.953436
9595.000000;0.952302
9594.000000;0.950640
9593.000000;0.949244
9592.000000;0.948784
9591.000000;0.949335
9590.000000;0.950282
9589.000000;0.950707
9588.000000;0.950048
9587.000000;0.948553
9586.000000;0.946992
9585.000000;0.945922
9584.000000;0.945404
9583.000000;0.945431
9582.000000;0.946247
9581.000000;0.947949
9580.000000;0.949920
9579.000000;0.951064
9578.000000;0.950721
9577.000000;0.949248
9576.000000;0.947632
9575.000000;0.946643
9574.000000;0.946333
9573.000000;0.946239
9572.000000;0.945940
9571.000000;0.945412
9570.000000;0.944891
9569.000000;0.944540
9568.000000;0.944335
9567.000000;0.944163
9566.000000;0.943902
9565.000000;0.943485
9564.000000;0.943055
9563.000000;0.942934
9562.000000;0.943266
9561.000000;0.943720
9560.000000;0.943768
9559.000000;0.943240
9558.000000;0.942404
9557.000000;0.941557
9556.000000;0.940796
9555.000000;0.940112
9554.000000;0.939430
9553.000000;0.938583
9552.000000;0.937591
9551.000000;0.936938
9550.000000;0.937170
9549.000000;0.938115
9548.000000;0.938830
9547.000000;0.938442
9546.000000;0.936838
9545.000000;0.934561
9544.000000;0.932458
9543.000000;0.931455
9542.000000;0.932047
9541.000000;0.933652
9540.000000;0.934901
9539.000000;0.934958
9538.000000;0.934291
9537.000000;0.933866
9536.000000;0.933985
9535.000000;0.934295
9534.000000;0.934535
9533.000000;0.934682
9532.000000;0.934543
9531.000000;0.933819
9530.000000;0.932627
9529.000000;0.931548
9528.000000;0.931014
9527.000000;0.930903
9526.000000;0.930789
9525.000000;0.930431
9524.000000;0.929927
9523.000000;0.929512
9522.000000;0.929174
9521.000000;0.928501
9520.000000;0.927118
9519.000000;0.925380
9518.000000;0.924264
9517.000000;0.924287
9516.000000;0.924839
9515.000000;0.924967
9514.000000;0.924569
9513.000000;0.924303
9512.000000;0.924443
9511.000000;0.924481
9510.000000;0.923997
9509.000000;0.923392
9508.000000;0.923385
9507.000000;0.924055
9506.000000;0.924729
9505.000000;0.924746
9504.000000;0.924158
9503.000000;0.923605
9502.000000;0.923573
9501.000000;0.923829
9500.000000;0.923672
9499.000000;0.922769
9498.000000;0.921633
9497.000000;0.921103
9496.000000;0.921464
9495.000000;0.922255
9494.000000;0.922824
9493.000000;0.922795
9492.000000;0.922077
9491.000000;0.920795
9490.000000;0.919388
9489.000000;0.918491
9488.000000;0.918453
9487.000000;0.919018
9486.000000;0.919599
9485.000000;0.919805
9484.000000;0.919663
9483.000000;0.919347
9482.000000;0.918831
9481.000000;0.917950
9480.000000;0.916810
9479.000000;0.915949
9478.000000;0.915869
9477.000000;0.916408
9476.000000;0.916800
9475.000000;0.916481
9474.000000;0.915645
9473.000000;0.914829
9472.000000;0.914229
9471.000000;0.913700
9470.000000;0.913202
9469.000000;0.912860
9468.000000;0.912667
9467.000000;0.912499
9466.000000;0.912459
9465.000000;0.912830
9464.000000;0.913572
9463.000000;0.914135
9462.000000;0.913945
9461.000000;0.912976
9460.000000;0.911767
9459.000000;0.910949
9458.000000;0.910777
9457.000000;0.910975
9456.000000;0.911005
9455.000000;0.910579
9454.000000;0.909963
9453.000000;0.909675
9452.000000;0.909915
9451.000000;0.910349
9450.000000;0.910451
9449.000000;0.909959
9448.000000;0.909045
9447.000000;0.908196
9446.000000;0.907859
9445.000000;0.908067
9444.000000;0.908407
9443.000000;0.908414
9442.000000;0.907917
9441.000000;0.906957
9440.000000;0.905653
9439.000000;0.904371
9438.000000;0.903724
9437.000000;0.903942
9436.000000;0.904366
9435.000000;0.904080
9434.000000;0.903140
9433.000000;0.902649
9432.000000;0.903428
9431.000000;0.904976
9430.000000;0.906008
9429.000000;0.905720
9428.000000;0.904290
9427.000000;0.902416
9426.000000;0.900820
9425.000000;0.900059
9424.000000;0.900322
9423.000000;0.901248
9422.000000;0.902147
9421.000000;0.902535
9420.000000;0.902365
9419.000000;0.901772
9418.000000;0.900832
9417.000000;0.899685
9416.000000;0.898734
9415.000000;0.898444
9414.000000;0.898863
9413.000000;0.899456
9412.000000;0.899585
9411.000000;0.899145
9410.000000;0.898533
9409.000000;0.897983
9408.000000;0.897227
9407.000000;0.896033
9406.000000;0.894852
9405.000000;0.894473
9404.000000;0.895062
9403.000000;0.895930
9402.000000;0.896381
9401.000000;0.896407
9400.000000;0.896312
9399.000000;0.895997
9398.000000;0.895091
9397.000000;0.893690
9396.000000;0.892490
9395.000000;0.892040
9394.000000;0.892179
9393.000000;0.892374
9392.000000;0.892388
9391.000000;0.892375
9390.000000;0.892440
9389.000000;0.892447
9388.000000;0.892309
9387.000000;0.892228
9386.000000;0.892491
9385.000000;0.893104
9384.000000;0.893749
9383.000000;0.894040
9382.000000;0.893798
9381.000000;0.893151
9380.000000;0.892476
9379.000000;0.892107
9378.000000;0.891941
9377.000000;0.891380
9376.000000;0.889902
9375.000000;0.887744
9374.000000;0.885851
9373.000000;0.885080
9372.000000;0.885561
9371.000000;0.886786
9370.000000;0.888077
9369.000000;0.888897
9368.000000;0.889014
9367.000000;0.888593
9366.000000;0.888104
9365.000000;0.887936
9364.000000;0.888084
9363.000000;0.888248
9362.000000;0.888165
9361.000000;0.887785
9360.000000;0.887212
9359.000000;0.886571
9358.000000;0.885895
9357.000000;0.885095
9356.000000;0.884130
9355.000000;0.883250
9354.000000;0.882880
9353.000000;0.883138
9352.000000;0.883596
9351.000000;0.883678
9350.000000;0.883225
9349.000000;0.882549
9348.000000;0.882053
9347.000000;0.881929
9346.000000;0.882129
9345.000000;0.882390
9344.000000;0.882380
9343.000000;0.882025
9342.000000;0.881617
9341.000000;0.881454
9340.000000;0.881457
9339.000000;0.881311
9338.000000;0.880888
9337.000000;0.880309
9336.000000;0.879650
9335.000000;0.878872
9334.000000;0.878054
9333.000000;0.877448
9332.000000;0.877212
9331.000000;0.877277
9330.000000;0.877472
9329.000000;0.877642
9328.000000;0.877659
9327.000000;0.877528
9326.000000;0.877486
9325.000000;0.877749
9324.000000;0.878113
9323.000000;0.878065
9322.000000;0.877446
9321.000000;0.876753
9320.000000;0.876580
9319.000000;0.876896
9318.000000;0.877099
9317.000000;0.876724
9316.000000;0.875909
9315.000000;0.875103
9314.000000;0.874509
9313.000000;0.873932
9312.000000;0.873151
9311.000000;0.872273
9310.000000;0.871590
9309.000000;0.871140
9308.000000;0.870627
9307.000000;0.869894
9306.000000;0.869290
9305.000000;0.869323
9304.000000;0.869995
9303.000000;0.870740
9302.000000;0.871074
9301.000000;0.871091
9300.000000;0.871185
9299.000000;0.871459
9298.000000;0.871612
9297.000000;0.871387
9296.000000;0.870932
9295.000000;0.870610
9294.000000;0.870553
9293.000000;0.870517
9292.000000;0.870201
9291.000000;0.869589
9290.000000;0.868907
9289.000000;0.868338
9288.000000;0.867906
9287.000000;0.867588
9286.000000;0.867353
9285.000000;0.867045
9284.000000;0.866458
9283.000000;0.865631
9282.000000;0.864895
9281.000000;0.864484
9280.000000;0.864219
9279.000000;0.863741
9278.000000;0.863006
9277.000000;0.862362
9276.000000;0.862177
9275.000000;0.862526
9274.000000;0.863182
9273.000000;0.863773
9272.000000;0.863959
9271.000000;0.863640
9270.000000;0.863044
9269.000000;0.862585
9268.000000;0.862597
9267.000000;0.863126
9266.000000;0.863867
9265.000000;0.864295
9264.000000;0.864029
9263.000000;0.863188
9262.000000;0.862294
9261.000000;0.861727
9260.000000;0.861420
9259.000000;0.861153
9258.000000;0.860894
9257.000000;0.860665
9256.000000;0.860288
9255.000000;0.859572
9254.000000;0.858722
9253.000000;0.858286
9252.000000;0.858661
9251.000000;0.859746
9250.000000;0.860972
9249.000000;0.861561
9248.000000;0.860949
9247.000000;0.859313
9246.000000;0.857626
9245.000000;0.856912
9244.000000;0.857377
9243.000000;0.858377
9242.000000;0.859146
9241.000000;0.859400
9240.000000;0.859290
9239.000000;0.859054
9238.000000;0.858777
9237.000000;0.858344
9236.000000;0.857588
9235.000000;0.856575
9234.000000;0.855642
9233.000000;0.855025
9232.000000;0.854583
9231.000000;0.854072
9230.000000;0.853543
9229.000000;0.853209
9228.000000;0.853090
9227.000000;0.853077
9226.000000;0.853197
9225.000000;0.853423
9224.000000;0.853380
9223.000000;0.852762
9222.000000;0.852030
9221.000000;0.852061
9220.000000;0.852940
9219.000000;0.853604
9218.000000;0.853014
9217.000000;0.851356
9216.000000;0.849738
9215.000000;0.849005
9214.000000;0.849243
9213.000000;0.850144
9212.000000;0.851353
9211.000000;0.852470
9210.000000;0.853130
9209.000000;0.853224
9208.000000;0.852928
9207.000000;0.852505
9206.000000;0.852184
9205.000000;0.852172
9204.000000;0.852543
9203.000000;0.853025
9202.000000;0.853032
9201.000000;0.852077
9200.000000;0.850274
9199.000000;0.848384
9198.000000;0.847270
9197.000000;0.847194
9196.000000;0.847681
9195.000000;0.848120
9194.000000;0.848378
9193.000000;0.848656
9192.000000;0.848908
9191.000000;0.848790
9190.000000;0.848246
9189.000000;0.847728
9188.000000;0.847609
9187.000000;0.847610
9186.000000;0.847112
9185.000000;0.845933
9184.000000;0.844584
9183.000000;0.843752
9182.000000;0.843666
9181.000000;0.843936
9180.000000;0.843959
9179.000000;0.843519
9178.000000;0.843017
9177.000000;0.843036
9176.000000;0.843646
9175.000000;0.844278
9174.000000;0.844338
9173.000000;0.843763
9172.000000;0.842905
9171.000000;0.842070
9170.000000;0.841377
9169.000000;0.840925
9168.000000;0.840832
9167.000000;0.841069
9166.000000;0.841423
9165.000000;0.841682
9164.000000;0.841828
9163.000000;0.841996
9162.000000;0.842264
9161.000000;0.842524
9160.000000;0.842562
9159.000000;0.842258
9158.000000;0.841689
9157.000000;0.841000
9156.000000;0.840307
9155.000000;0.839762
9154.000000;0.839563
9153.000000;0.839705
9152.000000;0.839828
9151.000000;0.839566
9150.000000;0.839054
9149.000000;0.838796
9148.000000;0.839009
9147.000000;0.839342
9146.000000;0.839326
9145.000000;0.838860
9144.000000;0.838173
9143.000000;0.837540
9142.000000;0.837217
9141.000000;0.837396
9140.000000;0.837977
9139.000000;0.838477
9138.000000;0.838388
9137.000000;0.837618
9136.000000;0.836518
9135.000000;0.835615
9134.000000;0.835363
9133.000000;0.835893
9132.000000;0.836773
9131.000000;0.837190
9130.000000;0.836670
9129.000000;0.835608
9128.000000;0.834890
9127.000000;0.834983
9126.000000;0.835588
9125.000000;0.836162
9124.000000;0.836536
9123.000000;0.836852
9122.000000;0.837068
9121.000000;0.836809
9120.000000;0.835848
9119.000000;0.834602
9118.000000;0.833892
9117.000000;0.834119
9116.000000;0.834809
9115.000000;0.835104
9114.000000;0.834617
9113.000000;0.833669
9112.000000;0.832778
9111.000000;0.832217
9110.000000;0.832034
9109.000000;0.832182
9108.000000;0.832449
9107.000000;0.832486
9106.000000;0.832117
9105.000000;0.831540
9104.000000;0.831097
9103.000000;0.830965
9102.000000;0.831167
9101.000000;0.831649
9100.000000;0.832212
9099.000000;0.832526
9098.000000;0.832417
9097.000000;0.832055
9096.000000;0.831694
9095.000000;0.831335
9094.000000;0.830803
9093.000000;0.830058
9092.000000;0.829220
9091.000000;0.828375
9090.000000;0.827536
9089.000000;0.826799
9088.000000;0.826341
9087.000000;0.826217
9086.000000;0.826289
9085.000000;0.826402
9084.000000;0.826537
9083.000000;0.826776
9082.000000;0.827133
9081.000000;0.827443
9080.000000;0.827440
9079.000000;0.827032
9078.000000;0.826486
9077.000000;0.826190
9076.000000;0.826206
9075.000000;0.826229
9074.000000;0.826069
9073.000000;0.825936
9072.000000;0.826071
9071.000000;0.826288
9070.000000;0.826199
9069.000000;0.825789
9068.000000;0.825466
9067.000000;0.825464
9066.000000;0.825496
9065.000000;0.825142
9064.000000;0.824457
9063.000000;0.824017
9062.000000;0.824344
9061.000000;0.825312
9060.000000;0.826111
9059.000000;0.825916
9058.000000;0.824700
9057.000000;0.823362
9056.000000;0.822929
9055.000000;0.823640
9054.000000;0.824860
9053.000000;0.825792
9052.000000;0.826103
9051.000000;0.825885
9050.000000;0.825296
9049.000000;0.824465
9048.000000;0.823641
9047.000000;0.823151
9046.000000;0.823112
9045.000000;0.823269
9044.000000;0.823255
9043.000000;0.822989
9042.000000;0.822748
9041.000000;0.822816
9040.000000;0.823146
9039.000000;0.823439
9038.000000;0.823480
9037.000000;0.823286
9036.000000;0.822934
9035.000000;0.822391
9034.000000;0.821621
9033.000000;0.820759
9032.000000;0.820060
9031.000000;0.819697
9030.000000;0.819668
9029.000000;0.819867
9028.000000;0.820168
9027.000000;0.820470
9026.000000;0.820709
9025.000000;0.820824
9024.000000;0.820735
9023.000000;0.820418
9022.000000;0.820009
9021.000000;0.819687
9020.000000;0.819372
9019.000000;0.818713
9018.000000;0.817591
9017.000000;0.816544
9016.000000;0.816345
9015.000000;0.817097
9014.000000;0.818011
9013.000000;0.818259
9012.000000;0.817830
9011.000000;0.817333
9010.000000;0.817131
9009.000000;0.817028
9008.000000;0.816769
9007.000000;0.816415
9006.000000;0.816088
9005.000000;0.815672
9004.000000;0.815107
9003.000000;0.814800
9002.000000;0.815296
9001.000000;0.816493
9000.000000;0.817542
8999.000000;0.817730
8998.000000;0.817262
8997.000000;0.816950
8996.000000;0.817213
8995.000000;0.817606
8994.000000;0.817358
8993.000000;0.816221
8992.000000;0.814709
8991.000000;0.813575
8990.000000;0.813164
8989.000000;0.813288
8988.000000;0.813607
8987.000000;0.813925
8986.000000;0.814043
8985.000000;0.813587
8984.000000;0.812327
8983.000000;0.810657
8982.000000;0.809430
8981.000000;0.809169
8980.000000;0.809674
8979.000000;0.810485
8978.000000;0.811397
8977.000000;0.812284
8976.000000;0.812765
8975.000000;0.812505
8974.000000;0.811782
8973.000000;0.811333
8972.000000;0.811618
8971.000000;0.812489
8970.000000;0.813546
8969.000000;0.814483
8968.000000;0.815024
8967.000000;0.814894
8966.000000;0.814088
8965.000000;0.812986
8964.000000;0.812054
8963.000000;0.811524
8962.000000;0.811378
8961.000000;0.811446
8960.000000;0.811450
8959.000000;0.811159
8958.000000;0.810664
8957.000000;0.810382
8956.000000;0.810665
8955.000000;0.811463
8954.000000;0.812395
8953.000000;0.813021
8952.000000;0.813029
8951.000000;0.812371
8950.000000;0.811350
8949.000000;0.810453
8948.000000;0.810022
8947.000000;0.810112
8946.000000;0.810612
8945.000000;0.811275
8944.000000;0.811653
8943.000000;0.811331
8942.000000;0.810382
8941.000000;0.809412
8940.000000;0.808970
8939.000000;0.809052
8938.000000;0.809277
8937.000000;0.809345
8936.000000;0.809188
8935.000000;0.808878
8934.000000;0.808606
8933.000000;0.808595
8932.000000;0.808837
8931.000000;0.809014
8930.000000;0.808861
8929.000000;0.808489
8928.000000;0.808168
8927.000000;0.807946
8926.000000;0.807718
8925.000000;0.807534
8924.000000;0.807539
8923.000000;0.807658
8922.000000;0.807646
8921.000000;0.807474
8920.000000;0.807402
8919.000000;0.807588
8918.000000;0.807849
8917.000000;0.807893
8916.000000;0.807614
8915.000000;0.807066
8914.000000;0.806290
8913.000000;0.805341
8912.000000;0.804398
8911.000000;0.803695
8910.000000;0.803385
8909.000000;0.803503
8908.000000;0.804017
8907.000000;0.804805
8906.000000;0.805596
8905.000000;0.806061
8904.000000;0.806054
8903.000000;0.805757
8902.000000;0.805536
8901.000000;0.805633
8900.000000;0.805999
8899.000000;0.806421
8898.000000;0.806701
8897.000000;0.806700
8896.000000;0.806304
8895.000000;0.805550
8894.000000;0.804773
8893.000000;0.804433
8892.000000;0.804675
8891.000000;0.805155
8890.000000;0.805409
8889.000000;0.805300
8888.000000;0.805000
8887.000000;0.804677
8886.000000;0.804369
8885.000000;0.804101
8884.000000;0.803939
8883.000000;0.803902
8882.000000;0.804002
8881.000000;0.804343
8880.000000;0.805032
8879.000000;0.805913
8878.000000;0.806518
8877.000000;0.806432
8876.000000;0.805667
8875.000000;0.804629
8874.000000;0.803776
8873.000000;0.803341
8872.000000;0.803313
8871.000000;0.803528
8870.000000;0.803772
8869.000000;0.803866
8868.000000;0.803764
8867.000000;0.803587
8866.000000;0.803519
8865.000000;0.803616
8864.000000;0.803717
8863.000000;0.803550
8862.000000;0.802980
8861.000000;0.802169
8860.000000;0.801532
8859.000000;0.801484
8858.000000;0.802095
8857.000000;0.802922
8856.000000;0.803262
8855.000000;0.802764
8854.000000;0.801815
8853.000000;0.801194
8852.000000;0.801313
8851.000000;0.801886
8850.000000;0.802349
8849.000000;0.802488
8848.000000;0.802552
8847.000000;0.802850
8846.000000;0.803379
8845.000000;0.803817
8844.000000;0.803805
8843.000000;0.803254
8842.000000;0.802466
8841.000000;0.801948
8840.000000;0.802018
8839.000000;0.802542
8838.000000;0.803083
8837.000000;0.803284
8836.000000;0.803108
8835.000000;0.802739
8834.000000;0.802351
8833.000000;0.802019
8832.000000;0.801779
8831.000000;0.801689
8830.000000;0.801804
8829.000000;0.802093
8828.000000;0.802412
8827.000000;0.802597
8826.000000;0.802569
8825.000000;0.802381
8824.000000;0.802171
8823.000000;0.802062
8822.000000;0.802077
8821.000000;0.802147
8820.000000;0.802231
8819.000000;0.802409
8818.000000;0.802735
8817.000000;0.802988
8816.000000;0.802771
8815.000000;0.802013
8814.000000;0.801248
8813.000000;0.801130
8812.000000;0.801703
8811.000000;0.802400
8810.000000;0.802765
8809.000000;0.802907
8808.000000;0.803112
8807.000000;0.803319
8806.000000;0.803261
8805.000000;0.802989
8804.000000;0.802913
8803.000000;0.803296
8802.000000;0.803906
8801.000000;0.804277
8800.000000;0.804211
8799.000000;0.803968
8798.000000;0.803975
8797.000000;0.804402
8796.000000;0.805005
8795.000000;0.805362
8794.000000;0.805256
8793.000000;0.804826
8792.000000;0.804377
8791.000000;0.804136
8790.000000;0.804186
8789.000000;0.804448
8788.000000;0.804634
8787.000000;0.804419
8786.000000;0.803830
8785.000000;0.803366
8784.000000;0.803475
8783.000000;0.803972
8782.000000;0.804174
8781.000000;0.803666
8780.000000;0.802779
8779.000000;0.802201
8778.000000;0.802277
8777.000000;0.802791
8776.000000;0.803290
8775.000000;0.803475
8774.000000;0.803345
8773.000000;0.803137
8772.000000;0.803166
8771.000000;0.803623
8770.000000;0.804452
8769.000000;0.805417
8768.000000;0.806261
8767.000000;0.806805
8766.000000;0.806969
8765.000000;0.806821
8764.000000;0.806600
8763.000000;0.806554
8762.000000;0.806710
8761.000000;0.806857
8760.000000;0.806813
8759.000000;0.806608
8758.000000;0.806372
8757.000000;0.806139
8756.000000;0.805912
8755.000000;0.805833
8754.000000;0.806081
8753.000000;0.806606
8752.000000;0.807165
8751.000000;0.807685
8750.000000;0.808377
8749.000000;0.809334
8748.000000;0.810204
8747.000000;0.810512
8746.000000;0.810229
8745.000000;0.809776
8744.000000;0.809466
8743.000000;0.809225
8742.000000;0.808914
8741.000000;0.808675
8740.000000;0.808754
8739.000000;0.809149
8738.000000;0.809640
8737.000000;0.810087
8736.000000;0.810525
8735.000000;0.810972
8734.000000;0.811342
8733.000000;0.811550
8732.000000;0.811582
8731.000000;0.811439
8730.000000;0.811141
8729.000000;0.810830
8728.000000;0.810734
8727.000000;0.810890
8726.000000;0.810980
8725.000000;0.810621
8724.000000;0.809898
8723.000000;0.809449
8722.000000;0.809881
8721.000000;0.811056
8720.000000;0.812092
8719.000000;0.812169
8718.000000;0.811342
8717.000000;0.810483
8716.000000;0.810457
8715.000000;0.811361
8714.000000;0.812505
8713.000000;0.813036
8712.000000;0.812662
8711.000000;0.811877
8710.000000;0.811511
8709.000000;0.811956
8708.000000;0.812810
8707.000000;0.813301
8706.000000;0.813087
8705.000000;0.812533
8704.000000;0.812252
8703.000000;0.812522
8702.000000;0.813200
8701.000000;0.813950
8700.000000;0.814430
8699.000000;0.814394
8698.000000;0.813857
8697.000000;0.813160
8696.000000;0.812700
8695.000000;0.812567
8694.000000;0.812542
8693.000000;0.812468
8692.000000;0.812427
8691.000000;0.812492
8690.000000;0.812512
8689.000000;0.812354
8688.000000;0.812262
8687.000000;0.812698
8686.000000;0.813743
8685.000000;0.814823
8684.000000;0.815220
8683.000000;0.814820
8682.000000;0.814214
8681.000000;0.814051
8680.000000;0.814382
8679.000000;0.814696
8678.000000;0.814532
8677.000000;0.814009
8676.000000;0.813726
8675.000000;0.814181
8674.000000;0.815285
8673.000000;0.816471
8672.000000;0.817257
8671.000000;0.817644
8670.000000;0.817933
8669.000000;0.818267
8668.000000;0.818468
8667.000000;0.818269
8666.000000;0.817568
8665.000000;0.816500
8664.000000;0.815409
8663.000000;0.814732
8662.000000;0.814676
8661.000000;0.814935
8660.000000;0.814947
8659.000000;0.814537
8658.000000;0.814137
8657.000000;0.814245
8656.000000;0.814852
8655.000000;0.815593
8654.000000;0.816253
8653.000000;0.816866
8652.000000;0.817397
8651.000000;0.817660
8650.000000;0.817598
8649.000000;0.817412
8648.000000;0.817346
8647.000000;0.817476
8646.000000;0.817739
8645.000000;0.817987
8644.000000;0.818004
8643.000000;0.817652
8642.000000;0.817064
8641.000000;0.816564
8640.000000;0.816347
8639.000000;0.816361
8638.000000;0.816515
8637.000000;0.816805
8636.000000;0.817172
8635.000000;0.817418
8634.000000;0.817410
8633.000000;0.817255
8632.000000;0.817170
8631.000000;0.817250
8630.000000;0.817450
8629.000000;0.817668
8628.000000;0.817771
8627.000000;0.817645
8626.000000;0.817352
8625.000000;0.817123
8624.000000;0.817070
8623.000000;0.817020
8622.000000;0.816783
8621.000000;0.816495
8620.000000;0.816473
8619.000000;0.816778
8618.000000;0.817171
8617.000000;0.817519
8616.000000;0.817978
8615.000000;0.818643
8614.000000;0.819241
8613.000000;0.819405
8612.000000;0.819133
8611.000000;0.818762
8610.000000;0.818497
8609.000000;0.818212
8608.000000;0.817761
8607.000000;0.817261
8606.000000;0.816955
8605.000000;0.816909
8604.000000;0.817012
8603.000000;0.817160
8602.000000;0.817308
8601.000000;0.817422
8600.000000;0.817528
8599.000000;0.817740
8598.000000;0.818054
8597.000000;0.818159
8596.000000;0.817677
8595.000000;0.816658
8594.000000;0.815625
8593.000000;0.815077
8592.000000;0.815103
8591.000000;0.815516
8590.000000;0.816114
8589.000000;0.816692
8588.000000;0.817029
8587.000000;0.817100
8586.000000;0.817157
8585.000000;0.817419
8584.000000;0.817736
8583.000000;0.817777
8582.000000;0.817450
8581.000000;0.816951
8580.000000;0.816459
8579.000000;0.815990
8578.000000;0.815543
8577.000000;0.815192
8576.000000;0.815017
8575.000000;0.815071
8574.000000;0.815382
8573.000000;0.815832
8572.000000;0.816079
8571.000000;0.815816
8570.000000;0.815147
8569.000000;0.814537
8568.000000;0.814365
8567.000000;0.814645
8566.000000;0.815154
8565.000000;0.815633
8564.000000;0.815879
8563.000000;0.815847
8562.000000;0.815730
8561.000000;0.815798
8560.000000;0.816088
8559.000000;0.816358
8558.000000;0.816377
8557.000000;0.816112
8556.000000;0.815641
8555.000000;0.815077
8554.000000;0.814638
8553.000000;0.814566
8552.000000;0.814864
8551.000000;0.815256
8550.000000;0.815493
8549.000000;0.815583
8548.000000;0.815639
8547.000000;0.815657
8546.000000;0.815571
8545.000000;0.815404
8544.000000;0.815243
8543.000000;0.815145
8542.000000;0.815168
8541.000000;0.815401
8540.000000;0.815806
8539.000000;0.816084
8538.000000;0.815867
8537.000000;0.815114
8536.000000;0.814241
8535.000000;0.813787
8534.000000;0.813913
8533.000000;0.814280
8532.000000;0.814435
8531.000000;0.814304
8530.000000;0.814209
8529.000000;0.814351
8528.000000;0.814470
8527.000000;0.814205
8526.000000;0.813698
8525.000000;0.813552
8524.000000;0.814151
8523.000000;0.815198
8522.000000;0.816001
8521.000000;0.816062
8520.000000;0.815354
8519.000000;0.814240
8518.000000;0.813276
8517.000000;0.812892
8516.000000;0.813059
8515.000000;0.813327
8514.000000;0.813289
8513.000000;0.812966
8512.000000;0.812667
8511.000000;0.812593
8510.000000;0.812716
8509.000000;0.812947
8508.000000;0.813258
8507.000000;0.813642
8506.000000;0.814069
8505.000000;0.814475
8504.000000;0.814724
8503.000000;0.814621
8502.000000;0.814080
8501.000000;0.813283
8500.000000;0.812613
8499.000000;0.812394
8498.000000;0.812669
8497.000000;0.813175
8496.000000;0.813536
8495.000000;0.813582
8494.000000;0.813500
8493.000000;0.813612
8492.000000;0.813966
8491.000000;0.814219
8490.000000;0.813990
8489.000000;0.813230
8488.000000;0.812233
8487.000000;0.811368
8486.000000;0.810898
8485.000000;0.810919
8484.000000;0.811315
8483.000000;0.811783
8482.000000;0.812027
8481.000000;0.811942
8480.000000;0.811626
8479.000000;0.811229
8478.000000;0.810853
8477.000000;0.810545
8476.000000;0.810367
8475.000000;0.810431
8474.000000;0.810833
8473.000000;0.811491
8472.000000;0.812089
8471.000000;0.812320
8470.000000;0.812222
8469.000000;0.812148
8468.000000;0.812360
8467.000000;0.812756
8466.000000;0.813040
8465.000000;0.813037
8464.000000;0.812765
8463.000000;0.812370
8462.000000;0.812087
8461.000000;0.812112
8460.000000;0.812349
8459.000000;0.812397
8458.000000;0.811982
8457.000000;0.811352
8456.000000;0.811032
8455.000000;0.811208
8454.000000;0.811538
8453.000000;0.811593
8452.000000;0.811314
8451.000000;0.810981
8450.000000;0.810862
8449.000000;0.811025
8448.000000;0.811377
8447.000000;0.811765
8446.000000;0.812025
8445.000000;0.812056
8444.000000;0.811891
8443.000000;0.811677
8442.000000;0.811549
8441.000000;0.811523
8440.000000;0.811491
8439.000000;0.811328
8438.000000;0.810999
8437.000000;0.810588
8436.000000;0.810243
8435.000000;0.810090
8434.000000;0.810148
8433.000000;0.810303
8432.000000;0.810401
8431.000000;0.810404
8430.000000;0.810443
8429.000000;0.810632
8428.000000;0.810865
8427.000000;0.810881
8426.000000;0.810564
8425.000000;0.810126
8424.000000;0.809950
8423.000000;0.810249
8422.000000;0.810868
8421.000000;0.811397
8420.000000;0.811525
8419.000000;0.811349
8418.000000;0.811274
8417.000000;0.811548
8416.000000;0.811934
8415.000000;0.811991
8414.000000;0.811606
8413.000000;0.811089
8412.000000;0.810733
8411.000000;0.810520
8410.000000;0.810341
8409.000000;0.810279
8408.000000;0.810475
8407.000000;0.810828
8406.000000;0.811035
8405.000000;0.810940
8404.000000;0.810690
8403.000000;0.810555
8402.000000;0.810678
8401.000000;0.810994
8400.000000;0.811278
8399.000000;0.811244
8398.000000;0.810732
8397.000000;0.809883
8396.000000;0.809117
8395.000000;0.808863
8394.000000;0.809225
8393.000000;0.809877
8392.000000;0.810333
8391.000000;0.810379
8390.000000;0.810226
8389.000000;0.810185
8388.000000;0.810285
8387.000000;0.810342
8386.000000;0.810336
8385.000000;0.810452
8384.000000;0.810717
8383.000000;0.810835
8382.000000;0.810585
8381.000000;0.810175
8380.000000;0.809962
8379.000000;0.809954
8378.000000;0.809856
8377.000000;0.809571
8376.000000;0.809350
8375.000000;0.809403
8374.000000;0.809617
8373.000000;0.809756
8372.000000;0.809752
8371.000000;0.809682
8370.000000;0.809591
8369.000000;0.809502
8368.000000;0.809484
8367.000000;0.809571
8366.000000;0.809669
8365.000000;0.809641
8364.000000;0.809463
8363.000000;0.809204
8362.000000;0.808929
8361.000000;0.808721
8360.000000;0.808714
8359.000000;0.808966
8358.000000;0.809313
8357.000000;0.809503
8356.000000;0.809468
8355.000000;0.809337
8354.000000;0.809181
8353.000000;0.808904
8352.000000;0.808484
8351.000000;0.808161
8350.000000;0.808252
8349.000000;0.808786
8348.000000;0.809441
8347.000000;0.809836
8346.000000;0.809830
8345.000000;0.809564
8344.000000;0.809292
8343.000000;0.809156
8342.000000;0.809080
8341.000000;0.808877
8340.000000;0.808506
8339.000000;0.808169
8338.000000;0.808103
8337.000000;0.808304
8336.000000;0.808542
8335.000000;0.808608
8334.000000;0.808455
8333.000000;0.808119
8332.000000;0.807634
8331.000000;0.807090
8330.000000;0.806668
8329.000000;0.806572
8328.000000;0.806900
8327.000000;0.807561
8326.000000;0.808254
8325.000000;0.808592
8324.000000;0.808411
8323.000000;0.807962
8322.000000;0.807669
8321.000000;0.807689
8320.000000;0.807825
8319.000000;0.807848
8318.000000;0.807702
8317.000000;0.807371
8316.000000;0.806820
8315.000000;0.806224
8314.000000;0.806011
8313.000000;0.806437
8312.000000;0.807220
8311.000000;0.807810
8310.000000;0.807931
8309.000000;0.807673
8308.000000;0.807174
8307.000000;0.806500
8306.000000;0.805794
8305.000000;0.805295
8304.000000;0.805129
8303.000000;0.805264
8302.000000;0.805699
8301.000000;0.806492
8300.000000;0.807538
8299.000000;0.808480
8298.000000;0.808941
8297.000000;0.808771
8296.000000;0.808078
8295.000000;0.807155
8294.000000;0.806390
8293.000000;0.806045
8292.000000;0.806078
8291.000000;0.806278
8290.000000;0.806569
8289.000000;0.807000
8288.000000;0.807420
8287.000000;0.807456
8286.000000;0.806988
8285.000000;0.806421
8284.000000;0.806269
8283.000000;0.806574
8282.000000;0.806939
8281.000000;0.807068
8280.000000;0.807061
8279.000000;0.807152
8278.000000;0.807340
8277.000000;0.807372
8276.000000;0.807043
8275.000000;0.806445
8274.000000;0.805917
8273.000000;0.805748
8272.000000;0.805903
8271.000000;0.806085
8270.000000;0.806047
8269.000000;0.805794
8268.000000;0.805478
8267.000000;0.805221
8266.000000;0.805092
8265.000000;0.805157
8264.000000;0.805424
8263.000000;0.805792
8262.000000;0.806115
8261.000000;0.806301
8260.000000;0.806270
8259.000000;0.805899
8258.000000;0.805117
8257.000000;0.804079
8256.000000;0.803137
8255.000000;0.802607
8254.000000;0.802574
8253.000000;0.802920
8252.000000;0.803480
8251.000000;0.804130
8250.000000;0.804743
8249.000000;0.805095
8248.000000;0.804933
8247.000000;0.804246
8246.000000;0.803440
8245.000000;0.803089
8244.000000;0.803449
8243.000000;0.804276
8242.000000;0.805148
8241.000000;0.805858
8240.000000;0.806387
8239.000000;0.806665
8238.000000;0.806565
8237.000000;0.806145
8236.000000;0.805710
8235.000000;0.805529
8234.000000;0.805580
8233.000000;0.805631
8232.000000;0.805503
8231.000000;0.805192
8230.000000;0.804801
8229.000000;0.804459
8228.000000;0.804291
8227.000000;0.804356
8226.000000;0.804555
8225.000000;0.804668
8224.000000;0.804559
8223.000000;0.804361
8222.000000;0.804384
8221.000000;0.804820
8220.000000;0.805537
8219.000000;0.806164
8218.000000;0.806359
8217.000000;0.806029
8216.000000;0.805366
8215.000000;0.804704
8214.000000;0.804330
8213.000000;0.804345
8212.000000;0.804667
8211.000000;0.805117
8210.000000;0.805505
8209.000000;0.805659
8208.000000;0.805508
8207.000000;0.805182
8206.000000;0.804960
8205.000000;0.805026
8204.000000;0.805283
8203.000000;0.805431
8202.000000;0.805260
8201.000000;0.804838
8200.000000;0.804466
8199.000000;0.804431
8198.000000;0.804748
8197.000000;0.805080
8196.000000;0.804997
8195.000000;0.804409
8194.000000;0.803715
8193.000000;0.803446
8192.000000;0.803761
8191.000000;0.804318
8190.000000;0.804607
8189.000000;0.804365
8188.000000;0.803760
8187.000000;0.803225
8186.000000;0.803098
8185.000000;0.803357
8184.000000;0.803724
8183.000000;0.804009
8182.000000;0.804235
8181.000000;0.804392
8180.000000;0.804271
8179.000000;0.803747
8178.000000;0.803101
8177.000000;0.802811
8176.000000;0.803025
8175.000000;0.803461
8174.000000;0.803800
8173.000000;0.803966
8172.000000;0.803986
8171.000000;0.803850
8170.000000;0.803643
8169.000000;0.803611
8168.000000;0.803930
8167.000000;0.804450
8166.000000;0.804821
8165.000000;0.804824
8164.000000;0.804517
8163.000000;0.804116
8162.000000;0.803833
8161.000000;0.803758
8160.000000;0.803835
8159.000000;0.803958
8158.000000;0.804098
8157.000000;0.804274
8156.000000;0.804400
8155.000000;0.804310
8154.000000;0.804010
8153.000000;0.803746
8152.000000;0.803715
8151.000000;0.803814
8150.000000;0.803794
8149.000000;0.803579
8148.000000;0.803305
8147.000000;0.803077
8146.000000;0.802869
8145.000000;0.802649
8144.000000;0.802489
8143.000000;0.802505
8142.000000;0.802757
8141.000000;0.803224
8140.000000;0.803799
8139.000000;0.804299
8138.000000;0.804570
8137.000000;0.804603
8136.000000;0.804529
8135.000000;0.804474
8134.000000;0.804438
8133.000000;0.804321
8132.000000;0.804046
8131.000000;0.803666
8130.000000;0.803366
8129.000000;0.803326
8128.000000;0.803536
8127.000000;0.803758
8126.000000;0.803707
8125.000000;0.803304
8124.000000;0.802736
8123.000000;0.802319
8122.000000;0.802287
8121.000000;0.802683
8120.000000;0.803334
8119.000000;0.803936
8118.000000;0.804216
8117.000000;0.804099
8116.000000;0.803744
8115.000000;0.803421
8114.000000;0.803308
8113.000000;0.803393
8112.000000;0.803552
8111.000000;0.803730
8110.000000;0.803986
8109.000000;0.804335
8108.000000;0.804582
8107.000000;0.804420
8106.000000;0.803720
8105.000000;0.802722
8104.000000;0.801903
8103.000000;0.801653
8102.000000;0.802031
8101.000000;0.802740
8100.000000;0.803318
8099.000000;0.803457
8098.000000;0.803221
8097.000000;0.802957
8096.000000;0.802954
8095.000000;0.803192
8094.000000;0.803427
8093.000000;0.803475
8092.000000;0.803367
8091.000000;0.803238
8090.000000;0.803130
8089.000000;0.802964
8088.000000;0.802707
8087.000000;0.802500
8086.000000;0.802555
8085.000000;0.802924
8084.000000;0.803409
8083.000000;0.803707
8082.000000;0.803628
8081.000000;0.803197
8080.000000;0.802627
8079.000000;0.802224
8078.000000;0.802195
8077.000000;0.802461
8076.000000;0.802680
8075.000000;0.802571
8074.000000;0.802184
8073.000000;0.801804
8072.000000;0.801622
8071.000000;0.801603
8070.000000;0.801665
8069.000000;0.801839
8068.000000;0.802202
8067.000000;0.802712
8066.000000;0.803195
8065.000000;0.803465
8064.000000;0.803434
8063.000000;0.803139
8062.000000;0.802705
8061.000000;0.802303
8060.000000;0.802083
8059.000000;0.802098
8058.000000;0.802257
8057.000000;0.802393
8056.000000;0.802418
8055.000000;0.802421
8054.000000;0.802518
8053.000000;0.802648
8052.000000;0.802626
8051.000000;0.802424
8050.000000;0.802259
8049.000000;0.802309
8048.000000;0.802462
8047.000000;0.802483
8046.000000;0.802335
8045.000000;0.802199
8044.000000;0.802214
8043.000000;0.802370
8042.000000;0.802602
8041.000000;0.802851
8040.000000;0.803028
8039.000000;0.803073
8038.000000;0.803072
8037.000000;0.803180
8036.000000;0.803399
8035.000000;0.803549
8034.000000;0.803490
8033.000000;0.803257
8032.000000;0.802955
8031.000000;0.802640
8030.000000;0.802338
8029.000000;0.802097
8028.000000;0.801944
8027.000000;0.801859
8026.000000;0.801817
8025.000000;0.801779
8024.000000;0.801677
8023.000000;0.801490
8022.000000;0.801345
8021.000000;0.801394
8020.000000;0.801585
8019.000000;0.801699
8018.000000;0.801635
8017.000000;0.801540
8016.000000;0.801584
8015.000000;0.801768
8014.000000;0.802004
8013.000000;0.802266
8012.000000;0.802526
8011.000000;0.802646
8010.000000;0.802499
8009.000000;0.802156
8008.000000;0.801854
8007.000000;0.801781
8006.000000;0.801957
8005.000000;0.802269
8004.000000;0.802551
8003.000000;0.802650
8002.000000;0.802503
8001.000000;0.802165
8000.000000;0.801755
7999.000000;0.801389
7998.000000;0.801168
7997.000000;0.801170
7996.000000;0.801396
7995.000000;0.801729
7994.000000;0.801993
7993.000000;0.802056
7992.000000;0.801929
7991.000000;0.801776
7990.000000;0.801792
7989.000000;0.801994
7988.000000;0.802177
7987.000000;0.802144
7986.000000;0.801952
7985.000000;0.801812
7984.000000;0.801795
7983.000000;0.801796
7982.000000;0.801796
7981.000000;0.801942
7980.000000;0.802286
7979.000000;0.802602
7978.000000;0.802623
7977.000000;0.802373
7976.000000;0.802125
7975.000000;0.802071
7974.000000;0.802133
7973.000000;0.802077
7972.000000;0.801745
7971.000000;0.801191
7970.000000;0.800673
7969.000000;0.800472
7968.000000;0.800645
7967.000000;0.800986
7966.000000;0.801253
7965.000000;0.801400
7964.000000;0.801535
7963.000000;0.801732
7962.000000;0.801972
7961.000000;0.802213
7960.000000;0.802415
7959.000000;0.802494
7958.000000;0.802342
7957.000000;0.801945
7956.000000;0.801444
7955.000000;0.801070
7954.000000;0.801002
7953.000000;0.801255
7952.000000;0.801679
7951.000000;0.802080
7950.000000;0.802379
7949.000000;0.802628
7948.000000;0.802870
7947.000000;0.803024
7946.000000;0.802964
7945.000000;0.802682
7944.000000;0.802315
7943.000000;0.802027
7942.000000;0.801900
7941.000000;0.801932
7940.000000;0.802112
7939.000000;0.802449
7938.000000;0.802895
7937.000000;0.803280
7936.000000;0.803405
7935.000000;0.803234
7934.000000;0.802941
7933.000000;0.802704
7932.000000;0.802526
7931.000000;0.802336
7930.000000;0.802185
7929.000000;0.802195
7928.000000;0.802341
7927.000000;0.802431
7926.000000;0.802353
7925.000000;0.802194
7924.000000;0.802104
7923.000000;0.802135
7922.000000;0.802269
7921.000000;0.802491
7920.000000;0.802769
7919.000000;0.803030
7918.000000;0.803216
7917.000000;0.803299
7916.000000;0.803247
7915.000000;0.803059
7914.000000;0.802853
7913.000000;0.802775
7912.000000;0.802802
7911.000000;0.802760
7910.000000;0.802609
7909.000000;0.802538
7908.000000;0.802690
7907.000000;0.802923
7906.000000;0.802991
7905.000000;0.802855
7904.000000;0.802666
7903.000000;0.802530
7902.000000;0.802417
7901.000000;0.802299
7900.000000;0.802216
7899.000000;0.802213
7898.000000;0.802290
7897.000000;0.802403
7896.000000;0.802462
7895.000000;0.802356
7894.000000;0.802073
7893.000000;0.801752
7892.000000;0.801554
7891.000000;0.801527
7890.000000;0.801664
7889.000000;0.802015
7888.000000;0.802596
7887.000000;0.803239
7886.000000;0.803666
7885.000000;0.803755
7884.000000;0.803643
7883.000000;0.803531
7882.000000;0.803480
7881.000000;0.803407
7880.000000;0.803216
7879.000000;0.802921
7878.000000;0.802664
7877.000000;0.802612
7876.000000;0.802804
7875.000000;0.803099
7874.000000;0.803333
7873.000000;0.803496
7872.000000;0.803687
7871.000000;0.803917
7870.000000;0.804052
7869.000000;0.803971
7868.000000;0.803707
7867.000000;0.803398
7866.000000;0.803158
7865.000000;0.803037
7864.000000;0.803055
7863.000000;0.803219
7862.000000;0.803479
7861.000000;0.803693
7860.000000;0.803714
7859.000000;0.803525
7858.000000;0.803286
7857.000000;0.803170
7856.000000;0.803184
7855.000000;0.803186
7854.000000;0.803107
7853.000000;0.803051
7852.000000;0.803143
7851.000000;0.803349
7850.000000;0.803509
7849.000000;0.803505
7848.000000;0.803339
7847.000000;0.803099
7846.000000;0.802901
7845.000000;0.802835
7844.000000;0.802915
7843.000000;0.803083
7842.000000;0.803282
7841.000000;0.803490
7840.000000;0.803651
7839.000000;0.803668
7838.000000;0.803538
7837.000000;0.803428
7836.000000;0.803523
7835.000000;0.803814
7834.000000;0.804128
7833.000000;0.804337
7832.000000;0.804449
7831.000000;0.804504
7830.000000;0.804481
7829.000000;0.804350
7828.000000;0.804162
7827.000000;0.804023
7826.000000;0.803990
7825.000000;0.804040
7824.000000;0.804116
7823.000000;0.804195
7822.000000;0.804276
7821.000000;0.804327
7820.000000;0.804290
7819.000000;0.804168
7818.000000;0.804059
7817.000000;0.804032
7816.000000;0.804035
7815.000000;0.804005
7814.000000;0.804040
7813.000000;0.804284
7812.000000;0.804639
7811.000000;0.804785
7810.000000;0.804579
7809.000000;0.804275
7808.000000;0.804204
7807.000000;0.804372
7806.000000;0.804537
7805.000000;0.804605
7804.000000;0.804706
7803.000000;0.804931
7802.000000;0.805178
7801.000000;0.805328
7800.000000;0.805391
7799.000000;0.805420
7798.000000;0.805413
7797.000000;0.805362
7796.000000;0.805292
7795.000000;0.805201
7794.000000;0.805046
7793.000000;0.804850
7792.000000;0.804729
7791.000000;0.804758
7790.000000;0.804895
7789.000000;0.805074
7788.000000;0.805302
7787.000000;0.805583
7786.000000;0.805842
7785.000000;0.806001
7784.000000;0.806087
7783.000000;0.806175
7782.000000;0.806281
7781.000000;0.806387
7780.000000;0.806536
7779.000000;0.806776
7778.000000;0.807015
7777.000000;0.807033
7776.000000;0.806711
7775.000000;0.806217
7774.000000;0.805917
7773.000000;0.806076
7772.000000;0.806636
7771.000000;0.807244
7770.000000;0.807535
7769.000000;0.807413
7768.000000;0.807085
7767.000000;0.806820
7766.000000;0.806719
7765.000000;0.806719
7764.000000;0.806760
7763.000000;0.806851
7762.000000;0.806979
7761.000000;0.807062
7760.000000;0.807039
7759.000000;0.806962
7758.000000;0.806944
7757.000000;0.807023
7756.000000;0.807137
7755.000000;0.807224
7754.000000;0.807289
7753.000000;0.807371
7752.000000;0.807467
7751.000000;0.807521
7750.000000;0.807465
7749.000000;0.807265
7748.000000;0.806968
7747.000000;0.806719
7746.000000;0.806709
7745.000000;0.807047
7744.000000;0.807661
7743.000000;0.808333
7742.000000;0.808832
7741.000000;0.809050
7740.000000;0.809029
7739.000000;0.808903
7738.000000;0.808789
7737.000000;0.808705
7736.000000;0.808595
7735.000000;0.808437
7734.000000;0.808323
7733.000000;0.808381
7732.000000;0.808635
7731.000000;0.808965
7730.000000;0.809231
7729.000000;0.809388
7728.000000;0.809487
7727.000000;0.809610
7726.000000;0.809813
7725.000000;0.810089
7724.000000;0.810344
7723.000000;0.810452
7722.000000;0.810368
7721.000000;0.810178
7720.000000;0.810008
7719.000000;0.809900
7718.000000;0.809825
7717.000000;0.809775
7716.000000;0.809787
7715.000000;0.809881
7714.000000;0.810009
7713.000000;0.810121
7712.000000;0.810227
7711.000000;0.810378
7710.000000;0.810595
7709.000000;0.810841
7708.000000;0.811064
7707.000000;0.811237
7706.000000;0.811378
7705.000000;0.811535
7704.000000;0.811758
7703.000000;0.812028
7702.000000;0.812236
7701.000000;0.812265
7700.000000;0.812129
7699.000000;0.811991
7698.000000;0.812009
7697.000000;0.812167
7696.000000;0.812305
7695.000000;0.812312
7694.000000;0.812241
7693.000000;0.812232
7692.000000;0.812365
7691.000000;0.812623
7690.000000;0.812929
7689.000000;0.813193
7688.000000;0.813329
7687.000000;0.813306
7686.000000;0.813186
7685.000000;0.813087
7684.000000;0.813083
7683.000000;0.813158
7682.000000;0.813255
7681.000000;0.813342
7680.000000;0.813432
7679.000000;0.813547
7678.000000;0.813683
7677.000000;0.813800
7676.000000;0.813855
7675.000000;0.813849
7674.000000;0.813853
7673.000000;0.813980
7672.000000;0.814304
7671.000000;0.814770
7670.000000;0.815198
7669.000000;0.815410
7668.000000;0.815399
7667.000000;0.815322
7666.000000;0.815325
7665.000000;0.815412
7664.000000;0.815525
7663.000000;0.815677
7662.000000;0.815879
7661.000000;0.816001
7660.000000;0.815867
7659.000000;0.815549
7658.000000;0.815390
7657.000000;0.815647
7656.000000;0.816195
7655.000000;0.816700
7654.000000;0.816988
7653.000000;0.817145
7652.000000;0.817308
7651.000000;0.817500
7650.000000;0.817652
7649.000000;0.817691
7648.000000;0.817589
7647.000000;0.817408
7646.000000;0.817265
7645.000000;0.817212
7644.000000;0.817194
7643.000000;0.817191
7642.000000;0.817317
7641.000000;0.817671
7640.000000;0.818139
7639.000000;0.818492
7638.000000;0.818676
7637.000000;0.818850
7636.000000;0.819133
7635.000000;0.819461
7634.000000;0.819706
7633.000000;0.819823
7632.000000;0.819833
7631.000000;0.819797
7630.000000;0.819848
7629.000000;0.820106
7628.000000;0.820506
7627.000000;0.820806
7626.000000;0.820868
7625.000000;0.820821
7624.000000;0.820871
7623.000000;0.821043
7622.000000;0.821227
7621.000000;0.821402
7620.000000;0.821672
7619.000000;0.822098
7618.000000;0.822636
7617.000000;0.823209
7616.000000;0.823765
7615.000000;0.824222
7614.000000;0.824452
7613.000000;0.824384
7612.000000;0.824108
7611.000000;0.823844
7610.000000;0.823800
7609.000000;0.824043
7608.000000;0.824472
7607.000000;0.824909
7606.000000;0.825216
7605.000000;0.825341
7604.000000;0.825318
7603.000000;0.825249
7602.000000;0.825272
7601.000000;0.825453
7600.000000;0.825723
7599.000000;0.825952
7598.000000;0.826103
7597.000000;0.826252
7596.000000;0.826470
7595.000000;0.826749
7594.000000;0.827064
7593.000000;0.827411
7592.000000;0.827752
7591.000000;0.828004
7590.000000;0.828128
7589.000000;0.828174
7588.000000;0.828207
7587.000000;0.828237
7586.000000;0.828272
7585.000000;0.828385
7584.000000;0.828654
7583.000000;0.829077
7582.000000;0.829578
7581.000000;0.830081
7580.000000;0.830524
7579.000000;0.830847
7578.000000;0.831020
7577.000000;0.831094
7576.000000;0.831165
7575.000000;0.831294
7574.000000;0.831465
7573.000000;0.831629
7572.000000;0.831756
7571.000000;0.831870
7570.000000;0.832015
7569.000000;0.832210
7568.000000;0.832438
7567.000000;0.832696
7566.000000;0.833001
7565.000000;0.833329
7564.000000;0.833581
7563.000000;0.833706
7562.000000;0.833819
7561.000000;0.834083
7560.000000;0.834492
7559.000000;0.834873
7558.000000;0.835129
7557.000000;0.835360
7556.000000;0.835687
7555.000000;0.836093
7554.000000;0.836465
7553.000000;0.836717
7552.000000;0.836805
7551.000000;0.836744
7550.000000;0.836678
7549.000000;0.836833
7548.000000;0.837277
7547.000000;0.837811
7546.000000;0.838201
7545.000000;0.838463
7544.000000;0.838784
7543.000000;0.839222
7542.000000;0.839631
7541.000000;0.839891
7540.000000;0.840071
7539.000000;0.840339
7538.000000;0.840778
7537.000000;0.841319
7536.000000;0.841805
7535.000000;0.842097
7534.000000;0.842193
7533.000000;0.842223
7532.000000;0.842320
7531.000000;0.842492
7530.000000;0.842675
7529.000000;0.842855
7528.000000;0.843066
7527.000000;0.843304
7526.000000;0.843536
7525.000000;0.843794
7524.000000;0.844134
7523.000000;0.844519
7522.000000;0.844826
7521.000000;0.845030
7520.000000;0.845264
7519.000000;0.845644
7518.000000;0.846136
7517.000000;0.846630
7516.000000;0.847098
7515.000000;0.847572
7514.000000;0.848018
7513.000000;0.848332
7512.000000;0.848476
7511.000000;0.848540
7510.000000;0.848657
7509.000000;0.848878
7508.000000;0.849161
7507.000000;0.849449
7506.000000;0.849746
7505.000000;0.850091
7504.000000;0.850503
7503.000000;0.850930
7502.000000;0.851288
7501.000000;0.851533
7500.000000;0.851678
7499.000000;0.851809
7498.000000;0.852018
7497.000000;0.852352
7496.000000;0.852784
7495.000000;0.853240
7494.000000;0.853676
7493.000000;0.854094
7492.000000;0.854498
7491.000000;0.854843
7490.000000;0.855077
7489.000000;0.855234
7488.000000;0.855449
7487.000000;0.855822
7486.000000;0.856291
7485.000000;0.856670
7484.000000;0.856838
7483.000000;0.856877
7482.000000;0.856990
7481.000000;0.857319
7480.000000;0.857853
7479.000000;0.858495
7478.000000;0.859150
7477.000000;0.859725
7476.000000;0.860139
7475.000000;0.860389
7474.000000;0.860572
7473.000000;0.860774
7472.000000;0.860972
7471.000000;0.861120
7470.000000;0.861299
7469.000000;0.861665
7468.000000;0.862238
7467.000000;0.862825
7466.000000;0.863224
7465.000000;0.863422
7464.000000;0.863565
7463.000000;0.863783
7462.000000;0.864106
7461.000000;0.864488
7460.000000;0.864855
7459.000000;0.865144
7458.000000;0.865352
7457.000000;0.865551
7456.000000;0.865811
7455.000000;0.866139
7454.000000;0.866501
7453.000000;0.866877
7452.000000;0.867240
7451.000000;0.867527
7450.000000;0.867694
7449.000000;0.867785
7448.000000;0.867909
7447.000000;0.868122
7446.000000;0.868380
7445.000000;0.868605
7444.000000;0.868778
7443.000000;0.868988
7442.000000;0.869363
7441.000000;0.869940
7440.000000;0.870592
7439.000000;0.871124
7438.000000;0.871451
7437.000000;0.871663
7436.000000;0.871885
7435.000000;0.872149
7434.000000;0.872420
7433.000000;0.872695
7432.000000;0.873010
7431.000000;0.873372
7430.000000;0.873743
7429.000000;0.874072
7428.000000;0.874320
7427.000000;0.874455
7426.000000;0.874485
7425.000000;0.874481
7424.000000;0.874551
7423.000000;0.874784
7422.000000;0.875224
7421.000000;0.875845
7420.000000;0.876517
7419.000000;0.877048
7418.000000;0.877344
7417.000000;0.877495
7416.000000;0.877660
7415.000000;0.877884
7414.000000;0.878109
7413.000000;0.878317
7412.000000;0.878569
7411.000000;0.878900
7410.000000;0.879273
7409.000000;0.879660
7408.000000;0.880091
7407.000000;0.880569
7406.000000;0.881018
7405.000000;0.881375
7404.000000;0.881681
7403.000000;0.882008
7402.000000;0.882341
7401.000000;0.882605
7400.000000;0.882796
7399.000000;0.883001
7398.000000;0.883259
7397.000000;0.883472
7396.000000;0.883532
7395.000000;0.883501
7394.000000;0.883562
7393.000000;0.883803
7392.000000;0.884144
7391.000000;0.884514
7390.000000;0.884963
7389.000000;0.885520
7388.000000;0.886053
7387.000000;0.886410
7386.000000;0.886640
7385.000000;0.886914
7384.000000;0.887248
7383.000000;0.887467
7382.000000;0.887488
7381.000000;0.887489
7380.000000;0.887706
7379.000000;0.888140
7378.000000;0.888583
7377.000000;0.888870
7376.000000;0.889016
7375.000000;0.889151
7374.000000;0.889419
7373.000000;0.889893
7372.000000;0.890474
7371.000000;0.890920
7370.000000;0.891069
7369.000000;0.891024
7368.000000;0.891044
7367.000000;0.891288
7366.000000;0.891727
7365.000000;0.892256
7364.000000;0.892766
7363.000000;0.893128
7362.000000;0.893288
7361.000000;0.893421
7360.000000;0.893822
7359.000000;0.894525
7358.000000;0.895183
7357.000000;0.895441
7356.000000;0.895344
7355.000000;0.895255
7354.000000;0.895434
7353.000000;0.895846
7352.000000;0.896333
7351.000000;0.896792
7350.000000;0.897165
7349.000000;0.897414
7348.000000;0.897563
7347.000000;0.897711
7346.000000;0.897962
7345.000000;0.898369
7344.000000;0.898908
7343.000000;0.899459
7342.000000;0.899829
7341.000000;0.899925
7340.000000;0.899916
7339.000000;0.900094
7338.000000;0.900526
7337.000000;0.901006
7336.000000;0.901356
7335.000000;0.901647
7334.000000;0.902070
7333.000000;0.902698
7332.000000;0.903437
7331.000000;0.904091
7330.000000;0.904443
7329.000000;0.904431
7328.000000;0.904304
7327.000000;0.904443
7326.000000;0.904956
7325.000000;0.905573
7324.000000;0.906013
7323.000000;0.906323
7322.000000;0.906739
7321.000000;0.907328
7320.000000;0.907938
7319.000000;0.908453
7318.000000;0.908910
7317.000000;0.909367
7316.000000;0.909798
7315.000000;0.910158
7314.000000;0.910421
7313.000000;0.910573
7312.000000;0.910680
7311.000000;0.910931
7310.000000;0.911474
7309.000000;0.912215
7308.000000;0.912906
7307.000000;0.913441
7306.000000;0.913960
7305.000000;0.914626
7304.000000;0.915425
7303.000000;0.916216
7302.000000;0.916883
7301.000000;0.917371
7300.000000;0.917702
7299.000000;0.918021
7298.000000;0.918527
7297.000000;0.919255
7296.000000;0.920000
7295.000000;0.920536
7294.000000;0.920879
7293.000000;0.921262
7292.000000;0.921896
7291.000000;0.922796
7290.000000;0.923810
7289.000000;0.924749
7288.000000;0.925530
7287.000000;0.926214
7286.000000;0.926921
7285.000000;0.927723
7284.000000;0.928622
7283.000000;0.929595
7282.000000;0.930575
7281.000000;0.931414
7280.000000;0.931991
7279.000000;0.932395
7278.000000;0.932886
7277.000000;0.933629
7276.000000;0.934557
7275.000000;0.935527
7274.000000;0.936504
7273.000000;0.937515
7272.000000;0.938517
7271.000000;0.939448
7270.000000;0.940365
7269.000000;0.941420
7268.000000;0.942682
7267.000000;0.944041
7266.000000;0.945289
7265.000000;0.946267
7264.000000;0.946977
7263.000000;0.947613
7262.000000;0.948440
7261.000000;0.949572
7260.000000;0.950873
7259.000000;0.952142
7258.000000;0.953351
7257.000000;0.954594
7256.000000;0.955890
7255.000000;0.957167
7254.000000;0.958436
7253.000000;0.959796
7252.000000;0.961237
7251.000000;0.962579
7250.000000;0.963697
7249.000000;0.964725
7248.000000;0.965946
7247.000000;0.967464
7246.000000;0.969084
7245.000000;0.970524
7244.000000;0.971759
7243.000000;0.973077
7242.000000;0.974773
7241.000000;0.976802
7240.000000;0.978828
7239.000000;0.980608
7238.000000;0.982231
7237.000000;0.983915
7236.000000;0.985666
7235.000000;0.987252
7234.000000;0.988506
7233.000000;0.989564
7232.000000;0.990805
7231.000000;0.992568
7230.000000;0.994858
7229.000000;0.997350
7228.000000;0.999681
7227.000000;1.001743
7226.000000;1.003709
7225.000000;1.005775
7224.000000;1.007967
7223.000000;1.010198
7222.000000;1.012432
7221.000000;1.014694
7220.000000;1.016987
7219.000000;1.019290
7218.000000;1.021652
7217.000000;1.024181
7216.000000;1.026897
7215.000000;1.029668
7214.000000;1.032333
7213.000000;1.034851
7212.000000;1.037321
7211.000000;1.039917
7210.000000;1.042775
7209.000000;1.045879
7208.000000;1.049034
7207.000000;1.052013
7206.000000;1.054727
7205.000000;1.057265
7204.000000;1.059763
7203.000000;1.062301
7202.000000;1.064913
7201.000000;1.067634
7200.000000;1.070498
7199.000000;1.073516
7198.000000;1.076669
7197.000000;1.079911
7196.000000;1.083190
7195.000000;1.086503
7194.000000;1.089914
7193.000000;1.093447
7192.000000;1.097003
7191.000000;1.100435
7190.000000;1.103708
7189.000000;1.106919
7188.000000;1.110186
7187.000000;1.113609
7186.000000;1.117251
7185.000000;1.121037
7184.000000;1.124707
7183.000000;1.128081
7182.000000;1.131343
7181.000000;1.134888
7180.000000;1.138824
7179.000000;1.142864
7178.000000;1.146757
7177.000000;1.150611
7176.000000;1.154662
7175.000000;1.158911
7174.000000;1.163154
7173.000000;1.167255
7172.000000;1.171242
7171.000000;1.175202
7170.000000;1.179234
7169.000000;1.183463
7168.000000;1.187922
7167.000000;1.192492
7166.000000;1.197039
7165.000000;1.201532
7164.000000;1.205960
7163.000000;1.210258
7162.000000;1.214442
7161.000000;1.218701
7160.000000;1.223179
7159.000000;1.227756
7158.000000;1.232198
7157.000000;1.236473
7156.000000;1.240762
7155.000000;1.245216
7154.000000;1.249839
7153.000000;1.254509
7152.000000;1.259033
7151.000000;1.263291
7150.000000;1.267433
7149.000000;1.271773
7148.000000;1.276360
7147.000000;1.280852
7146.000000;1.285005
7145.000000;1.289129
7144.000000;1.293779
7143.000000;1.299054
7142.000000;1.304487
7141.000000;1.309598
7140.000000;1.314287
7139.000000;1.318684
7138.000000;1.322882
7137.000000;1.326952
7136.000000;1.331035
7135.000000;1.335295
7134.000000;1.339854
7133.000000;1.344748
7132.000000;1.349873
7131.000000;1.354998
7130.000000;1.359945
7129.000000;1.364725
7128.000000;1.369441
7127.000000;1.374140
7126.000000;1.378907
7125.000000;1.383924
7124.000000;1.389213
7123.000000;1.394382
7122.000000;1.398897
7121.000000;1.402654
7120.000000;1.406072
7119.000000;1.409643
7118.000000;1.413560
7117.000000;1.417760
7116.000000;1.422053
7115.000000;1.426241
7114.000000;1.430287
7113.000000;1.434390
7112.000000;1.438724
7111.000000;1.443117
7110.000000;1.447241
7109.000000;1.451112
7108.000000;1.455120
7107.000000;1.459493
7106.000000;1.463993
7105.000000;1.468207
7104.000000;1.471981
7103.000000;1.475513
7102.000000;1.479191
7101.000000;1.483374
7100.000000;1.488139
7099.000000;1.493131
7098.000000;1.497785
7097.000000;1.501775
7096.000000;1.505190
7095.000000;1.508360
7094.000000;1.511627
7093.000000;1.515180
7092.000000;1.518914
7091.000000;1.522541
7090.000000;1.526076
7089.000000;1.530018
7088.000000;1.534688
7087.000000;1.539508
7086.000000;1.543443
7085.000000;1.546216
7084.000000;1.548601
7083.000000;1.551419
7082.000000;1.554746
7081.000000;1.558290
7080.000000;1.561963
7079.000000;1.565676
7078.000000;1.568997
7077.000000;1.571565
7076.000000;1.573675
7075.000000;1.576004
7074.000000;1.578824
7073.000000;1.581832
7072.000000;1.584704
7071.000000;1.587501
7070.000000;1.590478
7069.000000;1.593748
7068.000000;1.597182
7067.000000;1.600502
7066.000000;1.603440
7065.000000;1.605949
7064.000000;1.608280
7063.000000;1.610778
7062.000000;1.613613
7061.000000;1.616731
7060.000000;1.619963
7059.000000;1.623131
7058.000000;1.626110
7057.000000;1.628855
7056.000000;1.631305
7055.000000;1.633324
7054.000000;1.634895
7053.000000;1.636344
7052.000000;1.638130
7051.000000;1.640362
7050.000000;1.642733
7049.000000;1.644983
7048.000000;1.647211
7047.000000;1.649594
7046.000000;1.652028
7045.000000;1.654206
7044.000000;1.655952
7043.000000;1.657323
7042.000000;1.658554
7041.000000;1.659982
7040.000000;1.661854
7039.000000;1.664021
7038.000000;1.666004
7037.000000;1.667562
7036.000000;1.669074
7035.000000;1.671124
7034.000000;1.673760
7033.000000;1.676359
7032.000000;1.678237
7031.000000;1.679319
7030.000000;1.680167
7029.000000;1.681406
7028.000000;1.683138
7027.000000;1.684918
7026.000000;1.686309
7025.000000;1.687408
7024.000000;1.688704
7023.000000;1.690500
7022.000000;1.692598
7021.000000;1.694512
7020.000000;1.695781
7019.000000;1.696113
7018.000000;1.695618
7017.000000;1.695019
7016.000000;1.695285
7015.000000;1.696850
7014.000000;1.699297
7013.000000;1.701884
7012.000000;1.704134
7011.000000;1.705835
7010.000000;1.706845
7009.000000;1.707304
7008.000000;1.707768
7007.000000;1.708652
7006.000000;1.709596
7005.000000;1.709865
7004.000000;1.709487
7003.000000;1.709543
7002.000000;1.711059
7001.000000;1.713799
7000.000000;1.716433
6999.000000;1.717882
6998.000000;1.718273
6997.000000;1.718560
6996.000000;1.719481
6995.000000;1.720970
6994.000000;1.722480
6993.000000;1.723654
6992.000000;1.724593
6991.000000;1.725588
6990.000000;1.726716
6989.000000;1.727715
6988.000000;1.728213
6987.000000;1.728067
6986.000000;1.727514
6985.000000;1.727007
6984.000000;1.726950
6983.000000;1.727543
6982.000000;1.728770
6981.000000;1.730362
6980.000000;1.731761
6979.000000;1.732377
6978.000000;1.732137
6977.000000;1.731728
6976.000000;1.732016
6975.000000;1.733102
6974.000000;1.734122
6973.000000;1.734173
6972.000000;1.733380
6971.000000;1.732820
6970.000000;1.733346
6969.000000;1.734755
6968.000000;1.736264
6967.000000;1.737513
6966.000000;1.738628
6965.000000;1.739385
6964.000000;1.739059
6963.000000;1.737554
6962.000000;1.736124
6961.000000;1.736165
6960.000000;1.737456
6959.000000;1.738332
6958.000000;1.737746
6957.000000;1.736496
6956.000000;1.736040
6955.000000;1.736713
6954.000000;1.737634
6953.000000;1.737963
6952.000000;1.737673
6951.000000;1.737211
6950.000000;1.736956
6949.000000;1.737065
6948.000000;1.737493
6947.000000;1.738059
6946.000000;1.738642
6945.000000;1.739234
6944.000000;1.739688
6943.000000;1.739676
6942.000000;1.739153
6941.000000;1.738635
6940.000000;1.738670
6939.000000;1.739195
6938.000000;1.739737
6937.000000;1.740068
6936.000000;1.740302
6935.000000;1.740483
6934.000000;1.740476
6933.000000;1.740255
6932.000000;1.739998
6931.000000;1.739881
6930.000000;1.739971
6929.000000;1.740168
6928.000000;1.740076
6927.000000;1.739237
6926.000000;1.737873
6925.000000;1.737089
6924.000000;1.737805
6923.000000;1.739582
6922.000000;1.741021
6921.000000;1.741281
6920.000000;1.740686
6919.000000;1.739910
6918.000000;1.739267
6917.000000;1.738878
6916.000000;1.738806
6915.000000;1.738751
6914.000000;1.738189
6913.000000;1.737152
6912.000000;1.736408
6911.000000;1.736563
6910.000000;1.737386
6909.000000;1.738316
6908.000000;1.739197
6907.000000;1.740061
6906.000000;1.740603
6905.000000;1.740395
6904.000000;1.739470
6903.000000;1.738271
6902.000000;1.737138
6901.000000;1.736162
6900.000000;1.735448
6899.000000;1.735165
6898.000000;1.735284
6897.000000;1.735472
6896.000000;1.735328
6895.000000;1.734651
6894.000000;1.733545
6893.000000;1.732368
6892.000000;1.731563
6891.000000;1.731414
6890.000000;1.731926
6889.000000;1.732859
6888.000000;1.733763
6887.000000;1.734028
6886.000000;1.733238
6885.000000;1.731640
6884.000000;1.730113
6883.000000;1.729502
6882.000000;1.730000
6881.000000;1.731137
6880.000000;1.732157
6879.000000;1.732415
6878.000000;1.731716
6877.000000;1.730458
6876.000000;1.729325
6875.000000;1.728730
6874.000000;1.728553
6873.000000;1.728468
6872.000000;1.728373
6871.000000;1.728433
6870.000000;1.728796
6869.000000;1.729354
6868.000000;1.729712
6867.000000;1.729463
6866.000000;1.728657
6865.000000;1.727943
6864.000000;1.727943
6863.000000;1.728440
6862.000000;1.728496
6861.000000;1.727555
6860.000000;1.726134
6859.000000;1.725207
6858.000000;1.725150
6857.000000;1.725507
6856.000000;1.725597
6855.000000;1.725111
6854.000000;1.724219
6853.000000;1.723382
6852.000000;1.723031
6851.000000;1.723209
6850.000000;1.723394
6849.000000;1.722804
6848.000000;1.721055
6847.000000;1.718649
6846.000000;1.716778
6845.000000;1.716425
6844.000000;1.717406
6843.000000;1.718343
6842.000000;1.717921
6841.000000;1.716239
6840.000000;1.714606
6839.000000;1.713949
6838.000000;1.713800
6837.000000;1.713002
6836.000000;1.711158
6835.000000;1.709060
6834.000000;1.707789
6833.000000;1.707684
6832.000000;1.708164
6831.000000;1.708350
6830.000000;1.707838
6829.000000;1.706918
6828.000000;1.706044
6827.000000;1.705198
6826.000000;1.703968
6825.000000;1.702222
6824.000000;1.700374
6823.000000;1.698867
6822.000000;1.697646
6821.000000;1.696392
6820.000000;1.695062
6819.000000;1.693914
6818.000000;1.693060
6817.000000;1.692262
6816.000000;1.691228
6815.000000;1.689940
6814.000000;1.688595
6813.000000;1.687299
6812.000000;1.685886
6811.000000;1.684098
6810.000000;1.681965
6809.000000;1.679926
6808.000000;1.678409
6807.000000;1.677355
6806.000000;1.676327
6805.000000;1.675094
6804.000000;1.673861
6803.000000;1.672824
6802.000000;1.671748
6801.000000;1.670234
6800.000000;1.668255
6799.000000;1.666203
6798.000000;1.664459
6797.000000;1.663118
6796.000000;1.662058
6795.000000;1.661079
6794.000000;1.659941
6793.000000;1.658407
6792.000000;1.656368
6791.000000;1.653975
6790.000000;1.651643
6789.000000;1.649849
6788.000000;1.648738
6787.000000;1.647877
6786.000000;1.646550
6785.000000;1.644401
6784.000000;1.641723
6783.000000;1.639094
6782.000000;1.636900
6781.000000;1.635216
6780.000000;1.633892
6779.000000;1.632608
6778.000000;1.631004
6777.000000;1.628996
6776.000000;1.626899
6775.000000;1.625087
6774.000000;1.623603
6773.000000;1.622228
6772.000000;1.620781
6771.000000;1.619217
6770.000000;1.617524
6769.000000;1.615695
6768.000000;1.613746
6767.000000;1.611654
6766.000000;1.609343
6765.000000;1.606860
6764.000000;1.604458
6763.000000;1.602416
6762.000000;1.600824
6761.000000;1.599610
6760.000000;1.598595
6759.000000;1.597422
6758.000000;1.595638
6757.000000;1.593134
6756.000000;1.590415
6755.000000;1.588186
6754.000000;1.586663
6753.000000;1.585471
6752.000000;1.584110
6751.000000;1.582315
6750.000000;1.580038
6749.000000;1.577429
6748.000000;1.574870
6747.000000;1.572755
6746.000000;1.571087
6745.000000;1.569480
6744.000000;1.567641
6743.000000;1.565678
6742.000000;1.563858
6741.000000;1.562260
6740.000000;1.560813
6739.000000;1.559443
6738.000000;1.558005
6737.000000;1.556217
6736.000000;1.553960
6735.000000;1.551585
6734.000000;1.549651
6733.000000;1.548311
6732.000000;1.547080
6731.000000;1.545305
6730.000000;1.542806
6729.000000;1.539995
6728.000000;1.537444
6727.000000;1.535407
6726.000000;1.533705
6725.000000;1.531955
6724.000000;1.529899
6723.000000;1.527577
6722.000000;1.525268
6721.000000;1.523291
6720.000000;1.521804
6719.000000;1.520693
6718.000000;1.519616
6717.000000;1.518191
6716.000000;1.516256
6715.000000;1.514029
6714.000000;1.511965
6713.000000;1.510371
6712.000000;1.509091
6711.000000;1.507563
6710.000000;1.505305
6709.000000;1.502383
6708.000000;1.499368
6707.000000;1.496835
6706.000000;1.494903
6705.000000;1.493289
6704.000000;1.491714
6703.000000;1.490143
6702.000000;1.488635
6701.000000;1.487114
6700.000000;1.485428
6699.000000;1.483589
6698.000000;1.481812
6697.000000;1.480258
6696.000000;1.478833
6695.000000;1.477325
6694.000000;1.475664
6693.000000;1.473932
6692.000000;1.472139
6691.000000;1.470138
6690.000000;1.467829
6689.000000;1.465364
6688.000000;1.463008
6687.000000;1.460844
6686.000000;1.458717
6685.000000;1.456475
6684.000000;1.454176
6683.000000;1.452004
6682.000000;1.450070
6681.000000;1.448349
6680.000000;1.446791
6679.000000;1.445404
6678.000000;1.444203
6677.000000;1.443100
6676.000000;1.441922
6675.000000;1.440544
6674.000000;1.438972
6673.000000;1.437265
6672.000000;1.435400
6671.000000;1.433348
6670.000000;1.431286
6669.000000;1.429578
6668.000000;1.428403
6667.000000;1.427450
6666.000000;1.426125
6665.000000;1.424065
6664.000000;1.421401
6663.000000;1.418561
6662.000000;1.415965
6661.000000;1.413864
6660.000000;1.412291
6659.000000;1.411053
6658.000000;1.409858
6657.000000;1.408544
6656.000000;1.407152
6655.000000;1.405757
6654.000000;1.404321
6653.000000;1.402759
6652.000000;1.401047
6651.000000;1.399196
6650.000000;1.397222
6649.000000;1.395220
6648.000000;1.393398
6647.000000;1.391902
6646.000000;1.390640
6645.000000;1.389379
6644.000000;1.387985
6643.000000;1.386487
6642.000000;1.384936
6641.000000;1.383326
6640.000000;1.381659
6639.000000;1.379992
6638.000000;1.378395
6637.000000;1.376918
6636.000000;1.375549
6635.000000;1.374153
6634.000000;1.372520
6633.000000;1.370617
6632.000000;1.368730
6631.000000;1.367193
6630.000000;1.365967
6629.000000;1.364672
6628.000000;1.363059
6627.000000;1.361286
6626.000000;1.359645
6625.000000;1.358191
6624.000000;1.356791
6623.000000;1.355380
6622.000000;1.353980
6621.000000;1.352533
6620.000000;1.350904
6619.000000;1.349070
6618.000000;1.347175
6617.000000;1.345386
6616.000000;1.343804
6615.000000;1.342491
6614.000000;1.341437
6613.000000;1.340470
6612.000000;1.339322
6611.000000;1.337872
6610.000000;1.336251
6609.000000;1.334677
6608.000000;1.333252
6607.000000;1.331947
6606.000000;1.330670
6605.000000;1.329294
6604.000000;1.327704
6603.000000;1.325937
6602.000000;1.324206
6601.000000;1.322707
6600.000000;1.321424
6599.000000;1.320189
6598.000000;1.318875
6597.000000;1.317460
6596.000000;1.315955
6595.000000;1.314410
6594.000000;1.312957
6593.000000;1.311716
6592.000000;1.310636
6591.000000;1.309541
6590.000000;1.308357
6589.000000;1.307171
6588.000000;1.306019
6587.000000;1.304749
6586.000000;1.303228
6585.000000;1.301585
6584.000000;1.300118
6583.000000;1.298964
6582.000000;1.297971
6581.000000;1.296887
6580.000000;1.295597
6579.000000;1.294152
6578.000000;1.292653
6577.000000;1.291179
6576.000000;1.289762
6575.000000;1.288379
6574.000000;1.286993
6573.000000;1.285620
6572.000000;1.284341
6571.000000;1.283215
6570.000000;1.282217
6569.000000;1.281257
6568.000000;1.280235
6567.000000;1.279062
6566.000000;1.277701
6565.000000;1.276263
6564.000000;1.274989
6563.000000;1.274029
6562.000000;1.273231
6561.000000;1.272250
6560.000000;1.270909
6559.000000;1.269395
6558.000000;1.268012
6557.000000;1.266831
6556.000000;1.265649
6555.000000;1.264284
6554.000000;1.262791
6553.000000;1.261371
6552.000000;1.260141
6551.000000;1.259050
6550.000000;1.258004
6549.000000;1.256984
6548.000000;1.256033
6547.000000;1.255155
6546.000000;1.254264
6545.000000;1.253245
6544.000000;1.252048
6543.000000;1.250702
6542.000000;1.249269
6541.000000;1.247799
6540.000000;1.246363
6539.000000;1.245076
6538.000000;1.244026
6537.000000;1.243166
6536.000000;1.242334
6535.000000;1.241413
6534.000000;1.240454
6533.000000;1.239587
6532.000000;1.238822
6531.000000;1.237978
6530.000000;1.236839
6529.000000;1.235383
6528.000000;1.233822
6527.000000;1.232407
6526.000000;1.231208
6525.000000;1.230124
6524.000000;1.229079
6523.000000;1.228134
6522.000000;1.227319
6521.000000;1.226455
6520.000000;1.225265
6519.000000;1.223724
6518.000000;1.222178
6517.000000;1.221041
6516.000000;1.220403
6515.000000;1.219988
6514.000000;1.219435
6513.000000;1.218560
6512.000000;1.217392
6511.000000;1.216080
6510.000000;1.214810
6509.000000;1.213736
6508.000000;1.212882
6507.000000;1.212129
6506.000000;1.211302
6505.000000;1.210305
6504.000000;1.209177
6503.000000;1.208044
6502.000000;1.207021
6501.000000;1.206122
6500.000000;1.205272
6499.000000;1.204384
6498.000000;1.203428
6497.000000;1.202411
6496.000000;1.201326
6495.000000;1.200177
6494.000000;1.199040
6493.000000;1.198037
6492.000000;1.197218
6491.000000;1.196498
6490.000000;1.195749
6489.000000;1.194953
6488.000000;1.194206
6487.000000;1.193577
6486.000000;1.192957
6485.000000;1.192109
6484.000000;1.190889
6483.000000;1.189430
6482.000000;1.188065
6481.000000;1.187030
6480.000000;1.186280
6479.000000;1.185599
6478.000000;1.184863
6477.000000;1.184135
6476.000000;1.183533
6475.000000;1.183069
6474.000000;1.182637
6473.000000;1.182089
6472.000000;1.181303
6471.000000;1.180244
6470.000000;1.179004
6469.000000;1.177776
6468.000000;1.176714
6467.000000;1.175844
6466.000000;1.175070
6465.000000;1.174268
6464.000000;1.173345
6463.000000;1.172278
6462.000000;1.171131
6461.000000;1.170027
6460.000000;1.169062
6459.000000;1.168232
6458.000000;1.167468
6457.000000;1.166719
6456.000000;1.166001
6455.000000;1.165359
6454.000000;1.164807
6453.000000;1.164307
6452.000000;1.163776
6451.000000;1.163120
6450.000000;1.162272
6449.000000;1.161226
6448.000000;1.160062
6447.000000;1.158946
6446.000000;1.158052
6445.000000;1.157430
6444.000000;1.156949
6443.000000;1.156400
6442.000000;1.155692
6441.000000;1.154894
6440.000000;1.154115
6439.000000;1.153385
6438.000000;1.152678
6437.000000;1.151984
6436.000000;1.151310
6435.000000;1.150639
6434.000000;1.149935
6433.000000;1.149172
6432.000000;1.148335
6431.000000;1.147418
6430.000000;1.146467
6429.000000;1.145587
6428.000000;1.144848
6427.000000;1.144186
6426.000000;1.143473
6425.000000;1.142658
6424.000000;1.141804
6423.000000;1.140980
6422.000000;1.140188
6421.000000;1.139431
6420.000000;1.138755
6419.000000;1.138183
6418.000000;1.137638
6417.000000;1.137010
6416.000000;1.136295
6415.000000;1.135586
6414.000000;1.134938
6413.000000;1.134289
6412.000000;1.133556
6411.000000;1.132748
6410.000000;1.131962
6409.000000;1.131284
6408.000000;1.130720
6407.000000;1.130190
6406.000000;1.129575
6405.000000;1.128789
6404.000000;1.127859
6403.000000;1.126943
6402.000000;1.126215
6401.000000;1.125723
6400.000000;1.125358
6399.000000;1.124963
6398.000000;1.124450
6397.000000;1.123815
6396.000000;1.123091
6395.000000;1.122318
6394.000000;1.121531
6393.000000;1.120757
6392.000000;1.120014
6391.000000;1.119338
6390.000000;1.118779
6389.000000;1.118339
6388.000000;1.117934
6387.000000;1.117456
6386.000000;1.116878
6385.000000;1.116261
6384.000000;1.115663
6383.000000;1.115066
6382.000000;1.114425
6381.000000;1.113741
6380.000000;1.113065
6379.000000;1.112417
6378.000000;1.111751
6377.000000;1.111012
6376.000000;1.110201
6375.000000;1.109376
6374.000000;1.108589
6373.000000;1.107850
6372.000000;1.107157
6371.000000;1.106540
6370.000000;1.106027
6369.000000;1.105587
6368.000000;1.105119
6367.000000;1.104560
6366.000000;1.103943
6365.000000;1.103359
6364.000000;1.102854
6363.000000;1.102398
6362.000000;1.101927
6361.000000;1.101385
6360.000000;1.100737
6359.000000;1.099999
6358.000000;1.099241
6357.000000;1.098543
6356.000000;1.097911
6355.000000;1.097272
6354.000000;1.096582
6353.000000;1.095897
6352.000000;1.095326
6351.000000;1.094902
6350.000000;1.094541
6349.000000;1.094115
6348.000000;1.093571
6347.000000;1.092962
6346.000000;1.092402
6345.000000;1.091965
6344.000000;1.091630
6343.000000;1.091294
6342.000000;1.090853
6341.000000;1.090280
6340.000000;1.089640
6339.000000;1.089024
6338.000000;1.088468
6337.000000;1.087924
6336.000000;1.087323
6335.000000;1.086656
6334.000000;1.085987
6333.000000;1.085385
6332.000000;1.084873
6331.000000;1.084427
6330.000000;1.084004
6329.000000;1.083558
6328.000000;1.083056
6327.000000;1.082499
6326.000000;1.081928
6325.000000;1.081390
6324.000000;1.080894
6323.000000;1.080428
6322.000000;1.079974
6321.000000;1.079515
6320.000000;1.079024
6319.000000;1.078496
6318.000000;1.077961
6317.000000;1.077454
6316.000000;1.076969
6315.000000;1.076466
6314.000000;1.075924
6313.000000;1.075359
6312.000000;1.074811
6311.000000;1.074314
6310.000000;1.073894
6309.000000;1.073555
6308.000000;1.073260
6307.000000;1.072939
6306.000000;1.072538
6305.000000;1.072048
6304.000000;1.071494
6303.000000;1.070911
6302.000000;1.070337
6301.000000;1.069813
6300.000000;1.069379
6299.000000;1.069049
6298.000000;1.068797
6297.000000;1.068547
6296.000000;1.068206
6295.000000;1.067726
6294.000000;1.067135
6293.000000;1.066519
6292.000000;1.065964
6291.000000;1.065521
6290.000000;1.065197
6289.000000;1.064952
6288.000000;1.064722
6287.000000;1.064452
6286.000000;1.064116
6285.000000;1.063694
6284.000000;1.063175
6283.000000;1.062580
6282.000000;1.061965
6281.000000;1.061359
6280.000000;1.060763
6279.000000;1.060215
6278.000000;1.059825
6277.000000;1.059669
6276.000000;1.059649
6275.000000;1.059533
6274.000000;1.059149
6273.000000;1.058532
6272.000000;1.057864
6271.000000;1.057305
6270.000000;1.056885
6269.000000;1.056511
6268.000000;1.056068
6267.000000;1.055538
6266.000000;1.055039
6265.000000;1.054707
6264.000000;1.054548
6263.000000;1.054419
6262.000000;1.054169
6261.000000;1.053755
6260.000000;1.053243
6259.000000;1.052727
6258.000000;1.052271
6257.000000;1.051893
6256.000000;1.051559
6255.000000;1.051210
6254.000000;1.050813
6253.000000;1.050385
6252.000000;1.049963
6251.000000;1.049575
6250.000000;1.049239
6249.000000;1.048971
6248.000000;1.048770
6247.000000;1.048613
6246.000000;1.048465
6245.000000;1.048282
6244.000000;1.047995
6243.000000;1.047559
6242.000000;1.047018
6241.000000;1.046497
6240.000000;1.046092
6239.000000;1.045791
6238.000000;1.045512
6237.000000;1.045213
6236.000000;1.044921
6235.000000;1.044672
6234.000000;1.044451
6233.000000;1.044208
6232.000000;1.043902
6231.000000;1.043528
6230.000000;1.043112
6229.000000;1.042696
6228.000000;1.042322
6227.000000;1.042014
6226.000000;1.041769
6225.000000;1.041553
6224.000000;1.041318
6223.000000;1.041033
6222.000000;1.040703
6221.000000;1.040352
6220.000000;1.039990
6219.000000;1.039626
6218.000000;1.039301
6217.000000;1.039066
6216.000000;1.038916
6215.000000;1.038782
6214.000000;1.038601
6213.000000;1.038366
6212.000000;1.038096
6211.000000;1.037783
6210.000000;1.037432
6209.000000;1.037097
6208.000000;1.036838
6207.000000;1.036615
6206.000000;1.036309
6205.000000;1.035845
6204.000000;1.035296
6203.000000;1.034808
6202.000000;1.034466
6201.000000;1.034248
6200.000000;1.034090
6199.000000;1.033951
6198.000000;1.033806
6197.000000;1.033623
6196.000000;1.033375
6195.000000;1.033072
6194.000000;1.032750
6193.000000;1.032425
6192.000000;1.032071
6191.000000;1.031660
6190.000000;1.031213
6189.000000;1.030797
6188.000000;1.030469
6187.000000;1.030237
6186.000000;1.030062
6185.000000;1.029898
6184.000000;1.029724
6183.000000;1.029562
6182.000000;1.029458
6181.000000;1.029428
6180.000000;1.029410
6179.000000;1.029279
6178.000000;1.028958
6177.000000;1.028490
6176.000000;1.028002
6175.000000;1.027579
6174.000000;1.027209
6173.000000;1.026837
6172.000000;1.026471
6171.000000;1.026173
6170.000000;1.025986
6169.000000;1.025891
6168.000000;1.025852
6167.000000;1.025864
6166.000000;1.025904
6165.000000;1.025880
6164.000000;1.025670
6163.000000;1.025238
6162.000000;1.024697
6161.000000;1.024220
6160.000000;1.023908
6159.000000;1.023733
6158.000000;1.023600
6157.000000;1.023446
6156.000000;1.023267
6155.000000;1.023074
6154.000000;1.022839
6153.000000;1.022524
6152.000000;1.022153
6151.000000;1.021830
6150.000000;1.021631
6149.000000;1.021522
6148.000000;1.021402
6147.000000;1.021223
6146.000000;1.021023
6145.000000;1.020835
6144.000000;1.020648
6143.000000;1.020455
6142.000000;1.020299
6141.000000;1.020203
6140.000000;1.020114
6139.000000;1.019954
6138.000000;1.019718
6137.000000;1.019482
6136.000000;1.019316
6135.000000;1.019230
6134.000000;1.019185
6133.000000;1.019129
6132.000000;1.018999
6131.000000;1.018754
6130.000000;1.018407
6129.000000;1.018030
6128.000000;1.017703
6127.000000;1.017472
6126.000000;1.017315
6125.000000;1.017167
6124.000000;1.016972
6123.000000;1.016737
6122.000000;1.016520
6121.000000;1.016356
6120.000000;1.016219
6119.000000;1.016069
6118.000000;1.015900
6117.000000;1.015712
6116.000000;1.015474
6115.000000;1.015155
6114.000000;1.014802
6113.000000;1.014516
6112.000000;1.014358
6111.000000;1.014305
6110.000000;1.014289
6109.000000;1.014256
6108.000000;1.014175
6107.000000;1.014031
6106.000000;1.013844
6105.000000;1.013658
6104.000000;1.013516
6103.000000;1.013433
6102.000000;1.013398
6101.000000;1.013363
6100.000000;1.013253
6099.000000;1.013009
6098.000000;1.012658
6097.000000;1.012305
6096.000000;1.012052
6095.000000;1.011923
6094.000000;1.011867
6093.000000;1.011804
6092.000000;1.011665
6091.000000;1.011426
6090.000000;1.011142
6089.000000;1.010915
6088.000000;1.010810
6087.000000;1.010784
6086.000000;1.010726
6085.000000;1.010570
6084.000000;1.010352
6083.000000;1.010170
6082.000000;1.010077
6081.000000;1.010048
6080.000000;1.010018
6079.000000;1.009958
6078.000000;1.009875
6077.000000;1.009786
6076.000000;1.009695
6075.000000;1.009602
6074.000000;1.009507
6073.000000;1.009398
6072.000000;1.009252
6071.000000;1.009072
6070.000000;1.008890
6069.000000;1.008744
6068.000000;1.008649
6067.000000;1.008609
6066.000000;1.008613
6065.000000;1.008624
6064.000000;1.008591
6063.000000;1.008499
6062.000000;1.008384
6061.000000;1.008274
6060.000000;1.008152
6059.000000;1.007987
6058.000000;1.007778
6057.000000;1.007541
6056.000000;1.007283
6055.000000;1.007037
6054.000000;1.006875
6053.000000;1.006847
6052.000000;1.006906
6051.000000;1.006961
6050.000000;1.006972
6049.000000;1.006964
6048.000000;1.006942
6047.000000;1.006869
6046.000000;1.006728
6045.000000;1.006562
6044.000000;1.006416
6043.000000;1.006298
6042.000000;1.006191
6041.000000;1.006083
6040.000000;1.005961
6039.000000;1.005831
6038.000000;1.005752
6037.000000;1.005806
6036.000000;1.005998
6035.000000;1.006215
6034.000000;1.006325
6033.000000;1.006283
6032.000000;1.006139
6031.000000;1.005953
6030.000000;1.005749
6029.000000;1.005529
6028.000000;1.005307
6027.000000;1.005134
6026.000000;1.005092
6025.000000;1.005237
6024.000000;1.005512
6023.000000;1.005752
6022.000000;1.005799
6021.000000;1.005635
6020.000000;1.005388
6019.000000;1.005202
6018.000000;1.005121
6017.000000;1.005095
6016.000000;1.005067
6015.000000;1.005039
6014.000000;1.005057
6013.000000;1.005140
6012.000000;1.005241
6011.000000;1.005284
6010.000000;1.005237
6009.000000;1.005135
6008.000000;1.005043
6007.000000;1.005019
6006.000000;1.005094
6005.000000;1.005251
6004.000000;1.005428
6003.000000;1.005554
6002.000000;1.005595
6001.000000;1.005556
6000.000000;1.005453
5999.000000;1.005309
5998.000000;1.005180
5997.000000;1.005152
5996.000000;1.005275
5995.000000;1.005514
5994.000000;1.005782
5993.000000;1.006003
5992.000000;1.006144
5991.000000;1.006210
5990.000000;1.006227
5989.000000;1.006233
5988.000000;1.006252
5987.000000;1.006291
5986.000000;1.006356
5985.000000;1.006460
5984.000000;1.006610
5983.000000;1.006781
5982.000000;1.006943
5981.000000;1.007087
5980.000000;1.007231
5979.000000;1.007389
5978.000000;1.007549
5977.000000;1.007684
5976.000000;1.007790
5975.000000;1.007891
5974.000000;1.008027
5973.000000;1.008221
5972.000000;1.008471
5971.000000;1.008766
5970.000000;1.009093
5969.000000;1.009412
5968.000000;1.009662
5967.000000;1.009793
5966.000000;1.009834
5965.000000;1.009892
5964.000000;1.010060
5963.000000;1.010340
5962.000000;1.010647
5961.000000;1.010894
5960.000000;1.011071
5959.000000;1.011235
5958.000000;1.011437
5957.000000;1.011677
5956.000000;1.011920
5955.000000;1.012147
5954.000000;1.012383
5953.000000;1.012655
5952.000000;1.012963
5951.000000;1.013287
5950.000000;1.013610
5949.000000;1.013927
5948.000000;1.014228
5947.000000;1.014495
5946.000000;1.014707
5945.000000;1.014860
5944.000000;1.014986
5943.000000;1.015143
5942.000000;1.015370
5941.000000;1.015648
5940.000000;1.015930
5939.000000;1.016200
5938.000000;1.016491
5937.000000;1.016820
5936.000000;1.017138
5935.000000;1.017377
5934.000000;1.017515
5933.000000;1.017599
5932.000000;1.017689
5931.000000;1.017823
5930.000000;1.018006
5929.000000;1.018220
5928.000000;1.018432
5927.000000;1.018614
5926.000000;1.018776
5925.000000;1.018952
5924.000000;1.019167
5923.000000;1.019412
5922.000000;1.019653
5921.000000;1.019868
5920.000000;1.020062
5919.000000;1.020257
5918.000000;1.020444
5917.000000;1.020578
5916.000000;1.020620
5915.000000;1.020590
5914.000000;1.020554
5913.000000;1.020546
5912.000000;1.020544
5911.000000;1.020534
5910.000000;1.020562
5909.000000;1.020685
5908.000000;1.020885
5907.000000;1.021074
5906.000000;1.021173
5905.000000;1.021176
5904.000000;1.021130
5903.000000;1.021093
5902.000000;1.021085
5901.000000;1.021080
5900.000000;1.021041
5899.000000;1.020979
5898.000000;1.020955
5897.000000;1.021005
5896.000000;1.021080
5895.000000;1.021084
5894.000000;1.020972
5893.000000;1.020785
5892.000000;1.020614
5891.000000;1.020534
5890.000000;1.020566
5889.000000;1.020667
5888.000000;1.020763
5887.000000;1.020822
5886.000000;1.020883
5885.000000;1.020991
5884.000000;1.021138
5883.000000;1.021269
5882.000000;1.021342
5881.000000;1.021354
5880.000000;1.021320
5879.000000;1.021274
5878.000000;1.021260
5877.000000;1.021312
5876.000000;1.021421
5875.000000;1.021560
5874.000000;1.021721
5873.000000;1.021911
5872.000000;1.022130
5871.000000;1.022375
5870.000000;1.022650
5869.000000;1.022948
5868.000000;1.023231
5867.000000;1.023476
5866.000000;1.023703
5865.000000;1.023936
5864.000000;1.024150
5863.000000;1.024316
5862.000000;1.024472
5861.000000;1.024704
5860.000000;1.025032
5859.000000;1.025394
5858.000000;1.025737
5857.000000;1.026066
5856.000000;1.026389
5855.000000;1.026682
5854.000000;1.026945
5853.000000;1.027236
5852.000000;1.027622
5851.000000;1.028106
5850.000000;1.028638
5849.000000;1.029170
5848.000000;1.029662
5847.000000;1.030074
5846.000000;1.030394
5845.000000;1.030668
5844.000000;1.030970
5843.000000;1.031336
5842.000000;1.031755
5841.000000;1.032190
5840.000000;1.032614
5839.000000;1.033013
5838.000000;1.033390
5837.000000;1.033764
5836.000000;1.034154
5835.000000;1.034567
5834.000000;1.035005
5833.000000;1.035467
5832.000000;1.035936
5831.000000;1.036373
5830.000000;1.036751
5829.000000;1.037080
5828.000000;1.037399
5827.000000;1.037748
5826.000000;1.038144
5825.000000;1.038575
5824.000000;1.039016
5823.000000;1.039450
5822.000000;1.039888
5821.000000;1.040358
5820.000000;1.040869
5819.000000;1.041395
5818.000000;1.041896
5817.000000;1.042356
5816.000000;1.042783
5815.000000;1.043208
5814.000000;1.043666
5813.000000;1.044174
5812.000000;1.044710
5811.000000;1.045221
5810.000000;1.045686
5809.000000;1.046141
5808.000000;1.046656
5807.000000;1.047255
5806.000000;1.047881
5805.000000;1.048448
5804.000000;1.048928
5803.000000;1.049387
5802.000000;1.049920
5801.000000;1.050533
5800.000000;1.051132
5799.000000;1.051617
5798.000000;1.052004
5797.000000;1.052409
5796.000000;1.052928
5795.000000;1.053553
5794.000000;1.054197
5793.000000;1.054790
5792.000000;1.055323
5791.000000;1.055824
5790.000000;1.056326
5789.000000;1.056847
5788.000000;1.057392
5787.000000;1.057942
5786.000000;1.058452
5785.000000;1.058895
5784.000000;1.059303
5783.000000;1.059752
5782.000000;1.060278
5781.000000;1.060852
5780.000000;1.061441
5779.000000;1.062076
5778.000000;1.062783
5777.000000;1.063487
5776.000000;1.064054
5775.000000;1.064454
5774.000000;1.064826
5773.000000;1.065323
5772.000000;1.065947
5771.000000;1.066562
5770.000000;1.067061
5769.000000;1.067461
5768.000000;1.067856
5767.000000;1.068321
5766.000000;1.068844
5765.000000;1.069345
5764.000000;1.069750
5763.000000;1.070088
5762.000000;1.070469
5761.000000;1.070970
5760.000000;1.071548
5759.000000;1.072112
5758.000000;1.072626
5757.000000;1.073119
5756.000000;1.073606
5755.000000;1.074086
5754.000000;1.074575
5753.000000;1.075104
5752.000000;1.075664
5751.000000;1.076206
5750.000000;1.076709
5749.000000;1.077203
5748.000000;1.077709
5747.000000;1.078204
5746.000000;1.078654
5745.000000;1.079053
5744.000000;1.079415
5743.000000;1.079755
5742.000000;1.080105
5741.000000;1.080524
5740.000000;1.081062
5739.000000;1.081709
5738.000000;1.082392
5737.000000;1.083028
5736.000000;1.083580
5735.000000;1.084065
5734.000000;1.084524
5733.000000;1.084983
5732.000000;1.085450
5731.000000;1.085932
5730.000000;1.086437
5729.000000;1.086946
5728.000000;1.087421
5727.000000;1.087858
5726.000000;1.088311
5725.000000;1.088843
5724.000000;1.089454
5723.000000;1.090082
5722.000000;1.090655
5721.000000;1.091127
5720.000000;1.091508
5719.000000;1.091866
5718.000000;1.092303
5717.000000;1.092883
5716.000000;1.093588
5715.000000;1.094350
5714.000000;1.095090
5713.000000;1.095737
5712.000000;1.096244
5711.000000;1.096636
5710.000000;1.097013
5709.000000;1.097473
5708.000000;1.098033
5707.000000;1.098664
5706.000000;1.099339
5705.000000;1.100032
5704.000000;1.100688
5703.000000;1.101250
5702.000000;1.101719
5701.000000;1.102145
5700.000000;1.102578
5699.000000;1.103064
5698.000000;1.103642
5697.000000;1.104308
5696.000000;1.104982
5695.000000;1.105569
5694.000000;1.106033
5693.000000;1.106389
5692.000000;1.106666
5691.000000;1.106931
5690.000000;1.107318
5689.000000;1.107935
5688.000000;1.108733
5687.000000;1.109535
5686.000000;1.110193
5685.000000;1.110662
5684.000000;1.110965
5683.000000;1.111177
5682.000000;1.111447
5681.000000;1.111929
5680.000000;1.112616
5679.000000;1.113340
5678.000000;1.113953
5677.000000;1.114472
5676.000000;1.114985
5675.000000;1.115517
5674.000000;1.116037
5673.000000;1.116535
5672.000000;1.117018
5671.000000;1.117457
5670.000000;1.117824
5669.000000;1.118160
5668.000000;1.118545
5667.000000;1.119002
5666.000000;1.119479
5665.000000;1.119951
5664.000000;1.120466
5663.000000;1.121071
5662.000000;1.121720
5661.000000;1.122288
5660.000000;1.122679
5659.000000;1.122905
5658.000000;1.123074
5657.000000;1.123304
5656.000000;1.123659
5655.000000;1.124155
5654.000000;1.124778
5653.000000;1.125477
5652.000000;1.126151
5651.000000;1.126707
5650.000000;1.127130
5649.000000;1.127471
5648.000000;1.127778
5647.000000;1.128060
5646.000000;1.128325
5645.000000;1.128600
5644.000000;1.128914
5643.000000;1.129276
5642.000000;1.129702
5641.000000;1.130206
5640.000000;1.130754
5639.000000;1.131259
5638.000000;1.131671
5637.000000;1.132036
5636.000000;1.132439
5635.000000;1.132888
5634.000000;1.133317
5633.000000;1.133679
5632.000000;1.134013
5631.000000;1.134387
5630.000000;1.134820
5629.000000;1.135249
5628.000000;1.135593
5627.000000;1.135825
5626.000000;1.136015
5625.000000;1.136288
5624.000000;1.136720
5623.000000;1.137264
5622.000000;1.137774
5621.000000;1.138124
5620.000000;1.138319
5619.000000;1.138479
5618.000000;1.138725
5617.000000;1.139073
5616.000000;1.139454
5615.000000;1.139806
5614.000000;1.140115
5613.000000;1.140379
5612.000000;1.140573
5611.000000;1.140704
5610.000000;1.140837
5609.000000;1.141037
5608.000000;1.141285
5607.000000;1.141514
5606.000000;1.141717
5605.000000;1.141964
5604.000000;1.142298
5603.000000;1.142669
5602.000000;1.142981
5601.000000;1.143192
5600.000000;1.143331
5599.000000;1.143436
5598.000000;1.143519
5597.000000;1.143588
5596.000000;1.143681
5595.000000;1.143848
5594.000000;1.144109
5593.000000;1.144419
5592.000000;1.144689
5591.000000;1.144847
5590.000000;1.144877
5589.000000;1.144803
5588.000000;1.144677
5587.000000;1.144578
5586.000000;1.144598
5585.000000;1.144781
5584.000000;1.145074
5583.000000;1.145361
5582.000000;1.145549
5581.000000;1.145615
5580.000000;1.145592
5579.000000;1.145529
5578.000000;1.145471
5577.000000;1.145449
5576.000000;1.145483
5575.000000;1.145588
5574.000000;1.145754
5573.000000;1.145930
5572.000000;1.146035
5571.000000;1.146036
5570.000000;1.145972
5569.000000;1.145901
5568.000000;1.145849
5567.000000;1.145843
5566.000000;1.145924
5565.000000;1.146087
5564.000000;1.146221
5563.000000;1.146213
5562.000000;1.146096
5561.000000;1.146024
5560.000000;1.146085
5559.000000;1.146211
5558.000000;1.146298
5557.000000;1.146339
5556.000000;1.146385
5555.000000;1.146430
5554.000000;1.146415
5553.000000;1.146325
5552.000000;1.146226
5551.000000;1.146178
5550.000000;1.146171
5549.000000;1.146161
5548.000000;1.146147
5547.000000;1.146158
5546.000000;1.146187
5545.000000;1.146169
5544.000000;1.146067
5543.000000;1.145938
5542.000000;1.145860
5541.000000;1.145826
5540.000000;1.145756
5539.000000;1.145632
5538.000000;1.145549
5537.000000;1.145585
5536.000000;1.145684
5535.000000;1.145734
5534.000000;1.145733
5533.000000;1.145786
5532.000000;1.145938
5531.000000;1.146076
5530.000000;1.146052
5529.000000;1.145854
5528.000000;1.145616
5527.000000;1.145476
5526.000000;1.145452
5525.000000;1.145448
5524.000000;1.145379
5523.000000;1.145270
5522.000000;1.145222
5521.000000;1.145282
5520.000000;1.145380
5519.000000;1.145425
5518.000000;1.145420
5517.000000;1.145430
5516.000000;1.145461
5515.000000;1.145451
5514.000000;1.145377
5513.000000;1.145311
5512.000000;1.145334
5511.000000;1.145425
5510.000000;1.145495
5509.000000;1.145506
5508.000000;1.145508
5507.000000;1.145564
5506.000000;1.145652
5505.000000;1.145675
5504.000000;1.145580
5503.000000;1.145436
5502.000000;1.145380
5501.000000;1.145482
5500.000000;1.145690
5499.000000;1.145912
5498.000000;1.146115
5497.000000;1.146299
5496.000000;1.146431
5495.000000;1.146467
5494.000000;1.146428
5493.000000;1.146410
5492.000000;1.146470
5491.000000;1.146577
5490.000000;1.146675
5489.000000;1.146757
5488.000000;1.146828
5487.000000;1.146874
5486.000000;1.146910
5485.000000;1.147020
5484.000000;1.147302
5483.000000;1.147770
5482.000000;1.148304
5481.000000;1.148747
5480.000000;1.149040
5479.000000;1.149231
5478.000000;1.149360
5477.000000;1.149384
5476.000000;1.149271
5475.000000;1.149145
5474.000000;1.149216
5473.000000;1.149567
5472.000000;1.150072
5471.000000;1.150541
5470.000000;1.150904
5469.000000;1.151236
5468.000000;1.151608
5467.000000;1.152002
5466.000000;1.152378
5465.000000;1.152747
5464.000000;1.153104
5463.000000;1.153379
5462.000000;1.153500
5461.000000;1.153524
5460.000000;1.153634
5459.000000;1.153970
5458.000000;1.154514
5457.000000;1.155147
5456.000000;1.155777
5455.000000;1.156395
5454.000000;1.157033
5453.000000;1.157668
5452.000000;1.158228
5451.000000;1.158704
5450.000000;1.159221
5449.000000;1.159896
5448.000000;1.160633
5447.000000;1.161195
5446.000000;1.161546
5445.000000;1.161972
5444.000000;1.162730
5443.000000;1.163707
5442.000000;1.164553
5441.000000;1.165100
5440.000000;1.165517
5439.000000;1.166069
5438.000000;1.166841
5437.000000;1.167716
5436.000000;1.168538
5435.000000;1.169260
5434.000000;1.169961
5433.000000;1.170746
5432.000000;1.171660
5431.000000;1.172656
5430.000000;1.173669
5429.000000;1.174701
5428.000000;1.175809
5427.000000;1.177041
5426.000000;1.178406
5425.000000;1.179858
5424.000000;1.181292
5423.000000;1.182605
5422.000000;1.183766
5421.000000;1.184796
5420.000000;1.185746
5419.000000;1.186744
5418.000000;1.187964
5417.000000;1.189463
5416.000000;1.191080
5415.000000;1.192620
5414.000000;1.194122
5413.000000;1.195787
5412.000000;1.197686
5411.000000;1.199669
5410.000000;1.201587
5409.000000;1.203437
5408.000000;1.205279
5407.000000;1.207147
5406.000000;1.209056
5405.000000;1.211021
5404.000000;1.213031
5403.000000;1.215048
5402.000000;1.217088
5401.000000;1.219225
5400.000000;1.221481
5399.000000;1.223842
5398.000000;1.226346
5397.000000;1.229048
5396.000000;1.231889
5395.000000;1.234727
5394.000000;1.237532
5393.000000;1.240398
5392.000000;1.243363
5391.000000;1.246364
5390.000000;1.249379
5389.000000;1.252464
5388.000000;1.255638
5387.000000;1.258858
5386.000000;1.262143
5385.000000;1.265587
5384.000000;1.269215
5383.000000;1.272937
5382.000000;1.276721
5381.000000;1.280664
5380.000000;1.284825
5379.000000;1.289119
5378.000000;1.293450
5377.000000;1.297853
5376.000000;1.302424
5375.000000;1.307196
5374.000000;1.312194
5373.000000;1.317445
5372.000000;1.322856
5371.000000;1.328251
5370.000000;1.333607
5369.000000;1.339125
5368.000000;1.344978
5367.000000;1.351091
5366.000000;1.357255
5365.000000;1.363376
5364.000000;1.369532
5363.000000;1.375852
5362.000000;1.382454
5361.000000;1.389383
5360.000000;1.396561
5359.000000;1.403886
5358.000000;1.411403
5357.000000;1.419244
5356.000000;1.427374
5355.000000;1.435618
5354.000000;1.443975
5353.000000;1.452639
5352.000000;1.461613
5351.000000;1.470600
5350.000000;1.479467
5349.000000;1.488543
5348.000000;1.498234
5347.000000;1.508493
5346.000000;1.518965
5345.000000;1.529546
5344.000000;1.540504
5343.000000;1.552027
5342.000000;1.564018
5341.000000;1.576336
5340.000000;1.588963
5339.000000;1.601930
5338.000000;1.615236
5337.000000;1.628839
5336.000000;1.642719
5335.000000;1.656895
5334.000000;1.671345
5333.000000;1.685967
5332.000000;1.700683
5331.000000;1.715583
5330.000000;1.730947
5329.000000;1.747036
5328.000000;1.763857
5327.000000;1.781207
5326.000000;1.798903
5325.000000;1.816955
5324.000000;1.835588
5323.000000;1.855126
5322.000000;1.875729
5321.000000;1.897127
5320.000000;1.918707
5319.000000;1.940042
5318.000000;1.961261
5317.000000;1.982771
5316.000000;2.004795
5315.000000;2.027339
5314.000000;2.050329
5313.000000;2.073529
5312.000000;2.096638
5311.000000;2.119830
5310.000000;2.143942
5309.000000;2.169700
5308.000000;2.196924
5307.000000;2.224740
5306.000000;2.252309
5305.000000;2.279122
5304.000000;2.305159
5303.000000;2.331308
5302.000000;2.358871
5301.000000;2.387758
5300.000000;2.415807
5299.000000;2.441156
5298.000000;2.464834
5297.000000;2.489539
5296.000000;2.516436
5295.000000;2.544596
5294.000000;2.572774
5293.000000;2.600181
5292.000000;2.625964
5291.000000;2.649551
5290.000000;2.671512
5289.000000;2.692802
5288.000000;2.713562
5287.000000;2.733659
5286.000000;2.753348
5285.000000;2.772468
5284.000000;2.790540
5283.000000;2.808808
5282.000000;2.829646
5281.000000;2.851751
5280.000000;2.868655
5279.000000;2.875754
5278.000000;2.876676
5277.000000;2.878572
5276.000000;2.884446
5275.000000;2.893284
5274.000000;2.903762
5273.000000;2.914012
5272.000000;2.920858
5271.000000;2.923623
5270.000000;2.926731
5269.000000;2.934940
5268.000000;2.947510
5267.000000;2.959995
5266.000000;2.969780
5265.000000;2.976111
5264.000000;2.978258
5263.000000;2.978496
5262.000000;2.982593
5261.000000;2.992360
5260.000000;3.001179
5259.000000;3.002485
5258.000000;3.000222
5257.000000;3.003168
5256.000000;3.012419
5255.000000;3.020852
5254.000000;3.022830
5253.000000;3.019617
5252.000000;3.014814
5251.000000;3.009914
5250.000000;3.005060
5249.000000;2.999104
5248.000000;2.989679
5247.000000;2.978362
5246.000000;2.972407
5245.000000;2.976889
5244.000000;2.988029
5243.000000;2.996869
5242.000000;2.999412
5241.000000;2.998923
5240.000000;2.997981
5239.000000;2.994679
5238.000000;2.986933
5237.000000;2.976363
5236.000000;2.967296
5235.000000;2.964046
5234.000000;2.968425
5233.000000;2.977462
5232.000000;2.984587
5231.000000;2.986110
5230.000000;2.985060
5229.000000;2.985597
5228.000000;2.986786
5227.000000;2.985372
5226.000000;2.981709
5225.000000;2.978416
5224.000000;2.975136
5223.000000;2.969556
5222.000000;2.962660
5221.000000;2.958557
5220.000000;2.959636
5219.000000;2.965037
5218.000000;2.972590
5217.000000;2.979253
5216.000000;2.981314
5215.000000;2.977779
5214.000000;2.972882
5213.000000;2.972017
5212.000000;2.976318
5211.000000;2.983421
5210.000000;2.991165
5209.000000;2.998459
5208.000000;3.004379
5207.000000;3.008513
5206.000000;3.010982
5205.000000;3.010264
5204.000000;3.003720
5203.000000;2.992692
5202.000000;2.982819
5201.000000;2.976683
5200.000000;2.970897
5199.000000;2.963619
5198.000000;2.959941
5197.000000;2.964775
5196.000000;2.974355
5195.000000;2.980052
5194.000000;2.979058
5193.000000;2.974989
5192.000000;2.970163
5191.000000;2.964801
5190.000000;2.962142
5189.000000;2.966952
5188.000000;2.977715
5187.000000;2.985781
5186.000000;2.984979
5185.000000;2.978045
5184.000000;2.971629
5183.000000;2.970140
5182.000000;2.974929
5181.000000;2.984160
5180.000000;2.992091
5179.000000;2.992871
5178.000000;2.987268
5177.000000;2.981258
5176.000000;2.977191
5175.000000;2.971603
5174.000000;2.962532
5173.000000;2.953721
5172.000000;2.949353
5171.000000;2.949035
5170.000000;2.949820
5169.000000;2.950170
5168.000000;2.950034
5167.000000;2.949446
5166.000000;2.949048
5165.000000;2.950416
5164.000000;2.954822
5163.000000;2.961464
5162.000000;2.967282
5161.000000;2.969468
5160.000000;2.967508
5159.000000;2.963387
5158.000000;2.960556
5157.000000;2.960858
5156.000000;2.962066
5155.000000;2.960206
5154.000000;2.954922
5153.000000;2.950448
5152.000000;2.950478
5151.000000;2.954495
5150.000000;2.959217
5149.000000;2.961836
5148.000000;2.962039
5147.000000;2.961804
5146.000000;2.962823
5145.000000;2.963933
5144.000000;2.962327
5143.000000;2.958571
5142.000000;2.958043
5141.000000;2.964114
5140.000000;2.972529
5139.000000;2.976472
5138.000000;2.975446
5137.000000;2.973982
5136.000000;2.973609
5135.000000;2.972244
5134.000000;2.970602
5133.000000;2.972843
5132.000000;2.979132
5131.000000;2.982437
5130.000000;2.976269
5129.000000;2.963056
5128.000000;2.950992
5127.000000;2.945708
5126.000000;2.947599
5125.000000;2.953974
5124.000000;2.961526
5123.000000;2.968149
5122.000000;2.973637
5121.000000;2.978335
5120.000000;2.981513
5119.000000;2.981921
5118.000000;2.979435
5117.000000;2.974829
5116.000000;2.968543
5115.000000;2.961550
5114.000000;2.956887
5113.000000;2.957925
5112.000000;2.964498
5111.000000;2.972151
5110.000000;2.975573
5109.000000;2.971894
5108.000000;2.961325
5107.000000;2.946924
5106.000000;2.933985
5105.000000;2.926721
5104.000000;2.924943
5103.000000;2.925948
5102.000000;2.929114
5101.000000;2.935960
5100.000000;2.945441
5099.000000;2.952714
5098.000000;2.955229
5097.000000;2.956635
5096.000000;2.960503
5095.000000;2.963348
5094.000000;2.958209
5093.000000;2.944745
5092.000000;2.931087
5091.000000;2.924560
5090.000000;2.925133
5089.000000;2.928177
5088.000000;2.930580
5087.000000;2.932866
5086.000000;2.935949
5085.000000;2.938411
5084.000000;2.938869
5083.000000;2.939240
5082.000000;2.942376
5081.000000;2.946841
5080.000000;2.947354
5079.000000;2.941837
5078.000000;2.935067
5077.000000;2.933069
5076.000000;2.936556
5075.000000;2.941601
5074.000000;2.944826
5073.000000;2.946126
5072.000000;2.947509
5071.000000;2.950138
5070.000000;2.952794
5069.000000;2.953430
5068.000000;2.950609
5067.000000;2.944686
5066.000000;2.938124
5065.000000;2.932619
5064.000000;2.927700
5063.000000;2.923810
5062.000000;2.924402
5061.000000;2.932183
5060.000000;2.943996
5059.000000;2.952292
5058.000000;2.952438
5057.000000;2.946126
5056.000000;2.937223
5055.000000;2.927856
5054.000000;2.919335
5053.000000;2.913613
5052.000000;2.911980
5051.000000;2.913835
5050.000000;2.918093
5049.000000;2.924549
5048.000000;2.932447
5047.000000;2.938717
5046.000000;2.939459
5045.000000;2.933658
5044.000000;2.924647
5043.000000;2.917481
5042.000000;2.914823
5041.000000;2.914882
5040.000000;2.913275
5039.000000;2.907700
5038.000000;2.900507
5037.000000;2.895783
5036.000000;2.894880
5035.000000;2.895929
5034.000000;2.896705
5033.000000;2.896475
5032.000000;2.895226
5031.000000;2.892654
5030.000000;2.888462
5029.000000;2.882882
5028.000000;2.876911
5027.000000;2.872588
5026.000000;2.872077
5025.000000;2.875396
5024.000000;2.879837
5023.000000;2.882738
5022.000000;2.884142
5021.000000;2.885099
5020.000000;2.884313
5019.000000;2.879228
5018.000000;2.870538
5017.000000;2.862580
5016.000000;2.858397
5015.000000;2.856617
5014.000000;2.853831
5013.000000;2.848855
5012.000000;2.843766
5011.000000;2.841359
5010.000000;2.842399
5009.000000;2.844897
5008.000000;2.845554
5007.000000;2.842122
5006.000000;2.834346
5005.000000;2.822817
5004.000000;2.808661
5003.000000;2.795291
5002.000000;2.788065
5001.000000;2.790171
5000.000000;2.799021
4999.000000;2.807669
4998.000000;2.811182
4997.000000;2.810684
4996.000000;2.809754
4995.000000;2.809340
4994.000000;2.807844
4993.000000;2.804073
4992.000000;2.798235
4991.000000;2.790824
4990.000000;2.782050
4989.000000;2.772714
4988.000000;2.764488
4987.000000;2.758480
4986.000000;2.754402
4985.000000;2.751691
4984.000000;2.750345
4983.000000;2.749991
4982.000000;2.749081
4981.000000;2.746071
4980.000000;2.741377
4979.000000;2.737442
4978.000000;2.735797
4977.000000;2.734409
4976.000000;2.729618
4975.000000;2.720769
4974.000000;2.710920
4973.000000;2.702716
4972.000000;2.695753
4971.000000;2.688725
4970.000000;2.682184
4969.000000;2.677540
4968.000000;2.674491
4967.000000;2.671204
4966.000000;2.666762
4965.000000;2.662022
4964.000000;2.658309
4963.000000;2.656793
4962.000000;2.658880
4961.000000;2.665040
4960.000000;2.672343
4959.000000;2.674888
4958.000000;2.669079
4957.000000;2.657907
4956.000000;2.647832
4955.000000;2.642425
4954.000000;2.640420
4953.000000;2.638721
4952.000000;2.635582
4951.000000;2.630741
4950.000000;2.624222
4949.000000;2.616578
4948.000000;2.609637
4947.000000;2.605396
4946.000000;2.603960
4945.000000;2.603419
4944.000000;2.601938
4943.000000;2.599233
4942.000000;2.595526
4941.000000;2.590166
4940.000000;2.582633
4939.000000;2.574425
4938.000000;2.568358
4937.000000;2.565694
4936.000000;2.564817
4935.000000;2.563083
4934.000000;2.559413
4933.000000;2.554494
4932.000000;2.549192
4931.000000;2.543768
4930.000000;2.538445
4929.000000;2.533976
4928.000000;2.531148
4927.000000;2.529816
4926.000000;2.528593
4925.000000;2.525638
4924.000000;2.520101
4923.000000;2.512897
4922.000000;2.506006
4921.000000;2.501024
4920.000000;2.498259
4919.000000;2.496836
4918.000000;2.495295
4917.000000;2.492286
4916.000000;2.487267
4915.000000;2.480821
4914.000000;2.474228
4913.000000;2.468674
4912.000000;2.464844
4911.000000;2.462754
4910.000000;2.461471
4909.000000;2.459399
4908.000000;2.455632
4907.000000;2.450948
4906.000000;2.446781
4905.000000;2.443365
4904.000000;2.439620
4903.000000;2.435004
4902.000000;2.430629
4901.000000;2.427904
4900.000000;2.426676
4899.000000;2.425416
4898.000000;2.423017
4897.000000;2.419793
4896.000000;2.416618
4895.000000;2.413510
4894.000000;2.409447
4893.000000;2.403659
4892.000000;2.396915
4891.000000;2.391046
4890.000000;2.387060
4889.000000;2.384160
4888.000000;2.380958
4887.000000;2.377211
4886.000000;2.373694
4885.000000;2.370672
4884.000000;2.367502
4883.000000;2.363745
4882.000000;2.359705
4881.000000;2.355666
4880.000000;2.351533
4879.000000;2.347624
4878.000000;2.344862
4877.000000;2.343559
4876.000000;2.342588
4875.000000;2.340362
4874.000000;2.336333
4873.000000;2.331210
4872.000000;2.326163
4871.000000;2.322112
4870.000000;2.319167
4869.000000;2.316337
4868.000000;2.312368
4867.000000;2.307295
4866.000000;2.302594
4865.000000;2.299341
4864.000000;2.296889
4863.000000;2.293919
4862.000000;2.290237
4861.000000;2.286762
4860.000000;2.284136
4859.000000;2.282052
4858.000000;2.279725
4857.000000;2.276418
4856.000000;2.271802
4855.000000;2.266456
4854.000000;2.261814
4853.000000;2.258971
4852.000000;2.257632
4851.000000;2.256628
4850.000000;2.255216
4849.000000;2.253248
4848.000000;2.250397
4847.000000;2.246252
4846.000000;2.241339
4845.000000;2.237064
4844.000000;2.234166
4843.000000;2.231795
4842.000000;2.228516
4841.000000;2.223900
4840.000000;2.218803
4839.000000;2.214420
4838.000000;2.211487
4837.000000;2.210128
4836.000000;2.209871
4835.000000;2.209643
4834.000000;2.208136
4833.000000;2.204653
4832.000000;2.199746
4831.000000;2.194889
4830.000000;2.191271
4829.000000;2.188789
4828.000000;2.186236
4827.000000;2.182563
4826.000000;2.177953
4825.000000;2.173584
4824.000000;2.170450
4823.000000;2.168546
4822.000000;2.167099
4821.000000;2.165413
4820.000000;2.163367
4819.000000;2.161122
4818.000000;2.158581
4817.000000;2.155415
4816.000000;2.151621
4815.000000;2.147700
4814.000000;2.144071
4813.000000;2.140625
4812.000000;2.137149
4811.000000;2.133872
4810.000000;2.131113
4809.000000;2.128580
4808.000000;2.125597
4807.000000;2.122023
4806.000000;2.118384
4805.000000;2.115079
4804.000000;2.112021
4803.000000;2.109143
4802.000000;2.106594
4801.000000;2.104149
4800.000000;2.101007
4799.000000;2.096731
4798.000000;2.092032
4797.000000;2.088128
4796.000000;2.085505
4795.000000;2.083638
4794.000000;2.081726
4793.000000;2.079347
4792.000000;2.076517
4791.000000;2.073446
4790.000000;2.070304
4789.000000;2.067078
4788.000000;2.063737
4787.000000;2.060541
4786.000000;2.057926
4785.000000;2.055973
4784.000000;2.054237
4783.000000;2.052225
4782.000000;2.049834
4781.000000;2.047179
4780.000000;2.044327
4779.000000;2.041354
4778.000000;2.038355
4777.000000;2.035182
4776.000000;2.031548
4775.000000;2.027665
4774.000000;2.024350
4773.000000;2.022100
4772.000000;2.020367
4771.000000;2.018180
4770.000000;2.015263
4769.000000;2.012079
4768.000000;2.008938
4767.000000;2.005653
4766.000000;2.002067
4765.000000;1.998462
4764.000000;1.995279
4763.000000;1.992675
4762.000000;1.990443
4761.000000;1.988194
4760.000000;1.985605
4759.000000;1.982631
4758.000000;1.979535
4757.000000;1.976660
4756.000000;1.974199
4755.000000;1.972145
4754.000000;1.970243
4753.000000;1.967978
4752.000000;1.964921
4751.000000;1.961283
4750.000000;1.957852
4749.000000;1.955177
4748.000000;1.953035
4747.000000;1.950872
4746.000000;1.948496
4745.000000;1.946091
4744.000000;1.943857
4743.000000;1.941930
4742.000000;1.940411
4741.000000;1.939049
4740.000000;1.937136
4739.000000;1.934125
4738.000000;1.930315
4737.000000;1.926497
4736.000000;1.923063
4735.000000;1.919842
4734.000000;1.916713
4733.000000;1.913895
4732.000000;1.911575
4731.000000;1.909634
4730.000000;1.907849
4729.000000;1.906090
4728.000000;1.904191
4727.000000;1.901900
4726.000000;1.899120
4725.000000;1.896087
4724.000000;1.893180
4723.000000;1.890571
4722.000000;1.888078
4721.000000;1.885347
4720.000000;1.882298
4719.000000;1.879377
4718.000000;1.877182
4717.000000;1.875747
4716.000000;1.874425
4715.000000;1.872620
4714.000000;1.870365
4713.000000;1.867957
4712.000000;1.865367
4711.000000;1.862422
4710.000000;1.859355
4709.000000;1.856704
4708.000000;1.854698
4707.000000;1.853122
4706.000000;1.851691
4705.000000;1.850177
4704.000000;1.848195
4703.000000;1.845375
4702.000000;1.841863
4701.000000;1.838346
4700.000000;1.835448
4699.000000;1.833328
4698.000000;1.831829
4697.000000;1.830700
4696.000000;1.829582
4695.000000;1.828114
4694.000000;1.826200
4693.000000;1.824016
4692.000000;1.821713
4691.000000;1.819305
4690.000000;1.816858
4689.000000;1.814526
4688.000000;1.812357
4687.000000;1.810331
4686.000000;1.808589
4685.000000;1.807307
4684.000000;1.806269
4683.000000;1.804900
4682.000000;1.802903
4681.000000;1.800611
4680.000000;1.798545
4679.000000;1.796827
4678.000000;1.795180
4677.000000;1.793301
4676.000000;1.791075
4675.000000;1.788625
4674.000000;1.786313
4673.000000;1.784530
4672.000000;1.783285
4671.000000;1.782101
4670.000000;1.780462
4669.000000;1.778305
4668.000000;1.775975
4667.000000;1.773817
4666.000000;1.771893
4665.000000;1.769984
4664.000000;1.767808
4663.000000;1.765355
4662.000000;1.763034
4661.000000;1.761345
4660.000000;1.760337
4659.000000;1.759560
4658.000000;1.758609
4657.000000;1.757485
4656.000000;1.756322
4655.000000;1.755027
4654.000000;1.753447
4653.000000;1.751705
4652.000000;1.750058
4651.000000;1.748479
4650.000000;1.746662
4649.000000;1.744475
4648.000000;1.742215
4647.000000;1.740284
4646.000000;1.738742
4645.000000;1.737241
4644.000000;1.735418
4643.000000;1.733308
4642.000000;1.731352
4641.000000;1.729939
4640.000000;1.728991
4639.000000;1.728086
4638.000000;1.726934
4637.000000;1.725531
4636.000000;1.723851
4635.000000;1.721701
4634.000000;1.719120
4633.000000;1.716684
4632.000000;1.715045
4631.000000;1.714179
4630.000000;1.713357
4629.000000;1.711923
4628.000000;1.709944
4627.000000;1.708019
4626.000000;1.706625
4625.000000;1.705736
4624.000000;1.704935
4623.000000;1.703769
4622.000000;1.702103
4621.000000;1.700259
4620.000000;1.698746
4619.000000;1.697741
4618.000000;1.696869
4617.000000;1.695588
4616.000000;1.693787
4615.000000;1.691879
4614.000000;1.690306
4613.000000;1.689079
4612.000000;1.687881
4611.000000;1.686499
4610.000000;1.685051
4609.000000;1.683812
4608.000000;1.682928
4607.000000;1.682316
4606.000000;1.681736
4605.000000;1.680932
4604.000000;1.679800
4603.000000;1.678472
4602.000000;1.677218
4601.000000;1.676211
4600.000000;1.675384
4599.000000;1.674518
4598.000000;1.673422
4597.000000;1.672055
4596.000000;1.670540
4595.000000;1.669113
4594.000000;1.667981
4593.000000;1.667136
4592.000000;1.666313
4591.000000;1.665200
4590.000000;1.663731
4589.000000;1.662162
4588.000000;1.660868
4587.000000;1.660043
4586.000000;1.659557
4585.000000;1.659092
4584.000000;1.658427
4583.000000;1.657565
4582.000000;1.656593
4581.000000;1.655504
4580.000000;1.654270
4579.000000;1.653007
4578.000000;1.651888
4577.000000;1.650912
4576.000000;1.649927
4575.000000;1.648913
4574.000000;1.648022
4573.000000;1.647271
4572.000000;1.646414
4571.000000;1.645278
4570.000000;1.644047
4569.000000;1.643018
4568.000000;1.642204
4567.000000;1.641378
4566.000000;1.640439
4565.000000;1.639506
4564.000000;1.638687
4563.000000;1.637974
4562.000000;1.637340
4561.000000;1.636755
4560.000000;1.636080
4559.000000;1.635139
4558.000000;1.633952
4557.000000;1.632765
4556.000000;1.631777
4555.000000;1.630981
4554.000000;1.630291
4553.000000;1.629707
4552.000000;1.629254
4551.000000;1.628854
4550.000000;1.628348
4549.000000;1.627632
4548.000000;1.626723
4547.000000;1.625749
4546.000000;1.624873
4545.000000;1.624179
4544.000000;1.623598
4543.000000;1.622970
4542.000000;1.622192
4541.000000;1.621248
4540.000000;1.620146
4539.000000;1.618904
4538.000000;1.617649
4537.000000;1.616614
4536.000000;1.615990
4535.000000;1.615743
4534.000000;1.615592
4533.000000;1.615194
4532.000000;1.614435
4531.000000;1.613600
4530.000000;1.613142
4529.000000;1.613230
4528.000000;1.613565
4527.000000;1.613679
4526.000000;1.613335
4525.000000;1.612566
4524.000000;1.611479
4523.000000;1.610241
4522.000000;1.609175
4521.000000;1.608643
4520.000000;1.608710
4519.000000;1.609049
4518.000000;1.609215
4517.000000;1.608952
4516.000000;1.608235
4515.000000;1.607162
4514.000000;1.605898
4513.000000;1.604693
4512.000000;1.603858
4511.000000;1.603667
4510.000000;1.604185
4509.000000;1.605120
4508.000000;1.605902
4507.000000;1.606064
4506.000000;1.605586
4505.000000;1.604836
4504.000000;1.604212
4503.000000;1.603905
4502.000000;1.603912
4501.000000;1.604114
4500.000000;1.604322
4499.000000;1.604397
4498.000000;1.604329
4497.000000;1.604144
4496.000000;1.603760
4495.000000;1.603059
4494.000000;1.602100
4493.000000;1.601120
4492.000000;1.600332
4491.000000;1.599829
4490.000000;1.599681
4489.000000;1.599919
4488.000000;1.600358
4487.000000;1.600599
4486.000000;1.600370
4485.000000;1.599800
4484.000000;1.599255
4483.000000;1.598952
4482.000000;1.598831
4481.000000;1.598760
4480.000000;1.598728
4479.000000;1.598777
4478.000000;1.598829
4477.000000;1.598744
4476.000000;1.598551
4475.000000;1.598512
4474.000000;1.598817
4473.000000;1.599314
4472.000000;1.599696
4471.000000;1.599980
4470.000000;1.600534
4469.000000;1.601564
4468.000000;1.602779
4467.000000;1.603762
4466.000000;1.604493
4465.000000;1.605235
4464.000000;1.606023
4463.000000;1.606577
4462.000000;1.606747
4461.000000;1.606734
4460.000000;1.606789
4459.000000;1.606964
4458.000000;1.607276
4457.000000;1.607924
4456.000000;1.609106
4455.000000;1.610709
4454.000000;1.612349
4453.000000;1.613729
4452.000000;1.614849
4451.000000;1.615876
4450.000000;1.616895
4449.000000;1.617839
4448.000000;1.618630
4447.000000;1.619302
4446.000000;1.619974
4445.000000;1.620767
4444.000000;1.621854
4443.000000;1.623482
4442.000000;1.625711
4441.000000;1.628090
4440.000000;1.629891
4439.000000;1.630870
4438.000000;1.631592
4437.000000;1.632761
4436.000000;1.634450
4435.000000;1.636284
4434.000000;1.638191
4433.000000;1.640483
4432.000000;1.643151
4431.000000;1.645588
4430.000000;1.647265
4429.000000;1.648418
4428.000000;1.649788
4427.000000;1.651847
4426.000000;1.654471
4425.000000;1.657207
4424.000000;1.659654
4423.000000;1.661693
4422.000000;1.663551
4421.000000;1.665574
4420.000000;1.667831
4419.000000;1.670031
4418.000000;1.671961
4417.000000;1.673862
4416.000000;1.676190
4415.000000;1.679059
4414.000000;1.682120
4413.000000;1.684970
4412.000000;1.687543
4411.000000;1.690093
4410.000000;1.692903
4409.000000;1.696071
4408.000000;1.699445
4407.000000;1.702699
4406.000000;1.705527
4405.000000;1.707849
4404.000000;1.709883
4403.000000;1.712006
4402.000000;1.714529
4401.000000;1.717497
4400.000000;1.720681
4399.000000;1.723762
4398.000000;1.726604
4397.000000;1.729330
4396.000000;1.732145
4395.000000;1.735099
4394.000000;1.738094
4393.000000;1.741108
4392.000000;1.744303
4391.000000;1.747761
4390.000000;1.751180
4389.000000;1.754057
4388.000000;1.756301
4387.000000;1.758476
4386.000000;1.761208
4385.000000;1.764502
4384.000000;1.767864
4383.000000;1.770947
4382.000000;1.773800
4381.000000;1.776564
4380.000000;1.779299
4379.000000;1.782115
4378.000000;1.785013
4377.000000;1.787459
4376.000000;1.788643
4375.000000;1.788525
4374.000000;1.788236
4373.000000;1.789085
4372.000000;1.791472
4371.000000;1.794965
4370.000000;1.799033
4369.000000;1.803337
4368.000000;1.807464
4367.000000;1.810905
4366.000000;1.813461
4365.000000;1.815389
4364.000000;1.817142
4363.000000;1.819166
4362.000000;1.821765
4361.000000;1.824822
4360.000000;1.827741
4359.000000;1.829990
4358.000000;1.831631
4357.000000;1.833035
4356.000000;1.834284
4355.000000;1.835276
4354.000000;1.836263
4353.000000;1.837754
4352.000000;1.839890
4351.000000;1.842324
4350.000000;1.844751
4349.000000;1.847211
4348.000000;1.849797
4347.000000;1.852300
4346.000000;1.854242
4345.000000;1.855226
4344.000000;1.855412
4343.000000;1.855711
4342.000000;1.857228
4341.000000;1.860251
4340.000000;1.863964
4339.000000;1.867274
4338.000000;1.869597
4337.000000;1.870768
4336.000000;1.870769
4335.000000;1.870099
4334.000000;1.869975
4333.000000;1.871421
4332.000000;1.874236
4331.000000;1.877298
4330.000000;1.879661
4329.000000;1.880968
4328.000000;1.881281
4327.000000;1.881165
4326.000000;1.881638
4325.000000;1.883256
4324.000000;1.885362
4323.000000;1.886890
4322.000000;1.887747
4321.000000;1.888656
4320.000000;1.889852
4319.000000;1.890801
4318.000000;1.891229
4317.000000;1.891636
4316.000000;1.892640
4315.000000;1.894391
4314.000000;1.896695
4313.000000;1.899142
4312.000000;1.901227
4311.000000;1.902915
4310.000000;1.904787
4309.000000;1.907144
4308.000000;1.909445
4307.000000;1.911382
4306.000000;1.913987
4305.000000;1.918373
4304.000000;1.923396
4303.000000;1.926069
4302.000000;1.924977
4301.000000;1.922308
4300.000000;1.921701
4299.000000;1.924889
4298.000000;1.930769
4297.000000;1.936741
4296.000000;1.940491
4295.000000;1.941221
4294.000000;1.939986
4293.000000;1.938939
4292.000000;1.940065
4291.000000;1.944183
4290.000000;1.950300
4289.000000;1.955617
4288.000000;1.957340
4287.000000;1.955694
4286.000000;1.954452
4285.000000;1.957327
4284.000000;1.964288
4283.000000;1.972053
4282.000000;1.977737
4281.000000;1.981000
4280.000000;1.982947
4279.000000;1.984706
4278.000000;1.987363
4277.000000;1.991489
4276.000000;1.995944
4275.000000;1.998694
4274.000000;1.999643
4273.000000;2.001199
4272.000000;2.005377
4271.000000;2.011638
4270.000000;2.017917
4269.000000;2.022326
4268.000000;2.023419
4267.000000;2.020929
4266.000000;2.017750
4265.000000;2.019189
4264.000000;2.028039
4263.000000;2.040839
4262.000000;2.050517
4261.000000;2.053621
4260.000000;2.053533
4259.000000;2.055927
4258.000000;2.063073
4257.000000;2.072866
4256.000000;2.081834
4255.000000;2.088296
4254.000000;2.093052
4253.000000;2.097627
4252.000000;2.102244
4251.000000;2.105884
4250.000000;2.108030
4249.000000;2.109404
4248.000000;2.111037
4247.000000;2.113600
4246.000000;2.117509
4245.000000;2.122783
4244.000000;2.128644
4243.000000;2.133938
4242.000000;2.138260
4241.000000;2.141896
4240.000000;2.144697
4239.000000;2.146307
4238.000000;2.147432
4237.000000;2.149410
4236.000000;2.152822
4235.000000;2.157802
4234.000000;2.165154
4233.000000;2.175482
4232.000000;2.186588
4231.000000;2.193515
4230.000000;2.193463
4229.000000;2.189482
4228.000000;2.187378
4227.000000;2.190255
4226.000000;2.196958
4225.000000;2.204017
4224.000000;2.208309
4223.000000;2.209736
4222.000000;2.212051
4221.000000;2.219881
4220.000000;2.233820
4219.000000;2.248493
4218.000000;2.256783
4217.000000;2.256221
4216.000000;2.251063
4215.000000;2.248381
4214.000000;2.251928
4213.000000;2.258993
4212.000000;2.263915
4211.000000;2.266064
4210.000000;2.271538
4209.000000;2.284438
4208.000000;2.299188
4207.000000;2.305172
4206.000000;2.299635
4205.000000;2.291840
4204.000000;2.291680
4203.000000;2.298833
4202.000000;2.307417
4201.000000;2.316224
4200.000000;2.328408
4199.000000;2.345333
4198.000000;2.362716
4197.000000;2.371846
4196.000000;2.367782
4195.000000;2.355429
4194.000000;2.345467
4193.000000;2.346038
4192.000000;2.356176
4191.000000;2.366325
4190.000000;2.368520
4189.000000;2.365482
4188.000000;2.366818
4187.000000;2.379506
4186.000000;2.403088
4185.000000;2.430170
4184.000000;2.451911
4183.000000;2.464391
4182.000000;2.467683
4181.000000;2.460577
4180.000000;2.441879
4179.000000;2.416855
4178.000000;2.395280
4177.000000;2.382716
4176.000000;2.377589
4175.000000;2.377116
4174.000000;2.382530
4173.000000;2.391890
4172.000000;2.393302
4171.000000;2.379628
4170.000000;2.365566
4169.000000;2.374938
4168.000000;2.415741
4167.000000;2.470996
4166.000000;2.512724
4165.000000;2.528150
4164.000000;2.523041
4163.000000;2.508744
4162.000000;2.496718
4161.000000;2.493355
4160.000000;2.491539
4159.000000;2.478256
4158.000000;2.459511
4157.000000;2.457872
4156.000000;2.482839
4155.000000;2.517066
4154.000000;2.535608
4153.000000;2.540312
4152.000000;2.552786
4151.000000;2.576159
4150.000000;2.586308
4149.000000;2.566114
4148.000000;2.532020
4147.000000;2.508901
4146.000000;2.505041
4145.000000;2.511906
4144.000000;2.513806
4143.000000;2.504233
4142.000000;2.493828
4141.000000;2.496224
4140.000000;2.511195
4139.000000;2.526390
4138.000000;2.535020
4137.000000;2.542300
4136.000000;2.549369
4135.000000;2.547042
4134.000000;2.533003
4133.000000;2.518662
4132.000000;2.514620
4131.000000;2.522552
4130.000000;2.539941
4129.000000;2.560946
4128.000000;2.571397
4127.000000;2.562142
4126.000000;2.554751
4125.000000;2.585442
4124.000000;2.651893
4123.000000;2.676693
4122.000000;2.603914
4121.000000;2.508267
4120.000000;2.460862
4119.000000;2.466477
4118.000000;2.503432
4117.000000;2.563367
4116.000000;2.628051
4115.000000;2.630502
4114.000000;2.547759
4113.000000;2.460604
4112.000000;2.433226
4111.000000;2.472656
4110.000000;2.551043
4109.000000;2.617249
4108.000000;2.644326
4107.000000;2.668784
4106.000000;2.692439
4105.000000;2.674689
4104.000000;2.616208
4103.000000;2.559882
4102.000000;2.541620
4101.000000;2.556551
4100.000000;2.564287
4099.000000;2.538664
4098.000000;2.501542
4097.000000;2.473681
4096.000000;2.452284
4095.000000;2.440811
4094.000000;2.446912
4093.000000;2.470814
4092.000000;2.511889
4091.000000;2.561115
4090.000000;2.611214
4089.000000;2.690298
4088.000000;2.837871
4087.000000;2.993147
4086.000000;2.922438
4085.000000;2.687886
4084.000000;2.515033
4083.000000;2.439270
4082.000000;2.431327
4081.000000;2.443967
4080.000000;2.436562
4079.000000;2.409003
4078.000000;2.388581
4077.000000;2.396373
4076.000000;2.431476
4075.000000;2.472340
4074.000000;2.489957
4073.000000;2.458270
4072.000000;2.423891
4071.000000;2.469550
4070.000000;2.652301
4069.000000;2.840323
4068.000000;2.763705
4067.000000;2.735811
4066.000000;2.801449
4065.000000;2.794107
4064.000000;2.706713
4063.000000;2.609457
4062.000000;2.558107
4061.000000;2.596180
4060.000000;2.750967
4059.000000;2.932829
4058.000000;2.825782
4057.000000;2.704067
4056.000000;2.704509
4055.000000;2.792064
4054.000000;2.864515
4053.000000;2.811744
4052.000000;2.684574
4051.000000;2.580074
4050.000000;2.532122
4049.000000;2.533115
4048.000000;2.560052
4047.000000;2.603672
4046.000000;2.635590
4045.000000;2.613068
4044.000000;2.608325
4043.000000;2.667319
4042.000000;2.709429
4041.000000;2.670300
4040.000000;2.650831
4039.000000;2.761397
4038.000000;3.042627
4037.000000;3.258117
4036.000000;2.971369
4035.000000;2.703435
4034.000000;2.550434
4033.000000;2.467415
4032.000000;2.438675
4031.000000;2.484634
4030.000000;2.632631
4029.000000;2.864235
4028.000000;3.031101
4027.000000;2.822937
4026.000000;2.532074
4025.000000;2.366513
4024.000000;2.280484
4023.000000;2.244515
4022.000000;2.241982
4021.000000;2.267472
4020.000000;2.323040
4019.000000;2.407129
4018.000000;2.497793
4017.000000;2.561421
4016.000000;2.578475
4015.000000;2.578665
4014.000000;2.615204
4013.000000;2.675746
4012.000000;2.711482
4011.000000;2.751483
4010.000000;2.859773
4009.000000;3.005711
4008.000000;2.981424
4007.000000;2.827739
4006.000000;2.678583
4005.000000;2.585337
4004.000000;2.573919
4003.000000;2.645262
4002.000000;2.717914
4001.000000;2.683738
4000.000000;2.553956
3999.000000;2.397865
3998.000000;2.321589
3997.000000;2.356239
3996.000000;2.485754
3995.000000;2.686290
3994.000000;2.819640
3993.000000;2.755364
3992.000000;2.677857
3991.000000;2.632382
3990.000000;2.566897
3989.000000;2.492249
3988.000000;2.467928
3987.000000;2.530106
3986.000000;2.686465
3985.000000;2.884850
3984.000000;2.915314
3983.000000;2.767398
3982.000000;2.635765
3981.000000;2.594806
3980.000000;2.632098
3979.000000;2.697119
3978.000000;2.769638
3977.000000;2.894000
3976.000000;3.054008
3975.000000;3.028230
3974.000000;2.868953
3973.000000;2.761821
3972.000000;2.711077
3971.000000;2.664827
3970.000000;2.647044
3969.000000;2.730035
3968.000000;2.924717
3967.000000;3.206739
3966.000000;3.155228
3965.000000;2.992439
3964.000000;3.321902
3963.000000;3.241798
3962.000000;2.731774
3961.000000;2.539760
3960.000000;2.521570
3959.000000;2.630565
3958.000000;2.792860
3957.000000;2.801759
3956.000000;2.898847
3955.000000;3.266425
3954.000000;2.748785
3953.000000;2.558468
3952.000000;2.574689
3951.000000;2.672110
3950.000000;2.772874
3949.000000;2.770382
3948.000000;2.702552
3947.000000;2.683874
3946.000000;2.770324
3945.000000;3.007858
3944.000000;3.560115
3943.000000;3.559815
3942.000000;3.283823
3941.000000;3.403530
3940.000000;3.358770
3939.000000;3.125836
3938.000000;2.973596
3937.000000;2.912861
3936.000000;2.885392
3935.000000;2.906326
3934.000000;3.054968
3933.000000;3.481619
3932.000000;3.165172
3931.000000;2.874133
3930.000000;2.851674
3929.000000;3.038343
3928.000000;3.047025
3927.000000;2.772039
3926.000000;2.644725
3925.000000;2.621416
3924.000000;2.671523
3923.000000;2.770689
3922.000000;2.877790
3921.000000;3.023233
3920.000000;3.042812
3919.000000;2.818105
3918.000000;2.666932
3917.000000;2.630674
3916.000000;2.672797
3915.000000;2.697681
3914.000000;2.624153
3913.000000;2.532328
3912.000000;2.492158
3911.000000;2.520272
3910.000000;2.603160
3909.000000;2.688921
3908.000000;2.742050
3907.000000;2.811204
3906.000000;2.952798
3905.000000;3.148779
3904.000000;3.268970
3903.000000;3.299659
3902.000000;3.325106
3901.000000;3.281185
3900.000000;3.243088
3899.000000;3.188754
3898.000000;3.079477
3897.000000;2.981375
3896.000000;2.943180
3895.000000;2.983636
3894.000000;3.076256
3893.000000;3.145570
3892.000000;3.164161
3891.000000;3.156782
3890.000000;3.124079
3889.000000;3.103584
3888.000000;3.121350
3887.000000;3.123457
3886.000000;3.093031
3885.000000;3.037156
3884.000000;2.957788
3883.000000;2.906258
3882.000000;2.893213
3881.000000;2.931735
3880.000000;3.016615
3879.000000;3.241040
3878.000000;3.632704
3877.000000;3.417409
3876.000000;3.407015
3875.000000;3.183405
3874.000000;2.947740
3873.000000;2.834800
3872.000000;2.850459
3871.000000;3.037826
3870.000000;3.482438
3869.000000;3.659611
3868.000000;3.370743
3867.000000;3.565189
3866.000000;3.078735
3865.000000;2.814979
3864.000000;2.802046
3863.000000;2.866375
3862.000000;2.871031
3861.000000;2.910129
3860.000000;3.149588
3859.000000;3.552102
3858.000000;3.812871
3857.000000;3.733876
3856.000000;3.714483
3855.000000;4.062072
3854.000000;4.059883
3853.000000;3.417494
3852.000000;3.054512
3851.000000;2.903908
3850.000000;2.929002
3849.000000;3.117049
3848.000000;3.224712
3847.000000;2.982845
3846.000000;2.853562
3845.000000;2.999571
3844.000000;3.521455
3843.000000;3.739788
3842.000000;3.563723
3841.000000;3.341810
3840.000000;3.144081
3839.000000;3.121019
3838.000000;3.254202
3837.000000;3.331961
3836.000000;3.173186
3835.000000;3.040001
3834.000000;2.813407
3833.000000;2.691414
3832.000000;2.706358
3831.000000;2.744456
3830.000000;2.727906
3829.000000;2.671646
3828.000000;2.664394
3827.000000;2.721405
3826.000000;2.812492
3825.000000;2.989965
3824.000000;2.605102
3823.000000;2.427064
3822.000000;2.519594
3821.000000;2.673505
3820.000000;2.822222
3819.000000;3.003084
3818.000000;3.368239
3817.000000;4.158318
3816.000000;3.882542
3815.000000;3.323908
3814.000000;3.043171
3813.000000;2.950171
3812.000000;2.937763
3811.000000;2.910819
3810.000000;2.876162
3809.000000;2.820925
3808.000000;2.805003
3807.000000;2.877081
3806.000000;3.034991
3805.000000;3.256893
3804.000000;3.311547
3803.000000;3.467930
3802.000000;3.745195
3801.000000;3.280557
3800.000000;3.016156
3799.000000;3.001598
3798.000000;3.171205
3797.000000;3.372897
3796.000000;3.187029
3795.000000;2.970892
3794.000000;2.888247
3793.000000;2.919374
3792.000000;3.088758
3791.000000;3.364323
3790.000000;3.322740
3789.000000;3.498871
3788.000000;3.801446
3787.000000;3.208631
3786.000000;3.134219
3785.000000;3.247742
3784.000000;3.250717
3783.000000;3.041176
3782.000000;2.815866
3781.000000;2.885455
3780.000000;3.430948
3779.000000;3.296663
3778.000000;3.008290
3777.000000;3.099473
3776.000000;3.145462
3775.000000;2.974561
3774.000000;2.689969
3773.000000;2.507741
3772.000000;2.500723
3771.000000;2.661534
3770.000000;2.947915
3769.000000;3.072444
3768.000000;2.968285
3767.000000;3.012974
3766.000000;3.117778
3765.000000;3.050636
3764.000000;2.956358
3763.000000;2.901936
3762.000000;2.834274
3761.000000;2.749360
3760.000000;2.729878
3759.000000;2.804867
3758.000000;2.928125
3757.000000;3.008611
3756.000000;3.006607
3755.000000;2.988411
3754.000000;3.002290
3753.000000;3.076339
3752.000000;3.191209
3751.000000;3.268052
3750.000000;3.317703
3749.000000;3.366444
3748.000000;3.401692
3747.000000;3.490832
3746.000000;3.577252
3745.000000;3.593721
3744.000000;3.586222
3743.000000;3.648403
3742.000000;3.530250
3741.000000;3.280016
3740.000000;3.168636
3739.000000;3.216136
3738.000000;3.393112
3737.000000;3.289556
3736.000000;3.022661
3735.000000;2.975901
3734.000000;3.248972
3733.000000;3.456718
3732.000000;3.179215
3731.000000;3.050715
3730.000000;2.984819
3729.000000;2.979168
3728.000000;3.060802
3727.000000;3.160866
3726.000000;3.094521
3725.000000;2.857443
3724.000000;2.712263
3723.000000;2.658137
3722.000000;2.681348
3721.000000;2.761024
3720.000000;2.978974
3719.000000;3.551848
3718.000000;3.282374
3717.000000;2.943359
3716.000000;2.844402
3715.000000;2.841234
3714.000000;3.088199
3713.000000;3.726589
3712.000000;3.252945
3711.000000;3.089851
3710.000000;3.229374
3709.000000;3.264702
3708.000000;3.207672
3707.000000;3.205390
3706.000000;3.559621
3705.000000;3.520804
3704.000000;2.994115
3703.000000;2.848902
3702.000000;2.777180
3701.000000;2.708519
3700.000000;2.698014
3699.000000;2.784534
3698.000000;2.958375
3697.000000;2.969401
3696.000000;2.854799
3695.000000;2.774335
3694.000000;2.703319
3693.000000;2.672387
3692.000000;2.730904
3691.000000;2.877445
3690.000000;3.073419
3689.000000;3.256455
3688.000000;3.350327
3687.000000;3.213147
3686.000000;2.935919
3685.000000;2.735485
3684.000000;2.645676
3683.000000;2.687202
3682.000000;2.863409
3681.000000;3.288500
3680.000000;4.021419
3679.000000;3.146739
3678.000000;2.920155
3677.000000;3.003333
3676.000000;3.180814
3675.000000;3.258497
3674.000000;3.223311
3673.000000;3.186900
3672.000000;3.098149
3671.000000;2.954404
3670.000000;2.829120
3669.000000;2.780664
3668.000000;2.806231
3667.000000;2.937680
3666.000000;3.121562
3665.000000;3.101598
3664.000000;2.906965
3663.000000;2.804266
3662.000000;2.804001
3661.000000;2.961181
3660.000000;3.411240
3659.000000;3.109478
3658.000000;2.842351
3657.000000;2.833068
3656.000000;2.914613
3655.000000;3.169693
3654.000000;3.113032
3653.000000;2.913672
3652.000000;2.987405
3651.000000;2.998726
3650.000000;2.874984
3649.000000;2.818842
3648.000000;2.811562
3647.000000;2.952962
3646.000000;3.365545
3645.000000;3.413384
3644.000000;3.263818
3643.000000;3.341342
3642.000000;3.206641
3641.000000;3.020894
3640.000000;2.886514
3639.000000;2.825848
3638.000000;2.919342
3637.000000;3.258746
3636.000000;3.312529
3635.000000;3.157261
3634.000000;3.171263
3633.000000;3.248857
3632.000000;3.399820
3631.000000;3.095578
3630.000000;2.895866
3629.000000;2.858200
3628.000000;2.868377
3627.000000;2.959594
3626.000000;3.103852
3625.000000;3.303499
3624.000000;3.449622
3623.000000;3.295360
3622.000000;3.182310
3621.000000;3.178491
3620.000000;3.264354
3619.000000;3.455446
3618.000000;3.490866
3617.000000;3.368045
3616.000000;3.289858
3615.000000;3.360589
3614.000000;3.695085
3613.000000;3.873282
3612.000000;3.479366
3611.000000;3.215726
3610.000000;3.063835
3609.000000;2.971138
3608.000000;2.953066
3607.000000;3.029954
3606.000000;3.378127
3605.000000;3.657905
3604.000000;3.150193
3603.000000;3.031551
3602.000000;3.027442
3601.000000;2.968674
3600.000000;2.918730
3599.000000;2.928629
3598.000000;3.047293
3597.000000;3.144151
3596.000000;3.118848
3595.000000;3.039973
3594.000000;3.064711
3593.000000;3.218171
3592.000000;3.116138
3591.000000;2.975816
3590.000000;3.045477
3589.000000;3.271937
3588.000000;3.354954
3587.000000;3.166789
3586.000000;3.026724
3585.000000;3.029688
3584.000000;3.099674
3583.000000;3.285455
3582.000000;3.643403
3581.000000;3.175337
3580.000000;2.902479
3579.000000;2.864802
3578.000000;2.917705
3577.000000;2.946671
3576.000000;2.887207
3575.000000;2.851167
3574.000000;2.851639
3573.000000;2.880229
3572.000000;2.912712
3571.000000;2.954861
3570.000000;3.043572
3569.000000;3.158762
3568.000000;3.216696
3567.000000;3.225523
3566.000000;3.257032
3565.000000;3.290372
3564.000000;3.263176
3563.000000;3.297210
3562.000000;3.548970
3561.000000;3.580428
3560.000000;3.397999
3559.000000;3.461573
3558.000000;3.662211
3557.000000;3.874629
3556.000000;3.648487
3555.000000;3.304356
3554.000000;3.144482
3553.000000;3.108911
3552.000000;3.152044
3551.000000;3.314866
3550.000000;3.573064
3549.000000;3.799865
3548.000000;3.884205
3547.000000;3.574510
3546.000000;3.292453
3545.000000;3.079299
3544.000000;2.921628
3543.000000;2.858120
3542.000000;2.922079
3541.000000;3.128157
3540.000000;3.391546
3539.000000;3.375760
3538.000000;3.143231
3537.000000;2.974880
3536.000000;2.871238
3535.000000;2.829231
3534.000000;2.866014
3533.000000;2.953848
3532.000000;3.030601
3531.000000;3.014887
3530.000000;2.938188
3529.000000;2.912432
3528.000000;2.991577
3527.000000;3.131750
3526.000000;3.207716
3525.000000;3.248140
3524.000000;3.201415
3523.000000;3.186743
3522.000000;3.197228
3521.000000;3.021685
3520.000000;3.066276
3519.000000;3.324508
3518.000000;3.065067
3517.000000;2.838361
3516.000000;2.810177
3515.000000;2.905514
3514.000000;3.100325
3513.000000;3.389174
3512.000000;3.813235
3511.000000;4.001057
3510.000000;3.452619
3509.000000;3.128193
3508.000000;2.989119
3507.000000;3.072846
3506.000000;3.336676
3505.000000;3.114444
3504.000000;2.873089
3503.000000;2.823234
3502.000000;2.868029
3501.000000;3.065972
3500.000000;3.342093
3499.000000;3.140582
3498.000000;2.950112
3497.000000;2.873252
3496.000000;2.791457
3495.000000;2.738766
3494.000000;2.752089
3493.000000;2.919187
3492.000000;3.367287
3491.000000;3.273213
3490.000000;2.921821
3489.000000;2.842091
3488.000000;2.850920
3487.000000;2.916904
3486.000000;3.112276
3485.000000;3.231076
3484.000000;3.040103
3483.000000;2.951518
3482.000000;2.998452
3481.000000;3.081898
3480.000000;3.320847
3479.000000;3.503310
3478.000000;3.047525
3477.000000;2.819978
3476.000000;2.795546
3475.000000;2.880185
3474.000000;3.054963
3473.000000;3.317441
3472.000000;3.761539
3471.000000;3.897919
3470.000000;3.565914
3469.000000;3.428258
3468.000000;3.333206
3467.000000;3.138459
3466.000000;3.018432
3465.000000;3.113014
3464.000000;3.420267
3463.000000;3.336102
3462.000000;3.079129
3461.000000;3.030527
3460.000000;3.118651
3459.000000;3.398973
3458.000000;3.780574
3457.000000;3.487733
3456.000000;3.219144
3455.000000;3.074916
3454.000000;2.970064
3453.000000;2.936017
3452.000000;2.987547
3451.000000;3.071371
3450.000000;3.111578
3449.000000;3.121166
3448.000000;3.121878
3447.000000;3.185526
3446.000000;3.370327
3445.000000;3.489316
3444.000000;3.388553
3443.000000;3.314900
3442.000000;3.291929
3441.000000;3.456019
3440.000000;3.599345
3439.000000;3.245963
3438.000000;3.122214
3437.000000;3.192870
3436.000000;3.222344
3435.000000;3.054318
3434.000000;2.924131
3433.000000;2.957800
3432.000000;3.176079
3431.000000;3.662395
3430.000000;3.672281
3429.000000;3.176526
3428.000000;2.976972
3427.000000;2.917146
3426.000000;2.991967
3425.000000;3.398375
3424.000000;3.597562
3423.000000;3.178584
3422.000000;3.118350
3421.000000;3.188980
3420.000000;3.416080
3419.000000;4.099533
3418.000000;3.473525
3417.000000;3.145088
3416.000000;3.059854
3415.000000;3.057987
3414.000000;3.061563
3413.000000;3.000960
3412.000000;2.964717
3411.000000;3.007128
3410.000000;3.102422
3409.000000;3.147857
3408.000000;3.130012
3407.000000;3.194327
3406.000000;3.609979
3405.000000;3.420593
3404.000000;3.025828
3403.000000;2.993044
3402.000000;3.098508
3401.000000;3.301292
3400.000000;3.382588
3399.000000;3.208042
3398.000000;3.084538
3397.000000;3.062768
3396.000000;3.198814
3395.000000;3.341754
3394.000000;3.216380
3393.000000;3.190462
3392.000000;3.405164
3391.000000;3.451068
3390.000000;3.503935
3389.000000;3.570478
3388.000000;3.141561
3387.000000;2.967084
3386.000000;3.022638
3385.000000;3.373276
3384.000000;3.573785
3383.000000;3.229014
3382.000000;3.074638
3381.000000;2.967337
3380.000000;2.991067
3379.000000;3.137702
3378.000000;3.580095
3377.000000;3.526600
3376.000000;3.120691
3375.000000;3.080101
3374.000000;3.061423
3373.000000;3.026350
3372.000000;3.001138
3371.000000;2.949189
3370.000000;2.902227
3369.000000;2.884999
3368.000000;2.910633
3367.000000;2.966181
3366.000000;3.090014
3365.000000;3.238600
3364.000000;3.112920
3363.000000;2.919158
3362.000000;2.812960
3361.000000;2.792689
3360.000000;2.876816
3359.000000;3.114422
3358.000000;3.439998
3357.000000;3.300020
3356.000000;3.014166
3355.000000;2.876419
3354.000000;2.874977
3353.000000;3.030479
3352.000000;3.516109
3351.000000;3.389246
3350.000000;3.006013
3349.000000;2.956517
3348.000000;2.981068
3347.000000;3.041830
3346.000000;3.156303
3345.000000;3.296536
3344.000000;3.202445
3343.000000;3.103125
3342.000000;3.337044
3341.000000;3.370581
3340.000000;3.006846
3339.000000;2.886036
3338.000000;2.889114
3337.000000;2.906287
3336.000000;2.968325
3335.000000;3.087364
3334.000000;3.142459
3333.000000;3.097412
3332.000000;3.071857
3331.000000;3.141433
3330.000000;3.295537
3329.000000;3.188649
3328.000000;2.950184
3327.000000;2.844994
3326.000000;2.861189
3325.000000;2.964370
3324.000000;3.056502
3323.000000;3.017606
3322.000000;2.913562
3321.000000;2.832584
3320.000000;2.853387
3319.000000;3.019898
3318.000000;3.111903
3317.000000;3.057050
3316.000000;3.234867
3315.000000;3.635637
3314.000000;3.219050
3313.000000;2.992971
3312.000000;2.932534
3311.000000;3.030891
3310.000000;3.430670
3309.000000;3.192807
3308.000000;2.937603
3307.000000;2.926850
3306.000000;3.046386
3305.000000;3.313027
3304.000000;3.589669
3303.000000;3.681815
3302.000000;3.441634
3301.000000;3.186743
3300.000000;3.137213
3299.000000;3.110314
3298.000000;3.050041
3297.000000;3.108319
3296.000000;3.296949
3295.000000;3.599397
3294.000000;3.954082
3293.000000;3.355654
3292.000000;2.985393
3291.000000;2.882810
3290.000000;2.916129
3289.000000;3.030347
3288.000000;3.189349
3287.000000;3.369247
3286.000000;3.450957
3285.000000;3.359506
3284.000000;3.258696
3283.000000;3.174137
3282.000000;3.184327
3281.000000;3.212138
3280.000000;3.033609
3279.000000;2.896598
3278.000000;2.881255
3277.000000;2.940198
3276.000000;2.971205
3275.000000;2.977973
3274.000000;3.178553
3273.000000;3.294326
3272.000000;3.027961
3271.000000;2.941094
3270.000000;2.974530
3269.000000;3.050274
3268.000000;3.151014
3267.000000;3.378652
3266.000000;3.696204
3265.000000;3.617951
3264.000000;3.512192
3263.000000;3.432838
3262.000000;3.265842
3261.000000;3.224743
3260.000000;3.525061
3259.000000;3.295704
3258.000000;2.852319
3257.000000;2.694264
3256.000000;2.698669
3255.000000;2.917127
3254.000000;3.412811
3253.000000;3.065533
3252.000000;2.891745
3251.000000;2.925038
3250.000000;3.166882
3249.000000;3.533196
3248.000000;3.122751
3247.000000;2.902917
3246.000000;2.789088
3245.000000;2.785522
3244.000000;2.980879
3243.000000;3.351419
3242.000000;3.220120
3241.000000;3.038791
3240.000000;3.023201
3239.000000;2.956663
3238.000000;2.891494
3237.000000;2.907441
3236.000000;2.985951
3235.000000;2.988458
3234.000000;2.963714
3233.000000;3.012834
3232.000000;3.097498
3231.000000;3.240105
3230.000000;3.452289
3229.000000;3.332844
3228.000000;3.132029
3227.000000;3.075211
3226.000000;3.069537
3225.000000;3.017544
3224.000000;2.962472
3223.000000;2.949477
3222.000000;2.934218
3221.000000;2.875566
3220.000000;2.926954
3219.000000;3.061541
3218.000000;2.907728
3217.000000;2.756685
3216.000000;2.808080
3215.000000;3.274950
3214.000000;3.554029
3213.000000;3.059698
3212.000000;2.978991
3211.000000;2.920489
3210.000000;2.908091
3209.000000;2.948805
3208.000000;3.031280
3207.000000;3.194009
3206.000000;3.488763
3205.000000;3.447387
3204.000000;3.000216
3203.000000;2.794909
3202.000000;2.779519
3201.000000;2.922912
3200.000000;3.156593
3199.000000;3.109869
3198.000000;2.925769
3197.000000;2.835099
3196.000000;2.847326
3195.000000;2.891240
3194.000000;2.871323
3193.000000;2.915665
3192.000000;3.207804
3191.000000;3.592939
3190.000000;3.428004
3189.000000;3.340681
3188.000000;3.142748
3187.000000;2.951870
3186.000000;2.884515
3185.000000;2.945322
3184.000000;3.164700
3183.000000;3.332301
3182.000000;3.291753
3181.000000;3.264274
3180.000000;3.069459
3179.000000;2.866448
3178.000000;2.774645
3177.000000;2.790816
3176.000000;2.924412
3175.000000;3.159187
3174.000000;3.288403
3173.000000;3.158698
3172.000000;3.011014
3171.000000;2.963368
3170.000000;3.021994
3169.000000;3.176633
3168.000000;3.476067
3167.000000;3.501826
3166.000000;3.210429
3165.000000;3.176738
3164.000000;3.329555
3163.000000;3.275130
3162.000000;3.003137
3161.000000;2.878358
3160.000000;2.870715
3159.000000;3.070910
3158.000000;3.488926
3157.000000;3.015125
3156.000000;2.766689
3155.000000;2.751437
3154.000000;2.823225
3153.000000;2.958084
3152.000000;3.141565
3151.000000;3.604014
3150.000000;3.487828
3149.000000;3.261921
3148.000000;3.435878
3147.000000;3.503241
3146.000000;3.372432
3145.000000;3.403836
3144.000000;3.349779
3143.000000;3.238261
3142.000000;3.283866
3141.000000;3.342910
3140.000000;3.039526
3139.000000;2.823130
3138.000000;2.764462
3137.000000;2.799900
3136.000000;2.844714
3135.000000;2.822496
3134.000000;2.755807
3133.000000;2.678974
3132.000000;2.619969
3131.000000;2.606624
3130.000000;2.644797
3129.000000;2.722465
3128.000000;2.826158
3127.000000;2.969821
3126.000000;3.164525
3125.000000;3.181656
3124.000000;3.038286
3123.000000;2.923559
3122.000000;2.857234
3121.000000;2.866304
3120.000000;2.951237
3119.000000;3.201624
3118.000000;3.724269
3117.000000;3.291174
3116.000000;3.177038
3115.000000;3.412970
3114.000000;3.808651
3113.000000;3.543954
3112.000000;3.379510
3111.000000;3.148613
3110.000000;3.032911
3109.000000;3.095886
3108.000000;3.150911
3107.000000;3.030405
3106.000000;2.974551
3105.000000;3.046389
3104.000000;3.208738
3103.000000;3.418688
3102.000000;3.453324
3101.000000;3.315280
3100.000000;3.046726
3099.000000;2.848489
3098.000000;2.811304
3097.000000;2.962041
3096.000000;3.234672
3095.000000;3.007888
3094.000000;2.836657
3093.000000;2.812537
3092.000000;2.889350
3091.000000;3.044159
3090.000000;3.421515
3089.000000;4.220611
3088.000000;3.288706
3087.000000;3.221413
3086.000000;3.326658
3085.000000;3.449958
3084.000000;3.321237
3083.000000;3.164286
3082.000000;3.221094
3081.000000;3.468880
3080.000000;3.309458
3079.000000;3.020808
3078.000000;2.904411
3077.000000;2.945250
3076.000000;3.200239
3075.000000;3.706002
3074.000000;3.751794
3073.000000;3.207162
3072.000000;2.940041
3071.000000;2.898873
3070.000000;3.076647
3069.000000;3.137532
3068.000000;2.941131
3067.000000;2.885115
3066.000000;2.854553
3065.000000;2.802213
3064.000000;2.835765
3063.000000;3.002312
3062.000000;3.181666
3061.000000;3.164439
3060.000000;3.205332
3059.000000;3.243011
3058.000000;3.049026
3057.000000;2.844777
3056.000000;2.741946
3055.000000;2.729531
3054.000000;2.742926
3053.000000;2.728950
3052.000000;2.736991
3051.000000;2.819748
3050.000000;2.971960
3049.000000;3.135670
3048.000000;3.259517
3047.000000;3.296288
3046.000000;3.380009
3045.000000;3.465255
3044.000000;3.158662
3043.000000;3.012710
3042.000000;3.040290
3041.000000;2.980664
3040.000000;2.829445
3039.000000;2.766874
3038.000000;2.802949
3037.000000;2.939038
3036.000000;3.339434
3035.000000;3.642315
3034.000000;3.089838
3033.000000;3.065164
3032.000000;3.155259
3031.000000;3.133830
3030.000000;2.985926
3029.000000;2.916342
3028.000000;2.906351
3027.000000;2.925503
3026.000000;2.959373
3025.000000;3.015505
3024.000000;3.062220
3023.000000;3.010360
3022.000000;2.965111
3021.000000;3.052200
3020.000000;3.173522
3019.000000;3.095660
3018.000000;2.927698
3017.000000;2.794608
3016.000000;2.761453
3015.000000;2.829617
3014.000000;2.941948
3013.000000;3.036941
3012.000000;3.109873
3011.000000;3.156253
3010.000000;3.378343
3009.000000;4.052277
3008.000000;3.104789
3007.000000;2.878475
3006.000000;2.817514
3005.000000;2.841845
3004.000000;2.867165
3003.000000;2.882083
3002.000000;2.912665
3001.000000;2.951731
3000.000000;2.977934
2999.000000;3.010783
2998.000000;3.106219
2997.000000;3.190293
2996.000000;3.145162
2995.000000;3.093498
2994.000000;3.054179
2993.000000;2.973748
2992.000000;2.939575
2991.000000;3.057385
2990.000000;3.918117
2989.000000;3.185408
2988.000000;2.979317
2987.000000;3.043367
2986.000000;3.272693
2985.000000;3.327856
2984.000000;2.937356
2983.000000;2.764971
2982.000000;2.761666
2981.000000;3.040881
2980.000000;3.692217
2979.000000;3.036288
2978.000000;2.918723
2977.000000;2.909248
2976.000000;2.885650
2975.000000;2.813454
2974.000000;2.796148
2973.000000;2.806080
2972.000000;2.747212
2971.000000;2.661258
2970.000000;2.653179
2969.000000;2.769318
2968.000000;3.036427
2967.000000;3.511519
2966.000000;3.663153
2965.000000;3.413880
2964.000000;3.294452
2963.000000;3.301922
2962.000000;3.370357
2961.000000;3.562740
2960.000000;3.667513
2959.000000;3.277451
2958.000000;3.078019
2957.000000;2.975399
2956.000000;2.980767
2955.000000;3.049211
2954.000000;3.064692
2953.000000;3.042537
2952.000000;3.094288
2951.000000;3.381648
2950.000000;3.298139
2949.000000;2.959834
2948.000000;2.970027
2947.000000;3.135360
2946.000000;3.167270
2945.000000;3.102057
2944.000000;3.065585
2943.000000;2.929524
2942.000000;2.877756
2941.000000;2.946486
2940.000000;3.025503
2939.000000;3.026150
2938.000000;3.029892
2937.000000;3.300458
2936.000000;3.367217
2935.000000;2.938761
2934.000000;2.768761
2933.000000;2.711104
2932.000000;2.726198
2931.000000;2.832167
2930.000000;3.048368
2929.000000;3.398180
2928.000000;3.965618
2927.000000;3.398088
2926.000000;3.023589
2925.000000;2.844981
2924.000000;2.778646
2923.000000;2.833705
2922.000000;3.000475
2921.000000;3.569620
2920.000000;3.652581
2919.000000;3.047179
2918.000000;2.901636
2917.000000;2.835302
2916.000000;2.853453
2915.000000;2.876607
2914.000000;2.883606
2913.000000;2.889125
2912.000000;2.927122
2911.000000;2.990356
2910.000000;2.992267
2909.000000;2.947218
2908.000000;2.944961
2907.000000;2.965098
2906.000000;3.004665
2905.000000;3.178231
2904.000000;3.576861
2903.000000;3.355937
2902.000000;3.239025
2901.000000;3.122450
2900.000000;2.952128
2899.000000;2.834749
2898.000000;2.742048
2897.000000;2.698252
2896.000000;2.753100
2895.000000;3.030147
2894.000000;3.285535
2893.000000;2.948853
2892.000000;2.776198
2891.000000;2.709915
2890.000000;2.738048
2889.000000;2.868177
2888.000000;3.178851
2887.000000;3.747650
2886.000000;3.404921
2885.000000;3.125330
2884.000000;3.025180
2883.000000;3.026310
2882.000000;3.020832
2881.000000;2.884270
2880.000000;2.763368
2879.000000;2.759616
2878.000000;2.876749
2877.000000;2.994194
2876.000000;2.963233
2875.000000;2.941045
2874.000000;2.996165
2873.000000;3.061520
2872.000000;3.037953
2871.000000;3.017046
2870.000000;3.075042
2869.000000;3.219743
2868.000000;3.225475
2867.000000;3.089769
2866.000000;3.098107
2865.000000;3.315374
2864.000000;3.716593
2863.000000;3.470682
2862.000000;3.231758
2861.000000;3.216389
2860.000000;3.181194
2859.000000;2.959297
2858.000000;2.760022
2857.000000;2.646800
2856.000000;2.603964
2855.000000;2.632008
2854.000000;2.738496
2853.000000;2.901557
2852.000000;2.944835
2851.000000;2.831651
2850.000000;2.745122
2849.000000;2.754136
2848.000000;2.928400
2847.000000;3.415066
2846.000000;3.265787
2845.000000;3.020133
2844.000000;3.025010
2843.000000;3.422169
2842.000000;3.402500
2841.000000;2.851828
2840.000000;2.828745
2839.000000;3.074559
2838.000000;3.224405
2837.000000;2.964605
2836.000000;2.963239
2835.000000;3.096215
2834.000000;3.412546
2833.000000;3.415325
2832.000000;3.267856
2831.000000;3.226587
2830.000000;3.165071
2829.000000;3.103463
2828.000000;3.103213
2827.000000;3.205319
2826.000000;3.561444
2825.000000;3.567858
2824.000000;3.013805
2823.000000;2.767825
2822.000000;2.676807
2821.000000;2.771253
2820.000000;3.060517
2819.000000;2.918291
2818.000000;2.724178
2817.000000;2.722983
2816.000000;2.824293
2815.000000;2.996552
2814.000000;3.170149
2813.000000;3.251649
2812.000000;3.194700
2811.000000;3.037182
2810.000000;2.952981
2809.000000;2.975387
2808.000000;3.325287
2807.000000;3.469354
2806.000000;3.034585
2805.000000;2.939931
2804.000000;3.049569
2803.000000;3.330362
2802.000000;3.692754
2801.000000;3.892085
2800.000000;3.490513
2799.000000;3.403782
2798.000000;3.610566
2797.000000;3.698411
2796.000000;3.561796
2795.000000;3.279672
2794.000000;2.993164
2793.000000;2.839463
2792.000000;2.792091
2791.000000;2.809930
2790.000000;2.804844
2789.000000;2.753931
2788.000000;2.745803
2787.000000;2.819789
2786.000000;3.039010
2785.000000;3.194018
2784.000000;3.023033
2783.000000;2.973324
2782.000000;3.276982
2781.000000;3.401148
2780.000000;3.023122
2779.000000;2.876507
2778.000000;2.825845
2777.000000;2.841796
2776.000000;2.959395
2775.000000;3.280515
2774.000000;3.863691
2773.000000;3.877941
2772.000000;3.563558
2771.000000;3.089432
2770.000000;2.868059
2769.000000;2.770581
2768.000000;2.788474
2767.000000;2.886930
2766.000000;2.919337
2765.000000;2.908348
2764.000000;2.973480
2763.000000;3.091565
2762.000000;3.181620
2761.000000;3.168804
2760.000000;3.156543
2759.000000;3.418760
2758.000000;3.787872
2757.000000;3.395400
2756.000000;3.215920
2755.000000;3.125434
2754.000000;3.112681
2753.000000;3.256823
2752.000000;3.549306
2751.000000;4.100604
2750.000000;3.676756
2749.000000;3.149391
2748.000000;2.938511
2747.000000;2.868381
2746.000000;2.864087
2745.000000;2.886401
2744.000000;2.913397
2743.000000;2.935388
2742.000000;2.964039
2741.000000;3.000480
2740.000000;3.034958
2739.000000;3.128289
2738.000000;3.413620
2737.000000;3.339126
2736.000000;3.033429
2735.000000;2.994370
2734.000000;3.021638
2733.000000;3.019047
2732.000000;2.983635
2731.000000;3.006639
2730.000000;3.089239
2729.000000;3.107020
2728.000000;3.403601
2727.000000;3.393223
2726.000000;2.992510
2725.000000;2.878205
2724.000000;2.886899
2723.000000;2.961512
2722.000000;3.058446
2721.000000;3.135730
2720.000000;3.126654
2719.000000;2.966185
2718.000000;2.812449
2717.000000;2.758362
2716.000000;2.758783
2715.000000;2.725111
2714.000000;2.712490
2713.000000;2.760938
2712.000000;2.807247
2711.000000;2.854792
2710.000000;2.938129
2709.000000;2.975037
2708.000000;2.920370
2707.000000;2.874693
2706.000000;2.926334
2705.000000;3.141567
2704.000000;3.500728
2703.000000;3.549689
2702.000000;3.416634
2701.000000;3.227288
2700.000000;2.954651
2699.000000;2.773841
2698.000000;2.713670
2697.000000;2.754925
2696.000000;2.870039
2695.000000;3.031803
2694.000000;3.186647
2693.000000;3.170197
2692.000000;3.008009
2691.000000;2.891034
2690.000000;2.886748
2689.000000;3.007034
2688.000000;3.327508
2687.000000;4.203248
2686.000000;3.698487
2685.000000;3.676951
2684.000000;3.456125
2683.000000;3.316593
2682.000000;3.256645
2681.000000;3.191300
2680.000000;3.189339
2679.000000;3.280703
2678.000000;3.398712
2677.000000;3.446609
2676.000000;3.427120
2675.000000;3.316726
2674.000000;3.216978
2673.000000;3.234349
2672.000000;3.240827
2671.000000;3.077003
2670.000000;2.923240
2669.000000;2.827190
2668.000000;2.786121
2667.000000;2.853614
2666.000000;3.185929
2665.000000;3.605096
2664.000000;3.202255
2663.000000;3.356120
2662.000000;4.364732
2661.000000;3.553142
2660.000000;3.399816
2659.000000;3.346517
2658.000000;3.267439
2657.000000;3.074314
2656.000000;2.995598
2655.000000;3.039476
2654.000000;3.132191
2653.000000;3.212120
2652.000000;3.348582
2651.000000;3.447173
2650.000000;3.306738
2649.000000;3.288993
2648.000000;3.345781
2647.000000;3.194169
2646.000000;3.065941
2645.000000;3.004174
2644.000000;2.925452
2643.000000;2.818032
2642.000000;2.742130
2641.000000;2.743863
2640.000000;2.819581
2639.000000;2.933348
2638.000000;3.018149
2637.000000;3.043990
2636.000000;3.058424
2635.000000;3.126116
2634.000000;3.284730
2633.000000;3.680853
2632.000000;4.059828
2631.000000;3.363191
2630.000000;3.146176
2629.000000;3.039056
2628.000000;3.176615
2627.000000;3.444444
2626.000000;3.134775
2625.000000;2.987680
2624.000000;3.097388
2623.000000;3.434583
2622.000000;3.569097
2621.000000;3.528262
2620.000000;3.334915
2619.000000;3.032530
2618.000000;2.911293
2617.000000;2.937535
2616.000000;3.085298
2615.000000;3.141084
2614.000000;3.178606
2613.000000;4.131130
2612.000000;3.256677
2611.000000;3.039619
2610.000000;2.895164
2609.000000;2.688713
2608.000000;2.603573
2607.000000;2.635571
2606.000000;2.769249
2605.000000;3.025929
2604.000000;3.333952
2603.000000;3.240370
2602.000000;3.116723
2601.000000;3.072895
2600.000000;3.064263
2599.000000;3.047899
2598.000000;2.979105
2597.000000;2.911899
2596.000000;2.937478
2595.000000;3.134369
2594.000000;3.518695
2593.000000;3.689063
2592.000000;3.549520
2591.000000;3.547629
2590.000000;3.786842
2589.000000;3.938419
2588.000000;3.567614
2587.000000;3.140116
2586.000000;2.962779
2585.000000;2.945295
2584.000000;2.970403
2583.000000;2.959170
2582.000000;2.939081
2581.000000;2.977915
2580.000000;3.073836
2579.000000;3.142053
2578.000000;3.107332
2577.000000;3.220158
2576.000000;3.441720
2575.000000;2.998908
2574.000000;2.792713
2573.000000;2.752243
2572.000000;2.718935
2571.000000;2.675582
2570.000000;2.686474
2569.000000;2.769581
2568.000000;2.919096
2567.000000;3.201920
2566.000000;3.746707
2565.000000;3.428599
2564.000000;3.243994
2563.000000;3.255855
2562.000000;3.281076
2561.000000;3.466296
2560.000000;3.283174
2559.000000;3.117007
2558.000000;3.227961
2557.000000;3.877622
2556.000000;3.564516
2555.000000;3.442104
2554.000000;3.677349
2553.000000;3.580661
2552.000000;3.451008
2551.000000;3.406298
2550.000000;3.345472
2549.000000;3.331750
2548.000000;3.502350
2547.000000;3.914275
2546.000000;3.478803
2545.000000;3.111016
2544.000000;2.966533
2543.000000;2.948724
2542.000000;3.067898
2541.000000;3.329108
2540.000000;3.389885
2539.000000;3.278092
2538.000000;3.659975
2537.000000;3.623732
2536.000000;3.181848
2535.000000;3.074423
2534.000000;3.094453
2533.000000;3.183770
2532.000000;3.166780
2531.000000;3.133339
2530.000000;3.275114
2529.000000;3.572499
2528.000000;3.665624
2527.000000;3.312888
2526.000000;3.156681
2525.000000;3.166190
2524.000000;3.073787
2523.000000;2.932587
2522.000000;2.849461
2521.000000;2.790023
2520.000000;2.762350
2519.000000;2.779447
2518.000000;2.830286
2517.000000;2.901482
2516.000000;3.001445
2515.000000;3.203643
2514.000000;3.644340
2513.000000;3.712631
2512.000000;3.250307
2511.000000;3.027158
2510.000000;2.952435
2509.000000;2.944415
2508.000000;2.976502
2507.000000;3.107772
2506.000000;3.511751
2505.000000;3.185796
2504.000000;2.906950
2503.000000;2.913685
2502.000000;3.054888
2501.000000;3.107280
2500.000000;3.203203
2499.000000;3.617350
2498.000000;3.486169
2497.000000;3.129079
2496.000000;2.982263
2495.000000;2.912932
2494.000000;2.907208
2493.000000;2.945511
2492.000000;3.023012
2491.000000;3.091419
2490.000000;3.080590
2489.000000;3.105924
2488.000000;3.093437
2487.000000;2.978225
2486.000000;2.971106
2485.000000;3.107038
2484.000000;3.282209
2483.000000;3.328092
2482.000000;3.176299
2481.000000;3.005899
2480.000000;2.902610
2479.000000;2.855701
2478.000000;2.807349
2477.000000;2.826721
2476.000000;2.980206
2475.000000;2.945071
2474.000000;2.841766
2473.000000;3.029536
2472.000000;3.358272
2471.000000;3.321128
2470.000000;3.658573
2469.000000;3.539267
2468.000000;3.363209
2467.000000;3.128661
2466.000000;2.892546
2465.000000;2.809782
2464.000000;2.778959
2463.000000;2.807446
2462.000000;3.079221
2461.000000;3.410301
2460.000000;3.083895
2459.000000;3.021362
2458.000000;3.107428
2457.000000;3.018558
2456.000000;2.968945
2455.000000;3.047268
2454.000000;2.985368
2453.000000;2.866310
2452.000000;2.921985
2451.000000;3.083183
2450.000000;2.965400
2449.000000;2.833866
2448.000000;2.938475
2447.000000;3.061460
2446.000000;2.739784
2445.000000;2.562235
2444.000000;2.558680
2443.000000;2.682667
2442.000000;3.105291
2441.000000;3.811643
2440.000000;3.239873
2439.000000;3.368740
2438.000000;3.385065
2437.000000;3.201976
2436.000000;3.029970
2435.000000;2.864209
2434.000000;2.804434
2433.000000;2.826530
2432.000000;2.859351
2431.000000;2.850723
2430.000000;2.864241
2429.000000;3.011290
2428.000000;3.575744
2427.000000;3.278232
2426.000000;2.899615
2425.000000;2.761721
2424.000000;2.717647
2423.000000;2.794038
2422.000000;3.019347
2421.000000;3.185691
2420.000000;2.990876
2419.000000;2.924981
2418.000000;3.013926
2417.000000;3.124622
2416.000000;3.129708
2415.000000;3.097466
2414.000000;3.119321
2413.000000;3.236258
2412.000000;3.600791
2411.000000;3.521596
2410.000000;3.109338
2409.000000;2.937815
2408.000000;2.849739
2407.000000;2.843917
2406.000000;2.911766
2405.000000;2.989573
2404.000000;3.011442
2403.000000;3.017548
2402.000000;3.099994
2401.000000;3.152273
2400.000000;3.067853
2399.000000;2.992056
2398.000000;3.047773
2397.000000;3.059871
2396.000000;2.933854
2395.000000;2.911262
2394.000000;3.185125
2393.000000;3.989959
2392.000000;3.196146
2391.000000;2.903544
2390.000000;2.798280
2389.000000;2.801451
2388.000000;2.875965
2387.000000;3.168428
2386.000000;3.402833
2385.000000;2.848450
2384.000000;2.680383
2383.000000;2.677509
2382.000000;2.786939
2381.000000;2.959683
2380.000000;2.972302
2379.000000;2.849897
2378.000000;2.765469
2377.000000;2.673930
2376.000000;2.584932
2375.000000;2.588566
2374.000000;2.658684
2373.000000;2.684811
2372.000000;2.657360
2371.000000;2.650512
2370.000000;2.653409
2369.000000;2.628806
2368.000000;2.599485
2367.000000;2.560935
2366.000000;2.651379
2365.000000;3.012195
2364.000000;2.896545
2363.000000;2.647550
2362.000000;2.552014
2361.000000;2.505176
2360.000000;2.622195
2359.000000;2.763961
2358.000000;2.633825
2357.000000;2.483486
2356.000000;2.466353
2355.000000;2.988754
2354.000000;3.392333
2353.000000;2.835443
2352.000000;2.847262
2351.000000;2.967251
2350.000000;3.316159
2349.000000;3.783171
2348.000000;3.345730
2347.000000;3.372388
2346.000000;2.693667
2345.000000;2.462833
2344.000000;2.403753
2343.000000;2.363989
2342.000000;2.416387
2341.000000;2.489854
2340.000000;2.529405
2339.000000;2.567663
2338.000000;2.710483
2337.000000;2.813018
2336.000000;2.646205
2335.000000;2.512911
2334.000000;2.483711
2333.000000;2.511525
2332.000000;2.549741
2331.000000;2.547476
2330.000000;2.521751
2329.000000;2.521589
2328.000000;2.581656
2327.000000;2.858704
2326.000000;3.182779
2325.000000;2.757048
2324.000000;2.539203
2323.000000;2.507926
2322.000000;2.580770
2321.000000;2.725292
2320.000000;2.827828
2319.000000;2.888530
2318.000000;2.999867
2317.000000;3.085674
2316.000000;2.921273
2315.000000;2.662162
2314.000000;2.466895
2313.000000;2.382934
2312.000000;2.432427
2311.000000;2.633069
2310.000000;2.956020
2309.000000;2.984768
2308.000000;2.779899
2307.000000;2.715106
2306.000000;2.827124
2305.000000;3.188645
2304.000000;3.381523
2303.000000;3.075523
2302.000000;2.799312
2301.000000;2.605748
2300.000000;2.548924
2299.000000;2.621478
2298.000000;2.871273
2297.000000;2.972043
2296.000000;2.775667
2295.000000;2.734387
2294.000000;2.827228
2293.000000;2.979118
2292.000000;3.149983
2291.000000;3.427813
2290.000000;3.334205
2289.000000;3.034110
2288.000000;2.929011
2287.000000;3.022511
2286.000000;3.309054
2285.000000;3.515963
2284.000000;3.330087
2283.000000;2.958483
2282.000000;2.728819
2281.000000;2.646799
2280.000000;2.669675
2279.000000;2.808786
2278.000000;3.210262
2277.000000;3.350084
2276.000000;3.006119
2275.000000;3.021436
2274.000000;3.206304
2273.000000;3.397543
2272.000000;3.375079
2271.000000;3.326548
2270.000000;3.308653
2269.000000;3.163642
2268.000000;3.016731
2267.000000;2.925929
2266.000000;2.923739
2265.000000;3.036456
2264.000000;3.155190
2263.000000;3.081847
2262.000000;2.989639
2261.000000;2.956981
2260.000000;2.995515
2259.000000;3.077087
2258.000000;3.141566
2257.000000;3.310698
2256.000000;3.496714
2255.000000;3.306392
2254.000000;3.049533
2253.000000;2.853619
2252.000000;2.765039
2251.000000;2.772248
2250.000000;2.905417
2249.000000;3.230848
2248.000000;3.141515
2247.000000;2.887849
2246.000000;2.846241
2245.000000;2.860536
2244.000000;2.883642
2243.000000;2.898280
2242.000000;2.912637
2241.000000;2.942809
2240.000000;2.978034
2239.000000;3.000589
2238.000000;2.951996
2237.000000;2.846884
2236.000000;2.743328
2235.000000;2.664485
2234.000000;2.605519
2233.000000;2.586683
2232.000000;2.636770
2231.000000;2.795578
2230.000000;2.900081
2229.000000;2.779334
2228.000000;2.745036
2227.000000;2.847289
2226.000000;2.969939
2225.000000;2.949791
2224.000000;2.824164
2223.000000;2.714356
2222.000000;2.656958
2221.000000;2.682358
2220.000000;2.806779
2219.000000;2.998176
2218.000000;3.115691
2217.000000;3.164084
2216.000000;3.208682
2215.000000;3.186017
2214.000000;3.096369
2213.000000;2.960432
2212.000000;2.869972
2211.000000;2.892482
2210.000000;2.966887
2209.000000;2.969017
2208.000000;3.025915
2207.000000;3.368721
2206.000000;3.342424
2205.000000;3.007713
2204.000000;2.925325
2203.000000;3.111433
2202.000000;3.654943
2201.000000;3.218590
2200.000000;2.907600
2199.000000;2.832991
2198.000000;2.890609
2197.000000;3.183230
2196.000000;3.291646
2195.000000;3.086038
2194.000000;3.249727
2193.000000;3.592138
2192.000000;3.060439
2191.000000;2.767873
2190.000000;2.672974
2189.000000;2.710855
2188.000000;3.070422
2187.000000;3.291443
2186.000000;2.837508
2185.000000;2.684283
2184.000000;2.669852
2183.000000;2.751012
2182.000000;2.944211
2181.000000;3.167684
2180.000000;3.410374
2179.000000;3.661629
2178.000000;3.494354
2177.000000;3.300492
2176.000000;3.234839
2175.000000;3.242295
2174.000000;3.283533
2173.000000;3.275261
2172.000000;3.157361
2171.000000;2.955367
2170.000000;2.786437
2169.000000;2.720453
2168.000000;2.776578
2167.000000;2.969062
2166.000000;3.308157
2165.000000;3.552463
2164.000000;3.454840
2163.000000;3.240332
2162.000000;3.064039
2161.000000;2.967553
2160.000000;2.942805
2159.000000;3.017468
2158.000000;3.283142
2157.000000;3.697373
2156.000000;3.348973
2155.000000;3.097609
2154.000000;2.998548
2153.000000;3.091537
2152.000000;3.437119
2151.000000;3.288207
2150.000000;3.071796
2149.000000;3.054419
2148.000000;3.094702
2147.000000;3.412210
2146.000000;3.878973
2145.000000;3.278219
2144.000000;3.264218
2143.000000;3.357255
2142.000000;3.044559
2141.000000;2.855303
2140.000000;2.835056
2139.000000;2.876827
2138.000000;2.918249
2137.000000;3.150894
2136.000000;3.503901
2135.000000;3.241598
2134.000000;3.224588
2133.000000;3.645268
2132.000000;3.219977
2131.000000;2.853893
2130.000000;2.747462
2129.000000;2.843976
2128.000000;3.236628
2127.000000;3.436827
2126.000000;3.133514
2125.000000;3.209170
2124.000000;3.539444
2123.000000;3.179283
2122.000000;2.981294
2121.000000;2.987838
2120.000000;2.985088
2119.000000;3.085991
2118.000000;3.109427
2117.000000;2.868294
2116.000000;2.788468
2115.000000;2.900780
2114.000000;2.943826
2113.000000;2.854364
2112.000000;2.869301
2111.000000;2.942756
2110.000000;2.870152
2109.000000;2.788628
2108.000000;2.795668
2107.000000;2.883652
2106.000000;2.930043
2105.000000;3.067969
2104.000000;3.375059
2103.000000;3.480123
2102.000000;4.125712
2101.000000;3.262374
2100.000000;3.050344
2099.000000;3.415406
2098.000000;3.261904
2097.000000;2.976330
2096.000000;2.951915
2095.000000;2.983502
2094.000000;2.949553
2093.000000;2.907488
2092.000000;2.955404
2091.000000;3.043186
2090.000000;2.934471
2089.000000;2.784894
2088.000000;2.773653
2087.000000;2.910281
2086.000000;3.223880
2085.000000;3.968372
2084.000000;3.870298
2083.000000;3.578909
2082.000000;3.346549
2081.000000;3.093238
2080.000000;3.124703
2079.000000;2.983769
2078.000000;2.721738
2077.000000;2.645540
2076.000000;2.736611
2075.000000;3.009093
2074.000000;3.336065
2073.000000;3.244820
2072.000000;3.286457
2071.000000;3.459275
2070.000000;3.128762
2069.000000;3.125009
2068.000000;3.435367
2067.000000;3.103094
2066.000000;2.858473
2065.000000;2.798371
2064.000000;2.815136
2063.000000;2.908873
2062.000000;2.984908
2061.000000;2.999559
2060.000000;3.133592
2059.000000;3.347690
2058.000000;3.146470
2057.000000;2.990382
2056.000000;3.124966
2055.000000;3.238039
2054.000000;3.130519
2053.000000;3.132310
2052.000000;3.079774
2051.000000;3.076310
2050.000000;3.162028
2049.000000;3.053006
2048.000000;3.081864
2047.000000;3.494486
2046.000000;3.509774
2045.000000;3.175481
2044.000000;3.023071
2043.000000;2.897129
2042.000000;2.837471
2041.000000;2.835899
2040.000000;2.841576
2039.000000;2.874423
2038.000000;3.088541
2037.000000;3.341727
2036.000000;3.130978
2035.000000;3.077057
2034.000000;3.100729
2033.000000;2.943095
2032.000000;2.778720
2031.000000;2.678587
2030.000000;2.617355
2029.000000;2.586882
2028.000000;2.587172
2027.000000;2.636522
2026.000000;2.765316
2025.000000;3.035130
2024.000000;3.235342
2023.000000;3.055934
2022.000000;2.860409
2021.000000;2.929448
2020.000000;3.357702
2019.000000;3.140692
2018.000000;3.019295
2017.000000;3.197906
2016.000000;3.226554
2015.000000;2.995093
2014.000000;2.775587
2013.000000;2.753291
2012.000000;2.897642
2011.000000;3.366094
2010.000000;4.059298
2009.000000;3.399294
2008.000000;3.448543
2007.000000;3.351421
2006.000000;3.108057
2005.000000;3.023010
2004.000000;2.946621
2003.000000;2.839153
2002.000000;2.714583
2001.000000;2.654178
2000.000000;2.729472
1999.000000;3.015605
1998.000000;3.381768
1997.000000;3.209594
1996.000000;3.269578
1995.000000;3.836953
1994.000000;3.704901
1993.000000;3.453339
1992.000000;3.057617
1991.000000;2.821944
1990.000000;2.787768
1989.000000;2.807742
1988.000000;2.812326
1987.000000;2.858187
1986.000000;3.088346
1985.000000;3.604173
1984.000000;3.641179
1983.000000;3.514760
1982.000000;3.777246
1981.000000;3.943535
1980.000000;3.625278
1979.000000;3.281864
1978.000000;3.129997
1977.000000;3.155697
1976.000000;3.166246
1975.000000;3.059666
1974.000000;3.058077
1973.000000;3.161483
1972.000000;3.076806
1971.000000;2.926234
1970.000000;2.871276
1969.000000;2.923753
1968.000000;3.226073
1967.000000;3.384169
1966.000000;3.034310
1965.000000;2.885701
1964.000000;2.860549
1963.000000;2.913554
1962.000000;3.176792
1961.000000;3.651228
1960.000000;3.196452
1959.000000;3.275230
1958.000000;3.462344
1957.000000;2.926342
1956.000000;2.714208
1955.000000;2.606007
1954.000000;2.579260
1953.000000;2.655850
1952.000000;2.815276
1951.000000;2.869698
1950.000000;2.860419
1949.000000;3.006022
1948.000000;3.252492
1947.000000;4.085676
1946.000000;3.537631
1945.000000;3.019199
1944.000000;2.877813
1943.000000;2.806940
1942.000000;2.812117
1941.000000;2.867927
1940.000000;3.161328
1939.000000;3.295391
1938.000000;2.770847
1937.000000;2.620608
1936.000000;2.676992
1935.000000;2.854135
1934.000000;3.031824
1933.000000;2.951361
1932.000000;2.833819
1931.000000;2.772592
1930.000000;2.782458
1929.000000;2.841940
1928.000000;2.930584
1927.000000;3.154799
1926.000000;3.317925
1925.000000;3.081430
1924.000000;2.935574
1923.000000;2.870153
1922.000000;2.815898
1921.000000;2.773149
1920.000000;2.768180
1919.000000;2.734552
1918.000000;2.695617
1917.000000;2.740338
1916.000000;2.969789
1915.000000;3.409311
1914.000000;3.108019
1913.000000;2.986444
1912.000000;3.022681
1911.000000;2.914618
1910.000000;2.829728
1909.000000;2.812023
1908.000000;2.845403
1907.000000;2.830163
1906.000000;2.794631
1905.000000;2.869978
1904.000000;3.052704
1903.000000;3.140056
1902.000000;3.018370
1901.000000;2.921593
1900.000000;2.939620
1899.000000;2.942774
1898.000000;2.886275
1897.000000;2.943249
1896.000000;2.985976
1895.000000;2.883974
1894.000000;2.820533
1893.000000;2.896106
1892.000000;3.285352
1891.000000;3.340355
1890.000000;3.067412
1889.000000;3.129054
1888.000000;3.355009
1887.000000;3.473790
1886.000000;3.301724
1885.000000;3.203896
1884.000000;3.141621
1883.000000;3.152567
1882.000000;3.331954
1881.000000;3.467891
1880.000000;3.264090
1879.000000;2.985667
1878.000000;2.838322
1877.000000;2.836600
1876.000000;3.037245
1875.000000;3.370033
1874.000000;3.219976
1873.000000;3.051598
1872.000000;2.951662
1871.000000;2.918442
1870.000000;2.941583
1869.000000;2.822710
1868.000000;2.712538
1867.000000;2.736751
1866.000000;2.903982
1865.000000;3.222552
1864.000000;3.278231
1863.000000;3.124689
1862.000000;3.132791
1861.000000;3.230300
1860.000000;3.220132
1859.000000;2.996330
1858.000000;2.803761
1857.000000;2.730390
1856.000000;2.774772
1855.000000;2.854336
1854.000000;2.804058
1853.000000;2.741420
1852.000000;2.825901
1851.000000;3.114857
1850.000000;3.270777
1849.000000;3.167083
1848.000000;3.342547
1847.000000;3.730515
1846.000000;3.576325
1845.000000;3.091824
1844.000000;2.849501
1843.000000;2.781498
1842.000000;2.838813
1841.000000;2.968411
1840.000000;2.964417
1839.000000;2.889522
1838.000000;2.919363
1837.000000;3.038621
1836.000000;3.281116
1835.000000;3.623862
1834.000000;3.672431
1833.000000;3.757670
1832.000000;3.655765
1831.000000;3.212261
1830.000000;2.917376
1829.000000;2.795845
1828.000000;2.810993
1827.000000;2.846597
1826.000000;2.717571
1825.000000;2.623169
1824.000000;2.658040
1823.000000;2.738603
1822.000000;2.794950
1821.000000;2.829363
1820.000000;3.078877
1819.000000;3.424180
1818.000000;3.040267
1817.000000;2.916472
1816.000000;2.936319
1815.000000;2.970966
1814.000000;3.165882
1813.000000;3.360279
1812.000000;3.241405
1811.000000;3.156976
1810.000000;3.186246
1809.000000;3.425246
1808.000000;3.072423
1807.000000;2.797089
1806.000000;2.784936
1805.000000;2.917663
1804.000000;3.071325
1803.000000;3.026862
1802.000000;2.885747
1801.000000;2.780063
1800.000000;2.769904
1799.000000;2.885640
1798.000000;3.314337
1797.000000;4.049010
1796.000000;3.455755
1795.000000;3.266981
1794.000000;2.938227
1793.000000;2.818170
1792.000000;2.897682
1791.000000;3.047766
1790.000000;3.272151
1789.000000;3.610816
1788.000000;3.308306
1787.000000;2.991370
1786.000000;2.980642
1785.000000;3.636447
1784.000000;3.173145
1783.000000;2.798764
1782.000000;2.822957
1781.000000;3.028644
1780.000000;3.376114
1779.000000;3.407123
1778.000000;3.355641
1777.000000;3.516450
1776.000000;3.382965
1775.000000;3.168873
1774.000000;3.087776
1773.000000;3.165988
1772.000000;3.303160
1771.000000;3.605150
1770.000000;3.790192
1769.000000;2.966386
1768.000000;2.764585
1767.000000;2.831833
1766.000000;3.001803
1765.000000;3.200084
1764.000000;3.199446
1763.000000;2.877088
1762.000000;2.732877
1761.000000;2.790594
1760.000000;2.966703
1759.000000;3.256138
1758.000000;3.244474
1757.000000;3.108794
1756.000000;3.375498
1755.000000;3.643715
1754.000000;3.225268
1753.000000;3.081389
1752.000000;3.060141
1751.000000;3.049526
1750.000000;3.081732
1749.000000;3.144585
1748.000000;3.151508
1747.000000;3.021369
1746.000000;2.890317
1745.000000;2.866848
1744.000000;3.033968
1743.000000;3.453283
1742.000000;3.327628
1741.000000;3.071752
1740.000000;3.121986
1739.000000;3.319928
1738.000000;3.323916
1737.000000;3.177517
1736.000000;3.158917
1735.000000;3.360031
1734.000000;4.132413
1733.000000;3.757665
1732.000000;3.191003
1731.000000;3.038340
1730.000000;2.986102
1729.000000;2.965030
1728.000000;3.236663
1727.000000;3.290499
1726.000000;2.857805
1725.000000;2.697808
1724.000000;2.703525
1723.000000;2.821420
1722.000000;2.992965
1721.000000;3.108442
1720.000000;3.127306
1719.000000;3.227156
1718.000000;3.484719
1717.000000;3.223937
1716.000000;2.955716
1715.000000;2.926450
1714.000000;3.141581
1713.000000;3.065144
1712.000000;2.812389
1711.000000;2.827173
1710.000000;2.980956
1709.000000;3.119191
1708.000000;3.072863
1707.000000;3.012300
1706.000000;3.084857
1705.000000;3.173263
1704.000000;3.174891
1703.000000;3.527416
1702.000000;3.259367
1701.000000;2.916970
1700.000000;3.016182
1699.000000;3.262830
1698.000000;3.220145
1697.000000;3.263448
1696.000000;3.513838
1695.000000;3.000758
1694.000000;2.982346
1693.000000;3.119915
1692.000000;3.006810
1691.000000;2.950073
1690.000000;2.942934
1689.000000;2.979633
1688.000000;3.087449
1687.000000;3.420848
1686.000000;3.760895
1685.000000;3.082786
1684.000000;2.834716
1683.000000;2.805551
1682.000000;2.938774
1681.000000;3.407384
1680.000000;3.592693
1679.000000;3.090278
1678.000000;2.960263
1677.000000;3.011690
1676.000000;3.188703
1675.000000;3.183796
1674.000000;3.049628
1673.000000;3.019666
1672.000000;3.078966
1671.000000;3.231576
1670.000000;3.451084
1669.000000;3.142180
1668.000000;3.124392
1667.000000;3.456961
1666.000000;2.945004
1665.000000;2.819605
1664.000000;2.995295
1663.000000;3.026835
1662.000000;2.847520
1661.000000;2.923184
1660.000000;3.112748
1659.000000;3.195292
1658.000000;3.163050
1657.000000;3.097223
1656.000000;3.050410
1655.000000;3.030467
1654.000000;3.037206
1653.000000;3.116888
1652.000000;3.747126
1651.000000;3.650352
1650.000000;3.225180
1649.000000;3.178033
1648.000000;3.186983
1647.000000;3.415101
1646.000000;3.189216
1645.000000;2.920083
1644.000000;2.915114
1643.000000;3.214761
1642.000000;3.585074
1641.000000;3.132316
1640.000000;3.085483
1639.000000;3.155562
1638.000000;3.273202
1637.000000;3.476131
1636.000000;3.394548
1635.000000;3.138983
1634.000000;3.097550
1633.000000;3.084161
1632.000000;3.213070
1631.000000;3.272198
1630.000000;2.919900
1629.000000;2.761831
1628.000000;2.768396
1627.000000;2.872445
1626.000000;2.996761
1625.000000;3.085375
1624.000000;3.105956
1623.000000;2.997788
1622.000000;2.892346
1621.000000;2.852420
1620.000000;2.823535
1619.000000;2.802684
1618.000000;2.824130
1617.000000;2.886573
1616.000000;2.920025
1615.000000;2.928616
1614.000000;2.965564
1613.000000;3.019161
1612.000000;3.171172
1611.000000;3.526312
1610.000000;3.668181
1609.000000;3.218356
1608.000000;2.805108
1607.000000;2.610857
1606.000000;2.575538
1605.000000;2.669377
1604.000000;2.823616
1603.000000;2.898899
1602.000000;2.875580
1601.000000;2.831556
1600.000000;2.776183
1599.000000;2.708143
1598.000000;2.660616
1597.000000;2.679614
1596.000000;2.792023
1595.000000;3.040690
1594.000000;3.479559
1593.000000;3.026501
1592.000000;2.792201
1591.000000;2.760622
1590.000000;2.763278
1589.000000;2.736803
1588.000000;2.725540
1587.000000;2.781696
1586.000000;2.881620
1585.000000;2.952696
1584.000000;3.042082
1583.000000;3.277407
1582.000000;3.545356
1581.000000;3.295953
1580.000000;3.030791
1579.000000;2.938949
1578.000000;3.046639
1577.000000;3.246183
1576.000000;3.013758
1575.000000;2.847934
1574.000000;2.893125
1573.000000;3.120816
1572.000000;3.483077
1571.000000;3.268189
1570.000000;3.241106
1569.000000;3.444941
1568.000000;3.129190
1567.000000;2.982774
1566.000000;3.448098
1565.000000;3.239374
1564.000000;2.912705
1563.000000;2.911939
1562.000000;3.004293
1561.000000;3.039066
1560.000000;3.046779
1559.000000;3.126889
1558.000000;3.137147
1557.000000;2.933176
1556.000000;2.788867
1555.000000;2.819466
1554.000000;3.137763
1553.000000;3.243018
1552.000000;3.418555
1551.000000;3.521026
1550.000000;2.802155
1549.000000;2.764150
1548.000000;2.979640
1547.000000;3.432860
1546.000000;3.091145
1545.000000;2.922423
1544.000000;2.990410
1543.000000;3.173274
1542.000000;3.331686
1541.000000;3.365058
1540.000000;3.399677
1539.000000;3.415184
1538.000000;3.320121
1537.000000;3.217314
1536.000000;3.209685
1535.000000;3.674857
1534.000000;3.339849
1533.000000;3.041837
1532.000000;3.060958
1531.000000;3.377035
1530.000000;3.683219
1529.000000;3.096085
1528.000000;2.997772
1527.000000;2.974342
1526.000000;3.175173
1525.000000;3.549667
1524.000000;3.354066
1523.000000;3.176636
1522.000000;3.051863
1521.000000;2.995876
1520.000000;3.068330
1519.000000;3.206769
1518.000000;3.136193
1517.000000;2.948272
1516.000000;2.879999
1515.000000;2.962653
1514.000000;3.142379
1513.000000;3.069895
1512.000000;3.069980
1511.000000;3.097335
1510.000000;3.094125
1509.000000;3.168109
1508.000000;3.184650
1507.000000;3.116359
1506.000000;3.227296
1505.000000;3.872047
1504.000000;3.585396
1503.000000;3.743154
1502.000000;3.441151
1501.000000;3.039851
1500.000000;2.873606
1499.000000;2.788249
1498.000000;2.866663
1497.000000;3.079842
1496.000000;2.933426
1495.000000;2.798767
1494.000000;2.841870
1493.000000;2.921510
1492.000000;3.053362
1491.000000;3.140529
1490.000000;3.023312
1489.000000;2.972690
1488.000000;3.036962
1487.000000;3.128593
1486.000000;3.413380
1485.000000;4.001655
1484.000000;3.570075
1483.000000;3.228921
1482.000000;3.168588
1481.000000;3.375829
1480.000000;3.611525
1479.000000;3.310020
1478.000000;3.032717
1477.000000;2.989649
1476.000000;3.116881
1475.000000;3.142438
1474.000000;2.947618
1473.000000;2.811523
1472.000000;2.853089
1471.000000;3.162495
1470.000000;3.171713
1469.000000;3.045822
1468.000000;3.278176
1467.000000;2.953321
1466.000000;2.716527
1465.000000;2.727360
1464.000000;2.804540
1463.000000;2.890933
1462.000000;2.912167
1461.000000;2.816831
1460.000000;2.793893
1459.000000;2.898424
1458.000000;3.225416
1457.000000;3.577166
1456.000000;3.100457
1455.000000;2.988830
1454.000000;3.073780
1453.000000;3.565505
1452.000000;3.246800
1451.000000;2.941646
1450.000000;2.836757
1449.000000;2.833509
1448.000000;2.957740
1447.000000;3.157409
1446.000000;3.047230
1445.000000;2.893397
1444.000000;2.889842
1443.000000;2.882879
1442.000000;2.786666
1441.000000;2.778865
1440.000000;2.890714
1439.000000;3.111184
1438.000000;3.167096
1437.000000;3.030179
1436.000000;2.928091
1435.000000;2.916513
1434.000000;3.034233
1433.000000;3.509938
1432.000000;3.656745
1431.000000;3.475483
1430.000000;3.906441
1429.000000;3.171273
1428.000000;2.960212
1427.000000;3.020903
1426.000000;3.562694
1425.000000;3.053082
1424.000000;2.876786
1423.000000;2.834656
1422.000000;2.822576
1421.000000;2.888029
1420.000000;3.109915
1419.000000;3.072483
1418.000000;2.836238
1417.000000;2.798112
1416.000000;2.880403
1415.000000;3.065324
1414.000000;3.511048
1413.000000;3.159234
1412.000000;2.846092
1411.000000;2.912760
1410.000000;3.175138
1409.000000;3.594513
1408.000000;3.880127
1407.000000;3.423378
1406.000000;3.074739
1405.000000;2.928934
1404.000000;2.863210
1403.000000;2.857989
1402.000000;2.967575
1401.000000;3.428403
1400.000000;3.360023
1399.000000;3.054066
1398.000000;2.900765
1397.000000;2.804068
1396.000000;2.857307
1395.000000;3.275152
1394.000000;3.173127
1393.000000;2.895202
1392.000000;3.075275
1391.000000;3.578106
1390.000000;3.268828
1389.000000;3.000733
1388.000000;2.847475
1387.000000;2.757352
1386.000000;2.862956
1385.000000;3.137432
1384.000000;3.141761
1383.000000;3.613378
1382.000000;3.179511
1381.000000;2.853366
1380.000000;2.942705
1379.000000;2.861119
1378.000000;2.675289
1377.000000;2.648054
1376.000000;2.814561
1375.000000;3.161151
1374.000000;3.480616
1373.000000;3.497319
1372.000000;3.531916
1371.000000;2.830424
1370.000000;2.568299
1369.000000;2.509854
1368.000000;2.589384
1367.000000;2.694005
1366.000000;2.708407
1365.000000;2.690241
1364.000000;2.652351
1363.000000;2.613181
1362.000000;2.681786
1361.000000;2.947118
1360.000000;3.133044
1359.000000;2.983677
1358.000000;2.895987
1357.000000;2.841206
1356.000000;2.860062
1355.000000;2.856537
1354.000000;2.750930
1353.000000;2.653094
1352.000000;2.621468
1351.000000;2.684353
1350.000000;2.835738
1349.000000;3.567265
1348.000000;3.057592
1347.000000;2.789329
1346.000000;2.825494
1345.000000;3.146369
1344.000000;3.358581
1343.000000;2.984088
1342.000000;3.047391
1341.000000;3.609204
1340.000000;2.829040
1339.000000;2.564003
1338.000000;2.504096
1337.000000;2.544811
1336.000000;2.608561
1335.000000;2.706293
1334.000000;2.815096
1333.000000;2.981012
1332.000000;3.236785
1331.000000;3.211357
1330.000000;3.372832
1329.000000;3.248359
1328.000000;2.891057
1327.000000;2.743706
1326.000000;2.693061
1325.000000;2.700905
1324.000000;2.790623
1323.000000;2.939484
1322.000000;2.983603
1321.000000;2.780815
1320.000000;2.577711
1319.000000;2.562072
1318.000000;2.817895
1317.000000;4.102577
1316.000000;2.986100
1315.000000;3.029937
1314.000000;3.012988
1313.000000;3.000770
1312.000000;3.123628
1311.000000;2.944679
1310.000000;2.766806
1309.000000;2.661478
1308.000000;2.559162
1307.000000;2.576989
1306.000000;2.742021
1305.000000;2.915514
1304.000000;2.924248
1303.000000;2.815467
1302.000000;2.705700
1301.000000;2.680312
1300.000000;2.728867
1299.000000;2.793299
1298.000000;2.790586
1297.000000;2.735369
1296.000000;2.754390
1295.000000;3.052037
1294.000000;3.257012
1293.000000;3.100174
1292.000000;2.955305
1291.000000;2.760136
1290.000000;2.780846
1289.000000;3.029965
1288.000000;3.603556
1287.000000;3.516997
1286.000000;3.063658
1285.000000;2.948769
1284.000000;3.060047
1283.000000;3.255881
1282.000000;3.204309
1281.000000;3.322896
1280.000000;2.999034
1279.000000;2.685722
1278.000000;2.602468
1277.000000;2.612329
1276.000000;2.646111
1275.000000;2.672665
1274.000000;2.750039
1273.000000;2.900288
1272.000000;2.999218
1271.000000;2.960523
1270.000000;2.876796
1269.000000;2.760513
1268.000000;2.641710
1267.000000;2.588019
1266.000000;2.614890
1265.000000;2.701212
1264.000000;2.851177
1263.000000;2.793035
1262.000000;2.642274
1261.000000;2.700758
1260.000000;2.904124
1259.000000;2.773475
1258.000000;2.609767
1257.000000;2.610897
1256.000000;2.749533
1255.000000;2.880206
1254.000000;2.923839
1253.000000;3.081243
1252.000000;2.999415
1251.000000;2.692596
1250.000000;2.515399
1249.000000;2.472445
1248.000000;2.533960
1247.000000;2.628927
1246.000000;2.623301
1245.000000;2.555692
1244.000000;2.522157
1243.000000;2.558266
1242.000000;2.658096
1241.000000;2.751601
1240.000000;2.832985
1239.000000;2.788390
1238.000000;2.690228
1237.000000;2.708927
1236.000000;2.759967
1235.000000;2.723248
1234.000000;2.665717
1233.000000;2.547069
1232.000000;2.486775
1231.000000;2.585311
1230.000000;2.811530
1229.000000;2.913309
1228.000000;2.848570
1227.000000;2.934847
1226.000000;3.368531
1225.000000;3.116407
1224.000000;2.872927
1223.000000;2.951636
1222.000000;2.847644
1221.000000;2.748091
1220.000000;2.766530
1219.000000;2.719687
1218.000000;2.651041
1217.000000;2.620406
1216.000000;2.574030
1215.000000;2.585341
1214.000000;2.690228
1213.000000;2.815429
1212.000000;3.095322
1211.000000;3.399178
1210.000000;2.861287
1209.000000;2.773821
1208.000000;2.879844
1207.000000;2.942821
1206.000000;2.751078
1205.000000;2.587532
1204.000000;2.616132
1203.000000;2.884250
1202.000000;2.803166
1201.000000;2.586549
1200.000000;2.445477
