Criado como novo conjunto de dados;"e0108.spp","-4244202.7 Secs"
cm-1;Abs
10000.000000;1.009806
9999.000000;1.008683
9998.000000;1.007562
9997.000000;1.006444
9996.000000;1.005330
9995.000000;1.004217
9994.000000;1.003109
9993.000000;1.002000
9992.000000;1.000901
9991.000000;0.999791
9990.000000;0.998714
9989.000000;0.997475
9988.000000;0.995806
9987.000000;0.993855
9986.000000;0.992374
9985.000000;0.992194
9984.000000;0.993206
9983.000000;0.994413
9982.000000;0.994931
9981.000000;0.994718
9980.000000;0.994287
9979.000000;0.994036
9978.000000;0.993986
9977.000000;0.993970
9976.000000;0.993901
9975.000000;0.993855
9974.000000;0.993833
9973.000000;0.993478
9972.000000;0.992269
9971.000000;0.990236
9970.000000;0.988277
9969.000000;0.987314
9968.000000;0.987235
9967.000000;0.987074
9966.000000;0.986263
9965.000000;0.985354
9964.000000;0.985342
9963.000000;0.986541
9962.000000;0.988325
9961.000000;0.989729
9960.000000;0.990144
9959.000000;0.989582
9958.000000;0.988501
9957.000000;0.987394
9956.000000;0.986487
9955.000000;0.985857
9954.000000;0.985706
9953.000000;0.986221
9952.000000;0.987043
9951.000000;0.987201
9950.000000;0.985913
9949.000000;0.983478
9948.000000;0.981096
9947.000000;0.979809
9946.000000;0.979774
9945.000000;0.980410
9944.000000;0.981039
9943.000000;0.981369
9942.000000;0.981488
9941.000000;0.981515
9940.000000;0.981345
9939.000000;0.980832
9938.000000;0.980146
9937.000000;0.979708
9936.000000;0.979713
9935.000000;0.979917
9934.000000;0.980007
9933.000000;0.979950
9932.000000;0.979840
9931.000000;0.979627
9930.000000;0.979250
9929.000000;0.978824
9928.000000;0.978465
9927.000000;0.978048
9926.000000;0.977406
9925.000000;0.976661
9924.000000;0.976050
9923.000000;0.975504
9922.000000;0.974800
9921.000000;0.974082
9920.000000;0.973804
9919.000000;0.974051
9918.000000;0.974350
9917.000000;0.974314
9916.000000;0.974116
9915.000000;0.974041
9914.000000;0.973904
9913.000000;0.973294
9912.000000;0.972248
9911.000000;0.971260
9910.000000;0.970624
9909.000000;0.970105
9908.000000;0.969355
9907.000000;0.968424
9906.000000;0.967662
9905.000000;0.967274
9904.000000;0.967129
9903.000000;0.966947
9902.000000;0.966578
9901.000000;0.966068
9900.000000;0.965540
9899.000000;0.965036
9898.000000;0.964476
9897.000000;0.963770
9896.000000;0.963011
9895.000000;0.962521
9894.000000;0.962588
9893.000000;0.963099
9892.000000;0.963531
9891.000000;0.963475
9890.000000;0.963092
9889.000000;0.962876
9888.000000;0.962993
9887.000000;0.963161
9886.000000;0.963226
9885.000000;0.963508
9884.000000;0.964304
9883.000000;0.965273
9882.000000;0.965692
9881.000000;0.965235
9880.000000;0.964204
9879.000000;0.963006
9878.000000;0.961827
9877.000000;0.960880
9876.000000;0.960564
9875.000000;0.961064
9874.000000;0.961968
9873.000000;0.962493
9872.000000;0.962046
9871.000000;0.960558
9870.000000;0.958510
9869.000000;0.956752
9868.000000;0.955992
9867.000000;0.956223
9866.000000;0.956660
9865.000000;0.956434
9864.000000;0.955407
9863.000000;0.954212
9862.000000;0.953564
9861.000000;0.953688
9860.000000;0.954319
9859.000000;0.954967
9858.000000;0.955140
9857.000000;0.954513
9856.000000;0.953117
9855.000000;0.951459
9854.000000;0.950297
9853.000000;0.950079
9852.000000;0.950528
9851.000000;0.950903
9850.000000;0.950770
9849.000000;0.950399
9848.000000;0.950190
9847.000000;0.949962
9846.000000;0.949198
9845.000000;0.947870
9844.000000;0.946614
9843.000000;0.946027
9842.000000;0.946095
9841.000000;0.946354
9840.000000;0.946316
9839.000000;0.945713
9838.000000;0.944743
9837.000000;0.944175
9836.000000;0.944739
9835.000000;0.946186
9834.000000;0.947259
9833.000000;0.946895
9832.000000;0.945219
9831.000000;0.943178
9830.000000;0.941590
9829.000000;0.940794
9828.000000;0.940795
9827.000000;0.941272
9826.000000;0.941705
9825.000000;0.941873
9824.000000;0.942055
9823.000000;0.942387
9822.000000;0.942351
9821.000000;0.941416
9820.000000;0.939984
9819.000000;0.939053
9818.000000;0.939003
9817.000000;0.939254
9816.000000;0.939122
9815.000000;0.938487
9814.000000;0.937563
9813.000000;0.936601
9812.000000;0.936006
9811.000000;0.936253
9810.000000;0.937320
9809.000000;0.938470
9808.000000;0.938903
9807.000000;0.938506
9806.000000;0.937756
9805.000000;0.937048
9804.000000;0.936304
9803.000000;0.935192
9802.000000;0.933643
9801.000000;0.932155
9800.000000;0.931491
9799.000000;0.931934
9798.000000;0.932960
9797.000000;0.933894
9796.000000;0.934695
9795.000000;0.935685
9794.000000;0.936573
9793.000000;0.936399
9792.000000;0.934686
9791.000000;0.932211
9790.000000;0.930339
9789.000000;0.929831
9788.000000;0.930360
9787.000000;0.930884
9786.000000;0.930439
9785.000000;0.928933
9784.000000;0.927368
9783.000000;0.926980
9782.000000;0.927944
9781.000000;0.929101
9780.000000;0.929142
9779.000000;0.927889
9778.000000;0.926243
9777.000000;0.925179
9776.000000;0.925039
9775.000000;0.925507
9774.000000;0.925964
9773.000000;0.925992
9772.000000;0.925720
9771.000000;0.925598
9770.000000;0.925787
9769.000000;0.925950
9768.000000;0.925697
9767.000000;0.924975
9766.000000;0.923975
9765.000000;0.923007
9764.000000;0.922540
9763.000000;0.922909
9762.000000;0.923754
9761.000000;0.924139
9760.000000;0.923628
9759.000000;0.922872
9758.000000;0.922732
9757.000000;0.923126
9756.000000;0.923263
9755.000000;0.922799
9754.000000;0.922257
9753.000000;0.922286
9752.000000;0.922942
9751.000000;0.923722
9750.000000;0.923970
9749.000000;0.923226
9748.000000;0.921498
9747.000000;0.919348
9746.000000;0.917551
9745.000000;0.916611
9744.000000;0.916541
9743.000000;0.916886
9742.000000;0.916897
9741.000000;0.916064
9740.000000;0.914747
9739.000000;0.913973
9738.000000;0.914278
9737.000000;0.914993
9736.000000;0.915005
9735.000000;0.914024
9734.000000;0.912688
9733.000000;0.911706
9732.000000;0.911417
9731.000000;0.911976
9730.000000;0.913224
9729.000000;0.914350
9728.000000;0.914332
9727.000000;0.912951
9726.000000;0.910924
9725.000000;0.909026
9724.000000;0.907716
9723.000000;0.907563
9722.000000;0.909093
9721.000000;0.911754
9720.000000;0.913764
9719.000000;0.913789
9718.000000;0.912421
9717.000000;0.911338
9716.000000;0.911262
9715.000000;0.911440
9714.000000;0.910951
9713.000000;0.909794
9712.000000;0.908584
9711.000000;0.907713
9710.000000;0.907148
9709.000000;0.906743
9708.000000;0.906460
9707.000000;0.906352
9706.000000;0.906441
9705.000000;0.906628
9704.000000;0.906724
9703.000000;0.906646
9702.000000;0.906476
9701.000000;0.906282
9700.000000;0.905973
9699.000000;0.905461
9698.000000;0.904807
9697.000000;0.904022
9696.000000;0.902940
9695.000000;0.901559
9694.000000;0.900400
9693.000000;0.900156
9692.000000;0.900943
9691.000000;0.902111
9690.000000;0.902813
9689.000000;0.902635
9688.000000;0.901733
9687.000000;0.900604
9686.000000;0.899778
9685.000000;0.899524
9684.000000;0.899772
9683.000000;0.900332
9682.000000;0.901103
9681.000000;0.901868
9680.000000;0.902085
9679.000000;0.901276
9678.000000;0.899680
9677.000000;0.898203
9676.000000;0.897536
9675.000000;0.897531
9674.000000;0.897507
9673.000000;0.896988
9672.000000;0.896009
9671.000000;0.894944
9670.000000;0.894245
9669.000000;0.894168
9668.000000;0.894472
9667.000000;0.894510
9666.000000;0.893862
9665.000000;0.892845
9664.000000;0.892164
9663.000000;0.892148
9662.000000;0.892555
9661.000000;0.893046
9660.000000;0.893493
9659.000000;0.893748
9658.000000;0.893458
9657.000000;0.892446
9656.000000;0.891105
9655.000000;0.890111
9654.000000;0.889738
9653.000000;0.889699
9652.000000;0.889677
9651.000000;0.889675
9650.000000;0.889685
9649.000000;0.889339
9648.000000;0.888305
9647.000000;0.886973
9646.000000;0.886272
9645.000000;0.886646
9644.000000;0.887524
9643.000000;0.888084
9642.000000;0.888284
9641.000000;0.888711
9640.000000;0.889553
9639.000000;0.890207
9638.000000;0.889998
9637.000000;0.888907
9636.000000;0.887432
9635.000000;0.886082
9634.000000;0.885215
9633.000000;0.885078
9632.000000;0.885616
9631.000000;0.886341
9630.000000;0.886682
9629.000000;0.886502
9628.000000;0.886091
9627.000000;0.885668
9626.000000;0.885159
9625.000000;0.884448
9624.000000;0.883583
9623.000000;0.882655
9622.000000;0.881637
9621.000000;0.880526
9620.000000;0.879600
9619.000000;0.879325
9618.000000;0.879917
9617.000000;0.880971
9616.000000;0.881625
9615.000000;0.881264
9614.000000;0.880083
9613.000000;0.878817
9612.000000;0.877893
9611.000000;0.877078
9610.000000;0.876059
9609.000000;0.875054
9608.000000;0.874543
9607.000000;0.874602
9606.000000;0.874899
9605.000000;0.875255
9604.000000;0.875775
9603.000000;0.876400
9602.000000;0.876763
9601.000000;0.876680
9600.000000;0.876422
9599.000000;0.876329
9598.000000;0.876399
9597.000000;0.876481
9596.000000;0.876548
9595.000000;0.876541
9594.000000;0.876234
9593.000000;0.875543
9592.000000;0.874760
9591.000000;0.874134
9590.000000;0.873433
9589.000000;0.872315
9588.000000;0.870936
9587.000000;0.869839
9586.000000;0.869359
9585.000000;0.869524
9584.000000;0.870407
9583.000000;0.872011
9582.000000;0.873716
9581.000000;0.874393
9580.000000;0.873471
9579.000000;0.871638
9578.000000;0.870215
9577.000000;0.869974
9576.000000;0.870644
9575.000000;0.871276
9574.000000;0.871005
9573.000000;0.869738
9572.000000;0.868291
9571.000000;0.867610
9570.000000;0.867704
9569.000000;0.867629
9568.000000;0.866712
9567.000000;0.865393
9566.000000;0.864501
9565.000000;0.864151
9564.000000;0.863996
9563.000000;0.864235
9562.000000;0.865471
9561.000000;0.867461
9560.000000;0.868849
9559.000000;0.868671
9558.000000;0.867547
9557.000000;0.866804
9556.000000;0.866797
9555.000000;0.866741
9554.000000;0.866016
9553.000000;0.864927
9552.000000;0.864042
9551.000000;0.863353
9550.000000;0.862441
9549.000000;0.861218
9548.000000;0.860161
9547.000000;0.859847
9546.000000;0.860361
9545.000000;0.861129
9544.000000;0.861347
9543.000000;0.860696
9542.000000;0.859657
9541.000000;0.858971
9540.000000;0.858863
9539.000000;0.859025
9538.000000;0.859297
9537.000000;0.859918
9536.000000;0.860946
9535.000000;0.861814
9534.000000;0.861871
9533.000000;0.861205
9532.000000;0.860543
9531.000000;0.860337
9530.000000;0.860273
9529.000000;0.859759
9528.000000;0.858677
9527.000000;0.857513
9526.000000;0.856841
9525.000000;0.856751
9524.000000;0.856775
9523.000000;0.856341
9522.000000;0.855312
9521.000000;0.854045
9520.000000;0.852913
9519.000000;0.851996
9518.000000;0.851326
9517.000000;0.851188
9516.000000;0.851884
9515.000000;0.853236
9514.000000;0.854599
9513.000000;0.855372
9512.000000;0.855386
9511.000000;0.854860
9510.000000;0.854228
9509.000000;0.854000
9508.000000;0.854406
9507.000000;0.855032
9506.000000;0.855059
9505.000000;0.854069
9504.000000;0.852475
9503.000000;0.851077
9502.000000;0.850367
9501.000000;0.850367
9500.000000;0.850865
9499.000000;0.851537
9498.000000;0.851985
9497.000000;0.851948
9496.000000;0.851522
9495.000000;0.851057
9494.000000;0.850821
9493.000000;0.850824
9492.000000;0.850902
9491.000000;0.850870
9490.000000;0.850674
9489.000000;0.850474
9488.000000;0.850492
9487.000000;0.850671
9486.000000;0.850582
9485.000000;0.849840
9484.000000;0.848567
9483.000000;0.847301
9482.000000;0.846456
9481.000000;0.846011
9480.000000;0.845728
9479.000000;0.845509
9478.000000;0.845436
9477.000000;0.845532
9476.000000;0.845649
9475.000000;0.845694
9474.000000;0.845839
9473.000000;0.846273
9472.000000;0.846701
9471.000000;0.846405
9470.000000;0.845062
9469.000000;0.843337
9468.000000;0.842290
9467.000000;0.842261
9466.000000;0.842667
9465.000000;0.842872
9464.000000;0.842813
9463.000000;0.842673
9462.000000;0.842435
9461.000000;0.842095
9460.000000;0.841952
9459.000000;0.842290
9458.000000;0.842927
9457.000000;0.843407
9456.000000;0.843498
9455.000000;0.843277
9454.000000;0.842826
9453.000000;0.842146
9452.000000;0.841277
9451.000000;0.840281
9450.000000;0.839221
9449.000000;0.838285
9448.000000;0.837746
9447.000000;0.837577
9446.000000;0.837339
9445.000000;0.836783
9444.000000;0.836342
9443.000000;0.836563
9442.000000;0.837210
9441.000000;0.837450
9440.000000;0.836969
9439.000000;0.836403
9438.000000;0.836473
9437.000000;0.837121
9436.000000;0.837708
9435.000000;0.837769
9434.000000;0.837321
9433.000000;0.836629
9432.000000;0.835956
9431.000000;0.835433
9430.000000;0.835002
9429.000000;0.834514
9428.000000;0.833974
9427.000000;0.833622
9426.000000;0.833742
9425.000000;0.834429
9424.000000;0.835497
9423.000000;0.836482
9422.000000;0.836846
9421.000000;0.836407
9420.000000;0.835557
9419.000000;0.834865
9418.000000;0.834546
9417.000000;0.834483
9416.000000;0.834614
9415.000000;0.834872
9414.000000;0.834818
9413.000000;0.833890
9412.000000;0.832205
9411.000000;0.830681
9410.000000;0.830044
9409.000000;0.830046
9408.000000;0.829979
9407.000000;0.829659
9406.000000;0.829481
9405.000000;0.829662
9404.000000;0.829900
9403.000000;0.829883
9402.000000;0.829769
9401.000000;0.829946
9400.000000;0.830425
9399.000000;0.830674
9398.000000;0.830141
9397.000000;0.828896
9396.000000;0.827637
9395.000000;0.827028
9394.000000;0.827120
9393.000000;0.827500
9392.000000;0.827830
9391.000000;0.828062
9390.000000;0.828233
9389.000000;0.828330
9388.000000;0.828362
9387.000000;0.828281
9386.000000;0.827877
9385.000000;0.827080
9384.000000;0.826367
9383.000000;0.826437
9382.000000;0.827353
9381.000000;0.828329
9380.000000;0.828546
9379.000000;0.827895
9378.000000;0.826804
9377.000000;0.825720
9376.000000;0.825002
9375.000000;0.824892
9374.000000;0.825208
9373.000000;0.825349
9372.000000;0.825004
9371.000000;0.824579
9370.000000;0.824584
9369.000000;0.824855
9368.000000;0.824833
9367.000000;0.824387
9366.000000;0.823832
9365.000000;0.823280
9364.000000;0.822530
9363.000000;0.821646
9362.000000;0.821113
9361.000000;0.821246
9360.000000;0.821760
9359.000000;0.822117
9358.000000;0.822032
9357.000000;0.821553
9356.000000;0.820877
9355.000000;0.820200
9354.000000;0.819568
9353.000000;0.818867
9352.000000;0.818095
9351.000000;0.817529
9350.000000;0.817384
9349.000000;0.817380
9348.000000;0.817012
9347.000000;0.816262
9346.000000;0.815699
9345.000000;0.815787
9344.000000;0.816422
9343.000000;0.817242
9342.000000;0.818020
9341.000000;0.818596
9340.000000;0.818799
9339.000000;0.818646
9338.000000;0.818369
9337.000000;0.818058
9336.000000;0.817510
9335.000000;0.816597
9334.000000;0.815564
9333.000000;0.814787
9332.000000;0.814422
9331.000000;0.814413
9330.000000;0.814605
9329.000000;0.814696
9328.000000;0.814388
9327.000000;0.813778
9326.000000;0.813350
9325.000000;0.813375
9324.000000;0.813584
9323.000000;0.813660
9322.000000;0.813740
9321.000000;0.814063
9320.000000;0.814400
9319.000000;0.814280
9318.000000;0.813675
9317.000000;0.813012
9316.000000;0.812575
9315.000000;0.812314
9314.000000;0.812208
9313.000000;0.812361
9312.000000;0.812658
9311.000000;0.812724
9310.000000;0.812383
9309.000000;0.811833
9308.000000;0.811287
9307.000000;0.810787
9306.000000;0.810494
9305.000000;0.810776
9304.000000;0.811711
9303.000000;0.812765
9302.000000;0.813238
9301.000000;0.812908
9300.000000;0.812029
9299.000000;0.810933
9298.000000;0.809915
9297.000000;0.809366
9296.000000;0.809603
9295.000000;0.810499
9294.000000;0.811476
9293.000000;0.811887
9292.000000;0.811374
9291.000000;0.810015
9290.000000;0.808353
9289.000000;0.807171
9288.000000;0.806938
9287.000000;0.807451
9286.000000;0.808177
9285.000000;0.808853
9284.000000;0.809491
9283.000000;0.809909
9282.000000;0.809699
9281.000000;0.808795
9280.000000;0.807688
9279.000000;0.806856
9278.000000;0.806267
9277.000000;0.805704
9276.000000;0.805320
9275.000000;0.805517
9274.000000;0.806328
9273.000000;0.807243
9272.000000;0.807682
9271.000000;0.807465
9270.000000;0.806840
9269.000000;0.806268
9268.000000;0.806165
9267.000000;0.806619
9266.000000;0.807226
9265.000000;0.807328
9264.000000;0.806542
9263.000000;0.805085
9262.000000;0.803630
9261.000000;0.802922
9260.000000;0.803392
9259.000000;0.804852
9258.000000;0.806475
9257.000000;0.807285
9256.000000;0.806862
9255.000000;0.805563
9254.000000;0.804071
9253.000000;0.802902
9252.000000;0.802313
9251.000000;0.802375
9250.000000;0.802885
9249.000000;0.803340
9248.000000;0.803256
9247.000000;0.802551
9246.000000;0.801538
9245.000000;0.800607
9244.000000;0.800012
9243.000000;0.799865
9242.000000;0.800155
9241.000000;0.800731
9240.000000;0.801357
9239.000000;0.801803
9238.000000;0.801914
9237.000000;0.801706
9236.000000;0.801457
9235.000000;0.801556
9234.000000;0.802091
9233.000000;0.802618
9232.000000;0.802541
9231.000000;0.801725
9230.000000;0.800602
9229.000000;0.799675
9228.000000;0.799105
9227.000000;0.798804
9226.000000;0.798690
9225.000000;0.798696
9224.000000;0.798662
9223.000000;0.798444
9222.000000;0.798112
9221.000000;0.797874
9220.000000;0.797801
9219.000000;0.797753
9218.000000;0.797630
9217.000000;0.797549
9216.000000;0.797648
9215.000000;0.797803
9214.000000;0.797709
9213.000000;0.797263
9212.000000;0.796739
9211.000000;0.796517
9210.000000;0.796683
9209.000000;0.796965
9208.000000;0.797027
9207.000000;0.796793
9206.000000;0.796471
9205.000000;0.796302
9204.000000;0.796310
9203.000000;0.796312
9202.000000;0.796189
9201.000000;0.796087
9200.000000;0.796258
9199.000000;0.796669
9198.000000;0.796936
9197.000000;0.796752
9196.000000;0.796285
9195.000000;0.795957
9194.000000;0.795908
9193.000000;0.795867
9192.000000;0.795546
9191.000000;0.794950
9190.000000;0.794294
9189.000000;0.793802
9188.000000;0.793648
9187.000000;0.793866
9186.000000;0.794191
9185.000000;0.794220
9184.000000;0.793908
9183.000000;0.793686
9182.000000;0.793877
9181.000000;0.794184
9180.000000;0.794071
9179.000000;0.793549
9178.000000;0.793191
9177.000000;0.793328
9176.000000;0.793623
9175.000000;0.793599
9174.000000;0.793312
9173.000000;0.793175
9172.000000;0.793284
9171.000000;0.793232
9170.000000;0.792645
9169.000000;0.791649
9168.000000;0.790698
9167.000000;0.790082
9166.000000;0.789759
9165.000000;0.789591
9164.000000;0.789531
9163.000000;0.789529
9162.000000;0.789431
9161.000000;0.789135
9160.000000;0.788805
9159.000000;0.788733
9158.000000;0.788942
9157.000000;0.789092
9156.000000;0.788850
9155.000000;0.788269
9154.000000;0.787726
9153.000000;0.787621
9152.000000;0.788157
9151.000000;0.789198
9150.000000;0.790207
9149.000000;0.790522
9148.000000;0.789948
9147.000000;0.788984
9146.000000;0.788257
9145.000000;0.787837
9144.000000;0.787361
9143.000000;0.786671
9142.000000;0.785978
9141.000000;0.785379
9140.000000;0.784683
9139.000000;0.783857
9138.000000;0.783304
9137.000000;0.783420
9136.000000;0.784108
9135.000000;0.784994
9134.000000;0.785945
9133.000000;0.787061
9132.000000;0.788253
9131.000000;0.789116
9130.000000;0.789275
9129.000000;0.788684
9128.000000;0.787610
9127.000000;0.786518
9126.000000;0.785897
9125.000000;0.785949
9124.000000;0.786351
9123.000000;0.786502
9122.000000;0.786076
9121.000000;0.785239
9120.000000;0.784353
9119.000000;0.783642
9118.000000;0.783177
9117.000000;0.782977
9116.000000;0.782986
9115.000000;0.783083
9114.000000;0.783214
9113.000000;0.783402
9112.000000;0.783555
9111.000000;0.783416
9110.000000;0.782888
9109.000000;0.782283
9108.000000;0.782038
9107.000000;0.782205
9106.000000;0.782438
9105.000000;0.782498
9104.000000;0.782542
9103.000000;0.782826
9102.000000;0.783305
9101.000000;0.783673
9100.000000;0.783719
9099.000000;0.783517
9098.000000;0.783303
9097.000000;0.783268
9096.000000;0.783427
9095.000000;0.783563
9094.000000;0.783335
9093.000000;0.782543
9092.000000;0.781333
9091.000000;0.780102
9090.000000;0.779252
9089.000000;0.779060
9088.000000;0.779651
9087.000000;0.780859
9086.000000;0.782122
9085.000000;0.782750
9084.000000;0.782468
9083.000000;0.781641
9082.000000;0.780921
9081.000000;0.780732
9080.000000;0.781075
9079.000000;0.781651
9078.000000;0.782061
9077.000000;0.782010
9076.000000;0.781511
9075.000000;0.780859
9074.000000;0.780308
9073.000000;0.779793
9072.000000;0.779064
9071.000000;0.778076
9070.000000;0.777128
9069.000000;0.776619
9068.000000;0.776738
9067.000000;0.777387
9066.000000;0.778288
9065.000000;0.779132
9064.000000;0.779686
9063.000000;0.779825
9062.000000;0.779535
9061.000000;0.778953
9060.000000;0.778387
9059.000000;0.778154
9058.000000;0.778289
9057.000000;0.778497
9056.000000;0.778450
9055.000000;0.778064
9054.000000;0.777421
9053.000000;0.776591
9052.000000;0.775745
9051.000000;0.775271
9050.000000;0.775467
9049.000000;0.776102
9048.000000;0.776566
9047.000000;0.776551
9046.000000;0.776353
9045.000000;0.776418
9044.000000;0.776819
9043.000000;0.777346
9042.000000;0.777851
9041.000000;0.778243
9040.000000;0.778286
9039.000000;0.777739
9038.000000;0.776755
9037.000000;0.775899
9036.000000;0.775617
9035.000000;0.775801
9034.000000;0.775945
9033.000000;0.775694
9032.000000;0.775159
9031.000000;0.774708
9030.000000;0.774531
9029.000000;0.774478
9028.000000;0.774284
9027.000000;0.773909
9026.000000;0.773561
9025.000000;0.773437
9024.000000;0.773529
9023.000000;0.773695
9022.000000;0.773824
9021.000000;0.773894
9020.000000;0.773896
9019.000000;0.773780
9018.000000;0.773515
9017.000000;0.773242
9016.000000;0.773316
9015.000000;0.774023
9014.000000;0.775125
9013.000000;0.775851
9012.000000;0.775595
9011.000000;0.774585
9010.000000;0.773609
9009.000000;0.773094
9008.000000;0.772791
9007.000000;0.772446
9006.000000;0.772363
9005.000000;0.772987
9004.000000;0.774166
9003.000000;0.775186
9002.000000;0.775484
9001.000000;0.775048
9000.000000;0.774164
8999.000000;0.773081
8998.000000;0.772013
8997.000000;0.771209
8996.000000;0.770821
8995.000000;0.770781
8994.000000;0.770899
8993.000000;0.771022
8992.000000;0.771096
8991.000000;0.771142
8990.000000;0.771197
8989.000000;0.771234
8988.000000;0.771212
8987.000000;0.771267
8986.000000;0.771690
8985.000000;0.772504
8984.000000;0.773164
8983.000000;0.773017
8982.000000;0.772101
8981.000000;0.771185
8980.000000;0.770890
8979.000000;0.771101
8978.000000;0.771374
8977.000000;0.771592
8976.000000;0.771901
8975.000000;0.772225
8974.000000;0.772273
8973.000000;0.772013
8972.000000;0.771777
8971.000000;0.771789
8970.000000;0.771885
8969.000000;0.771812
8968.000000;0.771581
8967.000000;0.771365
8966.000000;0.771223
8965.000000;0.771140
8964.000000;0.771202
8963.000000;0.771484
8962.000000;0.771763
8961.000000;0.771616
8960.000000;0.770884
8959.000000;0.769910
8958.000000;0.769229
8957.000000;0.769098
8956.000000;0.769385
8955.000000;0.769780
8954.000000;0.769975
8953.000000;0.769761
8952.000000;0.769166
8951.000000;0.768556
8950.000000;0.768421
8949.000000;0.768906
8948.000000;0.769613
8947.000000;0.769963
8946.000000;0.769734
8945.000000;0.769179
8944.000000;0.768693
8943.000000;0.768489
8942.000000;0.768608
8941.000000;0.769035
8940.000000;0.769662
8939.000000;0.770181
8938.000000;0.770233
8937.000000;0.769784
8936.000000;0.769269
8935.000000;0.769206
8934.000000;0.769630
8933.000000;0.770020
8932.000000;0.769854
8931.000000;0.769132
8930.000000;0.768285
8929.000000;0.767699
8928.000000;0.767478
8927.000000;0.767594
8926.000000;0.767994
8925.000000;0.768476
8924.000000;0.768675
8923.000000;0.768378
8922.000000;0.767807
8921.000000;0.767449
8920.000000;0.767588
8919.000000;0.768060
8918.000000;0.768470
8917.000000;0.768534
8916.000000;0.768229
8915.000000;0.767748
8914.000000;0.767354
8913.000000;0.767200
8912.000000;0.767256
8911.000000;0.767423
8910.000000;0.767677
8909.000000;0.768024
8908.000000;0.768343
8907.000000;0.768420
8906.000000;0.768161
8905.000000;0.767654
8904.000000;0.766996
8903.000000;0.766242
8902.000000;0.765594
8901.000000;0.765428
8900.000000;0.765923
8899.000000;0.766751
8898.000000;0.767399
8897.000000;0.767777
8896.000000;0.768221
8895.000000;0.768831
8894.000000;0.769154
8893.000000;0.768776
8892.000000;0.767975
8891.000000;0.767430
8890.000000;0.767364
8889.000000;0.767315
8888.000000;0.766813
8887.000000;0.765956
8886.000000;0.765182
8885.000000;0.764778
8884.000000;0.764820
8883.000000;0.765305
8882.000000;0.766070
8881.000000;0.766716
8880.000000;0.766932
8879.000000;0.766830
8878.000000;0.766695
8877.000000;0.766502
8876.000000;0.766052
8875.000000;0.765536
8874.000000;0.765513
8873.000000;0.766156
8872.000000;0.766937
8871.000000;0.767302
8870.000000;0.767362
8869.000000;0.767566
8868.000000;0.767947
8867.000000;0.768099
8866.000000;0.767821
8865.000000;0.767404
8864.000000;0.767188
8863.000000;0.767138
8862.000000;0.766984
8861.000000;0.766612
8860.000000;0.766209
8859.000000;0.766089
8858.000000;0.766378
8857.000000;0.766817
8856.000000;0.766935
8855.000000;0.766532
8854.000000;0.765912
8853.000000;0.765496
8852.000000;0.765305
8851.000000;0.765081
8850.000000;0.764832
8849.000000;0.764924
8848.000000;0.765525
8847.000000;0.766278
8846.000000;0.766721
8845.000000;0.766829
8844.000000;0.766922
8843.000000;0.767225
8842.000000;0.767743
8841.000000;0.768451
8840.000000;0.769297
8839.000000;0.770015
8838.000000;0.770171
8837.000000;0.769532
8836.000000;0.768340
8835.000000;0.767177
8834.000000;0.766575
8833.000000;0.766687
8832.000000;0.767213
8831.000000;0.767637
8830.000000;0.767638
8829.000000;0.767318
8828.000000;0.767026
8827.000000;0.766978
8826.000000;0.767098
8825.000000;0.767193
8824.000000;0.767157
8823.000000;0.767004
8822.000000;0.766774
8821.000000;0.766529
8820.000000;0.766386
8819.000000;0.766482
8818.000000;0.766848
8817.000000;0.767314
8816.000000;0.767584
8815.000000;0.767448
8814.000000;0.766972
8813.000000;0.766482
8812.000000;0.766367
8811.000000;0.766845
8810.000000;0.767834
8809.000000;0.768963
8808.000000;0.769740
8807.000000;0.769845
8806.000000;0.769336
8805.000000;0.768590
8804.000000;0.768007
8803.000000;0.767828
8802.000000;0.768156
8801.000000;0.768989
8800.000000;0.770115
8799.000000;0.771084
8798.000000;0.771488
8797.000000;0.771341
8796.000000;0.771049
8795.000000;0.770973
8794.000000;0.771068
8793.000000;0.771049
8792.000000;0.770804
8791.000000;0.770516
8790.000000;0.770374
8789.000000;0.770297
8788.000000;0.770045
8787.000000;0.769540
8786.000000;0.768999
8785.000000;0.768744
8784.000000;0.768945
8783.000000;0.769530
8782.000000;0.770274
8781.000000;0.770965
8780.000000;0.771528
8779.000000;0.772000
8778.000000;0.772389
8777.000000;0.772606
8776.000000;0.772597
8775.000000;0.772488
8774.000000;0.772499
8773.000000;0.772715
8772.000000;0.773049
8771.000000;0.773405
8770.000000;0.773703
8769.000000;0.773782
8768.000000;0.773490
8767.000000;0.772971
8766.000000;0.772634
8765.000000;0.772673
8764.000000;0.772816
8763.000000;0.772777
8762.000000;0.772754
8761.000000;0.773175
8760.000000;0.774037
8759.000000;0.774879
8758.000000;0.775426
8757.000000;0.775892
8756.000000;0.776495
8755.000000;0.777004
8754.000000;0.777043
8753.000000;0.776638
8752.000000;0.776199
8751.000000;0.776039
8750.000000;0.776184
8749.000000;0.776554
8748.000000;0.777100
8747.000000;0.777714
8746.000000;0.778213
8745.000000;0.778479
8744.000000;0.778526
8743.000000;0.778392
8742.000000;0.778096
8741.000000;0.777723
8740.000000;0.777420
8739.000000;0.777243
8738.000000;0.777095
8737.000000;0.776928
8736.000000;0.776952
8735.000000;0.777508
8734.000000;0.778676
8733.000000;0.780039
8732.000000;0.780887
8731.000000;0.780741
8730.000000;0.779728
8729.000000;0.778500
8728.000000;0.777789
8727.000000;0.777961
8726.000000;0.778854
8725.000000;0.779940
8724.000000;0.780740
8723.000000;0.781195
8722.000000;0.781626
8721.000000;0.782261
8720.000000;0.782855
8719.000000;0.782934
8718.000000;0.782426
8717.000000;0.781843
8716.000000;0.781756
8715.000000;0.782220
8714.000000;0.782841
8713.000000;0.783277
8712.000000;0.783498
8711.000000;0.783587
8710.000000;0.783529
8709.000000;0.783289
8708.000000;0.782994
8707.000000;0.782880
8706.000000;0.783060
8705.000000;0.783411
8704.000000;0.783765
8703.000000;0.784170
8702.000000;0.784839
8701.000000;0.785756
8700.000000;0.786457
8699.000000;0.786417
8698.000000;0.785701
8697.000000;0.785012
8696.000000;0.784988
8695.000000;0.785549
8694.000000;0.786057
8693.000000;0.786001
8692.000000;0.785408
8691.000000;0.784690
8690.000000;0.784295
8689.000000;0.784488
8688.000000;0.785246
8687.000000;0.786215
8686.000000;0.786864
8685.000000;0.786825
8684.000000;0.786180
8683.000000;0.785440
8682.000000;0.785206
8681.000000;0.785728
8680.000000;0.786714
8679.000000;0.787586
8678.000000;0.787986
8677.000000;0.788002
8676.000000;0.787959
8675.000000;0.788086
8674.000000;0.788445
8673.000000;0.788983
8672.000000;0.789508
8671.000000;0.789728
8670.000000;0.789526
8669.000000;0.789135
8668.000000;0.788885
8667.000000;0.788842
8666.000000;0.788890
8665.000000;0.789094
8664.000000;0.789667
8663.000000;0.790513
8662.000000;0.791071
8661.000000;0.790839
8660.000000;0.789935
8659.000000;0.788989
8658.000000;0.788535
8657.000000;0.788654
8656.000000;0.789112
8655.000000;0.789653
8654.000000;0.790107
8653.000000;0.790329
8652.000000;0.790215
8651.000000;0.789810
8650.000000;0.789367
8649.000000;0.789179
8648.000000;0.789316
8647.000000;0.789609
8646.000000;0.789911
8645.000000;0.790278
8644.000000;0.790759
8643.000000;0.791125
8642.000000;0.791049
8641.000000;0.790554
8640.000000;0.790096
8639.000000;0.790113
8638.000000;0.790626
8637.000000;0.791326
8636.000000;0.791886
8635.000000;0.792100
8634.000000;0.791925
8633.000000;0.791549
8632.000000;0.791321
8631.000000;0.791450
8630.000000;0.791788
8629.000000;0.792008
8628.000000;0.791939
8627.000000;0.791648
8626.000000;0.791295
8625.000000;0.791008
8624.000000;0.790836
8623.000000;0.790731
8622.000000;0.790629
8621.000000;0.790621
8620.000000;0.790929
8619.000000;0.791605
8618.000000;0.792371
8617.000000;0.792905
8616.000000;0.793167
8615.000000;0.793296
8614.000000;0.793302
8613.000000;0.793102
8612.000000;0.792797
8611.000000;0.792625
8610.000000;0.792626
8609.000000;0.792609
8608.000000;0.792489
8607.000000;0.792421
8606.000000;0.792508
8605.000000;0.792618
8604.000000;0.792625
8603.000000;0.792636
8602.000000;0.792786
8601.000000;0.792988
8600.000000;0.793066
8599.000000;0.793069
8598.000000;0.793238
8597.000000;0.793683
8596.000000;0.794217
8595.000000;0.794504
8594.000000;0.794304
8593.000000;0.793657
8592.000000;0.792926
8591.000000;0.792573
8590.000000;0.792757
8589.000000;0.793209
8588.000000;0.793593
8587.000000;0.793892
8586.000000;0.794297
8585.000000;0.794827
8584.000000;0.795252
8583.000000;0.795375
8582.000000;0.795194
8581.000000;0.794790
8580.000000;0.794290
8579.000000;0.793957
8578.000000;0.794073
8577.000000;0.794580
8576.000000;0.795011
8575.000000;0.794952
8574.000000;0.794474
8573.000000;0.793999
8572.000000;0.793825
8571.000000;0.793931
8570.000000;0.794162
8569.000000;0.794411
8568.000000;0.794605
8567.000000;0.794672
8566.000000;0.794636
8565.000000;0.794651
8564.000000;0.794859
8563.000000;0.795203
8562.000000;0.795415
8561.000000;0.795235
8560.000000;0.794670
8559.000000;0.794036
8558.000000;0.793700
8557.000000;0.793751
8556.000000;0.793962
8555.000000;0.794047
8554.000000;0.793918
8553.000000;0.793671
8552.000000;0.793428
8551.000000;0.793292
8550.000000;0.793358
8549.000000;0.793643
8548.000000;0.794002
8547.000000;0.794206
8546.000000;0.794154
8545.000000;0.793961
8544.000000;0.793835
8543.000000;0.793922
8542.000000;0.794256
8541.000000;0.794773
8540.000000;0.795315
8539.000000;0.795686
8538.000000;0.795777
8537.000000;0.795671
8536.000000;0.795569
8535.000000;0.795592
8534.000000;0.795654
8533.000000;0.795567
8532.000000;0.795245
8531.000000;0.794783
8530.000000;0.794310
8529.000000;0.793879
8528.000000;0.793553
8527.000000;0.793509
8526.000000;0.793878
8525.000000;0.794469
8524.000000;0.794840
8523.000000;0.794771
8522.000000;0.794526
8521.000000;0.794492
8520.000000;0.794706
8519.000000;0.794889
8518.000000;0.794871
8517.000000;0.794764
8516.000000;0.794715
8515.000000;0.794704
8514.000000;0.794685
8513.000000;0.794737
8512.000000;0.794956
8511.000000;0.795290
8510.000000;0.795551
8509.000000;0.795562
8508.000000;0.795268
8507.000000;0.794823
8506.000000;0.794571
8505.000000;0.794804
8504.000000;0.795420
8503.000000;0.795939
8502.000000;0.795975
8501.000000;0.795624
8500.000000;0.795276
8499.000000;0.795173
8498.000000;0.795276
8497.000000;0.795472
8496.000000;0.795691
8495.000000;0.795838
8494.000000;0.795833
8493.000000;0.795762
8492.000000;0.795823
8491.000000;0.796049
8490.000000;0.796202
8489.000000;0.796076
8488.000000;0.795780
8487.000000;0.795607
8486.000000;0.795681
8485.000000;0.795869
8484.000000;0.795999
8483.000000;0.796035
8482.000000;0.795982
8481.000000;0.795760
8480.000000;0.795291
8479.000000;0.794685
8478.000000;0.794248
8477.000000;0.794239
8476.000000;0.794636
8475.000000;0.795177
8474.000000;0.795626
8473.000000;0.795931
8472.000000;0.796129
8471.000000;0.796209
8470.000000;0.796190
8469.000000;0.796266
8468.000000;0.796660
8467.000000;0.797268
8466.000000;0.797601
8465.000000;0.797247
8464.000000;0.796341
8463.000000;0.795442
8462.000000;0.794989
8461.000000;0.794995
8460.000000;0.795254
8459.000000;0.795629
8458.000000;0.796043
8457.000000;0.796328
8456.000000;0.796289
8455.000000;0.795939
8454.000000;0.795550
8453.000000;0.795427
8452.000000;0.795688
8451.000000;0.796240
8450.000000;0.796901
8449.000000;0.797463
8448.000000;0.797734
8447.000000;0.797615
8446.000000;0.797212
8445.000000;0.796806
8444.000000;0.796678
8443.000000;0.796902
8442.000000;0.797304
8441.000000;0.797622
8440.000000;0.797697
8439.000000;0.797552
8438.000000;0.797307
8437.000000;0.797066
8436.000000;0.796857
8435.000000;0.796650
8434.000000;0.796404
8433.000000;0.796119
8432.000000;0.795835
8431.000000;0.795594
8430.000000;0.795413
8429.000000;0.795318
8428.000000;0.795364
8427.000000;0.795561
8426.000000;0.795808
8425.000000;0.796005
8424.000000;0.796225
8423.000000;0.796645
8422.000000;0.797238
8421.000000;0.797676
8420.000000;0.797685
8419.000000;0.797435
8418.000000;0.797382
8417.000000;0.797704
8416.000000;0.798076
8415.000000;0.798061
8414.000000;0.797584
8413.000000;0.796967
8412.000000;0.796597
8411.000000;0.796668
8410.000000;0.797132
8409.000000;0.797732
8408.000000;0.798122
8407.000000;0.798105
8406.000000;0.797817
8405.000000;0.797605
8404.000000;0.797694
8403.000000;0.798000
8402.000000;0.798277
8401.000000;0.798384
8400.000000;0.798400
8399.000000;0.798482
8398.000000;0.798656
8397.000000;0.798764
8396.000000;0.798658
8395.000000;0.798426
8394.000000;0.798344
8393.000000;0.798538
8392.000000;0.798779
8391.000000;0.798720
8390.000000;0.798305
8389.000000;0.797849
8388.000000;0.797673
8387.000000;0.797786
8386.000000;0.797955
8385.000000;0.798021
8384.000000;0.798028
8383.000000;0.798080
8382.000000;0.798168
8381.000000;0.798204
8380.000000;0.798149
8379.000000;0.798052
8378.000000;0.797969
8377.000000;0.797935
8376.000000;0.798018
8375.000000;0.798280
8374.000000;0.798622
8373.000000;0.798739
8372.000000;0.798388
8371.000000;0.797724
8370.000000;0.797248
8369.000000;0.797340
8368.000000;0.797921
8367.000000;0.798616
8366.000000;0.799144
8365.000000;0.799454
8364.000000;0.799552
8363.000000;0.799369
8362.000000;0.798864
8361.000000;0.798173
8360.000000;0.797581
8359.000000;0.797336
8358.000000;0.797479
8357.000000;0.797854
8356.000000;0.798246
8355.000000;0.798523
8354.000000;0.798645
8353.000000;0.798612
8352.000000;0.798499
8351.000000;0.798499
8350.000000;0.798789
8349.000000;0.799273
8348.000000;0.799606
8347.000000;0.799565
8346.000000;0.799308
8345.000000;0.799153
8344.000000;0.799196
8343.000000;0.799274
8342.000000;0.799241
8341.000000;0.799098
8340.000000;0.798895
8339.000000;0.798685
8338.000000;0.798589
8337.000000;0.798720
8336.000000;0.799004
8335.000000;0.799210
8334.000000;0.799209
8333.000000;0.799097
8332.000000;0.799006
8331.000000;0.798941
8330.000000;0.798874
8329.000000;0.798878
8328.000000;0.799052
8327.000000;0.799406
8326.000000;0.799889
8325.000000;0.800453
8324.000000;0.800992
8323.000000;0.801297
8322.000000;0.801215
8321.000000;0.800826
8320.000000;0.800386
8319.000000;0.800089
8318.000000;0.799939
8317.000000;0.799849
8316.000000;0.799794
8315.000000;0.799859
8314.000000;0.800138
8313.000000;0.800575
8312.000000;0.800915
8311.000000;0.800887
8310.000000;0.800472
8309.000000;0.799930
8308.000000;0.799523
8307.000000;0.799309
8306.000000;0.799260
8305.000000;0.799428
8304.000000;0.799854
8303.000000;0.800340
8302.000000;0.800529
8301.000000;0.800251
8300.000000;0.799714
8299.000000;0.799275
8298.000000;0.799109
8297.000000;0.799145
8296.000000;0.799249
8295.000000;0.799346
8294.000000;0.799397
8293.000000;0.799366
8292.000000;0.799334
8291.000000;0.799543
8290.000000;0.800188
8289.000000;0.801078
8288.000000;0.801659
8287.000000;0.801544
8286.000000;0.800955
8285.000000;0.800496
8284.000000;0.800491
8283.000000;0.800722
8282.000000;0.800845
8281.000000;0.800848
8280.000000;0.800943
8279.000000;0.801155
8278.000000;0.801262
8277.000000;0.801093
8276.000000;0.800734
8275.000000;0.800392
8274.000000;0.800188
8273.000000;0.800117
8272.000000;0.800128
8271.000000;0.800184
8270.000000;0.800271
8269.000000;0.800376
8268.000000;0.800455
8267.000000;0.800476
8266.000000;0.800485
8265.000000;0.800564
8264.000000;0.800666
8263.000000;0.800604
8262.000000;0.800325
8261.000000;0.800074
8260.000000;0.800137
8259.000000;0.800452
8258.000000;0.800666
8257.000000;0.800590
8256.000000;0.800412
8255.000000;0.800422
8254.000000;0.800654
8253.000000;0.800901
8252.000000;0.800963
8251.000000;0.800806
8250.000000;0.800530
8249.000000;0.800267
8248.000000;0.800079
8247.000000;0.799918
8246.000000;0.799738
8245.000000;0.799635
8244.000000;0.799783
8243.000000;0.800197
8242.000000;0.800660
8241.000000;0.800951
8240.000000;0.801083
8239.000000;0.801229
8238.000000;0.801501
8237.000000;0.801854
8236.000000;0.802146
8235.000000;0.802226
8234.000000;0.802031
8233.000000;0.801672
8232.000000;0.801392
8231.000000;0.801363
8230.000000;0.801571
8229.000000;0.801917
8228.000000;0.802333
8227.000000;0.802713
8226.000000;0.802845
8225.000000;0.802581
8224.000000;0.802058
8223.000000;0.801621
8222.000000;0.801518
8221.000000;0.801759
8220.000000;0.802224
8219.000000;0.802758
8218.000000;0.803150
8217.000000;0.803191
8216.000000;0.802877
8215.000000;0.802472
8214.000000;0.802286
8213.000000;0.802402
8212.000000;0.802657
8211.000000;0.802832
8210.000000;0.802831
8209.000000;0.802735
8208.000000;0.802739
8207.000000;0.802984
8206.000000;0.803400
8205.000000;0.803751
8204.000000;0.803890
8203.000000;0.803931
8202.000000;0.804090
8201.000000;0.804380
8200.000000;0.804552
8199.000000;0.804373
8198.000000;0.803876
8197.000000;0.803306
8196.000000;0.802875
8195.000000;0.802629
8194.000000;0.802544
8193.000000;0.802658
8192.000000;0.803021
8191.000000;0.803517
8190.000000;0.803834
8189.000000;0.803735
8188.000000;0.803359
8187.000000;0.803130
8186.000000;0.803297
8185.000000;0.803648
8184.000000;0.803782
8183.000000;0.803588
8182.000000;0.803308
8181.000000;0.803120
8180.000000;0.802869
8179.000000;0.802345
8178.000000;0.801713
8177.000000;0.801433
8176.000000;0.801739
8175.000000;0.802357
8174.000000;0.802818
8173.000000;0.802949
8172.000000;0.802929
8171.000000;0.802978
8170.000000;0.803140
8169.000000;0.803359
8168.000000;0.803599
8167.000000;0.803838
8166.000000;0.804043
8165.000000;0.804226
8164.000000;0.804436
8163.000000;0.804638
8162.000000;0.804713
8161.000000;0.804665
8160.000000;0.804723
8159.000000;0.805063
8158.000000;0.805486
8157.000000;0.805543
8156.000000;0.805048
8155.000000;0.804326
8154.000000;0.803875
8153.000000;0.803902
8152.000000;0.804261
8151.000000;0.804708
8150.000000;0.805082
8149.000000;0.805275
8148.000000;0.805211
8147.000000;0.804912
8146.000000;0.804522
8145.000000;0.804223
8144.000000;0.804128
8143.000000;0.804241
8142.000000;0.804459
8141.000000;0.804639
8140.000000;0.804739
8139.000000;0.804872
8138.000000;0.805154
8137.000000;0.805487
8136.000000;0.805596
8135.000000;0.805341
8134.000000;0.804906
8133.000000;0.804618
8132.000000;0.804615
8131.000000;0.804759
8130.000000;0.804857
8129.000000;0.804893
8128.000000;0.804996
8127.000000;0.805245
8126.000000;0.805561
8125.000000;0.805807
8124.000000;0.805940
8123.000000;0.806025
8122.000000;0.806106
8121.000000;0.806149
8120.000000;0.806149
8119.000000;0.806236
8118.000000;0.806550
8117.000000;0.807019
8116.000000;0.807361
8115.000000;0.807371
8114.000000;0.807131
8113.000000;0.806887
8112.000000;0.806777
8111.000000;0.806761
8110.000000;0.806763
8109.000000;0.806738
8108.000000;0.806618
8107.000000;0.806300
8106.000000;0.805785
8105.000000;0.805255
8104.000000;0.804932
8103.000000;0.804856
8102.000000;0.804881
8101.000000;0.804880
8100.000000;0.804904
8099.000000;0.805113
8098.000000;0.805578
8097.000000;0.806191
8096.000000;0.806761
8095.000000;0.807144
8094.000000;0.807318
8093.000000;0.807352
8092.000000;0.807351
8091.000000;0.807402
8090.000000;0.807526
8089.000000;0.807652
8088.000000;0.807676
8087.000000;0.807557
8086.000000;0.807372
8085.000000;0.807246
8084.000000;0.807211
8083.000000;0.807168
8082.000000;0.807001
8081.000000;0.806726
8080.000000;0.806510
8079.000000;0.806537
8078.000000;0.806860
8077.000000;0.807359
8076.000000;0.807835
8075.000000;0.808155
8074.000000;0.808345
8073.000000;0.808546
8072.000000;0.808843
8071.000000;0.809146
8070.000000;0.809305
8069.000000;0.809333
8068.000000;0.809416
8067.000000;0.809631
8066.000000;0.809765
8065.000000;0.809529
8064.000000;0.808919
8063.000000;0.808238
8062.000000;0.807764
8061.000000;0.807537
8060.000000;0.807513
8059.000000;0.807720
8058.000000;0.808146
8057.000000;0.808600
8056.000000;0.808861
8055.000000;0.808924
8054.000000;0.808950
8053.000000;0.808985
8052.000000;0.808903
8051.000000;0.808640
8050.000000;0.808348
8049.000000;0.808223
8048.000000;0.808296
8047.000000;0.808484
8046.000000;0.808767
8045.000000;0.809193
8044.000000;0.809748
8043.000000;0.810305
8042.000000;0.810720
8041.000000;0.810938
8040.000000;0.810997
8039.000000;0.810966
8038.000000;0.810880
8037.000000;0.810713
8036.000000;0.810440
8035.000000;0.810109
8034.000000;0.809841
8033.000000;0.809731
8032.000000;0.809745
8031.000000;0.809737
8030.000000;0.809588
8029.000000;0.809328
8028.000000;0.809155
8027.000000;0.809285
8026.000000;0.809737
8025.000000;0.810243
8024.000000;0.810463
8023.000000;0.810295
8022.000000;0.809948
8021.000000;0.809680
8020.000000;0.809530
8019.000000;0.809391
8018.000000;0.809269
8017.000000;0.809324
8016.000000;0.809658
8015.000000;0.810136
8014.000000;0.810504
8013.000000;0.810626
8012.000000;0.810569
8011.000000;0.810489
8010.000000;0.810507
8009.000000;0.810679
8008.000000;0.810978
8007.000000;0.811216
8006.000000;0.811088
8005.000000;0.810433
8004.000000;0.809499
8003.000000;0.808855
8002.000000;0.808929
8001.000000;0.809640
8000.000000;0.810504
7999.000000;0.811057
7998.000000;0.811159
7997.000000;0.810986
7996.000000;0.810850
7995.000000;0.811009
7994.000000;0.811490
7993.000000;0.812046
7992.000000;0.812367
7991.000000;0.812380
7990.000000;0.812292
7989.000000;0.812333
7988.000000;0.812532
7987.000000;0.812786
7986.000000;0.813007
7985.000000;0.813132
7984.000000;0.813101
7983.000000;0.812935
7982.000000;0.812775
7981.000000;0.812735
7980.000000;0.812736
7979.000000;0.812603
7978.000000;0.812319
7977.000000;0.812084
7976.000000;0.812104
7975.000000;0.812400
7974.000000;0.812820
7973.000000;0.813181
7972.000000;0.813386
7971.000000;0.813462
7970.000000;0.813496
7969.000000;0.813519
7968.000000;0.813453
7967.000000;0.813225
7966.000000;0.812907
7965.000000;0.812708
7964.000000;0.812796
7963.000000;0.813146
7962.000000;0.813566
7961.000000;0.813843
7960.000000;0.813904
7959.000000;0.813855
7958.000000;0.813836
7957.000000;0.813825
7956.000000;0.813667
7955.000000;0.813344
7954.000000;0.813123
7953.000000;0.813311
7952.000000;0.813869
7951.000000;0.814409
7950.000000;0.814587
7949.000000;0.814411
7948.000000;0.814131
7947.000000;0.813952
7946.000000;0.813909
7945.000000;0.813944
7944.000000;0.813996
7943.000000;0.814052
7942.000000;0.814169
7941.000000;0.814437
7940.000000;0.814884
7939.000000;0.815413
7938.000000;0.815848
7937.000000;0.816034
7936.000000;0.815895
7935.000000;0.815486
7934.000000;0.815023
7933.000000;0.814796
7932.000000;0.814964
7931.000000;0.815401
7930.000000;0.815791
7929.000000;0.815887
7928.000000;0.815689
7927.000000;0.815382
7926.000000;0.815157
7925.000000;0.815086
7924.000000;0.815140
7923.000000;0.815278
7922.000000;0.815498
7921.000000;0.815802
7920.000000;0.816150
7919.000000;0.816466
7918.000000;0.816698
7917.000000;0.816839
7916.000000;0.816894
7915.000000;0.816860
7914.000000;0.816740
7913.000000;0.816555
7912.000000;0.816336
7911.000000;0.816131
7910.000000;0.816030
7909.000000;0.816113
7908.000000;0.816384
7907.000000;0.816734
7906.000000;0.817000
7905.000000;0.817046
7904.000000;0.816826
7903.000000;0.816427
7902.000000;0.816064
7901.000000;0.815971
7900.000000;0.816222
7899.000000;0.816673
7898.000000;0.817086
7897.000000;0.817321
7896.000000;0.817418
7895.000000;0.817498
7894.000000;0.817609
7893.000000;0.817669
7892.000000;0.817573
7891.000000;0.817367
7890.000000;0.817247
7889.000000;0.817337
7888.000000;0.817513
7887.000000;0.817553
7886.000000;0.817457
7885.000000;0.817472
7884.000000;0.817764
7883.000000;0.818177
7882.000000;0.818429
7881.000000;0.818440
7880.000000;0.818355
7879.000000;0.818288
7878.000000;0.818228
7877.000000;0.818188
7876.000000;0.818289
7875.000000;0.818595
7874.000000;0.818971
7873.000000;0.819213
7872.000000;0.819268
7871.000000;0.819219
7870.000000;0.819107
7869.000000;0.818891
7868.000000;0.818606
7867.000000;0.818436
7866.000000;0.818541
7865.000000;0.818864
7864.000000;0.819205
7863.000000;0.819459
7862.000000;0.819685
7861.000000;0.819926
7860.000000;0.820060
7859.000000;0.819958
7858.000000;0.819715
7857.000000;0.819607
7856.000000;0.819794
7855.000000;0.820153
7854.000000;0.820444
7853.000000;0.820575
7852.000000;0.820621
7851.000000;0.820661
7850.000000;0.820691
7849.000000;0.820709
7848.000000;0.820762
7847.000000;0.820859
7846.000000;0.820903
7845.000000;0.820781
7844.000000;0.820538
7843.000000;0.820386
7842.000000;0.820523
7841.000000;0.820953
7840.000000;0.821500
7839.000000;0.821968
7838.000000;0.822263
7837.000000;0.822390
7836.000000;0.822390
7835.000000;0.822332
7834.000000;0.822316
7833.000000;0.822417
7832.000000;0.822600
7831.000000;0.822726
7830.000000;0.822674
7829.000000;0.822445
7828.000000;0.822133
7827.000000;0.821832
7826.000000;0.821606
7825.000000;0.821540
7824.000000;0.821733
7823.000000;0.822211
7822.000000;0.822876
7821.000000;0.823554
7820.000000;0.824096
7819.000000;0.824413
7818.000000;0.824465
7817.000000;0.824256
7816.000000;0.823851
7815.000000;0.823387
7814.000000;0.823051
7813.000000;0.823026
7812.000000;0.823399
7811.000000;0.824050
7810.000000;0.824665
7809.000000;0.824924
7808.000000;0.824754
7807.000000;0.824388
7806.000000;0.824152
7805.000000;0.824176
7804.000000;0.824341
7803.000000;0.824461
7802.000000;0.824508
7801.000000;0.824626
7800.000000;0.824939
7799.000000;0.825362
7798.000000;0.825647
7797.000000;0.825621
7796.000000;0.825356
7795.000000;0.825084
7794.000000;0.824958
7793.000000;0.824954
7792.000000;0.824967
7791.000000;0.824955
7790.000000;0.824952
7789.000000;0.825016
7788.000000;0.825198
7787.000000;0.825511
7786.000000;0.825884
7785.000000;0.826166
7784.000000;0.826249
7783.000000;0.826176
7782.000000;0.826116
7781.000000;0.826239
7780.000000;0.826614
7779.000000;0.827159
7778.000000;0.827633
7777.000000;0.827755
7776.000000;0.827446
7775.000000;0.826962
7774.000000;0.826704
7773.000000;0.826851
7772.000000;0.827246
7771.000000;0.827600
7770.000000;0.827757
7769.000000;0.827720
7768.000000;0.827549
7767.000000;0.827319
7766.000000;0.827155
7765.000000;0.827210
7764.000000;0.827558
7763.000000;0.828109
7762.000000;0.828630
7761.000000;0.828878
7760.000000;0.828759
7759.000000;0.828399
7758.000000;0.828044
7757.000000;0.827883
7756.000000;0.827957
7755.000000;0.828196
7754.000000;0.828505
7753.000000;0.828815
7752.000000;0.829120
7751.000000;0.829464
7750.000000;0.829857
7749.000000;0.830214
7748.000000;0.830439
7747.000000;0.830547
7746.000000;0.830653
7745.000000;0.830810
7744.000000;0.830975
7743.000000;0.831126
7742.000000;0.831325
7741.000000;0.831596
7740.000000;0.831808
7739.000000;0.831776
7738.000000;0.831455
7737.000000;0.830995
7736.000000;0.830661
7735.000000;0.830684
7734.000000;0.831118
7733.000000;0.831750
7732.000000;0.832229
7731.000000;0.832364
7730.000000;0.832287
7729.000000;0.832254
7728.000000;0.832353
7727.000000;0.832482
7726.000000;0.832553
7725.000000;0.832617
7724.000000;0.832768
7723.000000;0.833019
7722.000000;0.833294
7721.000000;0.833496
7720.000000;0.833578
7719.000000;0.833594
7718.000000;0.833646
7717.000000;0.833762
7716.000000;0.833849
7715.000000;0.833814
7714.000000;0.833713
7713.000000;0.833701
7712.000000;0.833865
7711.000000;0.834169
7710.000000;0.834523
7709.000000;0.834829
7708.000000;0.834994
7707.000000;0.835003
7706.000000;0.834976
7705.000000;0.835069
7704.000000;0.835275
7703.000000;0.835434
7702.000000;0.835453
7701.000000;0.835445
7700.000000;0.835588
7699.000000;0.835917
7698.000000;0.836309
7697.000000;0.836632
7696.000000;0.836856
7695.000000;0.837010
7694.000000;0.837114
7693.000000;0.837177
7692.000000;0.837252
7691.000000;0.837448
7690.000000;0.837821
7689.000000;0.838273
7688.000000;0.838597
7687.000000;0.838684
7686.000000;0.838628
7685.000000;0.838606
7684.000000;0.838675
7683.000000;0.838760
7682.000000;0.838786
7681.000000;0.838747
7680.000000;0.838697
7679.000000;0.838746
7678.000000;0.839053
7677.000000;0.839680
7676.000000;0.840428
7675.000000;0.840933
7674.000000;0.840992
7673.000000;0.840746
7672.000000;0.840515
7671.000000;0.840512
7670.000000;0.840736
7669.000000;0.841069
7668.000000;0.841390
7667.000000;0.841611
7666.000000;0.841685
7665.000000;0.841627
7664.000000;0.841521
7663.000000;0.841495
7662.000000;0.841645
7661.000000;0.841952
7660.000000;0.842306
7659.000000;0.842637
7658.000000;0.842975
7657.000000;0.843330
7656.000000;0.843574
7655.000000;0.843586
7654.000000;0.843482
7653.000000;0.843540
7652.000000;0.843876
7651.000000;0.844301
7650.000000;0.844582
7649.000000;0.844707
7648.000000;0.844802
7647.000000;0.844884
7646.000000;0.844855
7645.000000;0.844706
7644.000000;0.844595
7643.000000;0.844682
7642.000000;0.844972
7641.000000;0.845338
7640.000000;0.845665
7639.000000;0.845931
7638.000000;0.846175
7637.000000;0.846433
7636.000000;0.846723
7635.000000;0.847070
7634.000000;0.847511
7633.000000;0.848021
7632.000000;0.848467
7631.000000;0.848719
7630.000000;0.848804
7629.000000;0.848879
7628.000000;0.849051
7627.000000;0.849288
7626.000000;0.849524
7625.000000;0.849728
7624.000000;0.849842
7623.000000;0.849774
7622.000000;0.849550
7621.000000;0.849381
7620.000000;0.849461
7619.000000;0.849754
7618.000000;0.850098
7617.000000;0.850455
7616.000000;0.850893
7615.000000;0.851351
7614.000000;0.851638
7613.000000;0.851718
7612.000000;0.851842
7611.000000;0.852270
7610.000000;0.852931
7609.000000;0.853487
7608.000000;0.853719
7607.000000;0.853729
7606.000000;0.853768
7605.000000;0.853952
7604.000000;0.854213
7603.000000;0.854471
7602.000000;0.854737
7601.000000;0.855035
7600.000000;0.855317
7599.000000;0.855522
7598.000000;0.855713
7597.000000;0.856020
7596.000000;0.856437
7595.000000;0.856786
7594.000000;0.856946
7593.000000;0.857045
7592.000000;0.857287
7591.000000;0.857671
7590.000000;0.857995
7589.000000;0.858141
7588.000000;0.858205
7587.000000;0.858326
7586.000000;0.858510
7585.000000;0.858707
7584.000000;0.858932
7583.000000;0.859218
7582.000000;0.859517
7581.000000;0.859757
7580.000000;0.859975
7579.000000;0.860279
7578.000000;0.860687
7577.000000;0.861083
7576.000000;0.861341
7575.000000;0.861449
7574.000000;0.861502
7573.000000;0.861640
7572.000000;0.861973
7571.000000;0.862507
7570.000000;0.863125
7569.000000;0.863690
7568.000000;0.864177
7567.000000;0.864644
7566.000000;0.865095
7565.000000;0.865434
7564.000000;0.865600
7563.000000;0.865656
7562.000000;0.865730
7561.000000;0.865906
7560.000000;0.866213
7559.000000;0.866625
7558.000000;0.867032
7557.000000;0.867262
7556.000000;0.867251
7555.000000;0.867161
7554.000000;0.867249
7553.000000;0.867602
7552.000000;0.868066
7551.000000;0.868431
7550.000000;0.868604
7549.000000;0.868629
7548.000000;0.868620
7547.000000;0.868734
7546.000000;0.869127
7545.000000;0.869819
7544.000000;0.870616
7543.000000;0.871209
7542.000000;0.871417
7541.000000;0.871346
7540.000000;0.871323
7539.000000;0.871640
7538.000000;0.872329
7537.000000;0.873137
7536.000000;0.873746
7535.000000;0.874017
7534.000000;0.874041
7533.000000;0.874016
7532.000000;0.874124
7531.000000;0.874486
7530.000000;0.875096
7529.000000;0.875763
7528.000000;0.876198
7527.000000;0.876275
7526.000000;0.876158
7525.000000;0.876126
7524.000000;0.876314
7523.000000;0.876669
7522.000000;0.877105
7521.000000;0.877590
7520.000000;0.878097
7519.000000;0.878563
7518.000000;0.878943
7517.000000;0.879256
7516.000000;0.879545
7515.000000;0.879842
7514.000000;0.880193
7513.000000;0.880645
7512.000000;0.881166
7511.000000;0.881630
7510.000000;0.881948
7509.000000;0.882181
7508.000000;0.882474
7507.000000;0.882875
7506.000000;0.883282
7505.000000;0.883601
7504.000000;0.883877
7503.000000;0.884214
7502.000000;0.884603
7501.000000;0.884914
7500.000000;0.885094
7499.000000;0.885272
7498.000000;0.885603
7497.000000;0.886078
7496.000000;0.886552
7495.000000;0.886937
7494.000000;0.887255
7493.000000;0.887541
7492.000000;0.887810
7491.000000;0.888121
7490.000000;0.888529
7489.000000;0.889053
7488.000000;0.889535
7487.000000;0.889902
7486.000000;0.890237
7485.000000;0.890613
7484.000000;0.890975
7483.000000;0.891265
7482.000000;0.891567
7481.000000;0.891987
7480.000000;0.892468
7479.000000;0.892853
7478.000000;0.893092
7477.000000;0.893263
7476.000000;0.893416
7475.000000;0.893558
7474.000000;0.893761
7473.000000;0.894121
7472.000000;0.894577
7471.000000;0.894921
7470.000000;0.895058
7469.000000;0.895152
7468.000000;0.895433
7467.000000;0.895952
7466.000000;0.896581
7465.000000;0.897178
7464.000000;0.897660
7463.000000;0.898003
7462.000000;0.898250
7461.000000;0.898509
7460.000000;0.898885
7459.000000;0.899391
7458.000000;0.899958
7457.000000;0.900488
7456.000000;0.900905
7455.000000;0.901210
7454.000000;0.901494
7453.000000;0.901858
7452.000000;0.902301
7451.000000;0.902733
7450.000000;0.903114
7449.000000;0.903500
7448.000000;0.903933
7447.000000;0.904370
7446.000000;0.904766
7445.000000;0.905137
7444.000000;0.905484
7443.000000;0.905722
7442.000000;0.905785
7441.000000;0.905764
7440.000000;0.905850
7439.000000;0.906147
7438.000000;0.906601
7437.000000;0.907111
7436.000000;0.907627
7435.000000;0.908141
7434.000000;0.908626
7433.000000;0.909027
7432.000000;0.909299
7431.000000;0.909469
7430.000000;0.909644
7429.000000;0.909942
7428.000000;0.910384
7427.000000;0.910883
7426.000000;0.911347
7425.000000;0.911752
7424.000000;0.912107
7423.000000;0.912398
7422.000000;0.912614
7421.000000;0.912801
7420.000000;0.913027
7419.000000;0.913299
7418.000000;0.913569
7417.000000;0.913811
7416.000000;0.914059
7415.000000;0.914366
7414.000000;0.914748
7413.000000;0.915171
7412.000000;0.915579
7411.000000;0.915927
7410.000000;0.916199
7409.000000;0.916405
7408.000000;0.916567
7407.000000;0.916733
7406.000000;0.916987
7405.000000;0.917391
7404.000000;0.917920
7403.000000;0.918472
7402.000000;0.918946
7401.000000;0.919308
7400.000000;0.919596
7399.000000;0.919883
7398.000000;0.920192
7397.000000;0.920440
7396.000000;0.920514
7395.000000;0.920451
7394.000000;0.920492
7393.000000;0.920846
7392.000000;0.921455
7391.000000;0.922087
7390.000000;0.922632
7389.000000;0.923147
7388.000000;0.923641
7387.000000;0.924000
7386.000000;0.924187
7385.000000;0.924344
7384.000000;0.924590
7383.000000;0.924861
7382.000000;0.925056
7381.000000;0.925213
7380.000000;0.925400
7379.000000;0.925530
7378.000000;0.925480
7377.000000;0.925319
7376.000000;0.925276
7375.000000;0.925520
7374.000000;0.926044
7373.000000;0.926731
7372.000000;0.927404
7371.000000;0.927888
7370.000000;0.928170
7369.000000;0.928485
7368.000000;0.929083
7367.000000;0.929902
7366.000000;0.930604
7365.000000;0.930941
7364.000000;0.930960
7363.000000;0.930857
7362.000000;0.930849
7361.000000;0.931160
7360.000000;0.931889
7359.000000;0.932795
7358.000000;0.933406
7357.000000;0.933491
7356.000000;0.933314
7355.000000;0.933318
7354.000000;0.933661
7353.000000;0.934155
7352.000000;0.934555
7351.000000;0.934780
7350.000000;0.934908
7349.000000;0.935113
7348.000000;0.935547
7347.000000;0.936191
7346.000000;0.936836
7345.000000;0.937299
7344.000000;0.937577
7343.000000;0.937745
7342.000000;0.937799
7341.000000;0.937728
7340.000000;0.937673
7339.000000;0.937872
7338.000000;0.938427
7337.000000;0.939214
7336.000000;0.940040
7335.000000;0.940798
7334.000000;0.941479
7333.000000;0.942115
7332.000000;0.942686
7331.000000;0.943076
7330.000000;0.943182
7329.000000;0.943096
7328.000000;0.943099
7327.000000;0.943382
7326.000000;0.943856
7325.000000;0.944347
7324.000000;0.944871
7323.000000;0.945529
7322.000000;0.946259
7321.000000;0.946877
7320.000000;0.947353
7319.000000;0.947849
7318.000000;0.948426
7317.000000;0.948927
7316.000000;0.949236
7315.000000;0.949493
7314.000000;0.949912
7313.000000;0.950488
7312.000000;0.951044
7311.000000;0.951452
7310.000000;0.951711
7309.000000;0.951865
7308.000000;0.951998
7307.000000;0.952286
7306.000000;0.952898
7305.000000;0.953776
7304.000000;0.954663
7303.000000;0.955379
7302.000000;0.955995
7301.000000;0.956702
7300.000000;0.957581
7299.000000;0.958535
7298.000000;0.959388
7297.000000;0.960004
7296.000000;0.960370
7295.000000;0.960588
7294.000000;0.960819
7293.000000;0.961226
7292.000000;0.961931
7291.000000;0.962961
7290.000000;0.964220
7289.000000;0.965525
7288.000000;0.966685
7287.000000;0.967559
7286.000000;0.968103
7285.000000;0.968411
7284.000000;0.968714
7283.000000;0.969256
7282.000000;0.970092
7281.000000;0.971068
7280.000000;0.972016
7279.000000;0.972917
7278.000000;0.973812
7277.000000;0.974665
7276.000000;0.975404
7275.000000;0.976080
7274.000000;0.976858
7273.000000;0.977845
7272.000000;0.978997
7271.000000;0.980202
7270.000000;0.981384
7269.000000;0.982507
7268.000000;0.983537
7267.000000;0.984451
7266.000000;0.985257
7265.000000;0.985993
7264.000000;0.986733
7263.000000;0.987596
7262.000000;0.988670
7261.000000;0.989907
7260.000000;0.991127
7259.000000;0.992185
7258.000000;0.993108
7257.000000;0.994039
7256.000000;0.995071
7255.000000;0.996183
7254.000000;0.997318
7253.000000;0.998489
7252.000000;0.999758
7251.000000;1.001145
7250.000000;1.002578
7249.000000;1.003956
7248.000000;1.005234
7247.000000;1.006427
7246.000000;1.007549
7245.000000;1.008613
7244.000000;1.009709
7243.000000;1.011010
7242.000000;1.012634
7241.000000;1.014514
7240.000000;1.016475
7239.000000;1.018428
7238.000000;1.020392
7237.000000;1.022333
7236.000000;1.024094
7235.000000;1.025543
7234.000000;1.026805
7233.000000;1.028222
7232.000000;1.030029
7231.000000;1.032115
7230.000000;1.034159
7229.000000;1.035985
7228.000000;1.037694
7227.000000;1.039478
7226.000000;1.041389
7225.000000;1.043336
7224.000000;1.045267
7223.000000;1.047237
7222.000000;1.049262
7221.000000;1.051247
7220.000000;1.053168
7219.000000;1.055242
7218.000000;1.057724
7217.000000;1.060565
7216.000000;1.063406
7215.000000;1.065932
7214.000000;1.068140
7213.000000;1.070262
7212.000000;1.072521
7211.000000;1.075010
7210.000000;1.077696
7209.000000;1.080461
7208.000000;1.083150
7207.000000;1.085658
7206.000000;1.088004
7205.000000;1.090289
7204.000000;1.092605
7203.000000;1.095018
7202.000000;1.097604
7201.000000;1.100454
7200.000000;1.103601
7199.000000;1.106967
7198.000000;1.110396
7197.000000;1.113754
7196.000000;1.117031
7195.000000;1.120321
7194.000000;1.123685
7193.000000;1.127030
7192.000000;1.130207
7191.000000;1.133204
7190.000000;1.136207
7189.000000;1.139437
7188.000000;1.142959
7187.000000;1.146669
7186.000000;1.150394
7185.000000;1.153973
7184.000000;1.157303
7183.000000;1.160428
7182.000000;1.163552
7181.000000;1.166887
7180.000000;1.170473
7179.000000;1.174207
7178.000000;1.178028
7177.000000;1.181951
7176.000000;1.185929
7175.000000;1.189819
7174.000000;1.193550
7173.000000;1.197230
7172.000000;1.201010
7171.000000;1.204877
7170.000000;1.208670
7169.000000;1.212266
7168.000000;1.215734
7167.000000;1.219336
7166.000000;1.223349
7165.000000;1.227786
7164.000000;1.232301
7163.000000;1.236459
7162.000000;1.240182
7161.000000;1.243889
7160.000000;1.248114
7159.000000;1.252972
7158.000000;1.258033
7157.000000;1.262715
7156.000000;1.266768
7155.000000;1.270461
7154.000000;1.274345
7153.000000;1.278770
7152.000000;1.283605
7151.000000;1.288400
7150.000000;1.292847
7149.000000;1.296995
7148.000000;1.301040
7147.000000;1.305093
7146.000000;1.309222
7145.000000;1.313550
7144.000000;1.318105
7143.000000;1.322671
7142.000000;1.327017
7141.000000;1.331200
7140.000000;1.335456
7139.000000;1.339808
7138.000000;1.344032
7137.000000;1.348068
7136.000000;1.352226
7135.000000;1.356843
7134.000000;1.361866
7133.000000;1.366914
7132.000000;1.371661
7131.000000;1.376028
7130.000000;1.380100
7129.000000;1.384046
7128.000000;1.388104
7127.000000;1.392432
7126.000000;1.396924
7125.000000;1.401324
7124.000000;1.405565
7123.000000;1.409830
7122.000000;1.414236
7121.000000;1.418663
7120.000000;1.423005
7119.000000;1.427406
7118.000000;1.432002
7117.000000;1.436535
7116.000000;1.440548
7115.000000;1.444039
7114.000000;1.447621
7113.000000;1.451886
7112.000000;1.456770
7111.000000;1.461644
7110.000000;1.465925
7109.000000;1.469513
7108.000000;1.472721
7107.000000;1.476005
7106.000000;1.479732
7105.000000;1.483979
7104.000000;1.488477
7103.000000;1.492881
7102.000000;1.497085
7101.000000;1.501100
7100.000000;1.504738
7099.000000;1.507778
7098.000000;1.510504
7097.000000;1.513732
7096.000000;1.517995
7095.000000;1.522883
7094.000000;1.527441
7093.000000;1.531169
7092.000000;1.534343
7091.000000;1.537435
7090.000000;1.540589
7089.000000;1.543764
7088.000000;1.547060
7087.000000;1.550659
7086.000000;1.554511
7085.000000;1.558295
7084.000000;1.561762
7083.000000;1.565018
7082.000000;1.568381
7081.000000;1.571979
7080.000000;1.575592
7079.000000;1.578952
7078.000000;1.582065
7077.000000;1.585098
7076.000000;1.588010
7075.000000;1.590534
7074.000000;1.592597
7073.000000;1.594551
7072.000000;1.596837
7071.000000;1.599571
7070.000000;1.602621
7069.000000;1.605909
7068.000000;1.609446
7067.000000;1.613176
7066.000000;1.616950
7065.000000;1.620602
7064.000000;1.623935
7063.000000;1.626779
7062.000000;1.629178
7061.000000;1.631388
7060.000000;1.633523
7059.000000;1.635453
7058.000000;1.637306
7057.000000;1.639786
7056.000000;1.643449
7055.000000;1.647673
7054.000000;1.650901
7053.000000;1.652215
7052.000000;1.652346
7051.000000;1.652848
7050.000000;1.654577
7049.000000;1.657231
7048.000000;1.660052
7047.000000;1.662582
7046.000000;1.664786
7045.000000;1.666826
7044.000000;1.668889
7043.000000;1.671151
7042.000000;1.673699
7041.000000;1.676368
7040.000000;1.678690
7039.000000;1.680192
7038.000000;1.680916
7037.000000;1.681572
7036.000000;1.682977
7035.000000;1.685292
7034.000000;1.687877
7033.000000;1.689923
7032.000000;1.691170
7031.000000;1.692088
7030.000000;1.693407
7029.000000;1.695440
7028.000000;1.697743
7027.000000;1.699546
7026.000000;1.700613
7025.000000;1.701547
7024.000000;1.703018
7023.000000;1.704878
7022.000000;1.706327
7021.000000;1.706899
7020.000000;1.706906
7019.000000;1.706968
7018.000000;1.707548
7017.000000;1.708972
7016.000000;1.711386
7015.000000;1.714443
7014.000000;1.717318
7013.000000;1.719346
7012.000000;1.720520
7011.000000;1.721247
7010.000000;1.721859
7009.000000;1.722519
7008.000000;1.723339
7007.000000;1.724259
7006.000000;1.724967
7005.000000;1.725231
7004.000000;1.725273
7003.000000;1.725596
7002.000000;1.726450
7001.000000;1.727647
7000.000000;1.728887
6999.000000;1.730124
6998.000000;1.731515
6997.000000;1.733074
6996.000000;1.734495
6995.000000;1.735415
6994.000000;1.735843
6993.000000;1.736212
6992.000000;1.736969
6991.000000;1.738278
6990.000000;1.740134
6989.000000;1.742408
6988.000000;1.744507
6987.000000;1.745383
6986.000000;1.744488
6985.000000;1.742642
6984.000000;1.741345
6983.000000;1.741214
6982.000000;1.741625
6981.000000;1.741969
6980.000000;1.742599
6979.000000;1.744143
6978.000000;1.746350
6977.000000;1.748212
6976.000000;1.749065
6975.000000;1.749102
6974.000000;1.748916
6973.000000;1.748948
6972.000000;1.749323
6971.000000;1.749794
6970.000000;1.749855
6969.000000;1.749254
6968.000000;1.748454
6967.000000;1.748303
6966.000000;1.749171
6965.000000;1.750610
6964.000000;1.751900
6963.000000;1.752765
6962.000000;1.753479
6961.000000;1.754436
6960.000000;1.755687
6959.000000;1.756849
6958.000000;1.757444
6957.000000;1.757446
6956.000000;1.757436
6955.000000;1.758012
6954.000000;1.759059
6953.000000;1.759817
6952.000000;1.759792
6951.000000;1.759392
6950.000000;1.759429
6949.000000;1.760079
6948.000000;1.760568
6947.000000;1.760039
6946.000000;1.758586
6945.000000;1.757233
6944.000000;1.756926
6943.000000;1.757719
6942.000000;1.758945
6941.000000;1.759953
6940.000000;1.760482
6939.000000;1.760468
6938.000000;1.759910
6937.000000;1.759064
6936.000000;1.758506
6935.000000;1.758688
6934.000000;1.759445
6933.000000;1.760093
6932.000000;1.760058
6931.000000;1.759352
6930.000000;1.758473
6929.000000;1.757922
6928.000000;1.757827
6927.000000;1.757918
6926.000000;1.757850
6925.000000;1.757606
6924.000000;1.757611
6923.000000;1.758302
6922.000000;1.759515
6921.000000;1.760403
6920.000000;1.760147
6919.000000;1.758814
6918.000000;1.757379
6917.000000;1.756826
6916.000000;1.757297
6915.000000;1.758167
6914.000000;1.758784
6913.000000;1.758897
6912.000000;1.758461
6911.000000;1.757457
6910.000000;1.756171
6909.000000;1.755301
6908.000000;1.755411
6907.000000;1.756267
6906.000000;1.756990
6905.000000;1.756916
6904.000000;1.756169
6903.000000;1.755387
6902.000000;1.755091
6901.000000;1.755361
6900.000000;1.755946
6899.000000;1.756516
6898.000000;1.756872
6897.000000;1.757002
6896.000000;1.757019
6895.000000;1.757056
6894.000000;1.757194
6893.000000;1.757378
6892.000000;1.757412
6891.000000;1.757160
6890.000000;1.756773
6889.000000;1.756522
6888.000000;1.756335
6887.000000;1.755768
6886.000000;1.754666
6885.000000;1.753614
6884.000000;1.753342
6883.000000;1.753782
6882.000000;1.754145
6881.000000;1.753949
6880.000000;1.753523
6879.000000;1.753350
6878.000000;1.753368
6877.000000;1.753191
6876.000000;1.752754
6875.000000;1.752383
6874.000000;1.752350
6873.000000;1.752659
6872.000000;1.753230
6871.000000;1.753975
6870.000000;1.754648
6869.000000;1.754877
6868.000000;1.754516
6867.000000;1.753848
6866.000000;1.753275
6865.000000;1.752839
6864.000000;1.752218
6863.000000;1.751263
6862.000000;1.750406
6861.000000;1.750301
6860.000000;1.751069
6859.000000;1.752053
6858.000000;1.752459
6857.000000;1.752112
6856.000000;1.751452
6855.000000;1.750903
6854.000000;1.750469
6853.000000;1.749945
6852.000000;1.749317
6851.000000;1.748858
6850.000000;1.748831
6849.000000;1.749143
6848.000000;1.749304
6847.000000;1.748857
6846.000000;1.747892
6845.000000;1.747002
6844.000000;1.746653
6843.000000;1.746745
6842.000000;1.746838
6841.000000;1.746607
6840.000000;1.745914
6839.000000;1.744711
6838.000000;1.743135
6837.000000;1.741539
6836.000000;1.740145
6835.000000;1.738783
6834.000000;1.737272
6833.000000;1.735882
6832.000000;1.735081
6831.000000;1.734916
6830.000000;1.735046
6829.000000;1.735286
6828.000000;1.735670
6827.000000;1.735950
6826.000000;1.735571
6825.000000;1.734339
6824.000000;1.732686
6823.000000;1.731071
6822.000000;1.729535
6821.000000;1.728058
6820.000000;1.726877
6819.000000;1.726061
6818.000000;1.725102
6817.000000;1.723427
6816.000000;1.721243
6815.000000;1.719453
6814.000000;1.718686
6813.000000;1.718675
6812.000000;1.718580
6811.000000;1.717719
6810.000000;1.716058
6809.000000;1.714231
6808.000000;1.713067
6807.000000;1.712808
6806.000000;1.712736
6805.000000;1.711778
6804.000000;1.709612
6803.000000;1.707000
6802.000000;1.704945
6801.000000;1.703732
6800.000000;1.702938
6799.000000;1.702193
6798.000000;1.701588
6797.000000;1.701241
6796.000000;1.700715
6795.000000;1.699202
6794.000000;1.696367
6793.000000;1.692893
6792.000000;1.689975
6791.000000;1.688297
6790.000000;1.687522
6789.000000;1.686753
6788.000000;1.685457
6787.000000;1.683912
6786.000000;1.682718
6785.000000;1.681980
6784.000000;1.681108
6783.000000;1.679499
6782.000000;1.677254
6781.000000;1.674993
6780.000000;1.673098
6779.000000;1.671450
6778.000000;1.669880
6777.000000;1.668436
6776.000000;1.667060
6775.000000;1.665423
6774.000000;1.663403
6773.000000;1.661421
6772.000000;1.659942
6771.000000;1.658837
6770.000000;1.657605
6769.000000;1.656092
6768.000000;1.654564
6767.000000;1.653129
6766.000000;1.651539
6765.000000;1.649630
6764.000000;1.647560
6763.000000;1.645498
6762.000000;1.643407
6761.000000;1.641287
6760.000000;1.639325
6759.000000;1.637642
6758.000000;1.636101
6757.000000;1.634525
6756.000000;1.632929
6755.000000;1.631447
6754.000000;1.630142
6753.000000;1.628957
6752.000000;1.627700
6751.000000;1.626099
6750.000000;1.624093
6749.000000;1.622071
6748.000000;1.620518
6747.000000;1.619383
6746.000000;1.618072
6745.000000;1.616201
6744.000000;1.614053
6743.000000;1.612126
6742.000000;1.610522
6741.000000;1.608997
6740.000000;1.607367
6739.000000;1.605606
6738.000000;1.603718
6737.000000;1.601782
6736.000000;1.600026
6735.000000;1.598613
6734.000000;1.597406
6733.000000;1.596135
6732.000000;1.594722
6731.000000;1.593254
6730.000000;1.591713
6729.000000;1.589933
6728.000000;1.587866
6727.000000;1.585705
6726.000000;1.583704
6725.000000;1.581936
6724.000000;1.580250
6723.000000;1.578425
6722.000000;1.576379
6721.000000;1.574255
6720.000000;1.572266
6719.000000;1.570471
6718.000000;1.568759
6717.000000;1.567048
6716.000000;1.565350
6715.000000;1.563647
6714.000000;1.561873
6713.000000;1.560083
6712.000000;1.558459
6711.000000;1.557036
6710.000000;1.555584
6709.000000;1.553883
6708.000000;1.552012
6707.000000;1.550226
6706.000000;1.548632
6705.000000;1.547142
6704.000000;1.545639
6703.000000;1.544075
6702.000000;1.542412
6701.000000;1.540602
6700.000000;1.538603
6699.000000;1.536425
6698.000000;1.534187
6697.000000;1.532235
6696.000000;1.530803
6695.000000;1.529773
6694.000000;1.528676
6693.000000;1.527118
6692.000000;1.525176
6691.000000;1.523159
6690.000000;1.521241
6689.000000;1.519432
6688.000000;1.517773
6687.000000;1.516286
6686.000000;1.514822
6685.000000;1.513183
6684.000000;1.511419
6683.000000;1.509791
6682.000000;1.508439
6681.000000;1.507202
6680.000000;1.505798
6679.000000;1.504065
6678.000000;1.502082
6677.000000;1.500166
6676.000000;1.498695
6675.000000;1.497774
6674.000000;1.497037
6673.000000;1.495905
6672.000000;1.494087
6671.000000;1.491766
6670.000000;1.489349
6669.000000;1.487165
6668.000000;1.485351
6667.000000;1.483876
6666.000000;1.482610
6665.000000;1.481415
6664.000000;1.480193
6663.000000;1.478844
6662.000000;1.477251
6661.000000;1.475428
6660.000000;1.473583
6659.000000;1.471908
6658.000000;1.470345
6657.000000;1.468681
6656.000000;1.466840
6655.000000;1.464961
6654.000000;1.463217
6653.000000;1.461705
6652.000000;1.460494
6651.000000;1.459570
6650.000000;1.458719
6649.000000;1.457618
6648.000000;1.456152
6647.000000;1.454529
6646.000000;1.452996
6645.000000;1.451541
6644.000000;1.449944
6643.000000;1.448065
6642.000000;1.446008
6641.000000;1.444069
6640.000000;1.442553
6639.000000;1.441556
6638.000000;1.440848
6637.000000;1.439994
6636.000000;1.438640
6635.000000;1.436733
6634.000000;1.434515
6633.000000;1.432379
6632.000000;1.430648
6631.000000;1.429356
6630.000000;1.428185
6629.000000;1.426761
6628.000000;1.425047
6627.000000;1.423364
6626.000000;1.421994
6625.000000;1.420882
6624.000000;1.419825
6623.000000;1.418750
6622.000000;1.417688
6621.000000;1.416579
6620.000000;1.415292
6619.000000;1.413820
6618.000000;1.412268
6617.000000;1.410668
6616.000000;1.408972
6615.000000;1.407266
6614.000000;1.405794
6613.000000;1.404682
6612.000000;1.403751
6611.000000;1.402719
6610.000000;1.401500
6609.000000;1.400185
6608.000000;1.398806
6607.000000;1.397301
6606.000000;1.395713
6605.000000;1.394250
6604.000000;1.393065
6603.000000;1.392048
6602.000000;1.390949
6601.000000;1.389656
6600.000000;1.388313
6599.000000;1.387143
6598.000000;1.386230
6597.000000;1.385459
6596.000000;1.384642
6595.000000;1.383679
6594.000000;1.382597
6593.000000;1.381448
6592.000000;1.380215
6591.000000;1.378845
6590.000000;1.377368
6589.000000;1.375901
6588.000000;1.374503
6587.000000;1.373080
6586.000000;1.371506
6585.000000;1.369825
6584.000000;1.368263
6583.000000;1.367023
6582.000000;1.366109
6581.000000;1.365340
6580.000000;1.364501
6579.000000;1.363474
6578.000000;1.362271
6577.000000;1.360992
6576.000000;1.359728
6575.000000;1.358501
6574.000000;1.357280
6573.000000;1.356067
6572.000000;1.354929
6571.000000;1.353930
6570.000000;1.353029
6569.000000;1.352078
6568.000000;1.350949
6567.000000;1.349679
6566.000000;1.348451
6565.000000;1.347402
6564.000000;1.346470
6563.000000;1.345509
6562.000000;1.344515
6561.000000;1.343628
6560.000000;1.342873
6559.000000;1.342019
6558.000000;1.340815
6557.000000;1.339315
6556.000000;1.337835
6555.000000;1.336609
6554.000000;1.335585
6553.000000;1.334576
6552.000000;1.333480
6551.000000;1.332322
6550.000000;1.331157
6549.000000;1.330036
6548.000000;1.328999
6547.000000;1.328052
6546.000000;1.327150
6545.000000;1.326226
6544.000000;1.325239
6543.000000;1.324173
6542.000000;1.323037
6541.000000;1.321869
6540.000000;1.320711
6539.000000;1.319577
6538.000000;1.318457
6537.000000;1.317354
6536.000000;1.316288
6535.000000;1.315268
6534.000000;1.314310
6533.000000;1.313459
6532.000000;1.312728
6531.000000;1.312022
6530.000000;1.311190
6529.000000;1.310184
6528.000000;1.309085
6527.000000;1.307966
6526.000000;1.306808
6525.000000;1.305603
6524.000000;1.304454
6523.000000;1.303506
6522.000000;1.302783
6521.000000;1.302144
6520.000000;1.301409
6519.000000;1.300485
6518.000000;1.299437
6517.000000;1.298444
6516.000000;1.297674
6515.000000;1.297153
6514.000000;1.296726
6513.000000;1.296180
6512.000000;1.295379
6511.000000;1.294320
6510.000000;1.293116
6509.000000;1.291933
6508.000000;1.290910
6507.000000;1.290109
6506.000000;1.289535
6505.000000;1.289161
6504.000000;1.288850
6503.000000;1.288331
6502.000000;1.287375
6501.000000;1.286050
6500.000000;1.284693
6499.000000;1.283561
6498.000000;1.282612
6497.000000;1.281663
6496.000000;1.280647
6495.000000;1.279638
6494.000000;1.278706
6493.000000;1.277893
6492.000000;1.277252
6491.000000;1.276784
6490.000000;1.276330
6489.000000;1.275668
6488.000000;1.274750
6487.000000;1.273767
6486.000000;1.272937
6485.000000;1.272273
6484.000000;1.271579
6483.000000;1.270637
6482.000000;1.269413
6481.000000;1.268123
6480.000000;1.267082
6479.000000;1.266447
6478.000000;1.266091
6477.000000;1.265745
6476.000000;1.265240
6475.000000;1.264592
6474.000000;1.263876
6473.000000;1.263117
6472.000000;1.262312
6471.000000;1.261485
6470.000000;1.260689
6469.000000;1.259963
6468.000000;1.259300
6467.000000;1.258659
6466.000000;1.257987
6465.000000;1.257242
6464.000000;1.256400
6463.000000;1.255454
6462.000000;1.254451
6461.000000;1.253488
6460.000000;1.252646
6459.000000;1.251912
6458.000000;1.251224
6457.000000;1.250592
6456.000000;1.250071
6455.000000;1.249596
6454.000000;1.248962
6453.000000;1.248062
6452.000000;1.247056
6451.000000;1.246184
6450.000000;1.245462
6449.000000;1.244711
6448.000000;1.243844
6447.000000;1.242993
6446.000000;1.242298
6445.000000;1.241724
6444.000000;1.241130
6443.000000;1.240443
6442.000000;1.239696
6441.000000;1.238959
6440.000000;1.238303
6439.000000;1.237771
6438.000000;1.237335
6437.000000;1.236883
6436.000000;1.236295
6435.000000;1.235549
6434.000000;1.234756
6433.000000;1.234087
6432.000000;1.233646
6431.000000;1.233355
6430.000000;1.232992
6429.000000;1.232389
6428.000000;1.231575
6427.000000;1.230716
6426.000000;1.229926
6425.000000;1.229221
6424.000000;1.228593
6423.000000;1.228034
6422.000000;1.227469
6421.000000;1.226796
6420.000000;1.226035
6419.000000;1.225352
6418.000000;1.224860
6417.000000;1.224488
6416.000000;1.224080
6415.000000;1.223546
6414.000000;1.222855
6413.000000;1.221990
6412.000000;1.221011
6411.000000;1.220110
6410.000000;1.219457
6409.000000;1.219009
6408.000000;1.218560
6407.000000;1.217985
6406.000000;1.217350
6405.000000;1.216767
6404.000000;1.216245
6403.000000;1.215714
6402.000000;1.215123
6401.000000;1.214459
6400.000000;1.213725
6399.000000;1.212957
6398.000000;1.212238
6397.000000;1.211652
6396.000000;1.211207
6395.000000;1.210817
6394.000000;1.210348
6393.000000;1.209702
6392.000000;1.208875
6391.000000;1.207971
6390.000000;1.207151
6389.000000;1.206547
6388.000000;1.206185
6387.000000;1.205960
6386.000000;1.205686
6385.000000;1.205209
6384.000000;1.204542
6383.000000;1.203875
6382.000000;1.203413
6381.000000;1.203160
6380.000000;1.202908
6379.000000;1.202436
6378.000000;1.201720
6377.000000;1.200915
6376.000000;1.200195
6375.000000;1.199622
6374.000000;1.199161
6373.000000;1.198747
6372.000000;1.198317
6371.000000;1.197816
6370.000000;1.197222
6369.000000;1.196568
6368.000000;1.195942
6367.000000;1.195428
6366.000000;1.195046
6365.000000;1.194726
6364.000000;1.194347
6363.000000;1.193827
6362.000000;1.193178
6361.000000;1.192508
6360.000000;1.191950
6359.000000;1.191574
6358.000000;1.191327
6357.000000;1.191054
6356.000000;1.190604
6355.000000;1.189962
6354.000000;1.189258
6353.000000;1.188643
6352.000000;1.188141
6351.000000;1.187636
6350.000000;1.187015
6349.000000;1.186313
6348.000000;1.185688
6347.000000;1.185266
6346.000000;1.185016
6345.000000;1.184777
6344.000000;1.184416
6343.000000;1.183930
6342.000000;1.183422
6341.000000;1.182972
6340.000000;1.182564
6339.000000;1.182126
6338.000000;1.181617
6337.000000;1.181053
6336.000000;1.180467
6335.000000;1.179880
6334.000000;1.179324
6333.000000;1.178844
6332.000000;1.178450
6331.000000;1.178079
6330.000000;1.177642
6329.000000;1.177118
6328.000000;1.176575
6327.000000;1.176097
6326.000000;1.175713
6325.000000;1.175395
6324.000000;1.175105
6323.000000;1.174821
6322.000000;1.174544
6321.000000;1.174284
6320.000000;1.174020
6319.000000;1.173661
6318.000000;1.173102
6317.000000;1.172349
6316.000000;1.171574
6315.000000;1.170977
6314.000000;1.170590
6313.000000;1.170267
6312.000000;1.169865
6311.000000;1.169387
6310.000000;1.168934
6309.000000;1.168554
6308.000000;1.168215
6307.000000;1.167898
6306.000000;1.167632
6305.000000;1.167411
6304.000000;1.167127
6303.000000;1.166660
6302.000000;1.166033
6301.000000;1.165429
6300.000000;1.165030
6299.000000;1.164861
6298.000000;1.164813
6297.000000;1.164763
6296.000000;1.164635
6295.000000;1.164361
6294.000000;1.163879
6293.000000;1.163193
6292.000000;1.162424
6291.000000;1.161744
6290.000000;1.161263
6289.000000;1.160976
6288.000000;1.160800
6287.000000;1.160629
6286.000000;1.160388
6285.000000;1.160056
6284.000000;1.159666
6283.000000;1.159277
6282.000000;1.158927
6281.000000;1.158624
6280.000000;1.158354
6279.000000;1.158098
6278.000000;1.157832
6277.000000;1.157535
6276.000000;1.157194
6275.000000;1.156826
6274.000000;1.156485
6273.000000;1.156243
6272.000000;1.156129
6271.000000;1.156074
6270.000000;1.155933
6269.000000;1.155591
6268.000000;1.155051
6267.000000;1.154440
6266.000000;1.153925
6265.000000;1.153610
6264.000000;1.153459
6263.000000;1.153310
6262.000000;1.153006
6261.000000;1.152548
6260.000000;1.152091
6259.000000;1.151776
6258.000000;1.151585
6257.000000;1.151385
6256.000000;1.151070
6255.000000;1.150633
6254.000000;1.150146
6253.000000;1.149715
6252.000000;1.149428
6251.000000;1.149268
6250.000000;1.149089
6249.000000;1.148753
6248.000000;1.148301
6247.000000;1.147911
6246.000000;1.147685
6245.000000;1.147549
6244.000000;1.147379
6243.000000;1.147150
6242.000000;1.146889
6241.000000;1.146577
6240.000000;1.146173
6239.000000;1.145715
6238.000000;1.145321
6237.000000;1.145067
6236.000000;1.144922
6235.000000;1.144792
6234.000000;1.144605
6233.000000;1.144342
6232.000000;1.144022
6231.000000;1.143676
6230.000000;1.143312
6229.000000;1.142923
6228.000000;1.142531
6227.000000;1.142205
6226.000000;1.141997
6225.000000;1.141882
6224.000000;1.141779
6223.000000;1.141637
6222.000000;1.141453
6221.000000;1.141234
6220.000000;1.140978
6219.000000;1.140706
6218.000000;1.140463
6217.000000;1.140270
6216.000000;1.140105
6215.000000;1.139954
6214.000000;1.139841
6213.000000;1.139761
6212.000000;1.139611
6211.000000;1.139270
6210.000000;1.138755
6209.000000;1.138244
6208.000000;1.137899
6207.000000;1.137710
6206.000000;1.137559
6205.000000;1.137401
6204.000000;1.137287
6203.000000;1.137215
6202.000000;1.137065
6201.000000;1.136736
6200.000000;1.136305
6199.000000;1.135949
6198.000000;1.135755
6197.000000;1.135655
6196.000000;1.135551
6195.000000;1.135399
6194.000000;1.135173
6193.000000;1.134838
6192.000000;1.134402
6191.000000;1.133957
6190.000000;1.133612
6189.000000;1.133417
6188.000000;1.133364
6187.000000;1.133403
6186.000000;1.133432
6185.000000;1.133334
6184.000000;1.133085
6183.000000;1.132794
6182.000000;1.132584
6181.000000;1.132458
6180.000000;1.132332
6179.000000;1.132161
6178.000000;1.131961
6177.000000;1.131751
6176.000000;1.131542
6175.000000;1.131384
6174.000000;1.131324
6173.000000;1.131318
6172.000000;1.131241
6171.000000;1.131031
6170.000000;1.130765
6169.000000;1.130551
6168.000000;1.130388
6167.000000;1.130188
6166.000000;1.129921
6165.000000;1.129689
6164.000000;1.129646
6163.000000;1.129833
6162.000000;1.130098
6161.000000;1.130183
6160.000000;1.129926
6159.000000;1.129389
6158.000000;1.128792
6157.000000;1.128325
6156.000000;1.128033
6155.000000;1.127851
6154.000000;1.127691
6153.000000;1.127477
6152.000000;1.127179
6151.000000;1.126849
6150.000000;1.126606
6149.000000;1.126528
6148.000000;1.126561
6147.000000;1.126563
6146.000000;1.126446
6145.000000;1.126263
6144.000000;1.126134
6143.000000;1.126088
6142.000000;1.126008
6141.000000;1.125764
6140.000000;1.125386
6139.000000;1.125053
6138.000000;1.124899
6137.000000;1.124869
6136.000000;1.124827
6135.000000;1.124737
6134.000000;1.124667
6133.000000;1.124638
6132.000000;1.124577
6131.000000;1.124452
6130.000000;1.124344
6129.000000;1.124327
6128.000000;1.124332
6127.000000;1.124243
6126.000000;1.124056
6125.000000;1.123887
6124.000000;1.123814
6123.000000;1.123792
6122.000000;1.123734
6121.000000;1.123603
6120.000000;1.123412
6119.000000;1.123184
6118.000000;1.122938
6117.000000;1.122698
6116.000000;1.122467
6115.000000;1.122212
6114.000000;1.121906
6113.000000;1.121564
6112.000000;1.121256
6111.000000;1.121060
6110.000000;1.121022
6109.000000;1.121131
6108.000000;1.121311
6107.000000;1.121464
6106.000000;1.121530
6105.000000;1.121514
6104.000000;1.121471
6103.000000;1.121438
6102.000000;1.121386
6101.000000;1.121238
6100.000000;1.120950
6099.000000;1.120576
6098.000000;1.120250
6097.000000;1.120089
6096.000000;1.120095
6095.000000;1.120154
6094.000000;1.120121
6093.000000;1.119935
6092.000000;1.119663
6091.000000;1.119441
6090.000000;1.119349
6089.000000;1.119344
6088.000000;1.119331
6087.000000;1.119271
6086.000000;1.119216
6085.000000;1.119230
6084.000000;1.119321
6083.000000;1.119448
6082.000000;1.119560
6081.000000;1.119595
6080.000000;1.119494
6079.000000;1.119253
6078.000000;1.118957
6077.000000;1.118726
6076.000000;1.118622
6075.000000;1.118607
6074.000000;1.118581
6073.000000;1.118467
6072.000000;1.118273
6071.000000;1.118114
6070.000000;1.118120
6069.000000;1.118307
6068.000000;1.118533
6067.000000;1.118622
6066.000000;1.118519
6065.000000;1.118305
6064.000000;1.118100
6063.000000;1.117980
6062.000000;1.117970
6061.000000;1.118043
6060.000000;1.118124
6059.000000;1.118127
6058.000000;1.118039
6057.000000;1.117917
6056.000000;1.117806
6055.000000;1.117695
6054.000000;1.117571
6053.000000;1.117482
6052.000000;1.117504
6051.000000;1.117635
6050.000000;1.117780
6049.000000;1.117830
6048.000000;1.117748
6047.000000;1.117569
6046.000000;1.117335
6045.000000;1.117062
6044.000000;1.116767
6043.000000;1.116507
6042.000000;1.116375
6041.000000;1.116430
6040.000000;1.116629
6039.000000;1.116847
6038.000000;1.116982
6037.000000;1.117034
6036.000000;1.117077
6035.000000;1.117160
6034.000000;1.117252
6033.000000;1.117273
6032.000000;1.117181
6031.000000;1.117016
6030.000000;1.116871
6029.000000;1.116823
6028.000000;1.116880
6027.000000;1.116977
6026.000000;1.117037
6025.000000;1.117032
6024.000000;1.117002
6023.000000;1.117015
6022.000000;1.117103
6021.000000;1.117247
6020.000000;1.117403
6019.000000;1.117546
6018.000000;1.117664
6017.000000;1.117731
6016.000000;1.117710
6015.000000;1.117591
6014.000000;1.117424
6013.000000;1.117298
6012.000000;1.117284
6011.000000;1.117393
6010.000000;1.117589
6009.000000;1.117815
6008.000000;1.118013
6007.000000;1.118140
6006.000000;1.118177
6005.000000;1.118168
6004.000000;1.118224
6003.000000;1.118431
6002.000000;1.118739
6001.000000;1.118963
6000.000000;1.118951
5999.000000;1.118749
5998.000000;1.118560
5997.000000;1.118547
5996.000000;1.118701
5995.000000;1.118923
5994.000000;1.119159
5993.000000;1.119417
5992.000000;1.119681
5991.000000;1.119883
5990.000000;1.119966
5989.000000;1.119948
5988.000000;1.119913
5987.000000;1.119937
5986.000000;1.120047
5985.000000;1.120220
5984.000000;1.120425
5983.000000;1.120669
5982.000000;1.120984
5981.000000;1.121367
5980.000000;1.121729
5979.000000;1.121968
5978.000000;1.122084
5977.000000;1.122189
5976.000000;1.122384
5975.000000;1.122640
5974.000000;1.122842
5973.000000;1.122939
5972.000000;1.123011
5971.000000;1.123175
5970.000000;1.123459
5969.000000;1.123788
5968.000000;1.124094
5967.000000;1.124381
5966.000000;1.124688
5965.000000;1.125026
5964.000000;1.125374
5963.000000;1.125722
5962.000000;1.126069
5961.000000;1.126389
5960.000000;1.126639
5959.000000;1.126809
5958.000000;1.126953
5957.000000;1.127165
5956.000000;1.127518
5955.000000;1.128006
5954.000000;1.128520
5953.000000;1.128899
5952.000000;1.129068
5951.000000;1.129123
5950.000000;1.129256
5949.000000;1.129574
5948.000000;1.130024
5947.000000;1.130491
5946.000000;1.130913
5945.000000;1.131283
5944.000000;1.131609
5943.000000;1.131911
5942.000000;1.132221
5941.000000;1.132532
5940.000000;1.132787
5939.000000;1.132961
5938.000000;1.133142
5937.000000;1.133434
5936.000000;1.133824
5935.000000;1.134178
5934.000000;1.134403
5933.000000;1.134544
5932.000000;1.134712
5931.000000;1.134979
5930.000000;1.135345
5929.000000;1.135763
5928.000000;1.136156
5927.000000;1.136459
5926.000000;1.136684
5925.000000;1.136906
5924.000000;1.137166
5923.000000;1.137422
5922.000000;1.137608
5921.000000;1.137736
5920.000000;1.137880
5919.000000;1.138079
5918.000000;1.138308
5917.000000;1.138542
5916.000000;1.138796
5915.000000;1.139079
5914.000000;1.139314
5913.000000;1.139371
5912.000000;1.139196
5911.000000;1.138912
5910.000000;1.138761
5909.000000;1.138897
5908.000000;1.139243
5907.000000;1.139564
5906.000000;1.139702
5905.000000;1.139702
5904.000000;1.139696
5903.000000;1.139733
5902.000000;1.139759
5901.000000;1.139749
5900.000000;1.139747
5899.000000;1.139787
5898.000000;1.139832
5897.000000;1.139839
5896.000000;1.139844
5895.000000;1.139923
5894.000000;1.140094
5893.000000;1.140305
5892.000000;1.140498
5891.000000;1.140647
5890.000000;1.140719
5889.000000;1.140682
5888.000000;1.140554
5887.000000;1.140428
5886.000000;1.140397
5885.000000;1.140485
5884.000000;1.140651
5883.000000;1.140850
5882.000000;1.141042
5881.000000;1.141199
5880.000000;1.141313
5879.000000;1.141412
5878.000000;1.141514
5877.000000;1.141602
5876.000000;1.141666
5875.000000;1.141745
5874.000000;1.141881
5873.000000;1.142043
5872.000000;1.142162
5871.000000;1.142242
5870.000000;1.142384
5869.000000;1.142653
5868.000000;1.142991
5867.000000;1.143293
5866.000000;1.143537
5865.000000;1.143781
5864.000000;1.144067
5863.000000;1.144383
5862.000000;1.144724
5861.000000;1.145117
5860.000000;1.145577
5859.000000;1.146069
5858.000000;1.146522
5857.000000;1.146893
5856.000000;1.147197
5855.000000;1.147485
5854.000000;1.147799
5853.000000;1.148134
5852.000000;1.148470
5851.000000;1.148830
5850.000000;1.149267
5849.000000;1.149777
5848.000000;1.150252
5847.000000;1.150581
5846.000000;1.150780
5845.000000;1.150986
5844.000000;1.151324
5843.000000;1.151810
5842.000000;1.152381
5841.000000;1.152957
5840.000000;1.153482
5839.000000;1.153952
5838.000000;1.154427
5837.000000;1.154977
5836.000000;1.155610
5835.000000;1.156266
5834.000000;1.156905
5833.000000;1.157543
5832.000000;1.158176
5831.000000;1.158722
5830.000000;1.159098
5829.000000;1.159325
5828.000000;1.159525
5827.000000;1.159822
5826.000000;1.160274
5825.000000;1.160882
5824.000000;1.161595
5823.000000;1.162309
5822.000000;1.162919
5821.000000;1.163419
5820.000000;1.163910
5819.000000;1.164463
5818.000000;1.165007
5817.000000;1.165409
5816.000000;1.165654
5815.000000;1.165896
5814.000000;1.166305
5813.000000;1.166894
5812.000000;1.167540
5811.000000;1.168136
5810.000000;1.168689
5809.000000;1.169262
5808.000000;1.169870
5807.000000;1.170464
5806.000000;1.170997
5805.000000;1.171478
5804.000000;1.171966
5803.000000;1.172511
5802.000000;1.173111
5801.000000;1.173720
5800.000000;1.174288
5799.000000;1.174821
5798.000000;1.175381
5797.000000;1.176033
5796.000000;1.176782
5795.000000;1.177557
5794.000000;1.178263
5793.000000;1.178849
5792.000000;1.179330
5791.000000;1.179764
5790.000000;1.180209
5789.000000;1.180690
5788.000000;1.181208
5787.000000;1.181750
5786.000000;1.182309
5785.000000;1.182884
5784.000000;1.183491
5783.000000;1.184143
5782.000000;1.184814
5781.000000;1.185430
5780.000000;1.185929
5779.000000;1.186333
5778.000000;1.186750
5777.000000;1.187288
5776.000000;1.187967
5775.000000;1.188714
5774.000000;1.189415
5773.000000;1.189993
5772.000000;1.190455
5771.000000;1.190891
5770.000000;1.191413
5769.000000;1.192060
5768.000000;1.192762
5767.000000;1.193423
5766.000000;1.194019
5765.000000;1.194593
5764.000000;1.195163
5763.000000;1.195673
5762.000000;1.196069
5761.000000;1.196392
5760.000000;1.196751
5759.000000;1.197201
5758.000000;1.197698
5757.000000;1.198182
5756.000000;1.198671
5755.000000;1.199241
5754.000000;1.199905
5753.000000;1.200576
5752.000000;1.201152
5751.000000;1.201607
5750.000000;1.201989
5749.000000;1.202358
5748.000000;1.202769
5747.000000;1.203277
5746.000000;1.203898
5745.000000;1.204568
5744.000000;1.205181
5743.000000;1.205675
5742.000000;1.206076
5741.000000;1.206462
5740.000000;1.206917
5739.000000;1.207503
5738.000000;1.208215
5737.000000;1.208954
5736.000000;1.209566
5735.000000;1.209958
5734.000000;1.210180
5733.000000;1.210367
5732.000000;1.210645
5731.000000;1.211081
5730.000000;1.211674
5729.000000;1.212352
5728.000000;1.213003
5727.000000;1.213548
5726.000000;1.214018
5725.000000;1.214521
5724.000000;1.215131
5723.000000;1.215812
5722.000000;1.216456
5721.000000;1.216985
5720.000000;1.217424
5719.000000;1.217862
5718.000000;1.218358
5717.000000;1.218912
5716.000000;1.219515
5715.000000;1.220181
5714.000000;1.220888
5713.000000;1.221523
5712.000000;1.221975
5711.000000;1.222306
5710.000000;1.222731
5709.000000;1.223390
5708.000000;1.224176
5707.000000;1.224850
5706.000000;1.225272
5705.000000;1.225500
5704.000000;1.225703
5703.000000;1.226043
5702.000000;1.226602
5701.000000;1.227323
5700.000000;1.228038
5699.000000;1.228624
5698.000000;1.229130
5697.000000;1.229693
5696.000000;1.230336
5695.000000;1.230932
5694.000000;1.231394
5693.000000;1.231766
5692.000000;1.232166
5691.000000;1.232619
5690.000000;1.233087
5689.000000;1.233594
5688.000000;1.234186
5687.000000;1.234834
5686.000000;1.235451
5685.000000;1.236015
5684.000000;1.236605
5683.000000;1.237271
5682.000000;1.237940
5681.000000;1.238494
5680.000000;1.238919
5679.000000;1.239300
5678.000000;1.239713
5677.000000;1.240169
5676.000000;1.240659
5675.000000;1.241202
5674.000000;1.241794
5673.000000;1.242378
5672.000000;1.242895
5671.000000;1.243371
5670.000000;1.243880
5669.000000;1.244430
5668.000000;1.244939
5667.000000;1.245345
5666.000000;1.245685
5665.000000;1.246046
5664.000000;1.246460
5663.000000;1.246901
5662.000000;1.247333
5661.000000;1.247738
5660.000000;1.248107
5659.000000;1.248460
5658.000000;1.248867
5657.000000;1.249386
5656.000000;1.249984
5655.000000;1.250534
5654.000000;1.250933
5653.000000;1.251197
5652.000000;1.251431
5651.000000;1.251731
5650.000000;1.252112
5649.000000;1.252519
5648.000000;1.252895
5647.000000;1.253249
5646.000000;1.253644
5645.000000;1.254113
5644.000000;1.254596
5643.000000;1.255000
5642.000000;1.255326
5641.000000;1.255690
5640.000000;1.256213
5639.000000;1.256887
5638.000000;1.257574
5637.000000;1.258124
5636.000000;1.258495
5635.000000;1.258769
5634.000000;1.259056
5633.000000;1.259381
5632.000000;1.259669
5631.000000;1.259867
5630.000000;1.260063
5629.000000;1.260425
5628.000000;1.261022
5627.000000;1.261729
5626.000000;1.262344
5625.000000;1.262756
5624.000000;1.262991
5623.000000;1.263137
5622.000000;1.263271
5621.000000;1.263449
5620.000000;1.263686
5619.000000;1.263940
5618.000000;1.264148
5617.000000;1.264309
5616.000000;1.264493
5615.000000;1.264757
5614.000000;1.265072
5613.000000;1.265368
5612.000000;1.265620
5611.000000;1.265868
5610.000000;1.266148
5609.000000;1.266448
5608.000000;1.266738
5607.000000;1.267011
5606.000000;1.267297
5605.000000;1.267637
5604.000000;1.268067
5603.000000;1.268584
5602.000000;1.269108
5601.000000;1.269519
5600.000000;1.269735
5599.000000;1.269777
5598.000000;1.269728
5597.000000;1.269678
5596.000000;1.269706
5595.000000;1.269868
5594.000000;1.270148
5593.000000;1.270415
5592.000000;1.270523
5591.000000;1.270466
5590.000000;1.270388
5589.000000;1.270420
5588.000000;1.270555
5587.000000;1.270715
5586.000000;1.270874
5585.000000;1.271063
5584.000000;1.271291
5583.000000;1.271506
5582.000000;1.271653
5581.000000;1.271719
5580.000000;1.271742
5579.000000;1.271787
5578.000000;1.271899
5577.000000;1.272049
5576.000000;1.272150
5575.000000;1.272154
5574.000000;1.272121
5573.000000;1.272143
5572.000000;1.272224
5571.000000;1.272293
5570.000000;1.272329
5569.000000;1.272405
5568.000000;1.272575
5567.000000;1.272799
5566.000000;1.272996
5565.000000;1.273141
5564.000000;1.273238
5563.000000;1.273254
5562.000000;1.273136
5561.000000;1.272885
5560.000000;1.272598
5559.000000;1.272409
5558.000000;1.272408
5557.000000;1.272588
5556.000000;1.272837
5555.000000;1.273009
5554.000000;1.273028
5553.000000;1.272947
5552.000000;1.272884
5551.000000;1.272901
5550.000000;1.272959
5549.000000;1.272973
5548.000000;1.272894
5547.000000;1.272734
5546.000000;1.272543
5545.000000;1.272378
5544.000000;1.272277
5543.000000;1.272245
5542.000000;1.272258
5541.000000;1.272276
5540.000000;1.272283
5539.000000;1.272295
5538.000000;1.272346
5537.000000;1.272434
5536.000000;1.272502
5535.000000;1.272506
5534.000000;1.272490
5533.000000;1.272563
5532.000000;1.272763
5531.000000;1.272987
5530.000000;1.273081
5529.000000;1.273001
5528.000000;1.272841
5527.000000;1.272725
5526.000000;1.272710
5525.000000;1.272792
5524.000000;1.272952
5523.000000;1.273147
5522.000000;1.273285
5521.000000;1.273273
5520.000000;1.273121
5519.000000;1.272935
5518.000000;1.272806
5517.000000;1.272726
5516.000000;1.272655
5515.000000;1.272611
5514.000000;1.272633
5513.000000;1.272678
5512.000000;1.272646
5511.000000;1.272530
5510.000000;1.272462
5509.000000;1.272556
5508.000000;1.272741
5507.000000;1.272847
5506.000000;1.272805
5505.000000;1.272719
5504.000000;1.272721
5503.000000;1.272831
5502.000000;1.272968
5501.000000;1.273058
5500.000000;1.273120
5499.000000;1.273235
5498.000000;1.273441
5497.000000;1.273662
5496.000000;1.273766
5495.000000;1.273714
5494.000000;1.273610
5493.000000;1.273587
5492.000000;1.273657
5491.000000;1.273709
5490.000000;1.273655
5489.000000;1.273547
5488.000000;1.273547
5487.000000;1.273803
5486.000000;1.274328
5485.000000;1.274958
5484.000000;1.275465
5483.000000;1.275756
5482.000000;1.275928
5481.000000;1.276108
5480.000000;1.276301
5479.000000;1.276441
5478.000000;1.276556
5477.000000;1.276749
5476.000000;1.277048
5475.000000;1.277363
5474.000000;1.277618
5473.000000;1.277854
5472.000000;1.278164
5471.000000;1.278582
5470.000000;1.279057
5469.000000;1.279483
5468.000000;1.279763
5467.000000;1.279913
5466.000000;1.280063
5465.000000;1.280313
5464.000000;1.280619
5463.000000;1.280863
5462.000000;1.281020
5461.000000;1.281200
5460.000000;1.281562
5459.000000;1.282202
5458.000000;1.283087
5457.000000;1.284065
5456.000000;1.284937
5455.000000;1.285574
5454.000000;1.285975
5453.000000;1.286216
5452.000000;1.286395
5451.000000;1.286616
5450.000000;1.286971
5449.000000;1.287458
5448.000000;1.287974
5447.000000;1.288452
5446.000000;1.288962
5445.000000;1.289621
5444.000000;1.290432
5443.000000;1.291270
5442.000000;1.292044
5441.000000;1.292798
5440.000000;1.293636
5439.000000;1.294572
5438.000000;1.295509
5437.000000;1.296346
5436.000000;1.297070
5435.000000;1.297767
5434.000000;1.298542
5433.000000;1.299410
5432.000000;1.300301
5431.000000;1.301159
5430.000000;1.301975
5429.000000;1.302767
5428.000000;1.303576
5427.000000;1.304472
5426.000000;1.305526
5425.000000;1.306765
5424.000000;1.308141
5423.000000;1.309576
5422.000000;1.311016
5421.000000;1.312428
5420.000000;1.313798
5419.000000;1.315145
5418.000000;1.316527
5417.000000;1.317996
5416.000000;1.319483
5415.000000;1.320820
5414.000000;1.321913
5413.000000;1.322875
5412.000000;1.323936
5411.000000;1.325271
5410.000000;1.326890
5409.000000;1.328665
5408.000000;1.330469
5407.000000;1.332316
5406.000000;1.334363
5405.000000;1.336709
5404.000000;1.339220
5403.000000;1.341622
5402.000000;1.343772
5401.000000;1.345777
5400.000000;1.347837
5399.000000;1.350045
5398.000000;1.352366
5397.000000;1.354756
5396.000000;1.357220
5395.000000;1.359768
5394.000000;1.362392
5393.000000;1.365106
5392.000000;1.367954
5391.000000;1.370953
5390.000000;1.374058
5389.000000;1.377208
5388.000000;1.380385
5387.000000;1.383621
5386.000000;1.386976
5385.000000;1.390478
5384.000000;1.394053
5383.000000;1.397608
5382.000000;1.401157
5381.000000;1.404806
5380.000000;1.408647
5379.000000;1.412670
5378.000000;1.416781
5377.000000;1.420916
5376.000000;1.425138
5375.000000;1.429573
5374.000000;1.434272
5373.000000;1.439136
5372.000000;1.444020
5371.000000;1.448921
5370.000000;1.453968
5369.000000;1.459216
5368.000000;1.464564
5367.000000;1.469901
5366.000000;1.475271
5365.000000;1.480860
5364.000000;1.486815
5363.000000;1.493113
5362.000000;1.499605
5361.000000;1.506175
5360.000000;1.512875
5359.000000;1.519892
5358.000000;1.527333
5357.000000;1.535057
5356.000000;1.542809
5355.000000;1.550542
5354.000000;1.558504
5353.000000;1.566902
5352.000000;1.575576
5351.000000;1.584199
5350.000000;1.592712
5349.000000;1.601377
5348.000000;1.610417
5347.000000;1.619787
5346.000000;1.629358
5345.000000;1.639181
5344.000000;1.649436
5343.000000;1.660190
5342.000000;1.671341
5341.000000;1.682727
5340.000000;1.694241
5339.000000;1.705943
5338.000000;1.718035
5337.000000;1.730650
5336.000000;1.743652
5335.000000;1.756750
5334.000000;1.769851
5333.000000;1.783209
5332.000000;1.797206
5331.000000;1.811973
5330.000000;1.827264
5329.000000;1.842720
5328.000000;1.858240
5327.000000;1.874167
5326.000000;1.891001
5325.000000;1.908853
5324.000000;1.927304
5323.000000;1.945853
5322.000000;1.964347
5321.000000;1.982881
5320.000000;2.001509
5319.000000;2.020301
5318.000000;2.039497
5317.000000;2.059233
5316.000000;2.079251
5315.000000;2.099236
5314.000000;2.119302
5313.000000;2.139861
5312.000000;2.161228
5311.000000;2.183678
5310.000000;2.207541
5309.000000;2.232686
5308.000000;2.258097
5307.000000;2.282672
5306.000000;2.306370
5305.000000;2.329912
5304.000000;2.353621
5303.000000;2.377293
5302.000000;2.400890
5301.000000;2.424547
5300.000000;2.448139
5299.000000;2.471700
5298.000000;2.495960
5297.000000;2.521427
5296.000000;2.547125
5295.000000;2.571409
5294.000000;2.594026
5293.000000;2.616179
5292.000000;2.638496
5291.000000;2.660217
5290.000000;2.680390
5289.000000;2.698905
5288.000000;2.716435
5287.000000;2.733437
5286.000000;2.749249
5285.000000;2.762668
5284.000000;2.773833
5283.000000;2.785209
5282.000000;2.799421
5281.000000;2.816088
5280.000000;2.832472
5279.000000;2.847607
5278.000000;2.863137
5277.000000;2.878695
5276.000000;2.890117
5275.000000;2.895242
5274.000000;2.897901
5273.000000;2.902752
5272.000000;2.909427
5271.000000;2.914788
5270.000000;2.918791
5269.000000;2.924060
5268.000000;2.930732
5267.000000;2.935859
5266.000000;2.937709
5265.000000;2.937932
5264.000000;2.939828
5263.000000;2.945907
5262.000000;2.955688
5261.000000;2.964819
5260.000000;2.967781
5259.000000;2.963446
5258.000000;2.956612
5257.000000;2.952304
5256.000000;2.951516
5255.000000;2.952713
5254.000000;2.954078
5253.000000;2.953054
5252.000000;2.946802
5251.000000;2.936234
5250.000000;2.927325
5249.000000;2.925462
5248.000000;2.930380
5247.000000;2.938348
5246.000000;2.946496
5245.000000;2.953436
5244.000000;2.958517
5243.000000;2.962334
5242.000000;2.966415
5241.000000;2.970730
5240.000000;2.973087
5239.000000;2.973070
5238.000000;2.973898
5237.000000;2.977037
5236.000000;2.978515
5235.000000;2.974930
5234.000000;2.970015
5233.000000;2.969142
5232.000000;2.969783
5231.000000;2.964612
5230.000000;2.954105
5229.000000;2.948297
5228.000000;2.954605
5227.000000;2.969550
5226.000000;2.982762
5225.000000;2.987728
5224.000000;2.986954
5223.000000;2.986125
5222.000000;2.986797
5221.000000;2.985904
5220.000000;2.980493
5219.000000;2.971727
5218.000000;2.963838
5217.000000;2.960053
5216.000000;2.960174
5215.000000;2.961698
5214.000000;2.962791
5213.000000;2.963243
5212.000000;2.962633
5211.000000;2.959726
5210.000000;2.954654
5209.000000;2.950068
5208.000000;2.949014
5207.000000;2.952204
5206.000000;2.957714
5205.000000;2.963234
5204.000000;2.968140
5203.000000;2.972761
5202.000000;2.976035
5201.000000;2.975348
5200.000000;2.969952
5199.000000;2.963908
5198.000000;2.962972
5197.000000;2.968144
5196.000000;2.974186
5195.000000;2.975527
5194.000000;2.972888
5193.000000;2.971751
5192.000000;2.975579
5191.000000;2.981844
5190.000000;2.983852
5189.000000;2.978116
5188.000000;2.968493
5187.000000;2.961456
5186.000000;2.959868
5185.000000;2.961746
5184.000000;2.963816
5183.000000;2.965493
5182.000000;2.968260
5181.000000;2.971882
5180.000000;2.973914
5179.000000;2.973189
5178.000000;2.971574
5177.000000;2.971181
5176.000000;2.971271
5175.000000;2.968898
5174.000000;2.962262
5173.000000;2.953216
5172.000000;2.946824
5171.000000;2.948062
5170.000000;2.957546
5169.000000;2.969756
5168.000000;2.977178
5167.000000;2.977907
5166.000000;2.976693
5165.000000;2.977284
5164.000000;2.977416
5163.000000;2.973339
5162.000000;2.966814
5161.000000;2.963555
5160.000000;2.965998
5159.000000;2.971139
5158.000000;2.974381
5157.000000;2.973430
5156.000000;2.969087
5155.000000;2.964074
5154.000000;2.961155
5153.000000;2.961214
5152.000000;2.962914
5151.000000;2.964449
5150.000000;2.965457
5149.000000;2.966509
5148.000000;2.967285
5147.000000;2.967007
5146.000000;2.966206
5145.000000;2.966461
5144.000000;2.968447
5143.000000;2.970937
5142.000000;2.971887
5141.000000;2.970380
5140.000000;2.967471
5139.000000;2.964979
5138.000000;2.963635
5137.000000;2.962721
5136.000000;2.961805
5135.000000;2.962296
5134.000000;2.965872
5133.000000;2.971498
5132.000000;2.975196
5131.000000;2.973298
5130.000000;2.965941
5129.000000;2.957378
5128.000000;2.953463
5127.000000;2.958316
5126.000000;2.971031
5125.000000;2.984445
5124.000000;2.989575
5123.000000;2.984027
5122.000000;2.974051
5121.000000;2.967332
5120.000000;2.966664
5119.000000;2.969893
5118.000000;2.972998
5117.000000;2.972736
5116.000000;2.968343
5115.000000;2.962116
5114.000000;2.957292
5113.000000;2.954475
5112.000000;2.951350
5111.000000;2.947166
5110.000000;2.945369
5109.000000;2.949295
5108.000000;2.957145
5107.000000;2.962976
5106.000000;2.962647
5105.000000;2.958413
5104.000000;2.956565
5103.000000;2.960968
5102.000000;2.969289
5101.000000;2.974892
5100.000000;2.973146
5099.000000;2.965971
5098.000000;2.958916
5097.000000;2.955020
5096.000000;2.953495
5095.000000;2.953338
5094.000000;2.955586
5093.000000;2.961504
5092.000000;2.969982
5091.000000;2.977147
5090.000000;2.978306
5089.000000;2.971294
5088.000000;2.959138
5087.000000;2.948439
5086.000000;2.943593
5085.000000;2.942832
5084.000000;2.941012
5083.000000;2.936523
5082.000000;2.933463
5081.000000;2.936251
5080.000000;2.944374
5079.000000;2.952990
5078.000000;2.957107
5077.000000;2.954897
5076.000000;2.948136
5075.000000;2.940640
5074.000000;2.935711
5073.000000;2.934148
5072.000000;2.934915
5071.000000;2.937141
5070.000000;2.939989
5069.000000;2.941440
5068.000000;2.940217
5067.000000;2.939098
5066.000000;2.942772
5065.000000;2.951170
5064.000000;2.957472
5063.000000;2.955227
5062.000000;2.945767
5061.000000;2.935016
5060.000000;2.926283
5059.000000;2.920207
5058.000000;2.918441
5057.000000;2.922687
5056.000000;2.930690
5055.000000;2.936429
5054.000000;2.935471
5053.000000;2.928628
5052.000000;2.919887
5051.000000;2.912978
5050.000000;2.910265
5049.000000;2.912432
5048.000000;2.917644
5047.000000;2.922023
5046.000000;2.922535
5045.000000;2.919300
5044.000000;2.914520
5043.000000;2.909920
5042.000000;2.905868
5041.000000;2.902418
5040.000000;2.900344
5039.000000;2.900306
5038.000000;2.901505
5037.000000;2.902644
5036.000000;2.903729
5035.000000;2.906143
5034.000000;2.910768
5033.000000;2.915784
5032.000000;2.917758
5031.000000;2.915118
5030.000000;2.908560
5029.000000;2.898822
5028.000000;2.887152
5027.000000;2.877465
5026.000000;2.874384
5025.000000;2.877953
5024.000000;2.882482
5023.000000;2.882714
5022.000000;2.879920
5021.000000;2.879252
5020.000000;2.882725
5019.000000;2.887140
5018.000000;2.887328
5017.000000;2.879980
5016.000000;2.865811
5015.000000;2.849569
5014.000000;2.837465
5013.000000;2.833378
5012.000000;2.836945
5011.000000;2.844986
5010.000000;2.853658
5009.000000;2.859049
5008.000000;2.858791
5007.000000;2.854397
5006.000000;2.849500
5005.000000;2.844850
5004.000000;2.837151
5003.000000;2.825221
5002.000000;2.815037
5001.000000;2.814648
5000.000000;2.825384
4999.000000;2.839794
4998.000000;2.848015
4997.000000;2.845970
4996.000000;2.837014
4995.000000;2.827564
4994.000000;2.822674
4993.000000;2.823548
4992.000000;2.826637
4991.000000;2.826354
4990.000000;2.820976
4989.000000;2.814524
4988.000000;2.811385
4987.000000;2.811066
4986.000000;2.809319
4985.000000;2.803458
4984.000000;2.795156
4983.000000;2.787904
4982.000000;2.783337
4981.000000;2.780301
4980.000000;2.776412
4979.000000;2.770383
4978.000000;2.762816
4977.000000;2.755078
4976.000000;2.748385
4975.000000;2.743558
4974.000000;2.740790
4973.000000;2.739631
4972.000000;2.739594
4971.000000;2.740791
4970.000000;2.743196
4969.000000;2.745410
4968.000000;2.745324
4967.000000;2.742627
4966.000000;2.739365
4965.000000;2.736729
4964.000000;2.732827
4963.000000;2.725440
4962.000000;2.715973
4961.000000;2.708438
4960.000000;2.704944
4959.000000;2.703817
4958.000000;2.701939
4957.000000;2.697952
4956.000000;2.692859
4955.000000;2.688291
4954.000000;2.684944
4953.000000;2.682212
4952.000000;2.678993
4951.000000;2.675036
4950.000000;2.671288
4949.000000;2.668794
4948.000000;2.667795
4947.000000;2.668231
4946.000000;2.670196
4945.000000;2.672801
4944.000000;2.673218
4943.000000;2.668692
4942.000000;2.659941
4941.000000;2.650828
4940.000000;2.644319
4939.000000;2.640143
4938.000000;2.636574
4937.000000;2.633262
4936.000000;2.631293
4935.000000;2.630937
4934.000000;2.630506
4933.000000;2.627832
4932.000000;2.622527
4931.000000;2.616278
4930.000000;2.611037
4929.000000;2.607491
4928.000000;2.605337
4927.000000;2.604358
4926.000000;2.604477
4925.000000;2.604785
4924.000000;2.603522
4923.000000;2.599649
4922.000000;2.593911
4921.000000;2.587857
4920.000000;2.582294
4919.000000;2.577201
4918.000000;2.572546
4917.000000;2.568342
4916.000000;2.564437
4915.000000;2.560900
4914.000000;2.558165
4913.000000;2.556332
4912.000000;2.554588
4911.000000;2.551943
4910.000000;2.548358
4909.000000;2.544477
4908.000000;2.540667
4907.000000;2.537028
4906.000000;2.533880
4905.000000;2.531278
4904.000000;2.528329
4903.000000;2.524110
4902.000000;2.519188
4901.000000;2.515160
4900.000000;2.512657
4899.000000;2.510769
4898.000000;2.508564
4897.000000;2.506141
4896.000000;2.503877
4895.000000;2.501680
4894.000000;2.499513
4893.000000;2.497808
4892.000000;2.496693
4891.000000;2.495309
4890.000000;2.492636
4889.000000;2.488687
4888.000000;2.484215
4887.000000;2.479553
4886.000000;2.474519
4885.000000;2.469336
4884.000000;2.464949
4883.000000;2.462214
4882.000000;2.460990
4881.000000;2.460083
4880.000000;2.458098
4879.000000;2.454580
4878.000000;2.450521
4877.000000;2.447561
4876.000000;2.446452
4875.000000;2.446310
4874.000000;2.445253
4873.000000;2.441779
4872.000000;2.435888
4871.000000;2.429373
4870.000000;2.424806
4869.000000;2.423445
4868.000000;2.423790
4867.000000;2.422522
4866.000000;2.417614
4865.000000;2.410550
4864.000000;2.404820
4863.000000;2.402464
4862.000000;2.402524
4861.000000;2.402441
4860.000000;2.400419
4859.000000;2.396489
4858.000000;2.391890
4857.000000;2.387906
4856.000000;2.385089
4855.000000;2.383143
4854.000000;2.381399
4853.000000;2.379452
4852.000000;2.377357
4851.000000;2.375360
4850.000000;2.373458
4849.000000;2.371205
4848.000000;2.368067
4847.000000;2.363995
4846.000000;2.359576
4845.000000;2.355546
4844.000000;2.352116
4843.000000;2.348929
4842.000000;2.345785
4841.000000;2.343142
4840.000000;2.341572
4839.000000;2.340767
4838.000000;2.339513
4837.000000;2.336945
4836.000000;2.333564
4835.000000;2.330670
4834.000000;2.328952
4833.000000;2.327952
4832.000000;2.326668
4831.000000;2.324265
4830.000000;2.320289
4829.000000;2.314855
4828.000000;2.308941
4827.000000;2.304055
4826.000000;2.301050
4825.000000;2.299336
4824.000000;2.297513
4823.000000;2.294708
4822.000000;2.291100
4821.000000;2.287438
4820.000000;2.284608
4819.000000;2.283370
4818.000000;2.283693
4817.000000;2.284227
4816.000000;2.283195
4815.000000;2.280126
4814.000000;2.276088
4813.000000;2.272001
4812.000000;2.267611
4811.000000;2.262710
4810.000000;2.258421
4809.000000;2.256097
4808.000000;2.255283
4807.000000;2.254024
4806.000000;2.251311
4805.000000;2.248177
4804.000000;2.245973
4803.000000;2.244513
4802.000000;2.242707
4801.000000;2.240295
4800.000000;2.238037
4799.000000;2.236300
4798.000000;2.234361
4797.000000;2.231442
4796.000000;2.227807
4795.000000;2.224376
4794.000000;2.221661
4793.000000;2.219491
4792.000000;2.217540
4791.000000;2.215604
4790.000000;2.213301
4789.000000;2.210031
4788.000000;2.205665
4787.000000;2.201102
4786.000000;2.197621
4785.000000;2.195612
4784.000000;2.194271
4783.000000;2.192645
4782.000000;2.190631
4781.000000;2.188625
4780.000000;2.186558
4779.000000;2.183856
4778.000000;2.180335
4777.000000;2.176608
4776.000000;2.173438
4775.000000;2.171051
4774.000000;2.169245
4773.000000;2.167818
4772.000000;2.166557
4771.000000;2.165038
4770.000000;2.162778
4769.000000;2.159630
4768.000000;2.155873
4767.000000;2.151965
4766.000000;2.148298
4765.000000;2.145084
4764.000000;2.142334
4763.000000;2.139991
4762.000000;2.138124
4761.000000;2.136828
4760.000000;2.135833
4759.000000;2.134418
4758.000000;2.132010
4757.000000;2.128828
4756.000000;2.125687
4755.000000;2.123142
4754.000000;2.121064
4753.000000;2.119043
4752.000000;2.116851
4751.000000;2.114363
4750.000000;2.111328
4749.000000;2.107625
4748.000000;2.103681
4747.000000;2.100284
4746.000000;2.097838
4745.000000;2.095942
4744.000000;2.093853
4743.000000;2.091283
4742.000000;2.088634
4741.000000;2.086496
4740.000000;2.085026
4739.000000;2.083816
4738.000000;2.082210
4737.000000;2.079774
4736.000000;2.076578
4735.000000;2.073157
4734.000000;2.070133
4733.000000;2.067783
4732.000000;2.065939
4731.000000;2.064287
4730.000000;2.062695
4729.000000;2.061210
4728.000000;2.059761
4727.000000;2.057993
4726.000000;2.055476
4725.000000;2.052150
4724.000000;2.048553
4723.000000;2.045492
4722.000000;2.043340
4721.000000;2.041635
4720.000000;2.039527
4719.000000;2.036708
4718.000000;2.033760
4717.000000;2.031473
4716.000000;2.029967
4715.000000;2.028655
4714.000000;2.026937
4713.000000;2.024711
4712.000000;2.022236
4711.000000;2.019786
4710.000000;2.017557
4709.000000;2.015707
4708.000000;2.014299
4707.000000;2.013211
4706.000000;2.012145
4705.000000;2.010725
4704.000000;2.008666
4703.000000;2.006017
4702.000000;2.003247
4701.000000;2.000918
4700.000000;1.999226
4699.000000;1.997937
4698.000000;1.996710
4697.000000;1.995280
4696.000000;1.993360
4695.000000;1.990735
4694.000000;1.987659
4693.000000;1.984805
4692.000000;1.982581
4691.000000;1.980687
4690.000000;1.978609
4689.000000;1.976388
4688.000000;1.974545
4687.000000;1.973313
4686.000000;1.972306
4685.000000;1.971001
4684.000000;1.969200
4683.000000;1.966906
4682.000000;1.964103
4681.000000;1.960936
4680.000000;1.957903
4679.000000;1.955555
4678.000000;1.954010
4677.000000;1.952879
4676.000000;1.951675
4675.000000;1.950218
4674.000000;1.948624
4673.000000;1.947014
4672.000000;1.945301
4671.000000;1.943288
4670.000000;1.940965
4669.000000;1.938616
4668.000000;1.936544
4667.000000;1.934734
4666.000000;1.932926
4665.000000;1.931040
4664.000000;1.929342
4663.000000;1.928070
4662.000000;1.927068
4661.000000;1.925953
4660.000000;1.924579
4659.000000;1.923147
4658.000000;1.921802
4657.000000;1.920301
4656.000000;1.918213
4655.000000;1.915447
4654.000000;1.912497
4653.000000;1.910127
4652.000000;1.908765
4651.000000;1.908211
4650.000000;1.907881
4649.000000;1.907310
4648.000000;1.906338
4647.000000;1.904941
4646.000000;1.903112
4645.000000;1.901017
4644.000000;1.899044
4643.000000;1.897497
4642.000000;1.896277
4641.000000;1.894976
4640.000000;1.893306
4639.000000;1.891366
4638.000000;1.889518
4637.000000;1.888056
4636.000000;1.886956
4635.000000;1.885897
4634.000000;1.884607
4633.000000;1.883223
4632.000000;1.882169
4631.000000;1.881552
4630.000000;1.880840
4629.000000;1.879374
4628.000000;1.877146
4627.000000;1.874775
4626.000000;1.872739
4625.000000;1.870884
4624.000000;1.868769
4623.000000;1.866262
4622.000000;1.863708
4621.000000;1.861686
4620.000000;1.860659
4619.000000;1.860613
4618.000000;1.860902
4617.000000;1.860634
4616.000000;1.859466
4615.000000;1.857900
4614.000000;1.856658
4613.000000;1.855850
4612.000000;1.854939
4611.000000;1.853385
4610.000000;1.851161
4609.000000;1.848745
4608.000000;1.846776
4607.000000;1.845640
4606.000000;1.845147
4605.000000;1.844617
4604.000000;1.843502
4603.000000;1.841984
4602.000000;1.840788
4601.000000;1.840368
4600.000000;1.840406
4599.000000;1.840100
4598.000000;1.838870
4597.000000;1.836829
4596.000000;1.834731
4595.000000;1.833404
4594.000000;1.833057
4593.000000;1.833069
4592.000000;1.832582
4591.000000;1.831330
4590.000000;1.829769
4589.000000;1.828451
4588.000000;1.827497
4587.000000;1.826650
4586.000000;1.825586
4585.000000;1.824084
4584.000000;1.822153
4583.000000;1.820127
4582.000000;1.818444
4581.000000;1.817237
4580.000000;1.816338
4579.000000;1.815716
4578.000000;1.815567
4577.000000;1.815786
4576.000000;1.815668
4575.000000;1.814580
4574.000000;1.812788
4573.000000;1.811233
4572.000000;1.810489
4571.000000;1.810233
4570.000000;1.809704
4569.000000;1.808436
4568.000000;1.806570
4567.000000;1.804730
4566.000000;1.803617
4565.000000;1.803488
4564.000000;1.803916
4563.000000;1.804213
4562.000000;1.804064
4561.000000;1.803564
4560.000000;1.802700
4559.000000;1.801241
4558.000000;1.799259
4557.000000;1.797372
4556.000000;1.796210
4555.000000;1.795844
4554.000000;1.795892
4553.000000;1.795980
4552.000000;1.795910
4551.000000;1.795557
4550.000000;1.794864
4549.000000;1.793898
4548.000000;1.792765
4547.000000;1.791546
4546.000000;1.790449
4545.000000;1.789813
4544.000000;1.789739
4543.000000;1.789773
4542.000000;1.789256
4541.000000;1.787993
4540.000000;1.786408
4539.000000;1.785089
4538.000000;1.784369
4537.000000;1.784215
4536.000000;1.784244
4535.000000;1.783902
4534.000000;1.782928
4533.000000;1.781680
4532.000000;1.780775
4531.000000;1.780393
4530.000000;1.780157
4529.000000;1.779668
4528.000000;1.778853
4527.000000;1.777753
4526.000000;1.776416
4525.000000;1.775162
4524.000000;1.774528
4523.000000;1.774603
4522.000000;1.774686
4521.000000;1.774027
4520.000000;1.772804
4519.000000;1.771956
4518.000000;1.772035
4517.000000;1.772616
4516.000000;1.772868
4515.000000;1.772408
4514.000000;1.771436
4513.000000;1.770325
4512.000000;1.769349
4511.000000;1.768710
4510.000000;1.768484
4509.000000;1.768453
4508.000000;1.768128
4507.000000;1.767142
4506.000000;1.765677
4505.000000;1.764435
4504.000000;1.764073
4503.000000;1.764578
4502.000000;1.765224
4501.000000;1.765243
4500.000000;1.764592
4499.000000;1.763962
4498.000000;1.764001
4497.000000;1.764569
4496.000000;1.764836
4495.000000;1.764117
4494.000000;1.762581
4493.000000;1.761126
4492.000000;1.760597
4491.000000;1.761150
4490.000000;1.762259
4489.000000;1.763209
4488.000000;1.763547
4487.000000;1.763236
4486.000000;1.762552
4485.000000;1.761884
4484.000000;1.761504
4483.000000;1.761419
4482.000000;1.761472
4481.000000;1.761573
4480.000000;1.761757
4479.000000;1.762014
4478.000000;1.762230
4477.000000;1.762354
4476.000000;1.762506
4475.000000;1.762791
4474.000000;1.763121
4473.000000;1.763355
4472.000000;1.763514
4471.000000;1.763709
4470.000000;1.763917
4469.000000;1.764012
4468.000000;1.764029
4467.000000;1.764186
4466.000000;1.764606
4465.000000;1.765184
4464.000000;1.765779
4463.000000;1.766417
4462.000000;1.767208
4461.000000;1.768184
4460.000000;1.769290
4459.000000;1.770463
4458.000000;1.771631
4457.000000;1.772667
4456.000000;1.773475
4455.000000;1.774157
4454.000000;1.774987
4453.000000;1.776138
4452.000000;1.777471
4451.000000;1.778664
4450.000000;1.779560
4449.000000;1.780319
4448.000000;1.781155
4447.000000;1.782006
4446.000000;1.782667
4445.000000;1.783243
4444.000000;1.784241
4443.000000;1.786009
4442.000000;1.788233
4441.000000;1.790225
4440.000000;1.791673
4439.000000;1.792918
4438.000000;1.794445
4437.000000;1.796346
4436.000000;1.798362
4435.000000;1.800287
4434.000000;1.802146
4433.000000;1.803994
4432.000000;1.805684
4431.000000;1.806946
4430.000000;1.807795
4429.000000;1.808820
4428.000000;1.810839
4427.000000;1.814049
4426.000000;1.817602
4425.000000;1.820319
4424.000000;1.821874
4423.000000;1.823025
4422.000000;1.824646
4421.000000;1.826865
4420.000000;1.829305
4419.000000;1.831819
4418.000000;1.834636
4417.000000;1.837841
4416.000000;1.841083
4415.000000;1.843923
4414.000000;1.846346
4413.000000;1.848850
4412.000000;1.851900
4411.000000;1.855302
4410.000000;1.858264
4409.000000;1.860286
4408.000000;1.861884
4407.000000;1.864125
4406.000000;1.867406
4405.000000;1.871068
4404.000000;1.874357
4403.000000;1.877435
4402.000000;1.881066
4401.000000;1.885463
4400.000000;1.889825
4399.000000;1.893085
4398.000000;1.894906
4397.000000;1.895921
4396.000000;1.897218
4395.000000;1.899634
4394.000000;1.903318
4393.000000;1.907727
4392.000000;1.911962
4391.000000;1.915198
4390.000000;1.917043
4389.000000;1.917828
4388.000000;1.918586
4387.000000;1.920373
4386.000000;1.923393
4385.000000;1.926970
4384.000000;1.930451
4383.000000;1.933838
4382.000000;1.937357
4381.000000;1.940770
4380.000000;1.943530
4379.000000;1.945398
4378.000000;1.946625
4377.000000;1.947849
4376.000000;1.950081
4375.000000;1.954131
4374.000000;1.959274
4373.000000;1.962930
4372.000000;1.962900
4371.000000;1.960131
4370.000000;1.958126
4369.000000;1.959425
4368.000000;1.963445
4367.000000;1.967846
4366.000000;1.971288
4365.000000;1.974303
4364.000000;1.977883
4363.000000;1.982096
4362.000000;1.986156
4361.000000;1.989295
4360.000000;1.991365
4359.000000;1.992673
4358.000000;1.993338
4357.000000;1.993166
4356.000000;1.992478
4355.000000;1.992608
4354.000000;1.994715
4353.000000;1.998025
4352.000000;2.000193
4351.000000;2.000028
4350.000000;1.999066
4349.000000;1.999662
4348.000000;2.002283
4347.000000;2.005589
4346.000000;2.008674
4345.000000;2.011949
4344.000000;2.015605
4343.000000;2.018500
4342.000000;2.019386
4341.000000;2.018737
4340.000000;2.018475
4339.000000;2.019943
4338.000000;2.022781
4337.000000;2.025665
4336.000000;2.027670
4335.000000;2.028725
4334.000000;2.029000
4333.000000;2.028354
4332.000000;2.026747
4331.000000;2.025135
4330.000000;2.025247
4329.000000;2.027946
4328.000000;2.032126
4327.000000;2.035687
4326.000000;2.037552
4325.000000;2.038427
4324.000000;2.039607
4323.000000;2.041526
4322.000000;2.043725
4321.000000;2.045819
4320.000000;2.048051
4319.000000;2.050911
4318.000000;2.054415
4317.000000;2.057685
4316.000000;2.059341
4315.000000;2.058744
4314.000000;2.056839
4313.000000;2.055269
4312.000000;2.054700
4311.000000;2.054596
4310.000000;2.054637
4309.000000;2.055609
4308.000000;2.058227
4307.000000;2.061447
4306.000000;2.063045
4305.000000;2.062224
4304.000000;2.060914
4303.000000;2.061871
4302.000000;2.065798
4301.000000;2.070728
4300.000000;2.074094
4299.000000;2.075225
4298.000000;2.075792
4297.000000;2.077895
4296.000000;2.081783
4295.000000;2.085376
4294.000000;2.086311
4293.000000;2.084620
4292.000000;2.082884
4291.000000;2.083477
4290.000000;2.086197
4289.000000;2.089084
4288.000000;2.091203
4287.000000;2.093498
4286.000000;2.096734
4285.000000;2.099977
4284.000000;2.101987
4283.000000;2.103294
4282.000000;2.105633
4281.000000;2.109551
4280.000000;2.113838
4279.000000;2.117450
4278.000000;2.120753
4277.000000;2.124427
4276.000000;2.128262
4275.000000;2.131972
4274.000000;2.136560
4273.000000;2.143773
4272.000000;2.154059
4271.000000;2.165411
4270.000000;2.174102
4269.000000;2.176653
4268.000000;2.172294
4267.000000;2.164421
4266.000000;2.159240
4265.000000;2.161887
4264.000000;2.172773
4263.000000;2.187124
4262.000000;2.198876
4261.000000;2.205643
4260.000000;2.208993
4259.000000;2.210416
4258.000000;2.209302
4257.000000;2.205346
4256.000000;2.200884
4255.000000;2.199157
4254.000000;2.200966
4253.000000;2.204446
4252.000000;2.207770
4251.000000;2.210565
4250.000000;2.212998
4249.000000;2.215650
4248.000000;2.219769
4247.000000;2.226167
4246.000000;2.234341
4245.000000;2.242051
4244.000000;2.246199
4243.000000;2.245646
4242.000000;2.242916
4241.000000;2.242657
4240.000000;2.248477
4239.000000;2.260457
4238.000000;2.274778
4237.000000;2.285659
4236.000000;2.289059
4235.000000;2.285617
4234.000000;2.280283
4233.000000;2.279395
4232.000000;2.287138
4231.000000;2.302916
4230.000000;2.320837
4229.000000;2.332625
4228.000000;2.333176
4227.000000;2.324012
4226.000000;2.311696
4225.000000;2.303960
4224.000000;2.306275
4223.000000;2.319225
4222.000000;2.337327
4221.000000;2.352224
4220.000000;2.359948
4219.000000;2.363236
4218.000000;2.365864
4217.000000;2.368612
4216.000000;2.371179
4215.000000;2.375035
4214.000000;2.381625
4213.000000;2.388070
4212.000000;2.387705
4211.000000;2.377501
4210.000000;2.363055
4209.000000;2.354072
4208.000000;2.356988
4207.000000;2.370941
4206.000000;2.387549
4205.000000;2.396318
4204.000000;2.394750
4203.000000;2.390449
4202.000000;2.391616
4201.000000;2.400548
4200.000000;2.415973
4199.000000;2.436400
4198.000000;2.457747
4197.000000;2.470871
4196.000000;2.468773
4195.000000;2.456072
4194.000000;2.443774
4193.000000;2.436841
4192.000000;2.433645
4191.000000;2.434030
4190.000000;2.439805
4189.000000;2.447023
4188.000000;2.446971
4187.000000;2.439129
4186.000000;2.433868
4185.000000;2.438688
4184.000000;2.449162
4183.000000;2.456618
4182.000000;2.458432
4181.000000;2.454662
4180.000000;2.446555
4179.000000;2.442563
4178.000000;2.453980
4177.000000;2.481688
4176.000000;2.510725
4175.000000;2.524668
4174.000000;2.526239
4173.000000;2.530462
4172.000000;2.540647
4171.000000;2.545035
4170.000000;2.532659
4169.000000;2.507799
4168.000000;2.488791
4167.000000;2.487835
4166.000000;2.506514
4165.000000;2.539274
4164.000000;2.563843
4163.000000;2.554393
4162.000000;2.520775
4161.000000;2.497030
4160.000000;2.500419
4159.000000;2.521980
4158.000000;2.541344
4157.000000;2.547772
4156.000000;2.546480
4155.000000;2.547480
4154.000000;2.557035
4153.000000;2.572335
4152.000000;2.582614
4151.000000;2.582347
4150.000000;2.576023
4149.000000;2.574280
4148.000000;2.584728
4147.000000;2.605259
4146.000000;2.620252
4145.000000;2.620548
4144.000000;2.614377
4143.000000;2.600471
4142.000000;2.576243
4141.000000;2.552997
4140.000000;2.541021
4139.000000;2.536149
4138.000000;2.526382
4137.000000;2.515448
4136.000000;2.518719
4135.000000;2.536751
4134.000000;2.555131
4133.000000;2.562189
4132.000000;2.558856
4131.000000;2.554496
4130.000000;2.559406
4129.000000;2.581773
4128.000000;2.626803
4127.000000;2.688071
4126.000000;2.724949
4125.000000;2.701075
4124.000000;2.648928
4123.000000;2.600283
4122.000000;2.558284
4121.000000;2.519179
4120.000000;2.482621
4119.000000;2.458974
4118.000000;2.462319
4117.000000;2.498957
4116.000000;2.565440
4115.000000;2.657548
4114.000000;2.749920
4113.000000;2.768853
4112.000000;2.738671
4111.000000;2.719228
4110.000000;2.681456
4109.000000;2.615521
4108.000000;2.553760
4107.000000;2.517737
4106.000000;2.517131
4105.000000;2.552830
4104.000000;2.611085
4103.000000;2.669670
4102.000000;2.718289
4101.000000;2.743065
4100.000000;2.720018
4099.000000;2.679958
4098.000000;2.662212
4097.000000;2.661237
4096.000000;2.665257
4095.000000;2.682600
4094.000000;2.729307
4093.000000;2.808057
4092.000000;2.882069
4091.000000;2.861847
4090.000000;2.725063
4089.000000;2.578909
4088.000000;2.486983
4087.000000;2.445731
4086.000000;2.438942
4085.000000;2.468163
4084.000000;2.526485
4083.000000;2.560932
4082.000000;2.536769
4081.000000;2.476586
4080.000000;2.416248
4079.000000;2.400888
4078.000000;2.448943
4077.000000;2.542776
4076.000000;2.625135
4075.000000;2.637304
4074.000000;2.601127
4073.000000;2.575919
4072.000000;2.592838
4071.000000;2.635828
4070.000000;2.642574
4069.000000;2.566326
4068.000000;2.467462
4067.000000;2.424994
4066.000000;2.449288
4065.000000;2.491594
4064.000000;2.481224
4063.000000;2.413223
4062.000000;2.351367
4061.000000;2.343790
4060.000000;2.404046
4059.000000;2.511348
4058.000000;2.614238
4057.000000;2.665416
4056.000000;2.631761
4055.000000;2.545853
4054.000000;2.503049
4053.000000;2.582069
4052.000000;2.817378
4051.000000;2.884565
4050.000000;2.770956
4049.000000;3.036291
4048.000000;3.347682
4047.000000;2.891469
4046.000000;2.716128
4045.000000;2.667873
4044.000000;2.605629
4043.000000;2.512192
4042.000000;2.440295
4041.000000;2.418848
4040.000000;2.427720
4039.000000;2.428701
4038.000000;2.408855
4037.000000;2.398244
4036.000000;2.427179
4035.000000;2.487758
4034.000000;2.527881
4033.000000;2.546501
4032.000000;2.611610
4031.000000;2.823628
4030.000000;3.185553
4029.000000;3.058290
4028.000000;2.893679
4027.000000;2.804184
4026.000000;2.733435
4025.000000;2.681114
4024.000000;2.588043
4023.000000;2.483229
4022.000000;2.411022
4021.000000;2.387382
4020.000000;2.408506
4019.000000;2.442332
4018.000000;2.448441
4017.000000;2.433778
4016.000000;2.435625
4015.000000;2.456949
4014.000000;2.470609
4013.000000;2.485023
4012.000000;2.499314
4011.000000;2.458499
4010.000000;2.393317
4009.000000;2.372262
4008.000000;2.406173
4007.000000;2.491026
4006.000000;2.640440
4005.000000;2.925125
4004.000000;3.500395
4003.000000;3.261564
4002.000000;3.060381
4001.000000;3.253921
4000.000000;2.925626
3999.000000;2.614610
3998.000000;2.536764
3997.000000;2.513448
3996.000000;2.502907
3995.000000;2.561230
3994.000000;2.732121
3993.000000;2.940574
3992.000000;2.907679
3991.000000;2.741887
3990.000000;2.670243
3989.000000;2.691615
3988.000000;2.711117
3987.000000;2.702230
3986.000000;2.691360
3985.000000;2.648788
3984.000000;2.589594
3983.000000;2.566944
3982.000000;2.613526
3981.000000;2.772952
3980.000000;2.990930
3979.000000;2.935669
3978.000000;2.874483
3977.000000;2.979109
3976.000000;3.017210
3975.000000;2.875662
3974.000000;2.810969
3973.000000;2.838192
3972.000000;2.891941
3971.000000;2.788482
3970.000000;2.599414
3969.000000;2.520145
3968.000000;2.575160
3967.000000;2.688991
3966.000000;2.721469
3965.000000;2.643837
3964.000000;2.482824
3963.000000;2.355776
3962.000000;2.323650
3961.000000;2.371667
3960.000000;2.465372
3959.000000;2.557994
3958.000000;2.634564
3957.000000;2.733227
3956.000000;2.886615
3955.000000;3.157976
3954.000000;3.673880
3953.000000;4.242226
3952.000000;4.399650
3951.000000;3.483014
3950.000000;3.126610
3949.000000;2.924075
3948.000000;2.753374
3947.000000;2.643691
3946.000000;2.622222
3945.000000;2.712664
3944.000000;2.897978
3943.000000;2.958706
3942.000000;2.870384
3941.000000;2.899167
3940.000000;3.175907
3939.000000;3.455902
3938.000000;3.337225
3937.000000;3.348475
3936.000000;3.284262
3935.000000;3.059536
3934.000000;2.886196
3933.000000;2.775174
3932.000000;2.698451
3931.000000;2.657891
3930.000000;2.648304
3929.000000;2.678010
3928.000000;2.771942
3927.000000;2.935179
3926.000000;3.182360
3925.000000;3.292341
3924.000000;3.500437
3923.000000;3.969231
3922.000000;3.098333
3921.000000;2.857726
3920.000000;2.855165
3919.000000;3.021147
3918.000000;3.148809
3917.000000;3.058593
3916.000000;3.166896
3915.000000;3.590399
3914.000000;3.720063
3913.000000;3.453844
3912.000000;3.305922
3911.000000;3.141415
3910.000000;3.080963
3909.000000;3.037648
3908.000000;2.962285
3907.000000;2.973088
3906.000000;3.197072
3905.000000;3.572489
3904.000000;3.425622
3903.000000;3.239247
3902.000000;3.137040
3901.000000;3.099030
3900.000000;3.250103
3899.000000;3.717718
3898.000000;3.795989
3897.000000;3.341976
3896.000000;2.989542
3895.000000;2.851051
3894.000000;2.969404
3893.000000;3.387519
3892.000000;3.560645
3891.000000;3.257469
3890.000000;3.121423
3889.000000;3.065313
3888.000000;3.100756
3887.000000;3.120747
3886.000000;3.049264
3885.000000;2.995824
3884.000000;2.969364
3883.000000;2.926514
3882.000000;2.903068
3881.000000;3.055564
3880.000000;3.620634
3879.000000;3.613015
3878.000000;3.176635
3877.000000;3.013525
3876.000000;3.019083
3875.000000;3.150421
3874.000000;3.167620
3873.000000;3.068562
3872.000000;3.050391
3871.000000;3.132125
3870.000000;3.441924
3869.000000;4.116512
3868.000000;3.614691
3867.000000;3.411338
3866.000000;3.302105
3865.000000;3.093441
3864.000000;2.972548
3863.000000;3.001030
3862.000000;3.127461
3861.000000;3.178955
3860.000000;3.091616
3859.000000;3.059807
3858.000000;3.055845
3857.000000;3.176416
3856.000000;3.813595
3855.000000;3.581648
3854.000000;3.366269
3853.000000;3.800599
3852.000000;4.078515
3851.000000;3.772019
3850.000000;3.647909
3849.000000;3.681942
3848.000000;3.642788
3847.000000;3.215821
3846.000000;2.859353
3845.000000;2.663971
3844.000000;2.624106
3843.000000;2.742124
3842.000000;3.032030
3841.000000;3.167602
3840.000000;2.983143
3839.000000;2.967673
3838.000000;3.074596
3837.000000;3.206397
3836.000000;3.306248
3835.000000;3.428790
3834.000000;3.739953
3833.000000;4.409017
3832.000000;4.496181
3831.000000;3.666220
3830.000000;3.282924
3829.000000;3.083703
3828.000000;2.950571
3827.000000;2.858840
3826.000000;2.824791
3825.000000;2.859893
3824.000000;2.944210
3823.000000;3.044103
3822.000000;3.129964
3821.000000;3.264526
3820.000000;3.440084
3819.000000;3.337797
3818.000000;3.200952
3817.000000;3.344120
3816.000000;3.870337
3815.000000;3.754250
3814.000000;3.420178
3813.000000;3.333702
3812.000000;3.273878
3811.000000;3.152933
3810.000000;3.100811
3809.000000;3.188651
3808.000000;3.380819
3807.000000;3.543378
3806.000000;3.569528
3805.000000;3.511714
3804.000000;3.365241
3803.000000;3.227424
3802.000000;3.139938
3801.000000;3.131719
3800.000000;3.188769
3799.000000;3.322617
3798.000000;3.543147
3797.000000;3.366758
3796.000000;3.127838
3795.000000;3.041940
3794.000000;3.045290
3793.000000;3.059768
3792.000000;2.971750
3791.000000;2.859981
3790.000000;2.764462
3789.000000;2.675256
3788.000000;2.620664
3787.000000;2.635148
3786.000000;2.750972
3785.000000;3.036481
3784.000000;3.616492
3783.000000;3.727008
3782.000000;3.246617
3781.000000;2.987402
3780.000000;2.908870
3779.000000;2.985079
3778.000000;3.194330
3777.000000;3.477227
3776.000000;3.349313
3775.000000;3.134491
3774.000000;3.034916
3773.000000;3.017942
3772.000000;3.069484
3771.000000;3.251832
3770.000000;3.674365
3769.000000;3.382347
3768.000000;3.046088
3767.000000;2.917633
3766.000000;2.904962
3765.000000;3.014724
3764.000000;3.171704
3763.000000;3.401092
3762.000000;3.856655
3761.000000;3.417677
3760.000000;3.053952
3759.000000;2.874208
3758.000000;2.747589
3757.000000;2.701882
3756.000000;2.774520
3755.000000;3.104436
3754.000000;3.326135
3753.000000;3.086477
3752.000000;3.106439
3751.000000;3.214195
3750.000000;3.293321
3749.000000;3.327661
3748.000000;3.299263
3747.000000;3.262381
3746.000000;3.242561
3745.000000;3.323183
3744.000000;3.480156
3743.000000;3.472831
3742.000000;3.298545
3741.000000;3.186137
3740.000000;3.385188
3739.000000;3.645207
3738.000000;3.348345
3737.000000;3.245203
3736.000000;3.241492
3735.000000;3.289068
3734.000000;3.322681
3733.000000;3.225430
3732.000000;3.090358
3731.000000;3.013966
3730.000000;3.018392
3729.000000;3.089220
3728.000000;3.231552
3727.000000;3.676763
3726.000000;4.110871
3725.000000;3.666429
3724.000000;4.090549
3723.000000;3.443246
3722.000000;3.066540
3721.000000;3.051947
3720.000000;3.288617
3719.000000;3.806023
3718.000000;3.372966
3717.000000;3.194299
3716.000000;3.210550
3715.000000;3.258644
3714.000000;3.481210
3713.000000;3.332476
3712.000000;3.101657
3711.000000;3.103104
3710.000000;3.045052
3709.000000;2.935114
3708.000000;2.959131
3707.000000;3.093868
3706.000000;3.256399
3705.000000;3.195165
3704.000000;3.073002
3703.000000;3.068640
3702.000000;3.162590
3701.000000;3.639127
3700.000000;3.675598
3699.000000;3.153306
3698.000000;3.071975
3697.000000;3.191088
3696.000000;3.642003
3695.000000;4.018651
3694.000000;3.406352
3693.000000;3.172975
3692.000000;3.149641
3691.000000;3.452445
3690.000000;3.739007
3689.000000;3.242867
3688.000000;3.132468
3687.000000;3.245787
3686.000000;3.524634
3685.000000;4.177455
3684.000000;3.587850
3683.000000;3.276867
3682.000000;3.170596
3681.000000;3.213587
3680.000000;3.520203
3679.000000;3.435343
3678.000000;3.126277
3677.000000;3.124225
3676.000000;3.337080
3675.000000;3.542531
3674.000000;3.578415
3673.000000;3.691151
3672.000000;4.147071
3671.000000;3.722183
3670.000000;3.311221
3669.000000;3.166390
3668.000000;3.081949
3667.000000;3.037314
3666.000000;3.001691
3665.000000;2.953393
3664.000000;2.942909
3663.000000;3.025548
3662.000000;3.297392
3661.000000;3.368342
3660.000000;3.056869
3659.000000;2.949952
3658.000000;2.888566
3657.000000;2.767523
3656.000000;2.714933
3655.000000;2.749083
3654.000000;2.794834
3653.000000;2.808684
3652.000000;2.863439
3651.000000;2.987781
3650.000000;3.074352
3649.000000;3.014225
3648.000000;2.956803
3647.000000;3.090139
3646.000000;3.233526
3645.000000;3.093598
3644.000000;3.028802
3643.000000;3.111279
3642.000000;3.281376
3641.000000;3.476062
3640.000000;3.443464
3639.000000;3.173510
3638.000000;3.031134
3637.000000;3.011503
3636.000000;3.141235
3635.000000;3.490279
3634.000000;3.394063
3633.000000;3.208569
3632.000000;3.433966
3631.000000;3.582143
3630.000000;3.205685
3629.000000;3.086366
3628.000000;3.031299
3627.000000;2.950685
3626.000000;2.917038
3625.000000;2.933179
3624.000000;2.943969
3623.000000;2.902012
3622.000000;2.832117
3621.000000;2.767596
3620.000000;2.749036
3619.000000;2.780522
3618.000000;2.889587
3617.000000;3.168483
3616.000000;3.613741
3615.000000;3.787077
3614.000000;3.536458
3613.000000;3.576671
3612.000000;3.584618
3611.000000;3.211272
3610.000000;2.995465
3609.000000;3.048529
3608.000000;3.527525
3607.000000;3.252951
3606.000000;2.909995
3605.000000;2.849140
3604.000000;2.889383
3603.000000;2.976505
3602.000000;3.035853
3601.000000;3.089029
3600.000000;3.111124
3599.000000;3.060763
3598.000000;2.991259
3597.000000;2.948104
3596.000000;2.980823
3595.000000;3.179982
3594.000000;3.500798
3593.000000;4.008433
3592.000000;3.530299
3591.000000;2.985101
3590.000000;2.825122
3589.000000;2.826160
3588.000000;3.037497
3587.000000;3.411562
3586.000000;3.017334
3585.000000;2.827989
3584.000000;3.069612
3583.000000;3.429175
3582.000000;3.156169
3581.000000;3.098079
3580.000000;3.150352
3579.000000;3.153462
3578.000000;3.104355
3577.000000;2.986750
3576.000000;2.917658
3575.000000;2.938802
3574.000000;3.063736
3573.000000;3.238475
3572.000000;3.427845
3571.000000;3.319058
3570.000000;3.037571
3569.000000;2.945263
3568.000000;3.029339
3567.000000;3.552643
3566.000000;3.719029
3565.000000;3.174072
3564.000000;3.102091
3563.000000;3.094226
3562.000000;3.137195
3561.000000;3.320000
3560.000000;4.042470
3559.000000;3.648430
3558.000000;3.288389
3557.000000;3.360103
3556.000000;3.612866
3555.000000;3.658870
3554.000000;3.307811
3553.000000;3.287330
3552.000000;3.398507
3551.000000;3.151802
3550.000000;2.958521
3549.000000;2.862528
3548.000000;2.803058
3547.000000;2.787698
3546.000000;2.815957
3545.000000;2.876394
3544.000000;2.950458
3543.000000;3.008814
3542.000000;3.015304
3541.000000;3.000240
3540.000000;3.013843
3539.000000;3.053632
3538.000000;3.058512
3537.000000;3.014206
3536.000000;3.033998
3535.000000;3.026609
3534.000000;3.100343
3533.000000;3.555194
3532.000000;3.310065
3531.000000;3.058750
3530.000000;3.221245
3529.000000;3.638451
3528.000000;3.598498
3527.000000;3.513865
3526.000000;3.345912
3525.000000;3.072312
3524.000000;2.896916
3523.000000;2.810092
3522.000000;2.817625
3521.000000;2.931648
3520.000000;3.149088
3519.000000;3.350860
3518.000000;3.374824
3517.000000;3.227194
3516.000000;3.028864
3515.000000;2.934850
3514.000000;3.211945
3513.000000;3.435261
3512.000000;2.948192
3511.000000;2.847831
3510.000000;2.918179
3509.000000;2.969681
3508.000000;2.932147
3507.000000;2.932244
3506.000000;3.088453
3505.000000;3.342921
3504.000000;3.154346
3503.000000;2.922328
3502.000000;2.851213
3501.000000;2.929502
3500.000000;3.312228
3499.000000;3.481763
3498.000000;3.475159
3497.000000;3.590715
3496.000000;3.115508
3495.000000;3.003440
3494.000000;3.031241
3493.000000;3.054886
3492.000000;3.077762
3491.000000;3.091735
3490.000000;3.019819
3489.000000;2.883038
3488.000000;2.834957
3487.000000;2.901182
3486.000000;3.166508
3485.000000;3.532795
3484.000000;3.448418
3483.000000;3.485984
3482.000000;3.374216
3481.000000;3.382855
3480.000000;3.291932
3479.000000;2.858387
3478.000000;2.640222
3477.000000;2.593597
3476.000000;2.671279
3475.000000;2.821086
3474.000000;2.874222
3473.000000;2.833867
3472.000000;2.820128
3471.000000;2.852422
3470.000000;2.934815
3469.000000;3.109904
3468.000000;3.439617
3467.000000;3.324111
3466.000000;2.947595
3465.000000;2.768096
3464.000000;2.721485
3463.000000;2.796821
3462.000000;2.996864
3461.000000;3.164714
3460.000000;3.428215
3459.000000;3.667240
3458.000000;3.100132
3457.000000;2.904902
3456.000000;2.912196
3455.000000;3.016535
3454.000000;3.125658
3453.000000;3.199313
3452.000000;3.297104
3451.000000;3.529900
3450.000000;3.944446
3449.000000;3.323279
3448.000000;3.037762
3447.000000;3.014921
3446.000000;3.144293
3445.000000;3.468784
3444.000000;3.793407
3443.000000;3.349560
3442.000000;3.224805
3441.000000;3.214342
3440.000000;3.217877
3439.000000;3.184952
3438.000000;2.996066
3437.000000;2.860839
3436.000000;2.822941
3435.000000;2.831813
3434.000000;2.834318
3433.000000;2.832735
3432.000000;2.863433
3431.000000;2.957560
3430.000000;3.127800
3429.000000;3.081975
3428.000000;2.910246
3427.000000;2.901547
3426.000000;2.989363
3425.000000;3.062909
3424.000000;3.200045
3423.000000;3.192341
3422.000000;2.997351
3421.000000;2.881053
3420.000000;2.826384
3419.000000;2.868615
3418.000000;3.099305
3417.000000;3.575405
3416.000000;3.936739
3415.000000;3.504228
3414.000000;3.106589
3413.000000;2.944546
3412.000000;2.852674
3411.000000;2.819604
3410.000000;2.880359
3409.000000;3.095050
3408.000000;3.607814
3407.000000;3.570633
3406.000000;3.110124
3405.000000;2.913283
3404.000000;2.860187
3403.000000;2.973445
3402.000000;3.375829
3401.000000;3.379045
3400.000000;3.021602
3399.000000;2.898123
3398.000000;2.845764
3397.000000;2.848907
3396.000000;2.941512
3395.000000;3.186500
3394.000000;3.714653
3393.000000;4.159391
3392.000000;3.539485
3391.000000;3.267929
3390.000000;3.168845
3389.000000;2.998389
3388.000000;2.813327
3387.000000;2.726421
3386.000000;2.716782
3385.000000;2.761280
3384.000000;2.883267
3383.000000;3.238354
3382.000000;3.419231
3381.000000;3.019116
3380.000000;2.989558
3379.000000;3.145164
3378.000000;3.281278
3377.000000;3.143609
3376.000000;3.010755
3375.000000;2.939302
3374.000000;2.952922
3373.000000;3.040696
3372.000000;3.082692
3371.000000;3.014069
3370.000000;2.936806
3369.000000;2.931276
3368.000000;3.006147
3367.000000;3.161033
3366.000000;3.627034
3365.000000;3.549146
3364.000000;3.297169
3363.000000;3.301013
3362.000000;3.404136
3361.000000;3.526014
3360.000000;3.055445
3359.000000;2.812711
3358.000000;2.740787
3357.000000;2.777835
3356.000000;2.898878
3355.000000;3.080831
3354.000000;3.302596
3353.000000;3.696721
3352.000000;3.660538
3351.000000;3.453007
3350.000000;3.482089
3349.000000;3.297413
3348.000000;3.223073
3347.000000;3.256483
3346.000000;3.266864
3345.000000;3.365386
3344.000000;3.516085
3343.000000;3.482764
3342.000000;3.367655
3341.000000;3.147507
3340.000000;3.005059
3339.000000;2.995829
3338.000000;3.091619
3337.000000;3.161438
3336.000000;3.057846
3335.000000;2.978054
3334.000000;2.967628
3333.000000;2.901284
3332.000000;2.795808
3331.000000;2.775044
3330.000000;2.837060
3329.000000;2.903777
3328.000000;2.943229
3327.000000;2.974833
3326.000000;2.922914
3325.000000;2.823081
3324.000000;2.790217
3323.000000;2.824832
3322.000000;2.833530
3321.000000;2.822081
3320.000000;2.919578
3319.000000;2.927420
3318.000000;2.780410
3317.000000;2.760078
3316.000000;2.899911
3315.000000;3.080100
3314.000000;3.151526
3313.000000;3.250320
3312.000000;3.674497
3311.000000;3.574864
3310.000000;3.201963
3309.000000;3.181834
3308.000000;3.476006
3307.000000;3.669596
3306.000000;3.546067
3305.000000;3.307883
3304.000000;2.985574
3303.000000;2.908538
3302.000000;3.011186
3301.000000;3.281721
3300.000000;3.836890
3299.000000;3.878354
3298.000000;3.325751
3297.000000;3.283204
3296.000000;3.168587
3295.000000;2.864620
3294.000000;2.678712
3293.000000;2.634376
3292.000000;2.719209
3291.000000;2.888626
3290.000000;2.934765
3289.000000;2.920556
3288.000000;2.993895
3287.000000;3.103191
3286.000000;3.023427
3285.000000;2.916455
3284.000000;2.884141
3283.000000;2.867520
3282.000000;2.894994
3281.000000;2.944865
3280.000000;2.865080
3279.000000;2.757490
3278.000000;2.727295
3277.000000;2.770911
3276.000000;2.849814
3275.000000;2.889741
3274.000000;2.856434
3273.000000;2.812786
3272.000000;2.812836
3271.000000;2.833524
3270.000000;2.816785
3269.000000;2.766595
3268.000000;2.744233
3267.000000;2.774551
3266.000000;2.849069
3265.000000;2.981661
3264.000000;3.400190
3263.000000;3.693386
3262.000000;3.349964
3261.000000;3.412041
3260.000000;4.067058
3259.000000;3.654617
3258.000000;3.954114
3257.000000;3.198272
3256.000000;2.927401
3255.000000;2.923528
3254.000000;3.189605
3253.000000;3.794736
3252.000000;3.298691
3251.000000;3.334114
3250.000000;3.321251
3249.000000;3.073613
3248.000000;2.967306
3247.000000;3.005152
3246.000000;3.230606
3245.000000;3.636947
3244.000000;3.485465
3243.000000;3.408633
3242.000000;3.401112
3241.000000;3.159543
3240.000000;2.980363
3239.000000;2.940855
3238.000000;3.066882
3237.000000;3.370442
3236.000000;3.461131
3235.000000;3.709148
3234.000000;3.196694
3233.000000;2.966746
3232.000000;3.023702
3231.000000;3.422014
3230.000000;3.393325
3229.000000;3.079889
3228.000000;2.953330
3227.000000;2.896107
3226.000000;2.910034
3225.000000;2.972140
3224.000000;2.934799
3223.000000;2.877807
3222.000000;2.961934
3221.000000;3.341137
3220.000000;3.602931
3219.000000;3.038003
3218.000000;2.868863
3217.000000;2.837905
3216.000000;3.026259
3215.000000;3.296312
3214.000000;3.015752
3213.000000;2.777575
3212.000000;2.695389
3211.000000;2.700995
3210.000000;2.792302
3209.000000;2.969124
3208.000000;3.339982
3207.000000;3.565088
3206.000000;3.251259
3205.000000;3.029750
3204.000000;2.915856
3203.000000;2.948290
3202.000000;3.157738
3201.000000;3.131057
3200.000000;2.937055
3199.000000;2.925033
3198.000000;3.063421
3197.000000;3.243220
3196.000000;3.212743
3195.000000;3.091022
3194.000000;3.079430
3193.000000;3.241976
3192.000000;3.622680
3191.000000;3.201108
3190.000000;2.882227
3189.000000;2.826428
3188.000000;2.863627
3187.000000;2.996635
3186.000000;3.274400
3185.000000;3.510421
3184.000000;3.338208
3183.000000;3.188626
3182.000000;3.321336
3181.000000;3.622778
3180.000000;3.284651
3179.000000;3.128624
3178.000000;3.028474
3177.000000;2.942723
3176.000000;2.874469
3175.000000;2.822483
3174.000000;2.816908
3173.000000;2.886398
3172.000000;3.117242
3171.000000;3.088730
3170.000000;2.809411
3169.000000;2.790501
3168.000000;3.096208
3167.000000;3.742949
3166.000000;3.142546
3165.000000;3.232898
3164.000000;3.459273
3163.000000;4.196202
3162.000000;4.006707
3161.000000;3.341024
3160.000000;3.074065
3159.000000;2.942471
3158.000000;2.930964
3157.000000;2.998742
3156.000000;3.058974
3155.000000;3.037573
3154.000000;2.933607
3153.000000;2.784030
3152.000000;2.695222
3151.000000;2.696720
3150.000000;2.745359
3149.000000;2.786388
3148.000000;2.838604
3147.000000;2.959645
3146.000000;3.204885
3145.000000;3.341181
3144.000000;3.060903
3143.000000;2.935535
3142.000000;2.956699
3141.000000;3.293477
3140.000000;3.454406
3139.000000;2.872367
3138.000000;2.694534
3137.000000;2.618704
3136.000000;2.643805
3135.000000;2.741209
3134.000000;2.880358
3133.000000;3.416772
3132.000000;3.449589
3131.000000;2.950953
3130.000000;2.914150
3129.000000;3.072477
3128.000000;3.689010
3127.000000;3.617543
3126.000000;3.242946
3125.000000;3.145539
3124.000000;3.298456
3123.000000;3.487029
3122.000000;3.207672
3121.000000;3.053584
3120.000000;2.891709
3119.000000;2.794354
3118.000000;2.838312
3117.000000;3.100138
3116.000000;3.363427
3115.000000;2.970017
3114.000000;2.801873
3113.000000;2.751192
3112.000000;2.824756
3111.000000;3.057693
3110.000000;3.401302
3109.000000;3.300624
3108.000000;3.370740
3107.000000;3.252396
3106.000000;2.934618
3105.000000;2.880631
3104.000000;3.042244
3103.000000;3.660422
3102.000000;3.176520
3101.000000;2.919549
3100.000000;2.970151
3099.000000;3.275892
3098.000000;3.484717
3097.000000;3.309876
3096.000000;3.186940
3095.000000;3.039708
3094.000000;3.020812
3093.000000;3.137651
3092.000000;3.477017
3091.000000;3.693151
3090.000000;3.207695
3089.000000;3.093622
3088.000000;3.067143
3087.000000;3.263022
3086.000000;3.452066
3085.000000;2.923570
3084.000000;2.676236
3083.000000;2.568142
3082.000000;2.584978
3081.000000;2.716921
3080.000000;3.151197
3079.000000;3.465320
3078.000000;3.003185
3077.000000;2.820704
3076.000000;2.698751
3075.000000;2.642690
3074.000000;2.655851
3073.000000;2.735955
3072.000000;2.853757
3071.000000;2.923421
3070.000000;2.924778
3069.000000;2.984416
3068.000000;3.410519
3067.000000;3.289157
3066.000000;2.971904
3065.000000;3.030421
3064.000000;3.371713
3063.000000;3.951960
3062.000000;3.031980
3061.000000;2.778931
3060.000000;2.779452
3059.000000;3.211292
3058.000000;3.680534
3057.000000;3.008387
3056.000000;3.020170
3055.000000;2.966770
3054.000000;2.923984
3053.000000;2.912867
3052.000000;2.967284
3051.000000;3.024731
3050.000000;2.988130
3049.000000;2.957673
3048.000000;3.022200
3047.000000;3.825897
3046.000000;3.294094
3045.000000;2.978819
3044.000000;3.050681
3043.000000;3.197119
3042.000000;3.048538
3041.000000;2.957997
3040.000000;3.038951
3039.000000;3.166374
3038.000000;3.222222
3037.000000;3.473116
3036.000000;3.664189
3035.000000;3.120162
3034.000000;2.899647
3033.000000;2.796458
3032.000000;2.809130
3031.000000;2.925863
3030.000000;3.069828
3029.000000;3.069519
3028.000000;2.962413
3027.000000;2.916697
3026.000000;2.972590
3025.000000;3.089144
3024.000000;3.148731
3023.000000;3.095842
3022.000000;3.040617
3021.000000;3.044228
3020.000000;3.076537
3019.000000;3.050539
3018.000000;2.952882
3017.000000;2.892024
3016.000000;2.917463
3015.000000;3.034363
3014.000000;3.189536
3013.000000;3.430366
3012.000000;3.895891
3011.000000;3.090750
3010.000000;2.877182
3009.000000;2.855167
3008.000000;2.933539
3007.000000;2.970624
3006.000000;2.863295
3005.000000;2.736384
3004.000000;2.688236
3003.000000;2.733799
3002.000000;2.843726
3001.000000;2.971461
3000.000000;3.083910
2999.000000;3.136729
2998.000000;3.102030
2997.000000;3.084177
2996.000000;3.189145
2995.000000;3.214094
2994.000000;3.032952
2993.000000;2.921951
2992.000000;2.927863
2991.000000;3.064039
2990.000000;3.550909
2989.000000;3.457165
2988.000000;3.135843
2987.000000;3.099727
2986.000000;3.196855
2985.000000;3.353896
2984.000000;3.534860
2983.000000;3.597343
2982.000000;3.406873
2981.000000;3.202925
2980.000000;3.051294
2979.000000;2.881450
2978.000000;2.721445
2977.000000;2.632534
2976.000000;2.650974
2975.000000;2.825943
2974.000000;3.271422
2973.000000;4.334336
2972.000000;3.718959
2971.000000;3.202701
2970.000000;3.051083
2969.000000;3.260972
2968.000000;3.539425
2967.000000;3.133938
2966.000000;3.007652
2965.000000;3.120676
2964.000000;3.410946
2963.000000;3.621679
2962.000000;3.446965
2961.000000;3.324553
2960.000000;3.171903
2959.000000;3.046779
2958.000000;3.001926
2957.000000;3.043961
2956.000000;3.196319
2955.000000;3.477703
2954.000000;3.532092
2953.000000;3.315154
2952.000000;3.235285
2951.000000;3.199056
2950.000000;3.169559
2949.000000;3.178645
2948.000000;3.184803
2947.000000;3.122664
2946.000000;3.032505
2945.000000;2.960799
2944.000000;2.902482
2943.000000;2.872366
2942.000000;2.909214
2941.000000;3.061296
2940.000000;3.332294
2939.000000;3.391688
2938.000000;3.334138
2937.000000;3.365295
2936.000000;3.352985
2935.000000;3.392031
2934.000000;3.596493
2933.000000;3.516372
2932.000000;3.294659
2931.000000;3.251158
2930.000000;3.299200
2929.000000;3.329924
2928.000000;3.280883
2927.000000;3.199585
2926.000000;3.201509
2925.000000;3.379662
2924.000000;3.863722
2923.000000;3.705292
2922.000000;3.342489
2921.000000;3.355386
2920.000000;3.419424
2919.000000;3.238539
2918.000000;3.157895
2917.000000;3.133429
2916.000000;3.029142
2915.000000;2.963269
2914.000000;3.035366
2913.000000;3.609729
2912.000000;3.285879
2911.000000;2.911125
2910.000000;2.877853
2909.000000;3.000706
2908.000000;3.401869
2907.000000;3.663942
2906.000000;3.138336
2905.000000;2.944524
2904.000000;2.878721
2903.000000;2.834561
2902.000000;2.805954
2901.000000;2.908505
2900.000000;3.292991
2899.000000;3.111681
2898.000000;2.735612
2897.000000;2.627912
2896.000000;2.635316
2895.000000;2.742843
2894.000000;2.917119
2893.000000;3.114445
2892.000000;3.286853
2891.000000;3.264676
2890.000000;3.140698
2889.000000;3.147219
2888.000000;3.502673
2887.000000;3.272059
2886.000000;2.904437
2885.000000;2.795927
2884.000000;2.803131
2883.000000;2.921135
2882.000000;3.150385
2881.000000;3.546940
2880.000000;3.774912
2879.000000;3.175979
2878.000000;2.933383
2877.000000;2.872903
2876.000000;2.854491
2875.000000;2.843489
2874.000000;2.986643
2873.000000;3.280972
2872.000000;3.108465
2871.000000;2.965774
2870.000000;3.046568
2869.000000;3.210306
2868.000000;3.194502
2867.000000;3.122446
2866.000000;3.032471
2865.000000;2.906864
2864.000000;2.900967
2863.000000;2.984159
2862.000000;3.204807
2861.000000;3.497049
2860.000000;3.118524
2859.000000;2.851798
2858.000000;2.771079
2857.000000;2.816522
2856.000000;3.082838
2855.000000;3.425169
2854.000000;3.247437
2853.000000;3.313121
2852.000000;3.619547
2851.000000;3.625600
2850.000000;3.502069
2849.000000;3.347965
2848.000000;3.381091
2847.000000;3.599155
2846.000000;3.271899
2845.000000;2.988186
2844.000000;2.920595
2843.000000;2.911035
2842.000000;2.871272
2841.000000;2.778532
2840.000000;2.694780
2839.000000;2.700025
2838.000000;2.800656
2837.000000;2.920463
2836.000000;2.966500
2835.000000;2.948518
2834.000000;2.918993
2833.000000;2.952223
2832.000000;3.113160
2831.000000;3.307491
2830.000000;3.176396
2829.000000;3.032582
2828.000000;3.022931
2827.000000;3.282009
2826.000000;3.978854
2825.000000;3.389476
2824.000000;3.248392
2823.000000;3.296286
2822.000000;3.196516
2821.000000;3.015425
2820.000000;2.935887
2819.000000;3.014810
2818.000000;3.183852
2817.000000;3.188862
2816.000000;3.109733
2815.000000;3.066355
2814.000000;3.026320
2813.000000;3.069132
2812.000000;3.221411
2811.000000;3.805940
2810.000000;3.481421
2809.000000;3.073319
2808.000000;2.995494
2807.000000;3.033626
2806.000000;3.105693
2805.000000;3.222526
2804.000000;4.008382
2803.000000;3.349767
2802.000000;2.992034
2801.000000;2.994716
2800.000000;3.066688
2799.000000;3.102507
2798.000000;3.050539
2797.000000;3.084308
2796.000000;3.045706
2795.000000;3.276282
2794.000000;3.441666
2793.000000;2.905107
2792.000000;2.863283
2791.000000;3.210146
2790.000000;3.554075
2789.000000;3.152679
2788.000000;3.046671
2787.000000;3.039364
2786.000000;3.103865
2785.000000;3.339409
2784.000000;3.535339
2783.000000;3.568720
2782.000000;3.508502
2781.000000;3.385117
2780.000000;3.218022
2779.000000;3.076998
2778.000000;3.007782
2777.000000;2.977899
2776.000000;2.946291
2775.000000;2.947066
2774.000000;3.111389
2773.000000;3.631884
2772.000000;3.415850
2771.000000;3.143168
2770.000000;3.171456
2769.000000;3.442370
2768.000000;3.311333
2767.000000;2.884233
2766.000000;2.716630
2765.000000;2.664093
2764.000000;2.662788
2763.000000;2.670659
2762.000000;2.681167
2761.000000;2.745235
2760.000000;2.893309
2759.000000;3.091568
2758.000000;3.138536
2757.000000;2.983519
2756.000000;2.817700
2755.000000;2.743712
2754.000000;2.779375
2753.000000;2.969731
2752.000000;3.242510
2751.000000;3.155165
2750.000000;3.030700
2749.000000;3.022174
2748.000000;3.034575
2747.000000;3.128716
2746.000000;3.306162
2745.000000;3.185162
2744.000000;3.096131
2743.000000;3.161727
2742.000000;3.027211
2741.000000;2.878124
2740.000000;2.841453
2739.000000;2.882185
2738.000000;2.982223
2737.000000;3.100298
2736.000000;3.304817
2735.000000;3.469567
2734.000000;3.345742
2733.000000;3.214274
2732.000000;2.983141
2731.000000;2.801831
2730.000000;2.759818
2729.000000;2.822605
2728.000000;3.013404
2727.000000;3.212193
2726.000000;3.043753
2725.000000;2.913116
2724.000000;2.914140
2723.000000;2.937724
2722.000000;2.973453
2721.000000;3.159478
2720.000000;3.736629
2719.000000;3.946189
2718.000000;3.918699
2717.000000;3.797916
2716.000000;3.346800
2715.000000;3.082972
2714.000000;2.930562
2713.000000;2.909060
2712.000000;2.992855
2711.000000;3.088985
2710.000000;3.164616
2709.000000;3.176211
2708.000000;3.138779
2707.000000;3.176715
2706.000000;3.038350
2705.000000;2.834296
2704.000000;2.784966
2703.000000;2.840072
2702.000000;2.941099
2701.000000;3.226586
2700.000000;3.502107
2699.000000;3.111956
2698.000000;2.977107
2697.000000;3.063589
2696.000000;3.161813
2695.000000;3.162376
2694.000000;3.161512
2693.000000;3.246445
2692.000000;3.304595
2691.000000;3.273480
2690.000000;3.253757
2689.000000;3.293524
2688.000000;3.275219
2687.000000;3.158286
2686.000000;3.090059
2685.000000;3.097917
2684.000000;3.086553
2683.000000;3.133647
2682.000000;3.347870
2681.000000;3.314759
2680.000000;3.334989
2679.000000;3.535234
2678.000000;3.088439
2677.000000;2.821891
2676.000000;2.761438
2675.000000;2.812095
2674.000000;2.970371
2673.000000;3.249723
2672.000000;3.422547
2671.000000;3.313471
2670.000000;3.297114
2669.000000;3.516869
2668.000000;3.983813
2667.000000;3.599850
2666.000000;3.360878
2665.000000;3.369451
2664.000000;3.401764
2663.000000;3.285269
2662.000000;3.249630
2661.000000;3.387355
2660.000000;3.215801
2659.000000;2.939574
2658.000000;2.806952
2657.000000;2.787307
2656.000000;2.878913
2655.000000;3.083480
2654.000000;3.146573
2653.000000;2.997234
2652.000000;2.937955
2651.000000;2.959471
2650.000000;3.045309
2649.000000;3.166821
2648.000000;3.390163
2647.000000;3.619367
2646.000000;3.395164
2645.000000;3.449643
2644.000000;3.509383
2643.000000;3.208234
2642.000000;3.076352
2641.000000;3.045902
2640.000000;3.101556
2639.000000;3.268782
2638.000000;3.259772
2637.000000;3.080060
2636.000000;2.963533
2635.000000;3.008654
2634.000000;3.066146
2633.000000;2.859366
2632.000000;2.699989
2631.000000;2.664512
2630.000000;2.713121
2629.000000;2.798167
2628.000000;2.805058
2627.000000;2.728866
2626.000000;2.677370
2625.000000;2.733202
2624.000000;2.879262
2623.000000;2.916024
2622.000000;2.874566
2621.000000;2.933594
2620.000000;3.049119
2619.000000;3.170049
2618.000000;3.279478
2617.000000;3.507523
2616.000000;3.582839
2615.000000;3.118347
2614.000000;2.883312
2613.000000;2.772970
2612.000000;2.684644
2611.000000;2.645352
2610.000000;2.722147
2609.000000;2.890449
2608.000000;2.860356
2607.000000;2.772897
2606.000000;2.831471
2605.000000;2.999440
2604.000000;3.080847
2603.000000;2.939237
2602.000000;2.807014
2601.000000;2.754676
2600.000000;2.940579
2599.000000;3.336407
2598.000000;2.969054
2597.000000;2.812451
2596.000000;3.043401
2595.000000;3.116741
2594.000000;2.819304
2593.000000;2.769376
2592.000000;2.847202
2591.000000;2.897309
2590.000000;2.816880
2589.000000;2.864064
2588.000000;3.468557
2587.000000;3.061468
2586.000000;2.689436
2585.000000;2.634478
2584.000000;2.677824
2583.000000;2.722159
2582.000000;2.676515
2581.000000;2.688560
2580.000000;2.853568
2579.000000;3.239895
2578.000000;3.328225
2577.000000;3.099055
2576.000000;3.064597
2575.000000;3.065546
2574.000000;3.077908
2573.000000;3.071258
2572.000000;3.040320
2571.000000;3.046059
2570.000000;3.118778
2569.000000;3.319581
2568.000000;3.363134
2567.000000;3.119718
2566.000000;2.985695
2565.000000;2.981413
2564.000000;3.093391
2563.000000;3.223762
2562.000000;3.127036
2561.000000;3.040784
2560.000000;3.059584
2559.000000;3.192632
2558.000000;3.592624
2557.000000;3.344968
2556.000000;2.923141
2555.000000;2.764287
2554.000000;2.766117
2553.000000;2.921868
2552.000000;3.172761
2551.000000;3.177197
2550.000000;3.021561
2549.000000;3.047235
2548.000000;3.184886
2547.000000;3.029269
2546.000000;2.977911
2545.000000;3.170909
2544.000000;3.054950
2543.000000;2.835922
2542.000000;2.895467
2541.000000;3.336916
2540.000000;3.117335
2539.000000;2.808808
2538.000000;2.874085
2537.000000;3.007780
2536.000000;2.963600
2535.000000;2.999262
2534.000000;3.290475
2533.000000;3.365150
2532.000000;3.181390
2531.000000;3.101890
2530.000000;3.043915
2529.000000;3.080644
2528.000000;3.392866
2527.000000;3.397372
2526.000000;2.992549
2525.000000;2.943912
2524.000000;3.075041
2523.000000;3.033646
2522.000000;2.873400
2521.000000;2.802554
2520.000000;2.780580
2519.000000;2.816228
2518.000000;2.902982
2517.000000;2.908412
2516.000000;2.928096
2515.000000;2.982466
2514.000000;2.905937
2513.000000;2.845916
2512.000000;2.907604
2511.000000;3.075965
2510.000000;3.182771
2509.000000;3.230781
2508.000000;3.531027
2507.000000;3.834060
2506.000000;3.589516
2505.000000;3.551621
2504.000000;3.728973
2503.000000;3.361465
2502.000000;3.082279
2501.000000;3.068768
2500.000000;3.411365
2499.000000;3.520675
2498.000000;3.029439
2497.000000;2.886396
2496.000000;2.846337
2495.000000;2.844550
2494.000000;2.926194
2493.000000;3.057209
2492.000000;3.306832
2491.000000;3.475387
2490.000000;3.142643
2489.000000;2.894779
2488.000000;2.910283
2487.000000;3.484724
2486.000000;3.295340
2485.000000;2.894383
2484.000000;3.040304
2483.000000;3.358061
2482.000000;3.198074
2481.000000;3.101862
2480.000000;3.031868
2479.000000;2.819944
2478.000000;2.690078
2477.000000;2.690970
2476.000000;2.793348
2475.000000;3.082641
2474.000000;3.533817
2473.000000;3.119248
2472.000000;2.944621
2471.000000;2.957353
2470.000000;3.056048
2469.000000;3.162090
2468.000000;3.193441
2467.000000;3.362997
2466.000000;3.457837
2465.000000;3.322558
2464.000000;3.264923
2463.000000;3.252494
2462.000000;3.429131
2461.000000;3.685464
2460.000000;3.360243
2459.000000;3.175304
2458.000000;3.175558
2457.000000;3.362360
2456.000000;3.558012
2455.000000;3.409300
2454.000000;3.595719
2453.000000;3.569913
2452.000000;3.154110
2451.000000;3.012481
2450.000000;2.991741
2449.000000;2.983838
2448.000000;2.972110
2447.000000;2.997404
2446.000000;3.171445
2445.000000;3.661960
2444.000000;3.705513
2443.000000;3.499766
2442.000000;3.730548
2441.000000;3.733545
2440.000000;3.225620
2439.000000;2.934416
2438.000000;2.803506
2437.000000;2.744345
2436.000000;2.712892
2435.000000;2.695333
2434.000000;2.700058
2433.000000;2.734320
2432.000000;2.771136
2431.000000;2.771615
2430.000000;2.740082
2429.000000;2.721724
2428.000000;2.761808
2427.000000;2.881130
2426.000000;3.077832
2425.000000;3.335674
2424.000000;3.508154
2423.000000;3.352005
2422.000000;3.327996
2421.000000;3.468188
2420.000000;3.211593
2419.000000;2.999395
2418.000000;2.933446
2417.000000;2.951573
2416.000000;3.032620
2415.000000;3.405239
2414.000000;3.826207
2413.000000;3.192143
2412.000000;3.217612
2411.000000;3.663336
2410.000000;3.474278
2409.000000;3.084261
2408.000000;2.962712
2407.000000;2.883081
2406.000000;2.815209
2405.000000;2.721136
2404.000000;2.652645
2403.000000;2.700746
2402.000000;2.980827
2401.000000;3.473247
2400.000000;3.178329
2399.000000;3.176057
2398.000000;3.655482
2397.000000;3.374041
2396.000000;3.018600
2395.000000;2.881122
2394.000000;2.864007
2393.000000;2.897705
2392.000000;2.962683
2391.000000;3.106519
2390.000000;3.321812
2389.000000;3.383719
2388.000000;3.197706
2387.000000;3.064916
2386.000000;3.051889
2385.000000;3.062430
2384.000000;3.004204
2383.000000;2.919004
2382.000000;2.827897
2381.000000;2.759105
2380.000000;2.733902
2379.000000;2.723003
2378.000000;2.712235
2377.000000;2.750993
2376.000000;2.920366
2375.000000;3.003601
2374.000000;2.860254
2373.000000;3.065792
2372.000000;2.935525
2371.000000;2.536104
2370.000000;2.467465
2369.000000;2.562240
2368.000000;2.618290
2367.000000;2.869311
2366.000000;2.945388
2365.000000;2.532368
2364.000000;2.424264
2363.000000;2.469389
2362.000000;2.590910
2361.000000;2.751245
2360.000000;3.134457
2359.000000;3.101236
2358.000000;2.634995
2357.000000;2.532710
2356.000000;2.556392
2355.000000;2.738421
2354.000000;2.843707
2353.000000;2.736917
2352.000000;2.757658
2351.000000;2.723480
2350.000000;2.636001
2349.000000;2.583976
2348.000000;2.563810
2347.000000;2.659637
2346.000000;2.570881
2345.000000;2.436086
2344.000000;2.441857
2343.000000;2.515944
2342.000000;2.600969
2341.000000;2.685564
2340.000000;2.750336
2339.000000;2.697962
2338.000000;2.605631
2337.000000;2.588337
2336.000000;2.676720
2335.000000;2.773659
2334.000000;2.718420
2333.000000;2.627654
2332.000000;2.602402
2331.000000;2.643833
2330.000000;2.774643
2329.000000;2.833206
2328.000000;2.789680
2327.000000;2.785456
2326.000000;2.796054
2325.000000;2.823736
2324.000000;2.971824
2323.000000;3.394274
2322.000000;2.971328
2321.000000;2.755455
2320.000000;2.815045
2319.000000;2.957896
2318.000000;3.471276
2317.000000;3.114004
2316.000000;2.781447
2315.000000;2.676292
2314.000000;2.665171
2313.000000;2.698759
2312.000000;2.738693
2311.000000;2.783639
2310.000000;2.859764
2309.000000;3.112863
2308.000000;3.336751
2307.000000;2.911223
2306.000000;2.797191
2305.000000;2.895706
2304.000000;3.139224
2303.000000;3.235728
2302.000000;3.338765
2301.000000;3.309544
2300.000000;3.061819
2299.000000;2.964358
2298.000000;2.962979
2297.000000;3.200977
2296.000000;3.488519
2295.000000;3.080063
2294.000000;2.941213
2293.000000;3.018006
2292.000000;3.150863
2291.000000;3.266030
2290.000000;3.368725
2289.000000;3.422146
2288.000000;3.302670
2287.000000;3.236492
2286.000000;3.322168
2285.000000;3.504088
2284.000000;3.673937
2283.000000;3.771235
2282.000000;3.313035
2281.000000;3.059551
2280.000000;2.996121
2279.000000;3.035994
2278.000000;3.107106
2277.000000;3.446797
2276.000000;3.871141
2275.000000;3.294432
2274.000000;3.245044
2273.000000;3.387337
2272.000000;3.180065
2271.000000;2.966535
2270.000000;2.975253
2269.000000;3.120898
2268.000000;3.390859
2267.000000;3.985545
2266.000000;3.515739
2265.000000;3.384001
2264.000000;3.714515
2263.000000;3.311926
2262.000000;3.042448
2261.000000;2.946228
2260.000000;2.927095
2259.000000;2.938328
2258.000000;2.937163
2257.000000;2.936675
2256.000000;2.962026
2255.000000;3.003687
2254.000000;3.043570
2253.000000;3.090692
2252.000000;3.195366
2251.000000;3.345371
2250.000000;3.247693
2249.000000;3.076895
2248.000000;3.095386
2247.000000;3.369886
2246.000000;3.852242
2245.000000;3.564033
2244.000000;3.295355
2243.000000;3.209159
2242.000000;3.276752
2241.000000;3.466435
2240.000000;3.429489
2239.000000;3.300853
2238.000000;3.172009
2237.000000;3.092552
2236.000000;3.125229
2235.000000;3.244647
2234.000000;3.194058
2233.000000;2.996490
2232.000000;2.911023
2231.000000;2.910909
2230.000000;2.908960
2229.000000;2.913629
2228.000000;3.042039
2227.000000;3.282112
2226.000000;3.084941
2225.000000;2.886164
2224.000000;2.808703
2223.000000;2.772287
2222.000000;2.783547
2221.000000;2.833962
2220.000000;2.877280
2219.000000;2.871850
2218.000000;2.852213
2217.000000;2.882008
2216.000000;3.032122
2215.000000;3.152376
2214.000000;2.989459
2213.000000;2.890479
2212.000000;2.905307
2211.000000;2.878688
2210.000000;2.807716
2209.000000;2.824379
2208.000000;2.970948
2207.000000;3.148270
2206.000000;3.210384
2205.000000;3.200595
2204.000000;3.073408
2203.000000;2.989378
2202.000000;2.930167
2201.000000;2.835879
2200.000000;2.763974
2199.000000;2.765960
2198.000000;2.830909
2197.000000;2.923225
2196.000000;2.995905
2195.000000;3.473373
2194.000000;3.558204
2193.000000;2.968655
2192.000000;2.918393
2191.000000;2.925800
2190.000000;2.909276
2189.000000;2.890109
2188.000000;3.006408
2187.000000;3.128762
2186.000000;3.012334
2185.000000;2.858027
2184.000000;2.750547
2183.000000;2.705833
2182.000000;2.725727
2181.000000;2.762723
2180.000000;2.787629
2179.000000;2.851123
2178.000000;2.912486
2177.000000;2.848098
2176.000000;2.810009
2175.000000;2.876632
2174.000000;2.997576
2173.000000;3.060005
2172.000000;3.027665
2171.000000;2.912734
2170.000000;2.788172
2169.000000;2.720628
2168.000000;2.723904
2167.000000;2.777722
2166.000000;2.836648
2165.000000;2.859470
2164.000000;2.866741
2163.000000;2.944087
2162.000000;3.198832
2161.000000;3.422785
2160.000000;3.560770
2159.000000;3.376389
2158.000000;3.114663
2157.000000;3.076805
2156.000000;3.184806
2155.000000;3.238550
2154.000000;3.171674
2153.000000;3.184130
2152.000000;3.335733
2151.000000;3.566076
2150.000000;3.595279
2149.000000;3.473106
2148.000000;3.530301
2147.000000;3.443729
2146.000000;3.200977
2145.000000;3.143824
2144.000000;3.188150
2143.000000;3.656649
2142.000000;4.033646
2141.000000;3.181179
2140.000000;3.013812
2139.000000;2.918979
2138.000000;2.927158
2137.000000;2.956944
2136.000000;2.953132
2135.000000;2.901524
2134.000000;2.844752
2133.000000;2.835521
2132.000000;2.894536
2131.000000;2.962714
2130.000000;3.003366
2129.000000;3.023954
2128.000000;2.979549
2127.000000;2.909688
2126.000000;2.905132
2125.000000;3.004441
2124.000000;3.213621
2123.000000;3.335583
2122.000000;3.113934
2121.000000;2.951967
2120.000000;2.934927
2119.000000;3.033106
2118.000000;3.074940
2117.000000;3.073013
2116.000000;3.174973
2115.000000;3.445167
2114.000000;3.874759
2113.000000;3.550213
2112.000000;3.388178
2111.000000;3.270949
2110.000000;3.054082
2109.000000;2.946085
2108.000000;2.968841
2107.000000;3.132336
2106.000000;3.579551
2105.000000;3.704314
2104.000000;3.144703
2103.000000;2.849592
2102.000000;2.723440
2101.000000;2.723252
2100.000000;2.842017
2099.000000;3.101063
2098.000000;3.473475
2097.000000;3.565249
2096.000000;3.582858
2095.000000;3.334157
2094.000000;3.178855
2093.000000;3.301115
2092.000000;3.670446
2091.000000;3.227844
2090.000000;3.080980
2089.000000;3.188997
2088.000000;3.637697
2087.000000;3.414891
2086.000000;3.065632
2085.000000;3.031602
2084.000000;3.090695
2083.000000;3.211981
2082.000000;3.306598
2081.000000;3.537818
2080.000000;3.463743
2079.000000;3.184707
2078.000000;3.064032
2077.000000;2.881594
2076.000000;2.716687
2075.000000;2.656238
2074.000000;2.686313
2073.000000;2.793372
2072.000000;2.997251
2071.000000;3.191802
2070.000000;3.166540
2069.000000;3.263844
2068.000000;3.073983
2067.000000;2.863492
2066.000000;2.806617
2065.000000;2.844986
2064.000000;2.989234
2063.000000;3.151256
2062.000000;3.105318
2061.000000;3.060787
2060.000000;3.276164
2059.000000;3.652669
2058.000000;4.330379
2057.000000;3.614178
2056.000000;3.037985
2055.000000;2.872303
2054.000000;2.825063
2053.000000;2.826998
2052.000000;2.869484
2051.000000;3.015240
2050.000000;3.261637
2049.000000;3.161937
2048.000000;3.078414
2047.000000;3.135087
2046.000000;3.195188
2045.000000;3.186584
2044.000000;3.087828
2043.000000;2.977813
2042.000000;2.951291
2041.000000;3.049159
2040.000000;3.211767
2039.000000;3.269259
2038.000000;3.259479
2037.000000;3.244517
2036.000000;3.249239
2035.000000;3.219067
2034.000000;3.145491
2033.000000;3.079226
2032.000000;3.015275
2031.000000;2.974291
2030.000000;3.008094
2029.000000;3.120164
2028.000000;3.119327
2027.000000;3.049266
2026.000000;3.074451
2025.000000;3.090644
2024.000000;2.999253
2023.000000;2.971461
2022.000000;3.109867
2021.000000;3.760947
2020.000000;3.298532
2019.000000;3.139117
2018.000000;3.245512
2017.000000;3.371397
2016.000000;3.363559
2015.000000;3.279150
2014.000000;3.250635
2013.000000;3.392154
2012.000000;3.387842
2011.000000;3.024116
2010.000000;2.838789
2009.000000;2.791742
2008.000000;2.851170
2007.000000;2.947588
2006.000000;2.921926
2005.000000;2.851763
2004.000000;2.856133
2003.000000;3.213075
2002.000000;3.412122
2001.000000;2.916036
2000.000000;2.773220
1999.000000;2.774488
1998.000000;2.882841
1997.000000;3.199216
1996.000000;3.706661
1995.000000;3.275442
1994.000000;3.233446
1993.000000;3.527498
1992.000000;3.332987
1991.000000;3.156370
1990.000000;3.210894
1989.000000;3.164247
1988.000000;3.010755
1987.000000;3.022717
1986.000000;3.193682
1985.000000;3.402971
1984.000000;3.455400
1983.000000;3.506364
1982.000000;3.400564
1981.000000;3.198064
1980.000000;3.244544
1979.000000;3.359197
1978.000000;3.015613
1977.000000;2.799659
1976.000000;2.766623
1975.000000;2.811170
1974.000000;2.858774
1973.000000;2.855255
1972.000000;2.825230
1971.000000;2.805696
1970.000000;2.797834
1969.000000;2.808905
1968.000000;2.855565
1967.000000;2.965212
1966.000000;3.314694
1965.000000;3.407096
1964.000000;3.013858
1963.000000;2.931712
1962.000000;2.942569
1961.000000;2.926155
1960.000000;2.879969
1959.000000;2.820054
1958.000000;2.761808
1957.000000;2.742479
1956.000000;2.786489
1955.000000;2.918968
1954.000000;3.211403
1953.000000;3.128480
1952.000000;2.875707
1951.000000;2.875563
1950.000000;3.002144
1949.000000;3.331962
1948.000000;3.239186
1947.000000;2.907588
1946.000000;2.769603
1945.000000;2.742494
1944.000000;2.830032
1943.000000;3.062528
1942.000000;3.654961
1941.000000;3.782115
1940.000000;3.654019
1939.000000;3.401536
1938.000000;3.233207
1937.000000;3.234327
1936.000000;3.338422
1935.000000;3.627854
1934.000000;3.728048
1933.000000;3.754126
1932.000000;3.738627
1931.000000;3.001988
1930.000000;2.761853
1929.000000;2.712704
1928.000000;2.820937
1927.000000;3.059157
1926.000000;3.273744
1925.000000;3.350467
1924.000000;3.252061
1923.000000;3.105578
1922.000000;3.042525
1921.000000;3.027660
1920.000000;3.042493
1919.000000;3.091269
1918.000000;3.123410
1917.000000;3.173102
1916.000000;3.177611
1915.000000;3.171200
1914.000000;3.774933
1913.000000;3.066792
1912.000000;2.744897
1911.000000;2.701635
1910.000000;2.808496
1909.000000;3.016574
1908.000000;3.143805
1907.000000;3.170899
1906.000000;3.302188
1905.000000;3.451356
1904.000000;3.289511
1903.000000;3.183501
1902.000000;3.101986
1901.000000;3.057805
1900.000000;3.179264
1899.000000;3.333984
1898.000000;3.273089
1897.000000;3.373577
1896.000000;3.665729
1895.000000;3.276144
1894.000000;2.961006
1893.000000;2.804766
1892.000000;2.728022
1891.000000;2.738893
1890.000000;2.845440
1889.000000;3.026627
1888.000000;3.220595
1887.000000;3.764469
1886.000000;3.391567
1885.000000;2.978600
1884.000000;2.846036
1883.000000;2.840331
1882.000000;2.907219
1881.000000;2.993930
1880.000000;3.094853
1879.000000;3.217461
1878.000000;3.184711
1877.000000;2.998531
1876.000000;2.976685
1875.000000;3.106316
1874.000000;3.139798
1873.000000;3.078427
1872.000000;3.071482
1871.000000;3.056091
1870.000000;3.083191
1869.000000;3.119688
1868.000000;3.063353
1867.000000;2.993132
1866.000000;3.031772
1865.000000;3.215159
1864.000000;3.136973
1863.000000;2.952097
1862.000000;2.859483
1861.000000;2.820018
1860.000000;2.827059
1859.000000;2.784557
1858.000000;2.735044
1857.000000;2.792237
1856.000000;3.004450
1855.000000;3.131440
1854.000000;2.934242
1853.000000;2.839305
1852.000000;2.857048
1851.000000;2.932644
1850.000000;3.005982
1849.000000;3.045182
1848.000000;3.147388
1847.000000;3.302749
1846.000000;3.125428
1845.000000;2.894132
1844.000000;2.831393
1843.000000;2.852812
1842.000000;2.872606
1841.000000;2.900896
1840.000000;3.092181
1839.000000;3.638325
1838.000000;3.444491
1837.000000;3.214355
1836.000000;3.288174
1835.000000;3.540931
1834.000000;3.712874
1833.000000;3.404770
1832.000000;3.271616
1831.000000;3.286587
1830.000000;3.360825
1829.000000;3.350203
1828.000000;3.225845
1827.000000;3.233907
1826.000000;3.550578
1825.000000;3.590364
1824.000000;3.325784
1823.000000;3.334080
1822.000000;3.159280
1821.000000;2.974080
1820.000000;2.915170
1819.000000;2.899551
1818.000000;2.908748
1817.000000;2.955032
1816.000000;3.088148
1815.000000;3.477185
1814.000000;3.642346
1813.000000;3.530783
1812.000000;3.514760
1811.000000;3.129968
1810.000000;2.939201
1809.000000;2.946259
1808.000000;3.001083
1807.000000;2.913778
1806.000000;2.838430
1805.000000;2.885861
1804.000000;3.077288
1803.000000;3.388776
1802.000000;3.247933
1801.000000;3.103680
1800.000000;3.139632
1799.000000;3.116447
1798.000000;2.981279
1797.000000;2.874886
1796.000000;2.832893
1795.000000;2.872070
1794.000000;2.955065
1793.000000;3.042782
1792.000000;3.191349
1791.000000;3.265814
1790.000000;3.183472
1789.000000;3.109119
1788.000000;3.018004
1787.000000;2.940373
1786.000000;2.928434
1785.000000;2.967543
1784.000000;3.067980
1783.000000;3.208051
1782.000000;3.464513
1781.000000;3.835631
1780.000000;3.313778
1779.000000;3.062754
1778.000000;3.017925
1777.000000;2.970946
1776.000000;2.830531
1775.000000;2.688600
1774.000000;2.628899
1773.000000;2.645243
1772.000000;2.692722
1771.000000;2.736520
1770.000000;2.798074
1769.000000;2.944734
1768.000000;3.131605
1767.000000;3.117412
1766.000000;2.980984
1765.000000;2.932778
1764.000000;3.205163
1763.000000;3.416335
1762.000000;3.069815
1761.000000;3.043269
1760.000000;3.022862
1759.000000;2.890870
1758.000000;2.866894
1757.000000;2.987713
1756.000000;3.209562
1755.000000;3.345469
1754.000000;3.245811
1753.000000;3.058502
1752.000000;2.959290
1751.000000;2.967531
1750.000000;3.003233
1749.000000;3.001162
1748.000000;3.030026
1747.000000;3.206795
1746.000000;3.289911
1745.000000;3.112431
1744.000000;3.108050
1743.000000;3.388209
1742.000000;3.654947
1741.000000;3.354966
1740.000000;3.187843
1739.000000;3.040909
1738.000000;3.011054
1737.000000;3.266207
1736.000000;3.527076
1735.000000;3.309592
1734.000000;3.336654
1733.000000;3.680265
1732.000000;3.678281
1731.000000;3.322369
1730.000000;3.305776
1729.000000;3.531268
1728.000000;3.169215
1727.000000;2.936929
1726.000000;2.965513
1725.000000;3.061780
1724.000000;3.040939
1723.000000;2.958048
1722.000000;2.977049
1721.000000;3.178987
1720.000000;3.343789
1719.000000;3.132473
1718.000000;3.030655
1717.000000;3.044251
1716.000000;3.101165
1715.000000;3.164905
1714.000000;3.211038
1713.000000;3.204291
1712.000000;3.146305
1711.000000;3.139503
1710.000000;3.116385
1709.000000;2.943815
1708.000000;2.821977
1707.000000;2.827604
1706.000000;2.962384
1705.000000;3.390818
1704.000000;3.405440
1703.000000;3.053342
1702.000000;3.003757
1701.000000;3.072656
1700.000000;3.166323
1699.000000;3.115328
1698.000000;3.014643
1697.000000;3.080625
1696.000000;3.383893
1695.000000;3.617979
1694.000000;3.324317
1693.000000;3.397204
1692.000000;3.537137
1691.000000;3.019087
1690.000000;2.826915
1689.000000;2.809116
1688.000000;2.862568
1687.000000;2.982088
1686.000000;3.195768
1685.000000;3.760276
1684.000000;3.763300
1683.000000;3.360368
1682.000000;3.189762
1681.000000;2.973856
1680.000000;2.818046
1679.000000;2.841130
1678.000000;2.963797
1677.000000;3.133468
1676.000000;3.219181
1675.000000;3.314790
1674.000000;4.117127
1673.000000;3.271730
1672.000000;2.874323
1671.000000;2.787163
1670.000000;2.790687
1669.000000;2.856269
1668.000000;3.037064
1667.000000;3.115973
1666.000000;3.289468
1665.000000;3.987412
1664.000000;3.081709
1663.000000;2.887139
1662.000000;2.931255
1661.000000;3.114484
1660.000000;3.459659
1659.000000;3.845784
1658.000000;3.697968
1657.000000;3.222983
1656.000000;3.171310
1655.000000;3.186854
1654.000000;3.131229
1653.000000;3.135781
1652.000000;3.157849
1651.000000;3.148505
1650.000000;3.156370
1649.000000;3.208132
1648.000000;3.218416
1647.000000;3.019303
1646.000000;2.845154
1645.000000;2.802864
1644.000000;2.909409
1643.000000;3.313994
1642.000000;3.520005
1641.000000;3.159021
1640.000000;3.211228
1639.000000;3.364361
1638.000000;3.321151
1637.000000;3.383746
1636.000000;3.246053
1635.000000;3.489090
1634.000000;3.791080
1633.000000;2.990940
1632.000000;2.831650
1631.000000;2.885015
1630.000000;3.066972
1629.000000;3.339173
1628.000000;3.450154
1627.000000;3.906601
1626.000000;4.004686
1625.000000;3.481857
1624.000000;3.181065
1623.000000;3.038204
1622.000000;2.992545
1621.000000;3.103349
1620.000000;3.427486
1619.000000;3.256586
1618.000000;3.073789
1617.000000;3.111419
1616.000000;3.179759
1615.000000;3.234691
1614.000000;3.257030
1613.000000;3.238939
1612.000000;3.286132
1611.000000;3.362556
1610.000000;3.629590
1609.000000;3.761032
1608.000000;3.099241
1607.000000;2.837996
1606.000000;2.746952
1605.000000;2.758050
1604.000000;2.867410
1603.000000;3.147484
1602.000000;3.500849
1601.000000;3.141631
1600.000000;2.902403
1599.000000;2.843287
1598.000000;2.909495
1597.000000;3.002354
1596.000000;2.996369
1595.000000;3.000837
1594.000000;3.016514
1593.000000;3.030722
1592.000000;3.130997
1591.000000;3.274845
1590.000000;3.352388
1589.000000;3.470579
1588.000000;3.396509
1587.000000;3.168613
1586.000000;3.098980
1585.000000;3.149510
1584.000000;3.245142
1583.000000;3.269479
1582.000000;3.171867
1581.000000;3.095113
1580.000000;3.090003
1579.000000;3.070996
1578.000000;3.014661
1577.000000;2.983168
1576.000000;2.958440
1575.000000;2.904695
1574.000000;2.834078
1573.000000;2.772521
1572.000000;2.767834
1571.000000;2.838826
1570.000000;3.002222
1569.000000;3.204942
1568.000000;3.301346
1567.000000;3.551237
1566.000000;3.454522
1565.000000;3.241173
1564.000000;3.276183
1563.000000;3.161870
1562.000000;3.112053
1561.000000;3.215252
1560.000000;3.321999
1559.000000;3.404205
1558.000000;3.424987
1557.000000;3.606009
1556.000000;3.490688
1555.000000;3.131287
1554.000000;3.054063
1553.000000;3.427248
1552.000000;3.396958
1551.000000;2.811030
1550.000000;2.647691
1549.000000;2.634394
1548.000000;2.752848
1547.000000;3.127519
1546.000000;3.577241
1545.000000;3.202543
1544.000000;3.076056
1543.000000;3.517964
1542.000000;3.492262
1541.000000;3.072439
1540.000000;2.984045
1539.000000;2.981385
1538.000000;3.002542
1537.000000;3.027280
1536.000000;3.064134
1535.000000;3.115020
1534.000000;3.086296
1533.000000;2.976891
1532.000000;2.903246
1531.000000;2.976412
1530.000000;3.187050
1529.000000;3.160734
1528.000000;2.965829
1527.000000;2.867003
1526.000000;2.880808
1525.000000;3.086254
1524.000000;3.465875
1523.000000;3.502389
1522.000000;3.370357
1521.000000;3.402848
1520.000000;3.691169
1519.000000;4.048223
1518.000000;3.450723
1517.000000;2.997884
1516.000000;2.709153
1515.000000;2.624724
1514.000000;2.697508
1513.000000;2.967468
1512.000000;3.737893
1511.000000;3.346673
1510.000000;2.990098
1509.000000;2.851919
1508.000000;2.790758
1507.000000;2.836941
1506.000000;2.892967
1505.000000;2.912961
1504.000000;2.949279
1503.000000;3.057769
1502.000000;3.246262
1501.000000;3.498206
1500.000000;3.476728
1499.000000;3.323686
1498.000000;3.534032
1497.000000;3.896955
1496.000000;3.473904
1495.000000;3.380670
1494.000000;3.402452
1493.000000;3.238031
1492.000000;3.122299
1491.000000;3.123745
1490.000000;3.101754
1489.000000;2.964310
1488.000000;2.800934
1487.000000;2.706971
1486.000000;2.729581
1485.000000;2.871989
1484.000000;3.055492
1483.000000;3.167257
1482.000000;3.269807
1481.000000;3.480419
1480.000000;3.522624
1479.000000;3.182580
1478.000000;2.956528
1477.000000;2.826665
1476.000000;2.757464
1475.000000;2.777341
1474.000000;2.927173
1473.000000;3.340518
1472.000000;3.517845
1471.000000;3.156398
1470.000000;3.108894
1469.000000;3.087122
1468.000000;3.087959
1467.000000;3.234950
1466.000000;3.408022
1465.000000;3.309761
1464.000000;3.155903
1463.000000;3.130044
1462.000000;3.092227
1461.000000;3.026310
1460.000000;3.074387
1459.000000;3.218119
1458.000000;3.185930
1457.000000;3.127161
1456.000000;3.173211
1455.000000;3.175433
1454.000000;3.256488
1453.000000;3.299102
1452.000000;3.285082
1451.000000;3.626882
1450.000000;3.268872
1449.000000;2.972319
1448.000000;2.970313
1447.000000;3.318005
1446.000000;3.494283
1445.000000;2.977265
1444.000000;2.895863
1443.000000;2.954571
1442.000000;3.211154
1441.000000;3.434704
1440.000000;3.109625
1439.000000;2.991621
1438.000000;3.055112
1437.000000;3.333650
1436.000000;3.475764
1435.000000;3.133770
1434.000000;3.047350
1433.000000;3.328915
1432.000000;3.343734
1431.000000;3.103825
1430.000000;3.141167
1429.000000;3.448210
1428.000000;3.759031
1427.000000;3.254837
1426.000000;2.998281
1425.000000;2.914001
1424.000000;2.926886
1423.000000;3.033832
1422.000000;3.213042
1421.000000;3.365492
1420.000000;3.279322
1419.000000;3.065817
1418.000000;2.894543
1417.000000;2.826412
1416.000000;2.889729
1415.000000;3.056611
1414.000000;3.253556
1413.000000;3.596092
1412.000000;3.694217
1411.000000;3.409450
1410.000000;3.318083
1409.000000;3.257625
1408.000000;3.267970
1407.000000;3.450290
1406.000000;3.893336
1405.000000;4.067683
1404.000000;3.503218
1403.000000;3.247451
1402.000000;3.145103
1401.000000;3.037606
1400.000000;2.968065
1399.000000;3.036400
1398.000000;3.386096
1397.000000;3.401860
1396.000000;3.021411
1395.000000;2.960030
1394.000000;3.004530
1393.000000;2.918905
1392.000000;2.766517
1391.000000;2.719115
1390.000000;2.816221
1389.000000;3.040668
1388.000000;3.256330
1387.000000;3.243086
1386.000000;3.084187
1385.000000;2.998025
1384.000000;3.048487
1383.000000;3.239502
1382.000000;3.628291
1381.000000;3.385895
1380.000000;3.140428
1379.000000;3.129506
1378.000000;3.252480
1377.000000;3.468639
1376.000000;3.155026
1375.000000;2.968597
1374.000000;2.972972
1373.000000;3.046371
1372.000000;3.036248
1371.000000;3.221165
1370.000000;3.979564
1369.000000;3.102341
1368.000000;2.858075
1367.000000;2.794011
1366.000000;2.783122
1365.000000;2.831988
1364.000000;2.924967
1363.000000;3.181064
1362.000000;3.640278
1361.000000;3.321828
1360.000000;3.062106
1359.000000;3.167101
1358.000000;3.679859
1357.000000;3.397576
1356.000000;3.051157
1355.000000;3.000533
1354.000000;3.047394
1353.000000;3.106116
1352.000000;3.007154
1351.000000;2.973500
1350.000000;3.182304
1349.000000;3.384617
1348.000000;3.198917
1347.000000;3.208141
1346.000000;3.444575
1345.000000;3.605014
1344.000000;3.783529
1343.000000;3.691403
1342.000000;3.241957
1341.000000;3.070486
1340.000000;3.059826
1339.000000;3.314750
1338.000000;3.789652
1337.000000;3.295950
1336.000000;3.070649
1335.000000;2.894504
1334.000000;2.706630
1333.000000;2.575167
1332.000000;2.524532
1331.000000;2.569285
1330.000000;2.718478
1329.000000;3.057238
1328.000000;3.556880
1327.000000;3.232131
1326.000000;2.977143
1325.000000;2.838816
1324.000000;2.745958
1323.000000;2.730004
1322.000000;2.748253
1321.000000;2.757991
1320.000000;2.780611
1319.000000;2.855813
1318.000000;2.966637
1317.000000;2.986540
1316.000000;2.889520
1315.000000;2.819567
1314.000000;2.842781
1313.000000;2.946437
1312.000000;3.054228
1311.000000;3.097711
1310.000000;2.988493
1309.000000;2.847449
1308.000000;2.829864
1307.000000;2.956933
1306.000000;3.141980
1305.000000;3.182621
1304.000000;3.192438
1303.000000;3.237634
1302.000000;3.226735
1301.000000;3.219782
1300.000000;3.426216
1299.000000;3.479259
1298.000000;3.183693
1297.000000;3.099339
1296.000000;3.119268
1295.000000;3.055663
1294.000000;2.910707
1293.000000;2.816371
1292.000000;2.829774
1291.000000;2.952708
1290.000000;3.104568
1289.000000;3.088204
1288.000000;3.047624
1287.000000;3.122362
1286.000000;3.281090
1285.000000;3.376478
1284.000000;3.287540
1283.000000;3.137238
1282.000000;3.046943
1281.000000;3.010964
1280.000000;3.009199
1279.000000;3.081082
1278.000000;3.225095
1277.000000;3.337425
1276.000000;3.189353
1275.000000;3.057228
1274.000000;3.153893
1273.000000;3.400099
1272.000000;3.490111
1271.000000;3.255648
1270.000000;3.027045
1269.000000;3.002554
1268.000000;3.136064
1267.000000;3.113186
1266.000000;3.028886
1265.000000;3.011624
1264.000000;2.947737
1263.000000;2.862144
1262.000000;2.834526
1261.000000;2.879229
1260.000000;2.989761
1259.000000;3.143684
1258.000000;3.395353
1257.000000;3.666787
1256.000000;3.379814
1255.000000;3.244559
1254.000000;3.270590
1253.000000;3.299315
1252.000000;3.349925
1251.000000;3.526901
1250.000000;3.935264
1249.000000;4.046915
1248.000000;3.957358
1247.000000;3.910315
1246.000000;3.600750
1245.000000;3.443787
1244.000000;3.238981
1243.000000;3.077546
1242.000000;3.071289
1241.000000;3.141683
1240.000000;3.039395
1239.000000;2.906511
1238.000000;2.934276
1237.000000;3.207511
1236.000000;3.737087
1235.000000;3.831383
1234.000000;3.603480
1233.000000;3.178250
1232.000000;3.122834
1231.000000;3.269526
1230.000000;3.516812
1229.000000;3.487694
1228.000000;3.450671
1227.000000;3.434987
1226.000000;3.169980
1225.000000;2.989390
1224.000000;2.897608
1223.000000;2.810500
1222.000000;2.775393
1221.000000;2.820411
1220.000000;2.880208
1219.000000;2.868367
1218.000000;2.841491
1217.000000;2.889848
1216.000000;3.048178
1215.000000;3.335452
1214.000000;3.382552
1213.000000;3.342750
1212.000000;3.393475
1211.000000;3.404991
1210.000000;3.517237
1209.000000;3.331979
1208.000000;3.055463
1207.000000;2.929429
1206.000000;2.897384
1205.000000;2.900983
1204.000000;2.900383
1203.000000;2.906635
1202.000000;2.941641
1201.000000;2.990270
1200.000000;3.020424
