Criado como novo conjunto de dados;"e0108.spp","-4265983.7 Secs"
cm-1;Abs
10000.000000;1.093345
9999.000000;1.093126
9998.000000;1.092727
9997.000000;1.092817
9996.000000;1.093084
9995.000000;1.092527
9994.000000;1.090951
9993.000000;1.088952
9992.000000;1.087253
9991.000000;1.086068
9990.000000;1.085317
9989.000000;1.084886
9988.000000;1.084816
9987.000000;1.085335
9986.000000;1.086619
9985.000000;1.088343
9984.000000;1.089674
9983.000000;1.089971
9982.000000;1.089372
9981.000000;1.088420
9980.000000;1.087320
9979.000000;1.085937
9978.000000;1.084386
9977.000000;1.083209
9976.000000;1.082806
9975.000000;1.082920
9974.000000;1.082904
9973.000000;1.082399
9972.000000;1.081532
9971.000000;1.080541
9970.000000;1.079440
9969.000000;1.078246
9968.000000;1.077439
9967.000000;1.077777
9966.000000;1.079415
9965.000000;1.081381
9964.000000;1.082297
9963.000000;1.081687
9962.000000;1.080318
9961.000000;1.079243
9960.000000;1.078911
9959.000000;1.079228
9958.000000;1.079928
9957.000000;1.080570
9956.000000;1.080596
9955.000000;1.079855
9954.000000;1.078849
9953.000000;1.078092
9952.000000;1.077505
9951.000000;1.076747
9950.000000;1.075869
9949.000000;1.075247
9948.000000;1.075022
9947.000000;1.075031
9946.000000;1.075086
9945.000000;1.074946
9944.000000;1.074229
9943.000000;1.072876
9942.000000;1.071565
9941.000000;1.071103
9940.000000;1.071457
9939.000000;1.071952
9938.000000;1.072382
9937.000000;1.073212
9936.000000;1.074538
9935.000000;1.075523
9934.000000;1.075197
9933.000000;1.073368
9932.000000;1.070473
9931.000000;1.067102
9930.000000;1.064105
9929.000000;1.062664
9928.000000;1.063515
9927.000000;1.066121
9926.000000;1.068972
9925.000000;1.070711
9924.000000;1.070890
9923.000000;1.069851
9922.000000;1.068264
9921.000000;1.066710
9920.000000;1.065352
9919.000000;1.063942
9918.000000;1.062333
9917.000000;1.060917
9916.000000;1.060419
9915.000000;1.061268
9914.000000;1.063233
9913.000000;1.065447
9912.000000;1.066736
9911.000000;1.066337
9910.000000;1.064601
9909.000000;1.062781
9908.000000;1.061862
9907.000000;1.061662
9906.000000;1.061219
9905.000000;1.059888
9904.000000;1.057856
9903.000000;1.055780
9902.000000;1.054314
9901.000000;1.053888
9900.000000;1.054576
9899.000000;1.056033
9898.000000;1.057693
9897.000000;1.059003
9896.000000;1.059377
9895.000000;1.058267
9894.000000;1.055695
9893.000000;1.052644
9892.000000;1.050433
9891.000000;1.049695
9890.000000;1.050215
9889.000000;1.051613
9888.000000;1.053635
9887.000000;1.055696
9886.000000;1.056730
9885.000000;1.055941
9884.000000;1.053577
9883.000000;1.050760
9882.000000;1.048731
9881.000000;1.048261
9880.000000;1.049330
9879.000000;1.051000
9878.000000;1.051882
9877.000000;1.051231
9876.000000;1.049606
9875.000000;1.048237
9874.000000;1.047762
9873.000000;1.047787
9872.000000;1.047572
9871.000000;1.046914
9870.000000;1.046286
9869.000000;1.046249
9868.000000;1.046866
9867.000000;1.047694
9866.000000;1.048236
9865.000000;1.048316
9864.000000;1.047973
9863.000000;1.047201
9862.000000;1.046022
9861.000000;1.044739
9860.000000;1.043837
9859.000000;1.043552
9858.000000;1.043700
9857.000000;1.043940
9856.000000;1.044027
9855.000000;1.043746
9854.000000;1.042902
9853.000000;1.041632
9852.000000;1.040612
9851.000000;1.040655
9850.000000;1.041963
9849.000000;1.043740
9848.000000;1.044605
9847.000000;1.043638
9846.000000;1.041235
9845.000000;1.038885
9844.000000;1.037896
9843.000000;1.038234
9842.000000;1.038725
9841.000000;1.038416
9840.000000;1.037497
9839.000000;1.036782
9838.000000;1.036672
9837.000000;1.036926
9836.000000;1.037194
9835.000000;1.037396
9834.000000;1.037587
9833.000000;1.037699
9832.000000;1.037513
9831.000000;1.036863
9830.000000;1.035916
9829.000000;1.035281
9828.000000;1.035576
9827.000000;1.036605
9826.000000;1.037183
9825.000000;1.036175
9824.000000;1.033762
9823.000000;1.031327
9822.000000;1.030033
9821.000000;1.029839
9820.000000;1.029943
9819.000000;1.029814
9818.000000;1.029571
9817.000000;1.029599
9816.000000;1.030067
9815.000000;1.030713
9814.000000;1.030909
9813.000000;1.030102
9812.000000;1.028436
9811.000000;1.026837
9810.000000;1.026201
9809.000000;1.026547
9808.000000;1.027178
9807.000000;1.027597
9806.000000;1.027900
9805.000000;1.028144
9804.000000;1.027808
9803.000000;1.026410
9802.000000;1.024486
9801.000000;1.023299
9800.000000;1.023353
9799.000000;1.023646
9798.000000;1.022791
9797.000000;1.020745
9796.000000;1.018986
9795.000000;1.018990
9794.000000;1.020882
9793.000000;1.023527
9792.000000;1.025586
9791.000000;1.026370
9790.000000;1.025973
9789.000000;1.024921
9788.000000;1.023714
9787.000000;1.022565
9786.000000;1.021573
9785.000000;1.021012
9784.000000;1.021121
9783.000000;1.021517
9782.000000;1.021212
9781.000000;1.019610
9780.000000;1.017372
9779.000000;1.015898
9778.000000;1.015991
9777.000000;1.017212
9776.000000;1.018441
9775.000000;1.018815
9774.000000;1.018165
9773.000000;1.016904
9772.000000;1.015710
9771.000000;1.015121
9770.000000;1.015133
9769.000000;1.015158
9768.000000;1.014495
9767.000000;1.012926
9766.000000;1.010903
9765.000000;1.009227
9764.000000;1.008538
9763.000000;1.009016
9762.000000;1.010405
9761.000000;1.012213
9760.000000;1.013890
9759.000000;1.014993
9758.000000;1.015361
9757.000000;1.015152
9756.000000;1.014554
9755.000000;1.013497
9754.000000;1.011825
9753.000000;1.009825
9752.000000;1.008289
9751.000000;1.007782
9750.000000;1.008003
9749.000000;1.008119
9748.000000;1.007669
9747.000000;1.006871
9746.000000;1.006102
9745.000000;1.005460
9744.000000;1.004955
9743.000000;1.004809
9742.000000;1.005266
9741.000000;1.006158
9740.000000;1.006864
9739.000000;1.006800
9738.000000;1.005947
9737.000000;1.004838
9736.000000;1.004010
9735.000000;1.003518
9734.000000;1.003070
9733.000000;1.002587
9732.000000;1.002421
9731.000000;1.002862
9730.000000;1.003637
9729.000000;1.004162
9728.000000;1.004198
9727.000000;1.003931
9726.000000;1.003502
9725.000000;1.002859
9724.000000;1.002132
9723.000000;1.001697
9722.000000;1.001646
9721.000000;1.001527
9720.000000;1.000923
9719.000000;1.000095
9718.000000;0.999718
9717.000000;1.000097
9716.000000;1.000917
9715.000000;1.001676
9714.000000;1.002054
9713.000000;1.001905
9712.000000;1.001243
9711.000000;1.000395
9710.000000;0.999908
9709.000000;1.000090
9708.000000;1.000658
9707.000000;1.000908
9706.000000;1.000241
9705.000000;0.998548
9704.000000;0.996226
9703.000000;0.993941
9702.000000;0.992333
9701.000000;0.991789
9700.000000;0.992309
9699.000000;0.993493
9698.000000;0.994668
9697.000000;0.995217
9696.000000;0.995006
9695.000000;0.994546
9694.000000;0.994589
9693.000000;0.995397
9692.000000;0.996379
9691.000000;0.996562
9690.000000;0.995529
9689.000000;0.993814
9688.000000;0.992290
9687.000000;0.991243
9686.000000;0.990286
9685.000000;0.989190
9684.000000;0.988411
9683.000000;0.988518
9682.000000;0.989270
9681.000000;0.989638
9680.000000;0.988846
9679.000000;0.987180
9678.000000;0.985718
9677.000000;0.985480
9676.000000;0.986795
9675.000000;0.989069
9674.000000;0.991002
9673.000000;0.991399
9672.000000;0.990175
9671.000000;0.988498
9670.000000;0.987708
9669.000000;0.988098
9668.000000;0.988793
9667.000000;0.988737
9666.000000;0.987673
9665.000000;0.986295
9664.000000;0.985522
9663.000000;0.985607
9662.000000;0.985854
9661.000000;0.985324
9660.000000;0.983887
9659.000000;0.982375
9658.000000;0.981573
9657.000000;0.981378
9656.000000;0.981213
9655.000000;0.980965
9654.000000;0.980958
9653.000000;0.981108
9652.000000;0.980794
9651.000000;0.979747
9650.000000;0.978568
9649.000000;0.978053
9648.000000;0.978329
9647.000000;0.978934
9646.000000;0.979443
9645.000000;0.979679
9644.000000;0.979554
9643.000000;0.979127
9642.000000;0.978742
9641.000000;0.978751
9640.000000;0.979052
9639.000000;0.979170
9638.000000;0.978813
9637.000000;0.978143
9636.000000;0.977485
9635.000000;0.976972
9634.000000;0.976503
9633.000000;0.975892
9632.000000;0.975069
9631.000000;0.974237
9630.000000;0.973798
9629.000000;0.973920
9628.000000;0.974234
9627.000000;0.974224
9626.000000;0.973933
9625.000000;0.973943
9624.000000;0.974530
9623.000000;0.975164
9622.000000;0.975149
9621.000000;0.974553
9620.000000;0.974132
9619.000000;0.974397
9618.000000;0.975034
9617.000000;0.975254
9616.000000;0.974486
9615.000000;0.972770
9614.000000;0.970745
9613.000000;0.969342
9612.000000;0.969206
9611.000000;0.970172
9610.000000;0.971328
9609.000000;0.971705
9608.000000;0.970924
9607.000000;0.969262
9606.000000;0.967356
9605.000000;0.965900
9604.000000;0.965355
9603.000000;0.965634
9602.000000;0.966118
9601.000000;0.966233
9600.000000;0.965996
9599.000000;0.965849
9598.000000;0.966003
9597.000000;0.966206
9596.000000;0.966141
9595.000000;0.965794
9594.000000;0.965326
9593.000000;0.964813
9592.000000;0.964267
9591.000000;0.963772
9590.000000;0.963431
9589.000000;0.963257
9588.000000;0.963232
9587.000000;0.963386
9586.000000;0.963711
9585.000000;0.964085
9584.000000;0.964399
9583.000000;0.964685
9582.000000;0.964943
9581.000000;0.964929
9580.000000;0.964314
9579.000000;0.963105
9578.000000;0.961751
9577.000000;0.960778
9576.000000;0.960376
9575.000000;0.960320
9574.000000;0.960184
9573.000000;0.959628
9572.000000;0.958561
9571.000000;0.957148
9570.000000;0.955686
9569.000000;0.954507
9568.000000;0.953925
9567.000000;0.954093
9566.000000;0.954799
9565.000000;0.955541
9564.000000;0.956000
9563.000000;0.956322
9562.000000;0.956794
9561.000000;0.957344
9560.000000;0.957605
9559.000000;0.957367
9558.000000;0.956691
9557.000000;0.955631
9556.000000;0.954216
9555.000000;0.952735
9554.000000;0.951667
9553.000000;0.951170
9552.000000;0.950945
9551.000000;0.950802
9550.000000;0.950980
9549.000000;0.951646
9548.000000;0.952407
9547.000000;0.952744
9546.000000;0.952709
9545.000000;0.952703
9544.000000;0.952708
9543.000000;0.952334
9542.000000;0.951616
9541.000000;0.951181
9540.000000;0.951405
9539.000000;0.951901
9538.000000;0.952138
9537.000000;0.952189
9536.000000;0.952428
9535.000000;0.952768
9534.000000;0.952677
9533.000000;0.951915
9532.000000;0.950844
9531.000000;0.949968
9530.000000;0.949446
9529.000000;0.949171
9528.000000;0.949025
9527.000000;0.948950
9526.000000;0.948894
9525.000000;0.948857
9524.000000;0.948898
9523.000000;0.948983
9522.000000;0.948864
9521.000000;0.948280
9520.000000;0.947347
9519.000000;0.946625
9518.000000;0.946581
9517.000000;0.946907
9516.000000;0.946599
9515.000000;0.945010
9514.000000;0.942753
9513.000000;0.941218
9512.000000;0.941110
9511.000000;0.941823
9510.000000;0.942394
9509.000000;0.942695
9508.000000;0.943244
9507.000000;0.944109
9506.000000;0.944652
9505.000000;0.944448
9504.000000;0.943906
9503.000000;0.943645
9502.000000;0.943610
9501.000000;0.943193
9500.000000;0.942065
9499.000000;0.940553
9498.000000;0.939195
9497.000000;0.938233
9496.000000;0.937629
9495.000000;0.937390
9494.000000;0.937680
9493.000000;0.938582
9492.000000;0.939841
9491.000000;0.940935
9490.000000;0.941489
9489.000000;0.941548
9488.000000;0.941339
9487.000000;0.940869
9486.000000;0.939985
9485.000000;0.938851
9484.000000;0.938037
9483.000000;0.937942
9482.000000;0.938274
9481.000000;0.938324
9480.000000;0.937725
9479.000000;0.936809
9478.000000;0.936239
9477.000000;0.936392
9476.000000;0.937042
9475.000000;0.937560
9474.000000;0.937478
9473.000000;0.936922
9472.000000;0.936408
9471.000000;0.936188
9470.000000;0.935992
9469.000000;0.935512
9468.000000;0.934924
9467.000000;0.934670
9466.000000;0.934817
9465.000000;0.934954
9464.000000;0.934675
9463.000000;0.933925
9462.000000;0.932891
9461.000000;0.931846
9460.000000;0.931155
9459.000000;0.931095
9458.000000;0.931505
9457.000000;0.931827
9456.000000;0.931679
9455.000000;0.931254
9454.000000;0.930985
9453.000000;0.930990
9452.000000;0.931020
9451.000000;0.930858
9450.000000;0.930544
9449.000000;0.930270
9448.000000;0.930226
9447.000000;0.930507
9446.000000;0.931006
9445.000000;0.931400
9444.000000;0.931357
9443.000000;0.930771
9442.000000;0.929726
9441.000000;0.928353
9440.000000;0.926939
9439.000000;0.926042
9438.000000;0.926180
9437.000000;0.927277
9436.000000;0.928622
9435.000000;0.929490
9434.000000;0.929658
9433.000000;0.929271
9432.000000;0.928461
9431.000000;0.927377
9430.000000;0.926404
9429.000000;0.926032
9428.000000;0.926416
9427.000000;0.927242
9426.000000;0.928023
9425.000000;0.928411
9424.000000;0.928222
9423.000000;0.927390
9422.000000;0.926059
9421.000000;0.924614
9420.000000;0.923481
9419.000000;0.922885
9418.000000;0.922845
9417.000000;0.923295
9416.000000;0.924096
9415.000000;0.924926
9414.000000;0.925345
9413.000000;0.925078
9412.000000;0.924213
9411.000000;0.923081
9410.000000;0.921977
9409.000000;0.921039
9408.000000;0.920415
9407.000000;0.920424
9406.000000;0.921367
9405.000000;0.923067
9404.000000;0.924659
9403.000000;0.925087
9402.000000;0.924007
9401.000000;0.922207
9400.000000;0.920989
9399.000000;0.921057
9398.000000;0.921976
9397.000000;0.922666
9396.000000;0.922368
9395.000000;0.921203
9394.000000;0.919955
9393.000000;0.919406
9392.000000;0.919757
9391.000000;0.920481
9390.000000;0.920683
9389.000000;0.919806
9388.000000;0.918070
9387.000000;0.916219
9386.000000;0.914897
9385.000000;0.914367
9384.000000;0.914673
9383.000000;0.915726
9382.000000;0.917105
9381.000000;0.918037
9380.000000;0.917933
9379.000000;0.916971
9378.000000;0.915910
9377.000000;0.915303
9376.000000;0.915121
9375.000000;0.915154
9374.000000;0.915461
9373.000000;0.916154
9372.000000;0.916931
9371.000000;0.917204
9370.000000;0.916739
9369.000000;0.915953
9368.000000;0.915419
9367.000000;0.915219
9366.000000;0.914901
9365.000000;0.914022
9364.000000;0.912648
9363.000000;0.911346
9362.000000;0.910740
9361.000000;0.911042
9360.000000;0.911947
9359.000000;0.912932
9358.000000;0.913612
9357.000000;0.913846
9356.000000;0.913694
9355.000000;0.913375
9354.000000;0.913189
9353.000000;0.913272
9352.000000;0.913404
9351.000000;0.913191
9350.000000;0.912477
9349.000000;0.911470
9348.000000;0.910468
9347.000000;0.909598
9346.000000;0.908873
9345.000000;0.908368
9344.000000;0.908214
9343.000000;0.908477
9342.000000;0.909029
9341.000000;0.909480
9340.000000;0.909314
9339.000000;0.908383
9338.000000;0.907313
9337.000000;0.907100
9336.000000;0.908113
9335.000000;0.909620
9334.000000;0.910455
9333.000000;0.910048
9332.000000;0.908690
9331.000000;0.907017
9330.000000;0.905561
9329.000000;0.904681
9328.000000;0.904490
9327.000000;0.904717
9326.000000;0.904890
9325.000000;0.904812
9324.000000;0.904723
9323.000000;0.904962
9322.000000;0.905610
9321.000000;0.906485
9320.000000;0.907270
9319.000000;0.907569
9318.000000;0.907041
9317.000000;0.905713
9316.000000;0.904119
9315.000000;0.902985
9314.000000;0.902692
9313.000000;0.902987
9312.000000;0.903191
9311.000000;0.902797
9310.000000;0.901964
9309.000000;0.901392
9308.000000;0.901628
9307.000000;0.902547
9306.000000;0.903551
9305.000000;0.904153
9304.000000;0.904240
9303.000000;0.903910
9302.000000;0.903326
9301.000000;0.902690
9300.000000;0.902114
9299.000000;0.901490
9298.000000;0.900688
9297.000000;0.899931
9296.000000;0.899709
9295.000000;0.900263
9294.000000;0.901302
9293.000000;0.902284
9292.000000;0.902754
9291.000000;0.902424
9290.000000;0.901282
9289.000000;0.899785
9288.000000;0.898679
9287.000000;0.898397
9286.000000;0.898724
9285.000000;0.899134
9284.000000;0.899271
9283.000000;0.899037
9282.000000;0.898508
9281.000000;0.897947
9280.000000;0.897699
9279.000000;0.897841
9278.000000;0.898084
9277.000000;0.898212
9276.000000;0.898393
9275.000000;0.898773
9274.000000;0.898970
9273.000000;0.898360
9272.000000;0.896876
9271.000000;0.895241
9270.000000;0.894326
9269.000000;0.894457
9268.000000;0.895311
9267.000000;0.896260
9266.000000;0.896778
9265.000000;0.896675
9264.000000;0.896056
9263.000000;0.895138
9262.000000;0.894196
9261.000000;0.893609
9260.000000;0.893619
9259.000000;0.893915
9258.000000;0.893742
9257.000000;0.892744
9256.000000;0.891527
9255.000000;0.891067
9254.000000;0.891686
9253.000000;0.892875
9252.000000;0.893948
9251.000000;0.894517
9250.000000;0.894406
9249.000000;0.893586
9248.000000;0.892329
9247.000000;0.891067
9246.000000;0.890004
9245.000000;0.889146
9244.000000;0.888754
9243.000000;0.889350
9242.000000;0.891065
9241.000000;0.893300
9240.000000;0.895261
9239.000000;0.896577
9238.000000;0.897224
9237.000000;0.897128
9236.000000;0.896229
9235.000000;0.894818
9234.000000;0.893472
9233.000000;0.892591
9232.000000;0.892157
9231.000000;0.891896
9230.000000;0.891543
9229.000000;0.890969
9228.000000;0.890262
9227.000000;0.889694
9226.000000;0.889498
9225.000000;0.889625
9224.000000;0.889805
9223.000000;0.889902
9222.000000;0.890114
9221.000000;0.890730
9220.000000;0.891694
9219.000000;0.892496
9218.000000;0.892568
9217.000000;0.891789
9216.000000;0.890537
9215.000000;0.889282
9214.000000;0.888277
9213.000000;0.887655
9212.000000;0.887521
9211.000000;0.887733
9210.000000;0.887816
9209.000000;0.887451
9208.000000;0.886995
9207.000000;0.887144
9206.000000;0.888039
9205.000000;0.889018
9204.000000;0.889365
9203.000000;0.888970
9202.000000;0.888157
9201.000000;0.887249
9200.000000;0.886518
9199.000000;0.886239
9198.000000;0.886429
9197.000000;0.886683
9196.000000;0.886540
9195.000000;0.885967
9194.000000;0.885282
9193.000000;0.884766
9192.000000;0.884546
9191.000000;0.884701
9190.000000;0.885158
9189.000000;0.885561
9188.000000;0.885541
9187.000000;0.885120
9186.000000;0.884615
9185.000000;0.884190
9184.000000;0.883769
9183.000000;0.883350
9182.000000;0.883079
9181.000000;0.882971
9180.000000;0.882846
9179.000000;0.882647
9178.000000;0.882563
9177.000000;0.882714
9176.000000;0.882919
9175.000000;0.882926
9174.000000;0.882728
9173.000000;0.882530
9172.000000;0.882517
9171.000000;0.882769
9170.000000;0.883232
9169.000000;0.883629
9168.000000;0.883558
9167.000000;0.882875
9166.000000;0.881894
9165.000000;0.881032
9164.000000;0.880380
9163.000000;0.879788
9162.000000;0.879314
9161.000000;0.879281
9160.000000;0.879843
9159.000000;0.880687
9158.000000;0.881279
9157.000000;0.881310
9156.000000;0.880822
9155.000000;0.880045
9154.000000;0.879249
9153.000000;0.878691
9152.000000;0.878527
9151.000000;0.878724
9150.000000;0.879091
9149.000000;0.879392
9148.000000;0.879434
9147.000000;0.879134
9146.000000;0.878641
9145.000000;0.878348
9144.000000;0.878619
9143.000000;0.879404
9142.000000;0.880210
9141.000000;0.880510
9140.000000;0.880147
9139.000000;0.879327
9138.000000;0.878364
9137.000000;0.877532
9136.000000;0.877057
9135.000000;0.877042
9134.000000;0.877347
9133.000000;0.877622
9132.000000;0.877527
9131.000000;0.876925
9130.000000;0.875980
9129.000000;0.875164
9128.000000;0.875064
9127.000000;0.875921
9126.000000;0.877328
9125.000000;0.878546
9124.000000;0.879192
9123.000000;0.879449
9122.000000;0.879560
9121.000000;0.879374
9120.000000;0.878596
9119.000000;0.877325
9118.000000;0.876075
9117.000000;0.875303
9116.000000;0.875108
9115.000000;0.875381
9114.000000;0.876010
9113.000000;0.876860
9112.000000;0.877669
9111.000000;0.878080
9110.000000;0.877768
9109.000000;0.876622
9108.000000;0.874935
9107.000000;0.873382
9106.000000;0.872610
9105.000000;0.872752
9104.000000;0.873400
9103.000000;0.874060
9102.000000;0.874538
9101.000000;0.874843
9100.000000;0.874901
9099.000000;0.874562
9098.000000;0.873856
9097.000000;0.873070
9096.000000;0.872557
9095.000000;0.872518
9094.000000;0.872933
9093.000000;0.873544
9092.000000;0.873901
9091.000000;0.873610
9090.000000;0.872709
9089.000000;0.871738
9088.000000;0.871334
9087.000000;0.871713
9086.000000;0.872558
9085.000000;0.873310
9084.000000;0.873525
9083.000000;0.873040
9082.000000;0.872045
9081.000000;0.871035
9080.000000;0.870497
9079.000000;0.870534
9078.000000;0.870856
9077.000000;0.871195
9076.000000;0.871522
9075.000000;0.871793
9074.000000;0.871720
9073.000000;0.871101
9072.000000;0.870254
9071.000000;0.869818
9070.000000;0.870079
9069.000000;0.870720
9068.000000;0.871229
9067.000000;0.871349
9066.000000;0.871069
9065.000000;0.870483
9064.000000;0.869805
9063.000000;0.869337
9062.000000;0.869243
9061.000000;0.869449
9060.000000;0.869838
9059.000000;0.870381
9058.000000;0.870984
9057.000000;0.871417
9056.000000;0.871522
9055.000000;0.871291
9054.000000;0.870638
9053.000000;0.869400
9052.000000;0.867809
9051.000000;0.866647
9050.000000;0.866552
9049.000000;0.867283
9048.000000;0.868046
9047.000000;0.868446
9046.000000;0.868760
9045.000000;0.869303
9044.000000;0.869964
9043.000000;0.870436
9042.000000;0.870574
9041.000000;0.870349
9040.000000;0.869764
9039.000000;0.868965
9038.000000;0.868206
9037.000000;0.867567
9036.000000;0.866931
9035.000000;0.866346
9034.000000;0.866077
9033.000000;0.866150
9032.000000;0.866180
9031.000000;0.865945
9030.000000;0.865822
9029.000000;0.866261
9028.000000;0.866999
9027.000000;0.867274
9026.000000;0.866764
9025.000000;0.865911
9024.000000;0.865264
9023.000000;0.864915
9022.000000;0.864721
9021.000000;0.864721
9020.000000;0.865079
9019.000000;0.865798
9018.000000;0.866715
9017.000000;0.867645
9016.000000;0.868345
9015.000000;0.868463
9014.000000;0.867799
9013.000000;0.866600
9012.000000;0.865430
9011.000000;0.864704
9010.000000;0.864446
9009.000000;0.864469
9008.000000;0.864646
9007.000000;0.864932
9006.000000;0.865223
9005.000000;0.865329
9004.000000;0.865131
9003.000000;0.864754
9002.000000;0.864559
9001.000000;0.864866
9000.000000;0.865606
8999.000000;0.866295
8998.000000;0.866474
8997.000000;0.866181
8996.000000;0.865837
8995.000000;0.865629
8994.000000;0.865225
8993.000000;0.864265
8992.000000;0.862982
8991.000000;0.862057
8990.000000;0.861894
8989.000000;0.862281
8988.000000;0.862819
8987.000000;0.863398
8986.000000;0.864070
8985.000000;0.864677
8984.000000;0.864889
8983.000000;0.864590
8982.000000;0.863974
8981.000000;0.863276
8980.000000;0.862654
8979.000000;0.862354
8978.000000;0.862718
8977.000000;0.863841
8976.000000;0.865310
8975.000000;0.866489
8974.000000;0.867050
8973.000000;0.867153
8972.000000;0.867148
8971.000000;0.867202
8970.000000;0.867227
8969.000000;0.867020
8968.000000;0.866432
8967.000000;0.865440
8966.000000;0.864197
8965.000000;0.863035
8964.000000;0.862356
8963.000000;0.862355
8962.000000;0.862783
8961.000000;0.863074
8960.000000;0.862861
8959.000000;0.862357
8958.000000;0.862112
8957.000000;0.862406
8956.000000;0.862975
8955.000000;0.863329
8954.000000;0.863198
8953.000000;0.862611
8952.000000;0.861704
8951.000000;0.860618
8950.000000;0.859531
8949.000000;0.858685
8948.000000;0.858359
8947.000000;0.858790
8946.000000;0.859965
8945.000000;0.861402
8944.000000;0.862313
8943.000000;0.862227
8942.000000;0.861481
8941.000000;0.860922
8940.000000;0.861066
8939.000000;0.861664
8938.000000;0.862106
8937.000000;0.862128
8936.000000;0.862014
8935.000000;0.862197
8934.000000;0.862780
8933.000000;0.863456
8932.000000;0.863818
8931.000000;0.863705
8930.000000;0.863278
8929.000000;0.862837
8928.000000;0.862587
8927.000000;0.862545
8926.000000;0.862607
8925.000000;0.862639
8924.000000;0.862520
8923.000000;0.862149
8922.000000;0.861498
8921.000000;0.860719
8920.000000;0.860149
8919.000000;0.860091
8918.000000;0.860506
8917.000000;0.860979
8916.000000;0.861083
8915.000000;0.860742
8914.000000;0.860163
8913.000000;0.859501
8912.000000;0.858780
8911.000000;0.858102
8910.000000;0.857682
8909.000000;0.857567
8908.000000;0.857544
8907.000000;0.857496
8906.000000;0.857678
8905.000000;0.858377
8904.000000;0.859398
8903.000000;0.860175
8902.000000;0.860436
8901.000000;0.860495
8900.000000;0.860782
8899.000000;0.861309
8898.000000;0.861768
8897.000000;0.861975
8896.000000;0.861966
8895.000000;0.861738
8894.000000;0.861180
8893.000000;0.860375
8892.000000;0.859765
8891.000000;0.859828
8890.000000;0.860549
8889.000000;0.861332
8888.000000;0.861490
8887.000000;0.860816
8886.000000;0.859696
8885.000000;0.858740
8884.000000;0.858336
8883.000000;0.858489
8882.000000;0.858955
8881.000000;0.859477
8880.000000;0.859915
8879.000000;0.860226
8878.000000;0.860374
8877.000000;0.860306
8876.000000;0.860036
8875.000000;0.859698
8874.000000;0.859449
8873.000000;0.859328
8872.000000;0.859267
8871.000000;0.859248
8870.000000;0.859343
8869.000000;0.859587
8868.000000;0.859881
8867.000000;0.860098
8866.000000;0.860239
8865.000000;0.860445
8864.000000;0.860872
8863.000000;0.861554
8862.000000;0.862321
8861.000000;0.862840
8860.000000;0.862857
8859.000000;0.862456
8858.000000;0.861967
8857.000000;0.861541
8856.000000;0.860975
8855.000000;0.860104
8854.000000;0.859238
8853.000000;0.858966
8852.000000;0.859511
8851.000000;0.860473
8850.000000;0.861235
8849.000000;0.861485
8848.000000;0.861283
8847.000000;0.860837
8846.000000;0.860362
8845.000000;0.860065
8844.000000;0.860052
8843.000000;0.860275
8842.000000;0.860640
8841.000000;0.861113
8840.000000;0.861644
8839.000000;0.862050
8838.000000;0.862122
8837.000000;0.861845
8836.000000;0.861390
8835.000000;0.860926
8834.000000;0.860542
8833.000000;0.860362
8832.000000;0.860549
8831.000000;0.861090
8830.000000;0.861689
8829.000000;0.861962
8828.000000;0.861736
8827.000000;0.861136
8826.000000;0.860438
8825.000000;0.859936
8824.000000;0.859868
8823.000000;0.860292
8822.000000;0.860987
8821.000000;0.861579
8820.000000;0.861832
8819.000000;0.861773
8818.000000;0.861527
8817.000000;0.861146
8816.000000;0.860674
8815.000000;0.860303
8814.000000;0.860301
8813.000000;0.860757
8812.000000;0.861450
8811.000000;0.862039
8810.000000;0.862349
8809.000000;0.862490
8808.000000;0.862742
8807.000000;0.863331
8806.000000;0.864228
8805.000000;0.865105
8804.000000;0.865540
8803.000000;0.865341
8802.000000;0.864735
8801.000000;0.864179
8800.000000;0.863952
8799.000000;0.863939
8798.000000;0.863852
8797.000000;0.863622
8796.000000;0.863473
8795.000000;0.863581
8794.000000;0.863782
8793.000000;0.863777
8792.000000;0.863627
8791.000000;0.863781
8790.000000;0.864466
8789.000000;0.865230
8788.000000;0.865365
8787.000000;0.864772
8786.000000;0.864144
8785.000000;0.864224
8784.000000;0.865060
8783.000000;0.866081
8782.000000;0.866711
8781.000000;0.866765
8780.000000;0.866437
8779.000000;0.866157
8778.000000;0.866380
8777.000000;0.867234
8776.000000;0.868279
8775.000000;0.868796
8774.000000;0.868480
8773.000000;0.867762
8772.000000;0.867362
8771.000000;0.867592
8770.000000;0.868157
8769.000000;0.868532
8768.000000;0.868410
8767.000000;0.867839
8766.000000;0.867110
8765.000000;0.866604
8764.000000;0.866651
8763.000000;0.867330
8762.000000;0.868360
8761.000000;0.869247
8760.000000;0.869666
8759.000000;0.869705
8758.000000;0.869694
8757.000000;0.869832
8756.000000;0.870055
8755.000000;0.870251
8754.000000;0.870447
8753.000000;0.870732
8752.000000;0.871105
8751.000000;0.871496
8750.000000;0.871871
8749.000000;0.872228
8748.000000;0.872550
8747.000000;0.872839
8746.000000;0.873136
8745.000000;0.873399
8744.000000;0.873437
8743.000000;0.873107
8742.000000;0.872603
8741.000000;0.872406
8740.000000;0.872866
8739.000000;0.873854
8738.000000;0.874877
8737.000000;0.875468
8736.000000;0.875488
8735.000000;0.875130
8734.000000;0.874713
8733.000000;0.874468
8732.000000;0.874442
8731.000000;0.874556
8730.000000;0.874703
8729.000000;0.874794
8728.000000;0.874804
8727.000000;0.874840
8726.000000;0.875123
8725.000000;0.875788
8724.000000;0.876674
8723.000000;0.877407
8722.000000;0.877757
8721.000000;0.877852
8720.000000;0.877965
8719.000000;0.878143
8718.000000;0.878158
8717.000000;0.877867
8716.000000;0.877523
8715.000000;0.877617
8714.000000;0.878374
8713.000000;0.879526
8712.000000;0.880597
8711.000000;0.881309
8710.000000;0.881624
8709.000000;0.881522
8708.000000;0.881010
8707.000000;0.880353
8706.000000;0.880018
8705.000000;0.880206
8704.000000;0.880599
8703.000000;0.880751
8702.000000;0.880614
8701.000000;0.880516
8700.000000;0.880717
8699.000000;0.881189
8698.000000;0.881791
8697.000000;0.882393
8696.000000;0.882827
8695.000000;0.882981
8694.000000;0.882971
8693.000000;0.882989
8692.000000;0.882940
8691.000000;0.882512
8690.000000;0.881752
8689.000000;0.881287
8688.000000;0.881715
8687.000000;0.882883
8686.000000;0.883999
8685.000000;0.884423
8684.000000;0.884180
8683.000000;0.883780
8682.000000;0.883740
8681.000000;0.884254
8680.000000;0.885056
8679.000000;0.885549
8678.000000;0.885286
8677.000000;0.884470
8676.000000;0.883852
8675.000000;0.884027
8674.000000;0.884866
8673.000000;0.885694
8672.000000;0.885956
8671.000000;0.885639
8670.000000;0.885142
8669.000000;0.884895
8668.000000;0.885074
8667.000000;0.885516
8666.000000;0.885831
8665.000000;0.885723
8664.000000;0.885312
8663.000000;0.885074
8662.000000;0.885338
8661.000000;0.885904
8660.000000;0.886295
8659.000000;0.886357
8658.000000;0.886395
8657.000000;0.886643
8656.000000;0.886863
8655.000000;0.886709
8654.000000;0.886313
8653.000000;0.886145
8652.000000;0.886337
8651.000000;0.886518
8650.000000;0.886447
8649.000000;0.886445
8648.000000;0.886914
8647.000000;0.887673
8646.000000;0.888108
8645.000000;0.887909
8644.000000;0.887340
8643.000000;0.886810
8642.000000;0.886502
8641.000000;0.886448
8640.000000;0.886675
8639.000000;0.887097
8638.000000;0.887480
8637.000000;0.887677
8636.000000;0.887772
8635.000000;0.887901
8634.000000;0.888060
8633.000000;0.888199
8632.000000;0.888363
8631.000000;0.888591
8630.000000;0.888821
8629.000000;0.889045
8628.000000;0.889420
8627.000000;0.890037
8626.000000;0.890642
8625.000000;0.890807
8624.000000;0.890360
8623.000000;0.889500
8622.000000;0.888557
8621.000000;0.887799
8620.000000;0.887426
8619.000000;0.887486
8618.000000;0.887762
8617.000000;0.887963
8616.000000;0.888067
8615.000000;0.888279
8614.000000;0.888613
8613.000000;0.888792
8612.000000;0.888645
8611.000000;0.888362
8610.000000;0.888183
8609.000000;0.888040
8608.000000;0.887733
8607.000000;0.887331
8606.000000;0.887138
8605.000000;0.887309
8604.000000;0.887741
8603.000000;0.888295
8602.000000;0.888898
8601.000000;0.889395
8600.000000;0.889589
8599.000000;0.889531
8598.000000;0.889582
8597.000000;0.889995
8596.000000;0.890528
8595.000000;0.890617
8594.000000;0.889950
8593.000000;0.888808
8592.000000;0.887833
8591.000000;0.887524
8590.000000;0.887944
8589.000000;0.888847
8588.000000;0.889962
8587.000000;0.891072
8586.000000;0.891854
8585.000000;0.891897
8584.000000;0.891044
8583.000000;0.889688
8582.000000;0.888525
8581.000000;0.887997
8580.000000;0.888058
8579.000000;0.888424
8578.000000;0.888886
8577.000000;0.889351
8576.000000;0.889730
8575.000000;0.889920
8574.000000;0.889843
8573.000000;0.889466
8572.000000;0.888889
8571.000000;0.888408
8570.000000;0.888340
8569.000000;0.888703
8568.000000;0.889153
8567.000000;0.889357
8566.000000;0.889318
8565.000000;0.889243
8564.000000;0.889211
8563.000000;0.889137
8562.000000;0.888999
8561.000000;0.888918
8560.000000;0.888987
8559.000000;0.889134
8558.000000;0.889231
8557.000000;0.889274
8556.000000;0.889402
8555.000000;0.889705
8554.000000;0.890036
8553.000000;0.890067
8552.000000;0.889637
8551.000000;0.889026
8550.000000;0.888736
8549.000000;0.888970
8548.000000;0.889463
8547.000000;0.889894
8546.000000;0.890278
8545.000000;0.890810
8544.000000;0.891455
8543.000000;0.891931
8542.000000;0.892081
8541.000000;0.892014
8540.000000;0.891870
8539.000000;0.891648
8538.000000;0.891324
8537.000000;0.890968
8536.000000;0.890648
8535.000000;0.890351
8534.000000;0.890060
8533.000000;0.889802
8532.000000;0.889538
8531.000000;0.889161
8530.000000;0.888727
8529.000000;0.888563
8528.000000;0.888931
8527.000000;0.889608
8526.000000;0.890019
8525.000000;0.889869
8524.000000;0.889536
8523.000000;0.889681
8522.000000;0.890500
8521.000000;0.891502
8520.000000;0.892014
8519.000000;0.891828
8518.000000;0.891299
8517.000000;0.890849
8516.000000;0.890564
8515.000000;0.890306
8514.000000;0.890089
8513.000000;0.890143
8512.000000;0.890604
8511.000000;0.891290
8510.000000;0.891878
8509.000000;0.892223
8508.000000;0.892382
8507.000000;0.892414
8506.000000;0.892338
8505.000000;0.892271
8504.000000;0.892404
8503.000000;0.892696
8502.000000;0.892721
8501.000000;0.892066
8500.000000;0.890881
8499.000000;0.889879
8498.000000;0.889687
8497.000000;0.890282
8496.000000;0.891075
8495.000000;0.891451
8494.000000;0.891173
8493.000000;0.890403
8492.000000;0.889501
8491.000000;0.888790
8490.000000;0.888351
8489.000000;0.888044
8488.000000;0.887782
8487.000000;0.887736
8486.000000;0.888158
8485.000000;0.889013
8484.000000;0.889930
8483.000000;0.890533
8482.000000;0.890704
8481.000000;0.890553
8480.000000;0.890292
8479.000000;0.890190
8478.000000;0.890420
8477.000000;0.890831
8476.000000;0.891027
8475.000000;0.890821
8474.000000;0.890502
8473.000000;0.890490
8472.000000;0.890821
8471.000000;0.891180
8470.000000;0.891364
8469.000000;0.891495
8468.000000;0.891735
8467.000000;0.892000
8466.000000;0.892092
8465.000000;0.891956
8464.000000;0.891690
8463.000000;0.891376
8462.000000;0.891057
8461.000000;0.890852
8460.000000;0.890925
8459.000000;0.891279
8458.000000;0.891671
8457.000000;0.891853
8456.000000;0.891838
8455.000000;0.891822
8454.000000;0.891844
8453.000000;0.891721
8452.000000;0.891390
8451.000000;0.891149
8450.000000;0.891333
8449.000000;0.891814
8448.000000;0.892066
8447.000000;0.891789
8446.000000;0.891291
8445.000000;0.891114
8444.000000;0.891439
8443.000000;0.891999
8442.000000;0.892437
8441.000000;0.892575
8440.000000;0.892365
8439.000000;0.891811
8438.000000;0.891059
8437.000000;0.890447
8436.000000;0.890318
8435.000000;0.890733
8434.000000;0.891382
8433.000000;0.891825
8432.000000;0.891859
8431.000000;0.891647
8430.000000;0.891485
8429.000000;0.891497
8428.000000;0.891619
8427.000000;0.891815
8426.000000;0.892139
8425.000000;0.892551
8424.000000;0.892854
8423.000000;0.892906
8422.000000;0.892803
8421.000000;0.892739
8420.000000;0.892755
8419.000000;0.892744
8418.000000;0.892629
8417.000000;0.892457
8416.000000;0.892335
8415.000000;0.892352
8414.000000;0.892536
8413.000000;0.892825
8412.000000;0.893101
8411.000000;0.893292
8410.000000;0.893396
8409.000000;0.893413
8408.000000;0.893345
8407.000000;0.893266
8406.000000;0.893240
8405.000000;0.893146
8404.000000;0.892773
8403.000000;0.892214
8402.000000;0.891926
8401.000000;0.892230
8400.000000;0.892888
8399.000000;0.893373
8398.000000;0.893456
8397.000000;0.893311
8396.000000;0.893182
8395.000000;0.893163
8394.000000;0.893276
8393.000000;0.893499
8392.000000;0.893717
8391.000000;0.893828
8390.000000;0.893901
8389.000000;0.894060
8388.000000;0.894257
8387.000000;0.894370
8386.000000;0.894462
8385.000000;0.894680
8384.000000;0.894920
8383.000000;0.894865
8382.000000;0.894432
8381.000000;0.893941
8380.000000;0.893749
8379.000000;0.893905
8378.000000;0.894228
8377.000000;0.894534
8376.000000;0.894692
8375.000000;0.894648
8374.000000;0.894506
8373.000000;0.894429
8372.000000;0.894361
8371.000000;0.894057
8370.000000;0.893491
8369.000000;0.893040
8368.000000;0.893073
8367.000000;0.893503
8366.000000;0.893902
8365.000000;0.893956
8364.000000;0.893683
8363.000000;0.893333
8362.000000;0.893224
8361.000000;0.893589
8360.000000;0.894357
8359.000000;0.895121
8358.000000;0.895471
8357.000000;0.895385
8356.000000;0.895156
8355.000000;0.895009
8354.000000;0.894956
8353.000000;0.894975
8352.000000;0.895147
8351.000000;0.895522
8350.000000;0.895994
8349.000000;0.896366
8348.000000;0.896501
8347.000000;0.896397
8346.000000;0.896185
8345.000000;0.896082
8344.000000;0.896228
8343.000000;0.896519
8342.000000;0.896658
8341.000000;0.896429
8340.000000;0.895912
8339.000000;0.895416
8338.000000;0.895236
8337.000000;0.895440
8336.000000;0.895834
8335.000000;0.896107
8334.000000;0.896040
8333.000000;0.895638
8332.000000;0.895058
8331.000000;0.894459
8330.000000;0.893924
8329.000000;0.893516
8328.000000;0.893343
8327.000000;0.893507
8326.000000;0.894015
8325.000000;0.894760
8324.000000;0.895561
8323.000000;0.896177
8322.000000;0.896341
8321.000000;0.895939
8320.000000;0.895208
8319.000000;0.894643
8318.000000;0.894567
8317.000000;0.894864
8316.000000;0.895218
8315.000000;0.895553
8314.000000;0.896015
8313.000000;0.896538
8312.000000;0.896739
8311.000000;0.896385
8310.000000;0.895767
8309.000000;0.895392
8308.000000;0.895426
8307.000000;0.895633
8306.000000;0.895789
8305.000000;0.895910
8304.000000;0.896097
8303.000000;0.896342
8302.000000;0.896540
8301.000000;0.896565
8300.000000;0.896357
8299.000000;0.896045
8298.000000;0.895935
8297.000000;0.896188
8296.000000;0.896547
8295.000000;0.896578
8294.000000;0.896178
8293.000000;0.895663
8292.000000;0.895366
8291.000000;0.895376
8290.000000;0.895654
8289.000000;0.896138
8288.000000;0.896611
8287.000000;0.896730
8286.000000;0.896405
8285.000000;0.895986
8284.000000;0.895902
8283.000000;0.896216
8282.000000;0.896653
8281.000000;0.896965
8280.000000;0.897081
8279.000000;0.897021
8278.000000;0.896829
8277.000000;0.896585
8276.000000;0.896336
8275.000000;0.896036
8274.000000;0.895653
8273.000000;0.895329
8272.000000;0.895326
8271.000000;0.895801
8270.000000;0.896614
8269.000000;0.897353
8268.000000;0.897555
8267.000000;0.897055
8266.000000;0.896164
8265.000000;0.895421
8264.000000;0.895132
8263.000000;0.895245
8262.000000;0.895623
8261.000000;0.896178
8260.000000;0.896674
8259.000000;0.896719
8258.000000;0.896216
8257.000000;0.895656
8256.000000;0.895659
8255.000000;0.896268
8254.000000;0.896944
8253.000000;0.897219
8252.000000;0.897120
8251.000000;0.896923
8250.000000;0.896773
8249.000000;0.896656
8248.000000;0.896576
8247.000000;0.896614
8246.000000;0.896851
8245.000000;0.897296
8244.000000;0.897835
8243.000000;0.898244
8242.000000;0.898328
8241.000000;0.898097
8240.000000;0.897759
8239.000000;0.897543
8238.000000;0.897560
8237.000000;0.897779
8236.000000;0.898050
8235.000000;0.898164
8234.000000;0.898025
8233.000000;0.897778
8232.000000;0.897695
8231.000000;0.897892
8230.000000;0.898251
8229.000000;0.898598
8228.000000;0.898854
8227.000000;0.899003
8226.000000;0.899013
8225.000000;0.898844
8224.000000;0.898487
8223.000000;0.897968
8222.000000;0.897392
8221.000000;0.896951
8220.000000;0.896818
8219.000000;0.897001
8218.000000;0.897348
8217.000000;0.897700
8216.000000;0.897974
8215.000000;0.898103
8214.000000;0.898033
8213.000000;0.897820
8212.000000;0.897649
8211.000000;0.897665
8210.000000;0.897835
8209.000000;0.898032
8208.000000;0.898197
8207.000000;0.898380
8206.000000;0.898648
8205.000000;0.898974
8204.000000;0.899216
8203.000000;0.899215
8202.000000;0.898976
8201.000000;0.898720
8200.000000;0.898692
8199.000000;0.898907
8198.000000;0.899170
8197.000000;0.899346
8196.000000;0.899474
8195.000000;0.899604
8194.000000;0.899679
8193.000000;0.899662
8192.000000;0.899628
8191.000000;0.899595
8190.000000;0.899384
8189.000000;0.898843
8188.000000;0.898154
8187.000000;0.897716
8186.000000;0.897670
8185.000000;0.897766
8184.000000;0.897761
8183.000000;0.897784
8182.000000;0.898125
8181.000000;0.898759
8180.000000;0.899297
8179.000000;0.899452
8178.000000;0.899367
8177.000000;0.899385
8176.000000;0.899597
8175.000000;0.899748
8174.000000;0.899603
8173.000000;0.899260
8172.000000;0.899054
8171.000000;0.899202
8170.000000;0.899627
8169.000000;0.900076
8168.000000;0.900332
8167.000000;0.900315
8166.000000;0.900065
8165.000000;0.899704
8164.000000;0.899398
8163.000000;0.899288
8162.000000;0.899432
8161.000000;0.899809
8160.000000;0.900336
8159.000000;0.900853
8158.000000;0.901145
8157.000000;0.901084
8156.000000;0.900773
8155.000000;0.900485
8154.000000;0.900418
8153.000000;0.900555
8152.000000;0.900790
8151.000000;0.901095
8150.000000;0.901475
8149.000000;0.901811
8148.000000;0.901886
8147.000000;0.901631
8146.000000;0.901266
8145.000000;0.901097
8144.000000;0.901234
8143.000000;0.901512
8142.000000;0.901685
8141.000000;0.901634
8140.000000;0.901422
8139.000000;0.901222
8138.000000;0.901179
8137.000000;0.901307
8136.000000;0.901488
8135.000000;0.901590
8134.000000;0.901568
8133.000000;0.901463
8132.000000;0.901346
8131.000000;0.901286
8130.000000;0.901344
8129.000000;0.901512
8128.000000;0.901681
8127.000000;0.901707
8126.000000;0.901544
8125.000000;0.901281
8124.000000;0.901040
8123.000000;0.900881
8122.000000;0.900817
8121.000000;0.900882
8120.000000;0.901152
8119.000000;0.901662
8118.000000;0.902298
8117.000000;0.902807
8116.000000;0.902965
8115.000000;0.902782
8114.000000;0.902500
8113.000000;0.902360
8112.000000;0.902394
8111.000000;0.902463
8110.000000;0.902469
8109.000000;0.902475
8108.000000;0.902614
8107.000000;0.902919
8106.000000;0.903262
8105.000000;0.903460
8104.000000;0.903445
8103.000000;0.903289
8102.000000;0.903054
8101.000000;0.902672
8100.000000;0.902095
8099.000000;0.901548
8098.000000;0.901464
8097.000000;0.902042
8096.000000;0.902950
8095.000000;0.903589
8094.000000;0.903642
8093.000000;0.903298
8092.000000;0.902974
8091.000000;0.902937
8090.000000;0.903137
8089.000000;0.903303
8088.000000;0.903174
8087.000000;0.902729
8086.000000;0.902237
8085.000000;0.902030
8084.000000;0.902221
8083.000000;0.902667
8082.000000;0.903119
8081.000000;0.903367
8080.000000;0.903345
8079.000000;0.903228
8078.000000;0.903362
8077.000000;0.903924
8076.000000;0.904647
8075.000000;0.905039
8074.000000;0.904869
8073.000000;0.904324
8072.000000;0.903706
8071.000000;0.903182
8070.000000;0.902896
8069.000000;0.903055
8068.000000;0.903707
8067.000000;0.904526
8066.000000;0.905021
8065.000000;0.904956
8064.000000;0.904529
8063.000000;0.904138
8062.000000;0.904045
8061.000000;0.904219
8060.000000;0.904405
8059.000000;0.904367
8058.000000;0.904105
8057.000000;0.903831
8056.000000;0.903724
8055.000000;0.903744
8054.000000;0.903729
8053.000000;0.903623
8052.000000;0.903566
8051.000000;0.903769
8050.000000;0.904294
8049.000000;0.904949
8048.000000;0.905424
8047.000000;0.905577
8046.000000;0.905550
8045.000000;0.905541
8044.000000;0.905556
8043.000000;0.905509
8042.000000;0.905475
8041.000000;0.905625
8040.000000;0.905899
8039.000000;0.906011
8038.000000;0.905838
8037.000000;0.905596
8036.000000;0.905498
8035.000000;0.905484
8034.000000;0.905409
8033.000000;0.905325
8032.000000;0.905343
8031.000000;0.905380
8030.000000;0.905288
8029.000000;0.905136
8028.000000;0.905105
8027.000000;0.905159
8026.000000;0.905098
8025.000000;0.904939
8024.000000;0.904975
8023.000000;0.905353
8022.000000;0.905800
8021.000000;0.905912
8020.000000;0.905604
8019.000000;0.905166
8018.000000;0.904949
8017.000000;0.905090
8016.000000;0.905483
8015.000000;0.905926
8014.000000;0.906293
8013.000000;0.906592
8012.000000;0.906861
8011.000000;0.907068
8010.000000;0.907187
8009.000000;0.907323
8008.000000;0.907578
8007.000000;0.907796
8006.000000;0.907609
8005.000000;0.906857
8004.000000;0.905867
8003.000000;0.905201
8002.000000;0.905153
8001.000000;0.905571
8000.000000;0.906096
7999.000000;0.906491
7998.000000;0.906736
7997.000000;0.906926
7996.000000;0.907126
7995.000000;0.907319
7994.000000;0.907476
7993.000000;0.907660
7992.000000;0.907994
7991.000000;0.908476
7990.000000;0.908887
7989.000000;0.908968
7988.000000;0.908708
7987.000000;0.908395
7986.000000;0.908327
7985.000000;0.908502
7984.000000;0.908636
7983.000000;0.908491
7982.000000;0.908149
7981.000000;0.907929
7980.000000;0.908056
7979.000000;0.908454
7978.000000;0.908856
7977.000000;0.909079
7976.000000;0.909163
7975.000000;0.909250
7974.000000;0.909404
7973.000000;0.909563
7972.000000;0.909640
7971.000000;0.909611
7970.000000;0.909474
7969.000000;0.909187
7968.000000;0.908728
7967.000000;0.908244
7966.000000;0.908039
7965.000000;0.908301
7964.000000;0.908864
7963.000000;0.909324
7962.000000;0.909419
7961.000000;0.909234
7960.000000;0.909021
7959.000000;0.908931
7958.000000;0.908959
7957.000000;0.909040
7956.000000;0.909097
7955.000000;0.909064
7954.000000;0.908985
7953.000000;0.909038
7952.000000;0.909335
7951.000000;0.909707
7950.000000;0.909831
7949.000000;0.909630
7948.000000;0.909416
7947.000000;0.909552
7946.000000;0.910036
7945.000000;0.910525
7944.000000;0.910716
7943.000000;0.910600
7942.000000;0.910349
7941.000000;0.910098
7940.000000;0.909889
7939.000000;0.909751
7938.000000;0.909690
7937.000000;0.909635
7936.000000;0.909485
7935.000000;0.909244
7934.000000;0.909043
7933.000000;0.909006
7932.000000;0.909133
7931.000000;0.909347
7930.000000;0.909604
7929.000000;0.909895
7928.000000;0.910201
7927.000000;0.910502
7926.000000;0.910792
7925.000000;0.911050
7924.000000;0.911218
7923.000000;0.911277
7922.000000;0.911311
7921.000000;0.911417
7920.000000;0.911588
7919.000000;0.911757
7918.000000;0.911942
7917.000000;0.912228
7916.000000;0.912593
7915.000000;0.912850
7914.000000;0.912834
7913.000000;0.912552
7912.000000;0.912149
7911.000000;0.911794
7910.000000;0.911635
7909.000000;0.911754
7908.000000;0.912081
7907.000000;0.912405
7906.000000;0.912544
7905.000000;0.912492
7904.000000;0.912378
7903.000000;0.912348
7902.000000;0.912487
7901.000000;0.912784
7900.000000;0.913107
7899.000000;0.913275
7898.000000;0.913211
7897.000000;0.912987
7896.000000;0.912728
7895.000000;0.912553
7894.000000;0.912624
7893.000000;0.913066
7892.000000;0.913745
7891.000000;0.914264
7890.000000;0.914338
7889.000000;0.914092
7888.000000;0.913850
7887.000000;0.913744
7886.000000;0.913705
7885.000000;0.913734
7884.000000;0.913951
7883.000000;0.914328
7882.000000;0.914609
7881.000000;0.914589
7880.000000;0.914331
7879.000000;0.914042
7878.000000;0.913853
7877.000000;0.913807
7876.000000;0.913948
7875.000000;0.914295
7874.000000;0.914764
7873.000000;0.915217
7872.000000;0.915577
7871.000000;0.915816
7870.000000;0.915908
7869.000000;0.915872
7868.000000;0.915853
7867.000000;0.916043
7866.000000;0.916459
7865.000000;0.916852
7864.000000;0.916899
7863.000000;0.916516
7862.000000;0.915974
7861.000000;0.915660
7860.000000;0.915717
7859.000000;0.915947
7858.000000;0.916062
7857.000000;0.915981
7856.000000;0.915822
7855.000000;0.915681
7854.000000;0.915556
7853.000000;0.915492
7852.000000;0.915632
7851.000000;0.916036
7850.000000;0.916553
7849.000000;0.916991
7848.000000;0.917341
7847.000000;0.917724
7846.000000;0.918114
7845.000000;0.918294
7844.000000;0.918133
7843.000000;0.917798
7842.000000;0.917607
7841.000000;0.917702
7840.000000;0.917954
7839.000000;0.918145
7838.000000;0.918176
7837.000000;0.918094
7836.000000;0.918015
7835.000000;0.918052
7834.000000;0.918259
7833.000000;0.918575
7832.000000;0.918843
7831.000000;0.918931
7830.000000;0.918847
7829.000000;0.918722
7828.000000;0.918697
7827.000000;0.918814
7826.000000;0.918989
7825.000000;0.919073
7824.000000;0.918984
7823.000000;0.918807
7822.000000;0.918750
7821.000000;0.918965
7820.000000;0.919418
7819.000000;0.919929
7818.000000;0.920298
7817.000000;0.920386
7816.000000;0.920201
7815.000000;0.919963
7814.000000;0.919985
7813.000000;0.920361
7812.000000;0.920806
7811.000000;0.920963
7810.000000;0.920825
7809.000000;0.920695
7808.000000;0.920753
7807.000000;0.920865
7806.000000;0.920878
7805.000000;0.920896
7804.000000;0.921084
7803.000000;0.921372
7802.000000;0.921544
7801.000000;0.921566
7800.000000;0.921615
7799.000000;0.921798
7798.000000;0.922007
7797.000000;0.922101
7796.000000;0.922091
7795.000000;0.922077
7794.000000;0.922111
7793.000000;0.922180
7792.000000;0.922270
7791.000000;0.922384
7790.000000;0.922521
7789.000000;0.922672
7788.000000;0.922824
7787.000000;0.922957
7786.000000;0.923058
7785.000000;0.923140
7784.000000;0.923215
7783.000000;0.923292
7782.000000;0.923390
7781.000000;0.923553
7780.000000;0.923784
7779.000000;0.923998
7778.000000;0.924086
7777.000000;0.924035
7776.000000;0.923947
7775.000000;0.923948
7774.000000;0.924106
7773.000000;0.924422
7772.000000;0.924839
7771.000000;0.925258
7770.000000;0.925567
7769.000000;0.925675
7768.000000;0.925553
7767.000000;0.925274
7766.000000;0.925035
7765.000000;0.925054
7764.000000;0.925356
7763.000000;0.925731
7762.000000;0.925935
7761.000000;0.925930
7760.000000;0.925843
7759.000000;0.925781
7758.000000;0.925768
7757.000000;0.925838
7756.000000;0.926039
7755.000000;0.926333
7754.000000;0.926591
7753.000000;0.926734
7752.000000;0.926809
7751.000000;0.926901
7750.000000;0.927043
7749.000000;0.927228
7748.000000;0.927434
7747.000000;0.927597
7746.000000;0.927659
7745.000000;0.927681
7744.000000;0.927817
7743.000000;0.928095
7742.000000;0.928307
7741.000000;0.928241
7740.000000;0.927981
7739.000000;0.927870
7738.000000;0.928142
7737.000000;0.928678
7736.000000;0.929132
7735.000000;0.929258
7734.000000;0.929088
7733.000000;0.928864
7732.000000;0.928845
7731.000000;0.929162
7730.000000;0.929758
7729.000000;0.930440
7728.000000;0.930999
7727.000000;0.931323
7726.000000;0.931431
7725.000000;0.931404
7724.000000;0.931315
7723.000000;0.931236
7722.000000;0.931263
7721.000000;0.931465
7720.000000;0.931791
7719.000000;0.932057
7718.000000;0.932098
7717.000000;0.931899
7716.000000;0.931602
7715.000000;0.931385
7714.000000;0.931381
7713.000000;0.931632
7712.000000;0.932051
7711.000000;0.932429
7710.000000;0.932587
7709.000000;0.932544
7708.000000;0.932530
7707.000000;0.932773
7706.000000;0.933294
7705.000000;0.933905
7704.000000;0.934371
7703.000000;0.934562
7702.000000;0.934488
7701.000000;0.934257
7700.000000;0.934037
7699.000000;0.934002
7698.000000;0.934246
7697.000000;0.934708
7696.000000;0.935195
7695.000000;0.935533
7694.000000;0.935712
7693.000000;0.935838
7692.000000;0.935953
7691.000000;0.935969
7690.000000;0.935806
7689.000000;0.935571
7688.000000;0.935491
7687.000000;0.935673
7686.000000;0.935996
7685.000000;0.936269
7684.000000;0.936459
7683.000000;0.936688
7682.000000;0.937036
7681.000000;0.937390
7680.000000;0.937562
7679.000000;0.937518
7678.000000;0.937460
7677.000000;0.937630
7676.000000;0.938064
7675.000000;0.938558
7674.000000;0.938872
7673.000000;0.938930
7672.000000;0.938840
7671.000000;0.938803
7670.000000;0.938994
7669.000000;0.939447
7668.000000;0.939987
7667.000000;0.940333
7666.000000;0.940363
7665.000000;0.940262
7664.000000;0.940335
7663.000000;0.940659
7662.000000;0.941001
7661.000000;0.941126
7660.000000;0.941104
7659.000000;0.941228
7658.000000;0.941640
7657.000000;0.942141
7656.000000;0.942406
7655.000000;0.942339
7654.000000;0.942135
7653.000000;0.942049
7652.000000;0.942196
7651.000000;0.942576
7650.000000;0.943154
7649.000000;0.943804
7648.000000;0.944269
7647.000000;0.944337
7646.000000;0.944078
7645.000000;0.943803
7644.000000;0.943737
7643.000000;0.943816
7642.000000;0.943834
7641.000000;0.943744
7640.000000;0.943741
7639.000000;0.944075
7638.000000;0.944802
7637.000000;0.945697
7636.000000;0.946405
7635.000000;0.946742
7634.000000;0.946831
7633.000000;0.946930
7632.000000;0.947153
7631.000000;0.947437
7630.000000;0.947719
7629.000000;0.948019
7628.000000;0.948318
7627.000000;0.948516
7626.000000;0.948575
7625.000000;0.948614
7624.000000;0.948794
7623.000000;0.949165
7622.000000;0.949695
7621.000000;0.950317
7620.000000;0.950896
7619.000000;0.951240
7618.000000;0.951279
7617.000000;0.951176
7616.000000;0.951157
7615.000000;0.951283
7614.000000;0.951469
7613.000000;0.951669
7612.000000;0.951917
7611.000000;0.952242
7610.000000;0.952649
7609.000000;0.953145
7608.000000;0.953674
7607.000000;0.954061
7606.000000;0.954165
7605.000000;0.954071
7604.000000;0.954009
7603.000000;0.954088
7602.000000;0.954228
7601.000000;0.954363
7600.000000;0.954544
7599.000000;0.954837
7598.000000;0.955224
7597.000000;0.955658
7596.000000;0.956138
7595.000000;0.956666
7594.000000;0.957210
7593.000000;0.957736
7592.000000;0.958209
7591.000000;0.958547
7590.000000;0.958671
7589.000000;0.958642
7588.000000;0.958669
7587.000000;0.958915
7586.000000;0.959338
7585.000000;0.959744
7584.000000;0.959954
7583.000000;0.959931
7582.000000;0.959825
7581.000000;0.959894
7580.000000;0.960310
7579.000000;0.960982
7578.000000;0.961634
7577.000000;0.962094
7576.000000;0.962428
7575.000000;0.962770
7574.000000;0.963109
7573.000000;0.963348
7572.000000;0.963490
7571.000000;0.963657
7570.000000;0.963937
7569.000000;0.964289
7568.000000;0.964638
7567.000000;0.965002
7566.000000;0.965464
7565.000000;0.966026
7564.000000;0.966541
7563.000000;0.966865
7562.000000;0.967069
7561.000000;0.967409
7560.000000;0.968007
7559.000000;0.968642
7558.000000;0.968969
7557.000000;0.968923
7556.000000;0.968804
7555.000000;0.968942
7554.000000;0.969380
7553.000000;0.969913
7552.000000;0.970321
7551.000000;0.970502
7550.000000;0.970478
7549.000000;0.970369
7548.000000;0.970356
7547.000000;0.970578
7546.000000;0.971064
7545.000000;0.971749
7544.000000;0.972507
7543.000000;0.973175
7542.000000;0.973618
7541.000000;0.973870
7540.000000;0.974156
7539.000000;0.974687
7538.000000;0.975445
7537.000000;0.976193
7536.000000;0.976716
7535.000000;0.976990
7534.000000;0.977121
7533.000000;0.977192
7532.000000;0.977222
7531.000000;0.977268
7530.000000;0.977463
7529.000000;0.977899
7528.000000;0.978493
7527.000000;0.979041
7526.000000;0.979441
7525.000000;0.979760
7524.000000;0.980071
7523.000000;0.980305
7522.000000;0.980385
7521.000000;0.980429
7520.000000;0.980682
7519.000000;0.981238
7518.000000;0.981943
7517.000000;0.982610
7516.000000;0.983219
7515.000000;0.983868
7514.000000;0.984574
7513.000000;0.985196
7512.000000;0.985544
7511.000000;0.985566
7510.000000;0.985447
7509.000000;0.985495
7508.000000;0.985842
7507.000000;0.986296
7506.000000;0.986565
7505.000000;0.986625
7504.000000;0.986752
7503.000000;0.987161
7502.000000;0.987741
7501.000000;0.988212
7500.000000;0.988439
7499.000000;0.988533
7498.000000;0.988717
7497.000000;0.989182
7496.000000;0.989976
7495.000000;0.990936
7494.000000;0.991760
7493.000000;0.992254
7492.000000;0.992502
7491.000000;0.992734
7490.000000;0.993070
7489.000000;0.993448
7488.000000;0.993772
7487.000000;0.994023
7486.000000;0.994254
7485.000000;0.994543
7484.000000;0.994967
7483.000000;0.995535
7482.000000;0.996138
7481.000000;0.996651
7480.000000;0.997099
7479.000000;0.997674
7478.000000;0.998509
7477.000000;0.999468
7476.000000;1.000216
7475.000000;1.000532
7474.000000;1.000521
7473.000000;1.000508
7472.000000;1.000722
7471.000000;1.001129
7470.000000;1.001568
7469.000000;1.001972
7468.000000;1.002393
7467.000000;1.002846
7466.000000;1.003239
7465.000000;1.003503
7464.000000;1.003718
7463.000000;1.004053
7462.000000;1.004590
7461.000000;1.005246
7460.000000;1.005839
7459.000000;1.006212
7458.000000;1.006336
7457.000000;1.006334
7456.000000;1.006408
7455.000000;1.006698
7454.000000;1.007180
7453.000000;1.007697
7452.000000;1.008109
7451.000000;1.008416
7450.000000;1.008750
7449.000000;1.009236
7448.000000;1.009847
7447.000000;1.010426
7446.000000;1.010862
7445.000000;1.011211
7444.000000;1.011600
7443.000000;1.012053
7442.000000;1.012497
7441.000000;1.012903
7440.000000;1.013328
7439.000000;1.013799
7438.000000;1.014240
7437.000000;1.014559
7436.000000;1.014758
7435.000000;1.014902
7434.000000;1.015045
7433.000000;1.015226
7432.000000;1.015519
7431.000000;1.015997
7430.000000;1.016644
7429.000000;1.017325
7428.000000;1.017864
7427.000000;1.018180
7426.000000;1.018343
7425.000000;1.018503
7424.000000;1.018747
7423.000000;1.019048
7422.000000;1.019363
7421.000000;1.019736
7420.000000;1.020239
7419.000000;1.020839
7418.000000;1.021397
7417.000000;1.021803
7416.000000;1.022070
7415.000000;1.022298
7414.000000;1.022605
7413.000000;1.023084
7412.000000;1.023734
7411.000000;1.024411
7410.000000;1.024921
7409.000000;1.025193
7408.000000;1.025318
7407.000000;1.025423
7406.000000;1.025572
7405.000000;1.025812
7404.000000;1.026208
7403.000000;1.026769
7402.000000;1.027392
7401.000000;1.027954
7400.000000;1.028414
7399.000000;1.028809
7398.000000;1.029171
7397.000000;1.029496
7396.000000;1.029766
7395.000000;1.030003
7394.000000;1.030276
7393.000000;1.030668
7392.000000;1.031204
7391.000000;1.031812
7390.000000;1.032370
7389.000000;1.032777
7388.000000;1.032991
7387.000000;1.033070
7386.000000;1.033186
7385.000000;1.033484
7384.000000;1.033892
7383.000000;1.034184
7382.000000;1.034346
7381.000000;1.034739
7380.000000;1.035665
7379.000000;1.036841
7378.000000;1.037598
7377.000000;1.037640
7376.000000;1.037360
7375.000000;1.037333
7374.000000;1.037713
7373.000000;1.038236
7372.000000;1.038631
7371.000000;1.038830
7370.000000;1.038932
7369.000000;1.039148
7368.000000;1.039677
7367.000000;1.040504
7366.000000;1.041361
7365.000000;1.041968
7364.000000;1.042267
7363.000000;1.042400
7362.000000;1.042543
7361.000000;1.042841
7360.000000;1.043363
7359.000000;1.043996
7358.000000;1.044496
7357.000000;1.044770
7356.000000;1.044996
7355.000000;1.045382
7354.000000;1.045908
7353.000000;1.046392
7352.000000;1.046721
7351.000000;1.046924
7350.000000;1.047145
7349.000000;1.047600
7348.000000;1.048397
7347.000000;1.049330
7346.000000;1.050024
7345.000000;1.050392
7344.000000;1.050721
7343.000000;1.051183
7342.000000;1.051557
7341.000000;1.051630
7340.000000;1.051628
7339.000000;1.051912
7338.000000;1.052435
7337.000000;1.052842
7336.000000;1.053034
7335.000000;1.053299
7334.000000;1.053900
7333.000000;1.054793
7332.000000;1.055713
7331.000000;1.056345
7330.000000;1.056496
7329.000000;1.056368
7328.000000;1.056575
7327.000000;1.057541
7326.000000;1.058885
7325.000000;1.059797
7324.000000;1.060018
7323.000000;1.060070
7322.000000;1.060508
7321.000000;1.061295
7320.000000;1.062061
7319.000000;1.062646
7318.000000;1.063151
7317.000000;1.063657
7316.000000;1.064131
7315.000000;1.064561
7314.000000;1.064979
7313.000000;1.065432
7312.000000;1.066013
7311.000000;1.066776
7310.000000;1.067561
7309.000000;1.068125
7308.000000;1.068526
7307.000000;1.069155
7306.000000;1.070214
7305.000000;1.071387
7304.000000;1.072224
7303.000000;1.072669
7302.000000;1.073037
7301.000000;1.073647
7300.000000;1.074637
7299.000000;1.075980
7298.000000;1.077404
7297.000000;1.078417
7296.000000;1.078720
7295.000000;1.078610
7294.000000;1.078726
7293.000000;1.079372
7292.000000;1.080291
7291.000000;1.081094
7290.000000;1.081705
7289.000000;1.082302
7288.000000;1.083062
7287.000000;1.084071
7286.000000;1.085324
7285.000000;1.086703
7284.000000;1.088027
7283.000000;1.089204
7282.000000;1.090303
7281.000000;1.091414
7280.000000;1.092496
7279.000000;1.093467
7278.000000;1.094358
7277.000000;1.095273
7276.000000;1.096253
7275.000000;1.097254
7274.000000;1.098265
7273.000000;1.099322
7272.000000;1.100418
7271.000000;1.101454
7270.000000;1.102376
7269.000000;1.103287
7268.000000;1.104379
7267.000000;1.105737
7266.000000;1.107245
7265.000000;1.108704
7264.000000;1.110019
7263.000000;1.111252
7262.000000;1.112515
7261.000000;1.113872
7260.000000;1.115333
7259.000000;1.116895
7258.000000;1.118513
7257.000000;1.120050
7256.000000;1.121332
7255.000000;1.122308
7254.000000;1.123173
7253.000000;1.124269
7252.000000;1.125790
7251.000000;1.127619
7250.000000;1.129492
7249.000000;1.131321
7248.000000;1.133263
7247.000000;1.135399
7246.000000;1.137450
7245.000000;1.139020
7244.000000;1.140139
7243.000000;1.141396
7242.000000;1.143385
7241.000000;1.146056
7240.000000;1.148773
7239.000000;1.151015
7238.000000;1.152841
7237.000000;1.154618
7236.000000;1.156461
7235.000000;1.158124
7234.000000;1.159498
7233.000000;1.160999
7232.000000;1.163228
7231.000000;1.166289
7230.000000;1.169583
7229.000000;1.172394
7228.000000;1.174594
7227.000000;1.176631
7226.000000;1.178968
7225.000000;1.181644
7224.000000;1.184313
7223.000000;1.186601
7222.000000;1.188459
7221.000000;1.190255
7220.000000;1.192499
7219.000000;1.195371
7218.000000;1.198558
7217.000000;1.201647
7216.000000;1.204596
7215.000000;1.207644
7214.000000;1.210843
7213.000000;1.213912
7212.000000;1.216625
7211.000000;1.219183
7210.000000;1.222028
7209.000000;1.225348
7208.000000;1.228905
7207.000000;1.232316
7206.000000;1.235416
7205.000000;1.238367
7204.000000;1.241504
7203.000000;1.245040
7202.000000;1.248879
7201.000000;1.252716
7200.000000;1.256342
7199.000000;1.259801
7198.000000;1.263242
7197.000000;1.266702
7196.000000;1.270126
7195.000000;1.273540
7194.000000;1.277077
7193.000000;1.280797
7192.000000;1.284594
7191.000000;1.288342
7190.000000;1.292078
7189.000000;1.295987
7188.000000;1.300217
7187.000000;1.304742
7186.000000;1.309397
7185.000000;1.314012
7184.000000;1.318536
7183.000000;1.323043
7182.000000;1.327608
7181.000000;1.332190
7180.000000;1.336655
7179.000000;1.340918
7178.000000;1.344969
7177.000000;1.348827
7176.000000;1.352557
7175.000000;1.356350
7174.000000;1.360487
7173.000000;1.365133
7172.000000;1.370240
7171.000000;1.375645
7170.000000;1.381176
7169.000000;1.386593
7168.000000;1.391580
7167.000000;1.395987
7166.000000;1.400083
7165.000000;1.404340
7164.000000;1.408945
7163.000000;1.413711
7162.000000;1.418490
7161.000000;1.423468
7160.000000;1.428911
7159.000000;1.434745
7158.000000;1.440560
7157.000000;1.445973
7156.000000;1.450857
7155.000000;1.455300
7154.000000;1.459541
7153.000000;1.463939
7152.000000;1.468753
7151.000000;1.473900
7150.000000;1.479031
7149.000000;1.483900
7148.000000;1.488552
7147.000000;1.493198
7146.000000;1.498088
7145.000000;1.503466
7144.000000;1.509410
7143.000000;1.515541
7142.000000;1.521177
7141.000000;1.526002
7140.000000;1.530411
7139.000000;1.535014
7138.000000;1.539985
7137.000000;1.545172
7136.000000;1.550604
7135.000000;1.556424
7134.000000;1.562386
7133.000000;1.567903
7132.000000;1.572715
7131.000000;1.577131
7130.000000;1.581519
7129.000000;1.585902
7128.000000;1.590216
7127.000000;1.594596
7126.000000;1.599170
7125.000000;1.603850
7124.000000;1.608632
7123.000000;1.613846
7122.000000;1.619765
7121.000000;1.626077
7120.000000;1.632109
7119.000000;1.637529
7118.000000;1.642525
7117.000000;1.647325
7116.000000;1.651920
7115.000000;1.656314
7114.000000;1.660639
7113.000000;1.664890
7112.000000;1.668884
7111.000000;1.672686
7110.000000;1.676804
7109.000000;1.681657
7108.000000;1.687031
7107.000000;1.692296
7106.000000;1.697062
7105.000000;1.701303
7104.000000;1.705011
7103.000000;1.708238
7102.000000;1.711542
7101.000000;1.715826
7100.000000;1.721476
7099.000000;1.727879
7098.000000;1.733966
7097.000000;1.738989
7096.000000;1.742649
7095.000000;1.745014
7094.000000;1.746852
7093.000000;1.749617
7092.000000;1.754303
7091.000000;1.760290
7090.000000;1.765809
7089.000000;1.769685
7088.000000;1.772228
7087.000000;1.774423
7086.000000;1.776991
7085.000000;1.780401
7084.000000;1.784903
7083.000000;1.789980
7082.000000;1.794361
7081.000000;1.797286
7080.000000;1.799465
7079.000000;1.802177
7078.000000;1.805732
7077.000000;1.809487
7076.000000;1.813088
7075.000000;1.816798
7074.000000;1.820583
7073.000000;1.823791
7072.000000;1.826189
7071.000000;1.828655
7070.000000;1.832219
7069.000000;1.836698
7068.000000;1.840857
7067.000000;1.843857
7066.000000;1.846072
7065.000000;1.848297
7064.000000;1.850574
7063.000000;1.852206
7062.000000;1.852861
7061.000000;1.853253
7060.000000;1.854521
7059.000000;1.857149
7058.000000;1.860681
7057.000000;1.864341
7056.000000;1.867658
7055.000000;1.870557
7054.000000;1.873197
7053.000000;1.875862
7052.000000;1.878764
7051.000000;1.881880
7050.000000;1.885104
7049.000000;1.888506
7048.000000;1.892166
7047.000000;1.895817
7046.000000;1.899048
7045.000000;1.901904
7044.000000;1.904760
7043.000000;1.907446
7042.000000;1.909075
7041.000000;1.909098
7040.000000;1.908115
7039.000000;1.907327
7038.000000;1.907535
7037.000000;1.908881
7036.000000;1.911053
7035.000000;1.913408
7034.000000;1.915368
7033.000000;1.917085
7032.000000;1.919312
7031.000000;1.922190
7030.000000;1.924670
7029.000000;1.925803
7028.000000;1.926193
7027.000000;1.927316
7026.000000;1.929616
7025.000000;1.932108
7024.000000;1.933896
7023.000000;1.935271
7022.000000;1.937014
7021.000000;1.939268
7020.000000;1.941516
7019.000000;1.943243
7018.000000;1.944234
7017.000000;1.944494
7016.000000;1.944300
7015.000000;1.944252
7014.000000;1.944882
7013.000000;1.946142
7012.000000;1.947441
7011.000000;1.948301
7010.000000;1.948913
7009.000000;1.949923
7008.000000;1.951620
7007.000000;1.953523
7006.000000;1.954986
7005.000000;1.956062
7004.000000;1.957380
7003.000000;1.959145
7002.000000;1.960789
7001.000000;1.961898
7000.000000;1.962992
6999.000000;1.964784
6998.000000;1.966839
6997.000000;1.967742
6996.000000;1.966823
6995.000000;1.965169
6994.000000;1.964670
6993.000000;1.966120
6992.000000;1.968316
6991.000000;1.969291
6990.000000;1.968619
6989.000000;1.968022
6988.000000;1.969294
6987.000000;1.972072
6986.000000;1.974240
6985.000000;1.974473
6984.000000;1.973614
6983.000000;1.973247
6982.000000;1.973865
6981.000000;1.974949
6980.000000;1.976051
6979.000000;1.976958
6978.000000;1.977140
6977.000000;1.976026
6976.000000;1.974004
6975.000000;1.972470
6974.000000;1.972605
6973.000000;1.974352
6972.000000;1.976622
6971.000000;1.978294
6970.000000;1.979027
6969.000000;1.979258
6968.000000;1.979488
6967.000000;1.979704
6966.000000;1.979532
6965.000000;1.978757
6964.000000;1.977524
6963.000000;1.976237
6962.000000;1.975576
6961.000000;1.976384
6960.000000;1.978910
6959.000000;1.982125
6958.000000;1.984349
6957.000000;1.984858
6956.000000;1.984448
6955.000000;1.984193
6954.000000;1.984200
6953.000000;1.983813
6952.000000;1.982552
6951.000000;1.980588
6950.000000;1.978753
6949.000000;1.978253
6948.000000;1.979745
6947.000000;1.982318
6946.000000;1.983946
6945.000000;1.983483
6944.000000;1.981789
6943.000000;1.980529
6942.000000;1.980499
6941.000000;1.981501
6940.000000;1.983104
6939.000000;1.984871
6938.000000;1.986287
6937.000000;1.987127
6936.000000;1.987642
6935.000000;1.987993
6934.000000;1.987846
6933.000000;1.986855
6932.000000;1.985151
6931.000000;1.983108
6930.000000;1.981199
6929.000000;1.980309
6928.000000;1.981155
6927.000000;1.982817
6926.000000;1.983043
6925.000000;1.981015
6924.000000;1.978799
6923.000000;1.978804
6922.000000;1.980678
6921.000000;1.981931
6920.000000;1.981229
6919.000000;1.979709
6918.000000;1.979098
6917.000000;1.979840
6916.000000;1.981109
6915.000000;1.981647
6914.000000;1.980582
6913.000000;1.978218
6912.000000;1.976084
6911.000000;1.975444
6910.000000;1.975836
6909.000000;1.975826
6908.000000;1.974996
6907.000000;1.974285
6906.000000;1.974502
6905.000000;1.975569
6904.000000;1.977176
6903.000000;1.979011
6902.000000;1.980138
6901.000000;1.979397
6900.000000;1.976964
6899.000000;1.974526
6898.000000;1.973367
6897.000000;1.973101
6896.000000;1.972671
6895.000000;1.971905
6894.000000;1.971524
6893.000000;1.972021
6892.000000;1.973131
6891.000000;1.974081
6890.000000;1.973958
6889.000000;1.972307
6888.000000;1.969770
6887.000000;1.967737
6886.000000;1.967047
6885.000000;1.967309
6884.000000;1.967582
6883.000000;1.967410
6882.000000;1.967066
6881.000000;1.967192
6880.000000;1.968423
6879.000000;1.970872
6878.000000;1.973628
6877.000000;1.975212
6876.000000;1.974921
6875.000000;1.973398
6874.000000;1.971739
6873.000000;1.970474
6872.000000;1.969584
6871.000000;1.968983
6870.000000;1.968670
6869.000000;1.968601
6868.000000;1.968682
6867.000000;1.968874
6866.000000;1.969161
6865.000000;1.969451
6864.000000;1.969450
6863.000000;1.968589
6862.000000;1.966415
6861.000000;1.963327
6860.000000;1.960560
6859.000000;1.959101
6858.000000;1.958856
6857.000000;1.959132
6856.000000;1.959595
6855.000000;1.960264
6854.000000;1.960837
6853.000000;1.960837
6852.000000;1.960325
6851.000000;1.959742
6850.000000;1.959113
6849.000000;1.958091
6848.000000;1.956739
6847.000000;1.955504
6846.000000;1.954449
6845.000000;1.953339
6844.000000;1.952477
6843.000000;1.952520
6842.000000;1.953330
6841.000000;1.953928
6840.000000;1.953841
6839.000000;1.953603
6838.000000;1.953570
6837.000000;1.953180
6836.000000;1.951901
6835.000000;1.950121
6834.000000;1.948470
6833.000000;1.946909
6832.000000;1.945139
6831.000000;1.943420
6830.000000;1.942356
6829.000000;1.942150
6828.000000;1.942514
6827.000000;1.942982
6826.000000;1.942900
6825.000000;1.941566
6824.000000;1.938911
6823.000000;1.935786
6822.000000;1.933180
6821.000000;1.931379
6820.000000;1.930113
6819.000000;1.929127
6818.000000;1.928264
6817.000000;1.927266
6816.000000;1.925832
6815.000000;1.923827
6814.000000;1.921329
6813.000000;1.918650
6812.000000;1.916308
6811.000000;1.914601
6810.000000;1.913145
6809.000000;1.911280
6808.000000;1.908987
6807.000000;1.906901
6806.000000;1.905347
6805.000000;1.904027
6804.000000;1.902818
6803.000000;1.902104
6802.000000;1.901954
6801.000000;1.901660
6800.000000;1.900652
6799.000000;1.899232
6798.000000;1.897818
6797.000000;1.896082
6796.000000;1.893572
6795.000000;1.890707
6794.000000;1.888380
6793.000000;1.886864
6792.000000;1.885814
6791.000000;1.885044
6790.000000;1.884511
6789.000000;1.883685
6788.000000;1.881823
6787.000000;1.878996
6786.000000;1.876104
6785.000000;1.873715
6784.000000;1.871484
6783.000000;1.868956
6782.000000;1.866378
6781.000000;1.864369
6780.000000;1.863176
6779.000000;1.862511
6778.000000;1.861884
6777.000000;1.860858
6776.000000;1.859196
6775.000000;1.857042
6774.000000;1.854850
6773.000000;1.852925
6772.000000;1.851032
6771.000000;1.848605
6770.000000;1.845417
6769.000000;1.841978
6768.000000;1.839150
6767.000000;1.837318
6766.000000;1.836030
6765.000000;1.834562
6764.000000;1.832735
6763.000000;1.830874
6762.000000;1.829048
6761.000000;1.826836
6760.000000;1.824067
6759.000000;1.821369
6758.000000;1.819540
6757.000000;1.818536
6756.000000;1.817479
6755.000000;1.815635
6754.000000;1.813077
6753.000000;1.810384
6752.000000;1.808021
6751.000000;1.806084
6750.000000;1.804364
6749.000000;1.802536
6748.000000;1.800442
6747.000000;1.798290
6746.000000;1.796475
6745.000000;1.795112
6744.000000;1.793810
6743.000000;1.792012
6742.000000;1.789584
6741.000000;1.787003
6740.000000;1.784821
6739.000000;1.783041
6738.000000;1.781178
6737.000000;1.778913
6736.000000;1.776491
6735.000000;1.774316
6734.000000;1.772394
6733.000000;1.770443
6732.000000;1.768379
6731.000000;1.766340
6730.000000;1.764305
6729.000000;1.762144
6728.000000;1.760080
6727.000000;1.758580
6726.000000;1.757594
6725.000000;1.756353
6724.000000;1.754259
6723.000000;1.751636
6722.000000;1.749237
6721.000000;1.747258
6720.000000;1.745269
6719.000000;1.742905
6718.000000;1.740193
6717.000000;1.737273
6716.000000;1.734239
6715.000000;1.731321
6714.000000;1.728910
6713.000000;1.727219
6712.000000;1.726068
6711.000000;1.725026
6710.000000;1.723683
6709.000000;1.721868
6708.000000;1.719744
6707.000000;1.717615
6706.000000;1.715553
6705.000000;1.713283
6704.000000;1.710630
6703.000000;1.707896
6702.000000;1.705567
6701.000000;1.703773
6700.000000;1.702238
6699.000000;1.700706
6698.000000;1.699128
6697.000000;1.697496
6696.000000;1.695783
6695.000000;1.694090
6694.000000;1.692604
6693.000000;1.691302
6692.000000;1.689898
6691.000000;1.688146
6690.000000;1.686038
6689.000000;1.683667
6688.000000;1.681069
6687.000000;1.678310
6686.000000;1.675575
6685.000000;1.673100
6684.000000;1.671042
6683.000000;1.669419
6682.000000;1.668086
6681.000000;1.666747
6680.000000;1.665159
6679.000000;1.663368
6678.000000;1.661633
6677.000000;1.660086
6676.000000;1.658569
6675.000000;1.656847
6674.000000;1.654900
6673.000000;1.652947
6672.000000;1.651236
6671.000000;1.649808
6670.000000;1.648432
6669.000000;1.646797
6668.000000;1.644856
6667.000000;1.642907
6666.000000;1.641205
6665.000000;1.639553
6664.000000;1.637505
6663.000000;1.634985
6662.000000;1.632483
6661.000000;1.630524
6660.000000;1.629108
6659.000000;1.627800
6658.000000;1.626234
6657.000000;1.624384
6656.000000;1.622463
6655.000000;1.620702
6654.000000;1.619205
6653.000000;1.617836
6652.000000;1.616241
6651.000000;1.614113
6650.000000;1.611496
6649.000000;1.608804
6648.000000;1.606514
6647.000000;1.604858
6646.000000;1.603732
6645.000000;1.602743
6644.000000;1.601379
6643.000000;1.599354
6642.000000;1.596917
6641.000000;1.594712
6640.000000;1.593181
6639.000000;1.592114
6638.000000;1.590902
6637.000000;1.589229
6636.000000;1.587368
6635.000000;1.585771
6634.000000;1.584507
6633.000000;1.583216
6632.000000;1.581539
6631.000000;1.579473
6630.000000;1.577333
6629.000000;1.575452
6628.000000;1.573903
6627.000000;1.572446
6626.000000;1.570778
6625.000000;1.568862
6624.000000;1.566932
6623.000000;1.565124
6622.000000;1.563257
6621.000000;1.561149
6620.000000;1.559021
6619.000000;1.557309
6618.000000;1.556089
6617.000000;1.554958
6616.000000;1.553545
6615.000000;1.551881
6614.000000;1.550160
6613.000000;1.548397
6612.000000;1.546583
6611.000000;1.544978
6610.000000;1.543948
6609.000000;1.543471
6608.000000;1.543035
6607.000000;1.542055
6606.000000;1.540295
6605.000000;1.537951
6604.000000;1.535479
6603.000000;1.533395
6602.000000;1.532038
6601.000000;1.531360
6600.000000;1.530936
6599.000000;1.530226
6598.000000;1.528917
6597.000000;1.527092
6596.000000;1.525115
6595.000000;1.523307
6594.000000;1.521710
6593.000000;1.520170
6592.000000;1.518635
6591.000000;1.517228
6590.000000;1.515964
6589.000000;1.514609
6588.000000;1.512961
6587.000000;1.511161
6586.000000;1.509519
6585.000000;1.508095
6584.000000;1.506676
6583.000000;1.505133
6582.000000;1.503572
6581.000000;1.502109
6580.000000;1.500705
6579.000000;1.499313
6578.000000;1.498013
6577.000000;1.496855
6576.000000;1.495712
6575.000000;1.494402
6574.000000;1.492916
6573.000000;1.491408
6572.000000;1.490019
6571.000000;1.488772
6570.000000;1.487590
6569.000000;1.486334
6568.000000;1.484875
6567.000000;1.483225
6566.000000;1.481578
6565.000000;1.480147
6564.000000;1.478970
6563.000000;1.477936
6562.000000;1.476961
6561.000000;1.476040
6560.000000;1.475134
6559.000000;1.474116
6558.000000;1.472896
6557.000000;1.471539
6556.000000;1.470187
6555.000000;1.468881
6554.000000;1.467537
6553.000000;1.466115
6552.000000;1.464721
6551.000000;1.463456
6550.000000;1.462230
6549.000000;1.460847
6548.000000;1.459284
6547.000000;1.457774
6546.000000;1.456541
6545.000000;1.455537
6544.000000;1.454533
6543.000000;1.453386
6542.000000;1.452143
6541.000000;1.450920
6540.000000;1.449797
6539.000000;1.448815
6538.000000;1.447962
6537.000000;1.447125
6536.000000;1.446130
6535.000000;1.444877
6534.000000;1.443424
6533.000000;1.441926
6532.000000;1.440540
6531.000000;1.439340
6530.000000;1.438267
6529.000000;1.437159
6528.000000;1.435911
6527.000000;1.434612
6526.000000;1.433447
6525.000000;1.432482
6524.000000;1.431621
6523.000000;1.430759
6522.000000;1.429865
6521.000000;1.428900
6520.000000;1.427780
6519.000000;1.426498
6518.000000;1.425170
6517.000000;1.423890
6516.000000;1.422608
6515.000000;1.421232
6514.000000;1.419808
6513.000000;1.418513
6512.000000;1.417489
6511.000000;1.416731
6510.000000;1.416110
6509.000000;1.415451
6508.000000;1.414614
6507.000000;1.413563
6506.000000;1.412377
6505.000000;1.411157
6504.000000;1.409957
6503.000000;1.408793
6502.000000;1.407679
6501.000000;1.406606
6500.000000;1.405546
6499.000000;1.404528
6498.000000;1.403635
6497.000000;1.402854
6496.000000;1.401983
6495.000000;1.400784
6494.000000;1.399248
6493.000000;1.397614
6492.000000;1.396148
6491.000000;1.394946
6490.000000;1.393966
6489.000000;1.393118
6488.000000;1.392310
6487.000000;1.391499
6486.000000;1.390746
6485.000000;1.390153
6484.000000;1.389655
6483.000000;1.388964
6482.000000;1.387830
6481.000000;1.386351
6480.000000;1.384908
6479.000000;1.383771
6478.000000;1.382887
6477.000000;1.382078
6476.000000;1.381335
6475.000000;1.380763
6474.000000;1.380300
6473.000000;1.379694
6472.000000;1.378815
6471.000000;1.377852
6470.000000;1.377054
6469.000000;1.376370
6468.000000;1.375511
6467.000000;1.374362
6466.000000;1.373151
6465.000000;1.372119
6464.000000;1.371190
6463.000000;1.370102
6462.000000;1.368814
6461.000000;1.367618
6460.000000;1.366816
6459.000000;1.366398
6458.000000;1.366080
6457.000000;1.365574
6456.000000;1.364775
6455.000000;1.363755
6454.000000;1.362661
6453.000000;1.361621
6452.000000;1.360658
6451.000000;1.359692
6450.000000;1.358673
6449.000000;1.357690
6448.000000;1.356911
6447.000000;1.356380
6446.000000;1.355929
6445.000000;1.355324
6444.000000;1.354480
6443.000000;1.353499
6442.000000;1.352529
6441.000000;1.351621
6440.000000;1.350737
6439.000000;1.349862
6438.000000;1.349050
6437.000000;1.348369
6436.000000;1.347776
6435.000000;1.347113
6434.000000;1.346246
6433.000000;1.345238
6432.000000;1.344326
6431.000000;1.343702
6430.000000;1.343346
6429.000000;1.343076
6428.000000;1.342700
6427.000000;1.342080
6426.000000;1.341122
6425.000000;1.339847
6424.000000;1.338483
6423.000000;1.337349
6422.000000;1.336586
6421.000000;1.336051
6420.000000;1.335507
6419.000000;1.334850
6418.000000;1.334109
6417.000000;1.333320
6416.000000;1.332498
6415.000000;1.331695
6414.000000;1.330959
6413.000000;1.330266
6412.000000;1.329573
6411.000000;1.328914
6410.000000;1.328324
6409.000000;1.327693
6408.000000;1.326833
6407.000000;1.325741
6406.000000;1.324690
6405.000000;1.323942
6404.000000;1.323451
6403.000000;1.322953
6402.000000;1.322309
6401.000000;1.321637
6400.000000;1.321081
6399.000000;1.320576
6398.000000;1.319922
6397.000000;1.319037
6396.000000;1.318041
6395.000000;1.317101
6394.000000;1.316280
6393.000000;1.315553
6392.000000;1.314901
6391.000000;1.314316
6390.000000;1.313762
6389.000000;1.313178
6388.000000;1.312539
6387.000000;1.311860
6386.000000;1.311171
6385.000000;1.310510
6384.000000;1.309939
6383.000000;1.309467
6382.000000;1.309000
6381.000000;1.308429
6380.000000;1.307799
6379.000000;1.307275
6378.000000;1.306903
6377.000000;1.306486
6376.000000;1.305799
6375.000000;1.304855
6374.000000;1.303884
6373.000000;1.303069
6372.000000;1.302413
6371.000000;1.301834
6370.000000;1.301270
6369.000000;1.300690
6368.000000;1.300093
6367.000000;1.299531
6366.000000;1.299075
6365.000000;1.298725
6364.000000;1.298398
6363.000000;1.298021
6362.000000;1.297591
6361.000000;1.297108
6360.000000;1.296530
6359.000000;1.295818
6358.000000;1.294983
6357.000000;1.294066
6356.000000;1.293110
6355.000000;1.292198
6354.000000;1.291457
6353.000000;1.290969
6352.000000;1.290666
6351.000000;1.290358
6350.000000;1.289878
6349.000000;1.289187
6348.000000;1.288373
6347.000000;1.287582
6346.000000;1.286947
6345.000000;1.286525
6344.000000;1.286263
6343.000000;1.286014
6342.000000;1.285627
6341.000000;1.285066
6340.000000;1.284453
6339.000000;1.283936
6338.000000;1.283523
6337.000000;1.283087
6336.000000;1.282552
6335.000000;1.282001
6334.000000;1.281542
6333.000000;1.281135
6332.000000;1.280657
6331.000000;1.280089
6330.000000;1.279535
6329.000000;1.279045
6328.000000;1.278531
6327.000000;1.277880
6326.000000;1.277067
6325.000000;1.276153
6324.000000;1.275249
6323.000000;1.274508
6322.000000;1.274036
6321.000000;1.273763
6320.000000;1.273491
6319.000000;1.273123
6318.000000;1.272763
6317.000000;1.272518
6316.000000;1.272285
6315.000000;1.271844
6314.000000;1.271123
6313.000000;1.270302
6312.000000;1.269644
6311.000000;1.269281
6310.000000;1.269140
6309.000000;1.269013
6308.000000;1.268720
6307.000000;1.268263
6306.000000;1.267793
6305.000000;1.267416
6304.000000;1.267056
6303.000000;1.266561
6302.000000;1.265898
6301.000000;1.265181
6300.000000;1.264537
6299.000000;1.263993
6298.000000;1.263483
6297.000000;1.262933
6296.000000;1.262333
6295.000000;1.261781
6294.000000;1.261390
6293.000000;1.261151
6292.000000;1.260918
6291.000000;1.260593
6290.000000;1.260246
6289.000000;1.259976
6288.000000;1.259739
6287.000000;1.259410
6286.000000;1.258975
6285.000000;1.258532
6284.000000;1.258108
6283.000000;1.257612
6282.000000;1.257013
6281.000000;1.256440
6280.000000;1.256045
6279.000000;1.255828
6278.000000;1.255655
6277.000000;1.255405
6276.000000;1.255047
6275.000000;1.254638
6274.000000;1.254269
6273.000000;1.253996
6272.000000;1.253781
6271.000000;1.253508
6270.000000;1.253095
6269.000000;1.252556
6268.000000;1.251957
6267.000000;1.251359
6266.000000;1.250835
6265.000000;1.250467
6264.000000;1.250277
6263.000000;1.250167
6262.000000;1.249980
6261.000000;1.249611
6260.000000;1.249060
6259.000000;1.248427
6258.000000;1.247868
6257.000000;1.247522
6256.000000;1.247391
6255.000000;1.247305
6254.000000;1.247050
6253.000000;1.246557
6252.000000;1.245943
6251.000000;1.245370
6250.000000;1.244897
6249.000000;1.244477
6248.000000;1.244068
6247.000000;1.243702
6246.000000;1.243445
6245.000000;1.243291
6244.000000;1.243151
6243.000000;1.242938
6242.000000;1.242664
6241.000000;1.242412
6240.000000;1.242217
6239.000000;1.242011
6238.000000;1.241705
6237.000000;1.241293
6236.000000;1.240865
6235.000000;1.240511
6234.000000;1.240240
6233.000000;1.239995
6232.000000;1.239732
6231.000000;1.239459
6230.000000;1.239204
6229.000000;1.238948
6228.000000;1.238631
6227.000000;1.238232
6226.000000;1.237816
6225.000000;1.237472
6224.000000;1.237208
6223.000000;1.236948
6222.000000;1.236621
6221.000000;1.236220
6220.000000;1.235782
6219.000000;1.235359
6218.000000;1.235017
6217.000000;1.234801
6216.000000;1.234680
6215.000000;1.234558
6214.000000;1.234378
6213.000000;1.234156
6212.000000;1.233902
6211.000000;1.233571
6210.000000;1.233136
6209.000000;1.232677
6208.000000;1.232313
6207.000000;1.232067
6206.000000;1.231868
6205.000000;1.231666
6204.000000;1.231464
6203.000000;1.231249
6202.000000;1.230978
6201.000000;1.230659
6200.000000;1.230379
6199.000000;1.230193
6198.000000;1.230051
6197.000000;1.229876
6196.000000;1.229674
6195.000000;1.229481
6194.000000;1.229259
6193.000000;1.228919
6192.000000;1.228472
6191.000000;1.228054
6190.000000;1.227781
6189.000000;1.227621
6188.000000;1.227468
6187.000000;1.227285
6186.000000;1.227119
6185.000000;1.226997
6184.000000;1.226863
6183.000000;1.226631
6182.000000;1.226286
6181.000000;1.225889
6180.000000;1.225511
6179.000000;1.225185
6178.000000;1.224917
6177.000000;1.224713
6176.000000;1.224552
6175.000000;1.224364
6174.000000;1.224087
6173.000000;1.223778
6172.000000;1.223594
6171.000000;1.223613
6170.000000;1.223689
6169.000000;1.223575
6168.000000;1.223194
6167.000000;1.222723
6166.000000;1.222367
6165.000000;1.222149
6164.000000;1.221955
6163.000000;1.221727
6162.000000;1.221507
6161.000000;1.221314
6160.000000;1.221099
6159.000000;1.220844
6158.000000;1.220619
6157.000000;1.220497
6156.000000;1.220431
6155.000000;1.220276
6154.000000;1.219927
6153.000000;1.219419
6152.000000;1.218919
6151.000000;1.218631
6150.000000;1.218645
6149.000000;1.218845
6148.000000;1.218984
6147.000000;1.218889
6146.000000;1.218617
6145.000000;1.218380
6144.000000;1.218320
6143.000000;1.218371
6142.000000;1.218341
6141.000000;1.218112
6140.000000;1.217757
6139.000000;1.217437
6138.000000;1.217229
6137.000000;1.217080
6136.000000;1.216917
6135.000000;1.216763
6134.000000;1.216684
6133.000000;1.216679
6132.000000;1.216659
6131.000000;1.216541
6130.000000;1.216317
6129.000000;1.216042
6128.000000;1.215800
6127.000000;1.215666
6126.000000;1.215635
6125.000000;1.215590
6124.000000;1.215408
6123.000000;1.215109
6122.000000;1.214843
6121.000000;1.214693
6120.000000;1.214572
6119.000000;1.214342
6118.000000;1.213995
6117.000000;1.213632
6116.000000;1.213328
6115.000000;1.213067
6114.000000;1.212798
6113.000000;1.212495
6112.000000;1.212176
6111.000000;1.211927
6110.000000;1.211875
6109.000000;1.212055
6108.000000;1.212311
6107.000000;1.212401
6106.000000;1.212230
6105.000000;1.211926
6104.000000;1.211682
6103.000000;1.211567
6102.000000;1.211518
6101.000000;1.211445
6100.000000;1.211309
6099.000000;1.211121
6098.000000;1.210934
6097.000000;1.210819
6096.000000;1.210802
6095.000000;1.210815
6094.000000;1.210744
6093.000000;1.210540
6092.000000;1.210268
6091.000000;1.210042
6090.000000;1.209910
6089.000000;1.209817
6088.000000;1.209680
6087.000000;1.209475
6086.000000;1.209247
6085.000000;1.209050
6084.000000;1.208916
6083.000000;1.208864
6082.000000;1.208896
6081.000000;1.208964
6080.000000;1.208987
6079.000000;1.208945
6078.000000;1.208912
6077.000000;1.208956
6076.000000;1.209029
6075.000000;1.208993
6074.000000;1.208786
6073.000000;1.208488
6072.000000;1.208235
6071.000000;1.208104
6070.000000;1.208082
6069.000000;1.208108
6068.000000;1.208106
6067.000000;1.208020
6066.000000;1.207860
6065.000000;1.207712
6064.000000;1.207674
6063.000000;1.207774
6062.000000;1.207955
6061.000000;1.208133
6060.000000;1.208240
6059.000000;1.208231
6058.000000;1.208078
6057.000000;1.207781
6056.000000;1.207401
6055.000000;1.207049
6054.000000;1.206821
6053.000000;1.206733
6052.000000;1.206719
6051.000000;1.206696
6050.000000;1.206648
6049.000000;1.206616
6048.000000;1.206636
6047.000000;1.206672
6046.000000;1.206626
6045.000000;1.206419
6044.000000;1.206074
6043.000000;1.205742
6042.000000;1.205609
6041.000000;1.205743
6040.000000;1.206017
6039.000000;1.206217
6038.000000;1.206233
6037.000000;1.206131
6036.000000;1.206049
6035.000000;1.206056
6034.000000;1.206118
6033.000000;1.206177
6032.000000;1.206198
6031.000000;1.206153
6030.000000;1.206024
6029.000000;1.205840
6028.000000;1.205691
6027.000000;1.205655
6026.000000;1.205718
6025.000000;1.205797
6024.000000;1.205870
6023.000000;1.206001
6022.000000;1.206221
6021.000000;1.206410
6020.000000;1.206371
6019.000000;1.206053
6018.000000;1.205643
6017.000000;1.205406
6016.000000;1.205449
6015.000000;1.205660
6014.000000;1.205839
6013.000000;1.205878
6012.000000;1.205796
6011.000000;1.205677
6010.000000;1.205594
6009.000000;1.205589
6008.000000;1.205695
6007.000000;1.205929
6006.000000;1.206249
6005.000000;1.206547
6004.000000;1.206711
6003.000000;1.206710
6002.000000;1.206592
6001.000000;1.206421
6000.000000;1.206236
5999.000000;1.206085
5998.000000;1.206047
5997.000000;1.206164
5996.000000;1.206397
5995.000000;1.206658
5994.000000;1.206893
5993.000000;1.207099
5992.000000;1.207291
5991.000000;1.207466
5990.000000;1.207605
5989.000000;1.207681
5988.000000;1.207695
5987.000000;1.207694
5986.000000;1.207750
5985.000000;1.207892
5984.000000;1.208073
5983.000000;1.208244
5982.000000;1.208420
5981.000000;1.208647
5980.000000;1.208903
5979.000000;1.209106
5978.000000;1.209221
5977.000000;1.209312
5976.000000;1.209460
5975.000000;1.209647
5974.000000;1.209763
5973.000000;1.209736
5972.000000;1.209628
5971.000000;1.209593
5970.000000;1.209739
5969.000000;1.210035
5968.000000;1.210359
5967.000000;1.210621
5966.000000;1.210817
5965.000000;1.210968
5964.000000;1.211069
5963.000000;1.211132
5962.000000;1.211237
5961.000000;1.211484
5960.000000;1.211879
5959.000000;1.212326
5958.000000;1.212718
5957.000000;1.213009
5956.000000;1.213214
5955.000000;1.213376
5954.000000;1.213541
5953.000000;1.213736
5952.000000;1.213935
5951.000000;1.214081
5950.000000;1.214175
5949.000000;1.214312
5948.000000;1.214593
5947.000000;1.215001
5946.000000;1.215394
5945.000000;1.215630
5944.000000;1.215693
5943.000000;1.215699
5942.000000;1.215774
5941.000000;1.215955
5940.000000;1.216184
5939.000000;1.216399
5938.000000;1.216598
5937.000000;1.216832
5936.000000;1.217136
5935.000000;1.217492
5934.000000;1.217851
5933.000000;1.218178
5932.000000;1.218477
5931.000000;1.218762
5930.000000;1.219034
5929.000000;1.219281
5928.000000;1.219503
5927.000000;1.219700
5926.000000;1.219856
5925.000000;1.219950
5924.000000;1.220015
5923.000000;1.220132
5922.000000;1.220347
5921.000000;1.220586
5920.000000;1.220737
5919.000000;1.220775
5918.000000;1.220782
5917.000000;1.220825
5916.000000;1.220891
5915.000000;1.220969
5914.000000;1.221100
5913.000000;1.221312
5912.000000;1.221532
5911.000000;1.221652
5910.000000;1.221653
5909.000000;1.221620
5908.000000;1.221642
5907.000000;1.221738
5906.000000;1.221880
5905.000000;1.222041
5904.000000;1.222200
5903.000000;1.222345
5902.000000;1.222478
5901.000000;1.222608
5900.000000;1.222733
5899.000000;1.222846
5898.000000;1.222930
5897.000000;1.222957
5896.000000;1.222931
5895.000000;1.222927
5894.000000;1.223039
5893.000000;1.223250
5892.000000;1.223402
5891.000000;1.223381
5890.000000;1.223276
5889.000000;1.223277
5888.000000;1.223442
5887.000000;1.223645
5886.000000;1.223768
5885.000000;1.223828
5884.000000;1.223911
5883.000000;1.224038
5882.000000;1.224167
5881.000000;1.224260
5880.000000;1.224313
5879.000000;1.224367
5878.000000;1.224495
5877.000000;1.224753
5876.000000;1.225095
5875.000000;1.225386
5874.000000;1.225525
5873.000000;1.225529
5872.000000;1.225505
5871.000000;1.225563
5870.000000;1.225783
5869.000000;1.226188
5868.000000;1.226713
5867.000000;1.227225
5866.000000;1.227629
5865.000000;1.227932
5864.000000;1.228176
5863.000000;1.228367
5862.000000;1.228511
5861.000000;1.228678
5860.000000;1.228944
5859.000000;1.229292
5858.000000;1.229621
5857.000000;1.229885
5856.000000;1.230142
5855.000000;1.230490
5854.000000;1.230952
5853.000000;1.231471
5852.000000;1.231957
5851.000000;1.232352
5850.000000;1.232667
5849.000000;1.232969
5848.000000;1.233310
5847.000000;1.233674
5846.000000;1.234001
5845.000000;1.234271
5844.000000;1.234539
5843.000000;1.234878
5842.000000;1.235303
5841.000000;1.235778
5840.000000;1.236260
5839.000000;1.236740
5838.000000;1.237231
5837.000000;1.237742
5836.000000;1.238264
5835.000000;1.238757
5834.000000;1.239172
5833.000000;1.239478
5832.000000;1.239715
5831.000000;1.239991
5830.000000;1.240415
5829.000000;1.240988
5828.000000;1.241574
5827.000000;1.242025
5826.000000;1.242324
5825.000000;1.242595
5824.000000;1.242958
5823.000000;1.243424
5822.000000;1.243937
5821.000000;1.244471
5820.000000;1.245039
5819.000000;1.245632
5818.000000;1.246201
5817.000000;1.246707
5816.000000;1.247159
5815.000000;1.247606
5814.000000;1.248104
5813.000000;1.248663
5812.000000;1.249205
5811.000000;1.249608
5810.000000;1.249847
5809.000000;1.250079
5808.000000;1.250551
5807.000000;1.251363
5806.000000;1.252371
5805.000000;1.253302
5804.000000;1.253962
5803.000000;1.254346
5802.000000;1.254605
5801.000000;1.254937
5800.000000;1.255441
5799.000000;1.256055
5798.000000;1.256633
5797.000000;1.257110
5796.000000;1.257556
5795.000000;1.258048
5794.000000;1.258558
5793.000000;1.259015
5792.000000;1.259446
5791.000000;1.259964
5790.000000;1.260621
5789.000000;1.261325
5788.000000;1.261947
5787.000000;1.262459
5786.000000;1.262931
5785.000000;1.263442
5784.000000;1.264031
5783.000000;1.264693
5782.000000;1.265386
5781.000000;1.266025
5780.000000;1.266530
5779.000000;1.266893
5778.000000;1.267211
5777.000000;1.267615
5776.000000;1.268179
5775.000000;1.268875
5774.000000;1.269596
5773.000000;1.270239
5772.000000;1.270774
5771.000000;1.271253
5770.000000;1.271758
5769.000000;1.272333
5768.000000;1.272956
5767.000000;1.273561
5766.000000;1.274084
5765.000000;1.274527
5764.000000;1.274979
5763.000000;1.275547
5762.000000;1.276242
5761.000000;1.276949
5760.000000;1.277542
5759.000000;1.278017
5758.000000;1.278470
5757.000000;1.278997
5756.000000;1.279624
5755.000000;1.280330
5754.000000;1.281065
5753.000000;1.281741
5752.000000;1.282284
5751.000000;1.282715
5750.000000;1.283131
5749.000000;1.283588
5748.000000;1.284050
5747.000000;1.284474
5746.000000;1.284911
5745.000000;1.285454
5744.000000;1.286129
5743.000000;1.286884
5742.000000;1.287661
5741.000000;1.288423
5740.000000;1.289122
5739.000000;1.289692
5738.000000;1.290109
5737.000000;1.290432
5736.000000;1.290769
5735.000000;1.291212
5734.000000;1.291797
5733.000000;1.292476
5732.000000;1.293148
5731.000000;1.293738
5730.000000;1.294255
5729.000000;1.294756
5728.000000;1.295265
5727.000000;1.295780
5726.000000;1.296343
5725.000000;1.297036
5724.000000;1.297875
5723.000000;1.298741
5722.000000;1.299495
5721.000000;1.300123
5720.000000;1.300724
5719.000000;1.301359
5718.000000;1.301991
5717.000000;1.302562
5716.000000;1.303101
5715.000000;1.303680
5714.000000;1.304307
5713.000000;1.304910
5712.000000;1.305442
5711.000000;1.305969
5710.000000;1.306609
5709.000000;1.307386
5708.000000;1.308194
5707.000000;1.308925
5706.000000;1.309589
5705.000000;1.310279
5704.000000;1.311030
5703.000000;1.311761
5702.000000;1.312380
5701.000000;1.312902
5700.000000;1.313425
5699.000000;1.314015
5698.000000;1.314645
5697.000000;1.315259
5696.000000;1.315847
5695.000000;1.316448
5694.000000;1.317093
5693.000000;1.317773
5692.000000;1.318459
5691.000000;1.319135
5690.000000;1.319821
5689.000000;1.320559
5688.000000;1.321359
5687.000000;1.322170
5686.000000;1.322903
5685.000000;1.323504
5684.000000;1.324008
5683.000000;1.324503
5682.000000;1.325067
5681.000000;1.325733
5680.000000;1.326506
5679.000000;1.327360
5678.000000;1.328216
5677.000000;1.328957
5676.000000;1.329502
5675.000000;1.329882
5674.000000;1.330210
5673.000000;1.330608
5672.000000;1.331155
5671.000000;1.331877
5670.000000;1.332744
5669.000000;1.333672
5668.000000;1.334555
5667.000000;1.335328
5666.000000;1.335987
5665.000000;1.336551
5664.000000;1.337042
5663.000000;1.337493
5662.000000;1.337938
5661.000000;1.338373
5660.000000;1.338760
5659.000000;1.339113
5658.000000;1.339543
5657.000000;1.340160
5656.000000;1.340929
5655.000000;1.341672
5654.000000;1.342236
5653.000000;1.342617
5652.000000;1.342933
5651.000000;1.343320
5650.000000;1.343868
5649.000000;1.344590
5648.000000;1.345391
5647.000000;1.346102
5646.000000;1.346613
5645.000000;1.346982
5644.000000;1.347362
5643.000000;1.347825
5642.000000;1.348318
5641.000000;1.348799
5640.000000;1.349345
5639.000000;1.350045
5638.000000;1.350812
5637.000000;1.351419
5636.000000;1.351743
5635.000000;1.351926
5634.000000;1.352247
5633.000000;1.352846
5632.000000;1.353634
5631.000000;1.354434
5630.000000;1.355148
5629.000000;1.355749
5628.000000;1.356210
5627.000000;1.356525
5626.000000;1.356788
5625.000000;1.357146
5624.000000;1.357629
5623.000000;1.358095
5622.000000;1.358403
5621.000000;1.358616
5620.000000;1.358950
5619.000000;1.359512
5618.000000;1.360167
5617.000000;1.360695
5616.000000;1.361042
5615.000000;1.361355
5614.000000;1.361797
5613.000000;1.362369
5612.000000;1.362926
5611.000000;1.363313
5610.000000;1.363496
5609.000000;1.363569
5608.000000;1.363668
5607.000000;1.363863
5606.000000;1.364142
5605.000000;1.364480
5604.000000;1.364882
5603.000000;1.365327
5602.000000;1.365721
5601.000000;1.365969
5600.000000;1.366095
5599.000000;1.366240
5598.000000;1.366513
5597.000000;1.366891
5596.000000;1.367268
5595.000000;1.367564
5594.000000;1.367759
5593.000000;1.367875
5592.000000;1.367963
5591.000000;1.368071
5590.000000;1.368194
5589.000000;1.368285
5588.000000;1.368363
5587.000000;1.368544
5586.000000;1.368921
5585.000000;1.369412
5584.000000;1.369796
5583.000000;1.369929
5582.000000;1.369880
5581.000000;1.369857
5580.000000;1.369995
5579.000000;1.370242
5578.000000;1.370413
5577.000000;1.370389
5576.000000;1.370261
5575.000000;1.370252
5574.000000;1.370480
5573.000000;1.370838
5572.000000;1.371147
5571.000000;1.371366
5570.000000;1.371574
5569.000000;1.371780
5568.000000;1.371896
5567.000000;1.371915
5566.000000;1.372001
5565.000000;1.372294
5564.000000;1.372692
5563.000000;1.372916
5562.000000;1.372785
5561.000000;1.372377
5560.000000;1.371918
5559.000000;1.371606
5558.000000;1.371520
5557.000000;1.371631
5556.000000;1.371845
5555.000000;1.372080
5554.000000;1.372321
5553.000000;1.372595
5552.000000;1.372869
5551.000000;1.373044
5550.000000;1.373070
5549.000000;1.373030
5548.000000;1.373040
5547.000000;1.373096
5546.000000;1.373105
5545.000000;1.373060
5544.000000;1.373078
5543.000000;1.373234
5542.000000;1.373412
5541.000000;1.373424
5540.000000;1.373233
5539.000000;1.373001
5538.000000;1.372898
5537.000000;1.372949
5536.000000;1.373077
5535.000000;1.373240
5534.000000;1.373466
5533.000000;1.373769
5532.000000;1.374077
5531.000000;1.374269
5530.000000;1.374254
5529.000000;1.374052
5528.000000;1.373804
5527.000000;1.373704
5526.000000;1.373842
5525.000000;1.374121
5524.000000;1.374341
5523.000000;1.374381
5522.000000;1.374283
5521.000000;1.374166
5520.000000;1.374107
5519.000000;1.374112
5518.000000;1.374169
5517.000000;1.374265
5516.000000;1.374368
5515.000000;1.374427
5514.000000;1.374405
5513.000000;1.374326
5512.000000;1.374266
5511.000000;1.374317
5510.000000;1.374528
5509.000000;1.374860
5508.000000;1.375197
5507.000000;1.375417
5506.000000;1.375474
5505.000000;1.375437
5504.000000;1.375428
5503.000000;1.375516
5502.000000;1.375653
5501.000000;1.375729
5500.000000;1.375720
5499.000000;1.375760
5498.000000;1.376004
5497.000000;1.376392
5496.000000;1.376680
5495.000000;1.376746
5494.000000;1.376790
5493.000000;1.377102
5492.000000;1.377653
5491.000000;1.378067
5490.000000;1.378070
5489.000000;1.377826
5488.000000;1.377754
5487.000000;1.378049
5486.000000;1.378520
5485.000000;1.378866
5484.000000;1.379007
5483.000000;1.379078
5482.000000;1.379260
5481.000000;1.379676
5480.000000;1.380351
5479.000000;1.381131
5478.000000;1.381732
5477.000000;1.381973
5476.000000;1.382006
5475.000000;1.382158
5474.000000;1.382551
5473.000000;1.382974
5472.000000;1.383193
5471.000000;1.383241
5470.000000;1.383334
5469.000000;1.383577
5468.000000;1.383894
5467.000000;1.384233
5466.000000;1.384693
5465.000000;1.385357
5464.000000;1.386093
5463.000000;1.386668
5462.000000;1.387024
5461.000000;1.387352
5460.000000;1.387848
5459.000000;1.388491
5458.000000;1.389110
5457.000000;1.389568
5456.000000;1.389879
5455.000000;1.390202
5454.000000;1.390715
5453.000000;1.391449
5452.000000;1.392301
5451.000000;1.393235
5450.000000;1.394304
5449.000000;1.395408
5448.000000;1.396244
5447.000000;1.396729
5446.000000;1.397227
5445.000000;1.398104
5444.000000;1.399197
5443.000000;1.400038
5442.000000;1.400501
5441.000000;1.400958
5440.000000;1.401749
5439.000000;1.402757
5438.000000;1.403616
5437.000000;1.404152
5436.000000;1.404532
5435.000000;1.405118
5434.000000;1.406166
5433.000000;1.407541
5432.000000;1.408815
5431.000000;1.409745
5430.000000;1.410522
5429.000000;1.411513
5428.000000;1.412826
5427.000000;1.414258
5426.000000;1.415604
5425.000000;1.416865
5424.000000;1.418189
5423.000000;1.419671
5422.000000;1.421229
5421.000000;1.422681
5420.000000;1.423974
5419.000000;1.425302
5418.000000;1.426899
5417.000000;1.428762
5416.000000;1.430688
5415.000000;1.432591
5414.000000;1.434592
5413.000000;1.436729
5412.000000;1.438791
5411.000000;1.440610
5410.000000;1.442344
5409.000000;1.444264
5408.000000;1.446361
5407.000000;1.448392
5406.000000;1.450233
5405.000000;1.451997
5404.000000;1.453867
5403.000000;1.455989
5402.000000;1.458451
5401.000000;1.461153
5400.000000;1.463839
5399.000000;1.466431
5398.000000;1.469164
5397.000000;1.472252
5396.000000;1.475551
5395.000000;1.478772
5394.000000;1.481892
5393.000000;1.485096
5392.000000;1.488408
5391.000000;1.491676
5390.000000;1.494873
5389.000000;1.498184
5388.000000;1.501705
5387.000000;1.505347
5386.000000;1.509098
5385.000000;1.513045
5384.000000;1.517124
5383.000000;1.521173
5382.000000;1.525269
5381.000000;1.529687
5380.000000;1.534461
5379.000000;1.539270
5378.000000;1.543885
5377.000000;1.548487
5376.000000;1.553379
5375.000000;1.558588
5374.000000;1.563930
5373.000000;1.569298
5372.000000;1.574727
5371.000000;1.580277
5370.000000;1.586007
5369.000000;1.591997
5368.000000;1.598251
5367.000000;1.604662
5366.000000;1.611162
5365.000000;1.617824
5364.000000;1.624729
5363.000000;1.631820
5362.000000;1.638981
5361.000000;1.646221
5360.000000;1.653741
5359.000000;1.661798
5358.000000;1.670446
5357.000000;1.679409
5356.000000;1.688299
5355.000000;1.697090
5354.000000;1.706221
5353.000000;1.716029
5352.000000;1.726211
5351.000000;1.736222
5350.000000;1.746063
5349.000000;1.756251
5348.000000;1.767031
5347.000000;1.778065
5346.000000;1.789051
5345.000000;1.800270
5344.000000;1.812188
5343.000000;1.824739
5342.000000;1.837451
5341.000000;1.850175
5340.000000;1.863247
5339.000000;1.876982
5338.000000;1.891289
5337.000000;1.905826
5336.000000;1.920353
5335.000000;1.934899
5334.000000;1.949730
5333.000000;1.965192
5332.000000;1.981493
5331.000000;1.998525
5330.000000;2.015867
5329.000000;2.033027
5328.000000;2.049884
5327.000000;2.066953
5326.000000;2.084999
5325.000000;2.104290
5324.000000;2.124380
5323.000000;2.144624
5322.000000;2.164722
5321.000000;2.184731
5320.000000;2.204800
5319.000000;2.225120
5318.000000;2.245942
5317.000000;2.267467
5316.000000;2.289821
5315.000000;2.313156
5314.000000;2.337371
5313.000000;2.361626
5312.000000;2.384615
5311.000000;2.405788
5310.000000;2.425950
5309.000000;2.446413
5308.000000;2.468169
5307.000000;2.491956
5306.000000;2.517903
5305.000000;2.544409
5304.000000;2.568612
5303.000000;2.589299
5302.000000;2.608539
5301.000000;2.629212
5300.000000;2.651847
5299.000000;2.674728
5298.000000;2.695783
5297.000000;2.713472
5296.000000;2.727599
5295.000000;2.740745
5294.000000;2.756880
5293.000000;2.776960
5292.000000;2.797673
5291.000000;2.816141
5290.000000;2.833558
5289.000000;2.851341
5288.000000;2.866572
5287.000000;2.875454
5286.000000;2.879644
5285.000000;2.884606
5284.000000;2.892458
5283.000000;2.900312
5282.000000;2.905155
5281.000000;2.906880
5280.000000;2.907049
5279.000000;2.908129
5278.000000;2.913474
5277.000000;2.924873
5276.000000;2.939589
5275.000000;2.951692
5274.000000;2.957282
5273.000000;2.957476
5272.000000;2.956161
5271.000000;2.956224
5270.000000;2.957671
5269.000000;2.958045
5268.000000;2.955571
5267.000000;2.952567
5266.000000;2.953606
5265.000000;2.959707
5264.000000;2.966470
5263.000000;2.969348
5262.000000;2.968738
5261.000000;2.967309
5260.000000;2.965770
5259.000000;2.964741
5258.000000;2.967067
5257.000000;2.974032
5256.000000;2.980704
5255.000000;2.979304
5254.000000;2.968965
5253.000000;2.957798
5252.000000;2.954160
5251.000000;2.959748
5250.000000;2.969590
5249.000000;2.975795
5248.000000;2.973653
5247.000000;2.966446
5246.000000;2.961730
5245.000000;2.962675
5244.000000;2.965180
5243.000000;2.963322
5242.000000;2.956544
5241.000000;2.949827
5240.000000;2.947942
5239.000000;2.952184
5238.000000;2.960813
5237.000000;2.969481
5236.000000;2.973069
5235.000000;2.970316
5234.000000;2.965211
5233.000000;2.962097
5232.000000;2.961349
5231.000000;2.961205
5230.000000;2.961542
5229.000000;2.963099
5228.000000;2.964873
5227.000000;2.965693
5226.000000;2.967104
5225.000000;2.971225
5224.000000;2.976758
5223.000000;2.980251
5222.000000;2.980305
5221.000000;2.977554
5220.000000;2.972342
5219.000000;2.965991
5218.000000;2.961913
5217.000000;2.961701
5216.000000;2.961884
5215.000000;2.957927
5214.000000;2.950751
5213.000000;2.945540
5212.000000;2.945023
5211.000000;2.947848
5210.000000;2.952677
5209.000000;2.959943
5208.000000;2.968665
5207.000000;2.975270
5206.000000;2.977784
5205.000000;2.978164
5204.000000;2.978215
5203.000000;2.976566
5202.000000;2.971577
5201.000000;2.964448
5200.000000;2.958234
5199.000000;2.955770
5198.000000;2.958724
5197.000000;2.966303
5196.000000;2.973972
5195.000000;2.975939
5194.000000;2.970862
5193.000000;2.963191
5192.000000;2.958231
5191.000000;2.957935
5190.000000;2.960821
5189.000000;2.963639
5188.000000;2.963452
5187.000000;2.960459
5186.000000;2.958765
5185.000000;2.962485
5184.000000;2.971107
5183.000000;2.979890
5182.000000;2.984830
5181.000000;2.985370
5180.000000;2.982582
5179.000000;2.978423
5178.000000;2.976737
5177.000000;2.980608
5176.000000;2.987323
5175.000000;2.989276
5174.000000;2.982947
5173.000000;2.973947
5172.000000;2.969664
5171.000000;2.970642
5170.000000;2.971413
5169.000000;2.967550
5168.000000;2.959860
5167.000000;2.952382
5166.000000;2.948635
5165.000000;2.949549
5164.000000;2.953053
5163.000000;2.955773
5162.000000;2.956414
5161.000000;2.957001
5160.000000;2.959850
5159.000000;2.964230
5158.000000;2.966909
5157.000000;2.965306
5156.000000;2.959128
5155.000000;2.949832
5154.000000;2.940138
5153.000000;2.933600
5152.000000;2.933223
5151.000000;2.940012
5150.000000;2.952326
5149.000000;2.965689
5148.000000;2.973785
5147.000000;2.972606
5146.000000;2.964824
5145.000000;2.957470
5144.000000;2.954919
5143.000000;2.956211
5142.000000;2.958495
5141.000000;2.960510
5140.000000;2.961862
5139.000000;2.961485
5138.000000;2.959148
5137.000000;2.956857
5136.000000;2.956687
5135.000000;2.957889
5134.000000;2.958199
5133.000000;2.958061
5132.000000;2.960460
5131.000000;2.965844
5130.000000;2.970285
5129.000000;2.970745
5128.000000;2.969972
5127.000000;2.973110
5126.000000;2.980898
5125.000000;2.987874
5124.000000;2.987382
5123.000000;2.978413
5122.000000;2.966364
5121.000000;2.957690
5120.000000;2.955634
5119.000000;2.959631
5118.000000;2.966535
5117.000000;2.972577
5116.000000;2.975721
5115.000000;2.976737
5114.000000;2.977226
5113.000000;2.976639
5112.000000;2.973035
5111.000000;2.967219
5110.000000;2.963344
5109.000000;2.963704
5108.000000;2.965202
5107.000000;2.963379
5106.000000;2.958940
5105.000000;2.957058
5104.000000;2.959607
5103.000000;2.961192
5102.000000;2.955710
5101.000000;2.944118
5100.000000;2.932022
5099.000000;2.923892
5098.000000;2.922354
5097.000000;2.929116
5096.000000;2.943147
5095.000000;2.958784
5094.000000;2.969481
5093.000000;2.974688
5092.000000;2.979175
5091.000000;2.984705
5090.000000;2.986482
5089.000000;2.979758
5088.000000;2.967222
5087.000000;2.956063
5086.000000;2.950019
5085.000000;2.947305
5084.000000;2.944515
5083.000000;2.940256
5082.000000;2.935248
5081.000000;2.930573
5080.000000;2.926808
5079.000000;2.924990
5078.000000;2.927176
5077.000000;2.934635
5076.000000;2.945442
5075.000000;2.954206
5074.000000;2.955348
5073.000000;2.947998
5072.000000;2.936987
5071.000000;2.928836
5070.000000;2.927654
5069.000000;2.933614
5068.000000;2.943095
5067.000000;2.950239
5066.000000;2.950657
5065.000000;2.944967
5064.000000;2.938061
5063.000000;2.934700
5062.000000;2.935999
5061.000000;2.939498
5060.000000;2.941634
5059.000000;2.940657
5058.000000;2.937802
5057.000000;2.935710
5056.000000;2.936045
5055.000000;2.938321
5054.000000;2.940917
5053.000000;2.942735
5052.000000;2.943330
5051.000000;2.942288
5050.000000;2.939432
5049.000000;2.935736
5048.000000;2.933060
5047.000000;2.932342
5046.000000;2.932832
5045.000000;2.933567
5044.000000;2.934547
5043.000000;2.935521
5042.000000;2.934613
5041.000000;2.929857
5040.000000;2.922210
5039.000000;2.915370
5038.000000;2.912225
5037.000000;2.912823
5036.000000;2.915615
5035.000000;2.919297
5034.000000;2.923667
5033.000000;2.928827
5032.000000;2.933503
5031.000000;2.935674
5030.000000;2.934692
5029.000000;2.931591
5028.000000;2.928064
5027.000000;2.925606
5026.000000;2.924647
5025.000000;2.924335
5024.000000;2.923689
5023.000000;2.922799
5022.000000;2.922361
5021.000000;2.921832
5020.000000;2.919400
5019.000000;2.914742
5018.000000;2.910633
5017.000000;2.910529
5016.000000;2.914327
5015.000000;2.917348
5014.000000;2.914934
5013.000000;2.907709
5012.000000;2.900270
5011.000000;2.895388
5010.000000;2.891751
5009.000000;2.886988
5008.000000;2.881182
5007.000000;2.876832
5006.000000;2.876695
5005.000000;2.882350
5004.000000;2.893103
5003.000000;2.904821
5002.000000;2.911352
5001.000000;2.909163
5000.000000;2.900015
4999.000000;2.888215
4998.000000;2.876786
4997.000000;2.867345
4996.000000;2.861820
4995.000000;2.861534
4994.000000;2.864603
4993.000000;2.866386
4992.000000;2.863670
4991.000000;2.857496
4990.000000;2.851433
4989.000000;2.848315
4988.000000;2.848741
4987.000000;2.851295
4986.000000;2.853482
4985.000000;2.853304
4984.000000;2.851130
4983.000000;2.848643
4982.000000;2.845309
4981.000000;2.838858
4980.000000;2.829493
4979.000000;2.821056
4978.000000;2.817322
4977.000000;2.818288
4976.000000;2.820638
4975.000000;2.821021
4974.000000;2.818383
4973.000000;2.814083
4972.000000;2.810705
4971.000000;2.809827
4970.000000;2.810289
4969.000000;2.809364
4968.000000;2.805848
4967.000000;2.801240
4966.000000;2.797751
4965.000000;2.796210
4964.000000;2.796025
4963.000000;2.795886
4962.000000;2.794144
4961.000000;2.789958
4960.000000;2.784791
4959.000000;2.781462
4958.000000;2.780596
4957.000000;2.779097
4956.000000;2.773464
4955.000000;2.763945
4954.000000;2.753941
4953.000000;2.746215
4952.000000;2.741351
4951.000000;2.739062
4950.000000;2.739356
4949.000000;2.742134
4948.000000;2.746246
4947.000000;2.749534
4946.000000;2.749703
4945.000000;2.745182
4944.000000;2.736335
4943.000000;2.726114
4942.000000;2.718291
4941.000000;2.714686
4940.000000;2.714296
4939.000000;2.714731
4938.000000;2.714114
4937.000000;2.711888
4936.000000;2.708386
4935.000000;2.703979
4934.000000;2.699069
4933.000000;2.694796
4932.000000;2.692873
4931.000000;2.693829
4930.000000;2.695418
4929.000000;2.694061
4928.000000;2.688510
4927.000000;2.681012
4926.000000;2.674310
4925.000000;2.669176
4924.000000;2.665529
4923.000000;2.663996
4922.000000;2.664576
4921.000000;2.664810
4920.000000;2.661760
4919.000000;2.655894
4918.000000;2.650966
4917.000000;2.649714
4916.000000;2.651100
4915.000000;2.652002
4914.000000;2.650395
4913.000000;2.646410
4912.000000;2.641528
4911.000000;2.637646
4910.000000;2.636066
4909.000000;2.636423
4908.000000;2.636686
4907.000000;2.634736
4906.000000;2.629973
4905.000000;2.623221
4904.000000;2.615659
4903.000000;2.608379
4902.000000;2.602450
4901.000000;2.598583
4900.000000;2.596536
4899.000000;2.595187
4898.000000;2.593486
4897.000000;2.591423
4896.000000;2.589982
4895.000000;2.589929
4894.000000;2.590491
4893.000000;2.589506
4892.000000;2.585357
4891.000000;2.578604
4890.000000;2.571275
4889.000000;2.564994
4888.000000;2.560198
4887.000000;2.556660
4886.000000;2.553996
4885.000000;2.551579
4884.000000;2.548582
4883.000000;2.544506
4882.000000;2.539548
4881.000000;2.534532
4880.000000;2.530491
4879.000000;2.528033
4878.000000;2.526937
4877.000000;2.526329
4876.000000;2.525508
4875.000000;2.524344
4874.000000;2.522680
4873.000000;2.519990
4872.000000;2.516218
4871.000000;2.512212
4870.000000;2.508597
4869.000000;2.504840
4868.000000;2.500319
4867.000000;2.495781
4866.000000;2.492500
4865.000000;2.490167
4864.000000;2.486926
4863.000000;2.481844
4862.000000;2.476227
4861.000000;2.471895
4860.000000;2.469075
4859.000000;2.466666
4858.000000;2.463919
4857.000000;2.460952
4856.000000;2.458001
4855.000000;2.454890
4854.000000;2.451232
4853.000000;2.446911
4852.000000;2.442441
4851.000000;2.438833
4850.000000;2.436788
4849.000000;2.435907
4848.000000;2.434943
4847.000000;2.433023
4846.000000;2.430531
4845.000000;2.428458
4844.000000;2.427071
4843.000000;2.425475
4842.000000;2.422458
4841.000000;2.417736
4840.000000;2.412302
4839.000000;2.407512
4838.000000;2.403851
4837.000000;2.400666
4836.000000;2.397109
4835.000000;2.393074
4834.000000;2.389019
4833.000000;2.385326
4832.000000;2.382243
4831.000000;2.380031
4830.000000;2.378475
4829.000000;2.376507
4828.000000;2.373153
4827.000000;2.368849
4826.000000;2.365052
4825.000000;2.362499
4824.000000;2.360578
4823.000000;2.358447
4822.000000;2.355992
4821.000000;2.353346
4820.000000;2.350180
4819.000000;2.346153
4818.000000;2.341746
4817.000000;2.338014
4816.000000;2.335584
4815.000000;2.334181
4814.000000;2.333052
4813.000000;2.331638
4812.000000;2.329902
4811.000000;2.328015
4810.000000;2.325672
4809.000000;2.322030
4808.000000;2.316793
4807.000000;2.311048
4806.000000;2.306395
4805.000000;2.303356
4804.000000;2.301000
4803.000000;2.298139
4802.000000;2.294430
4801.000000;2.290301
4800.000000;2.286450
4799.000000;2.283620
4798.000000;2.282233
4797.000000;2.281802
4796.000000;2.281036
4795.000000;2.278917
4794.000000;2.275517
4793.000000;2.271634
4792.000000;2.268017
4791.000000;2.265090
4790.000000;2.262946
4789.000000;2.261212
4788.000000;2.259246
4787.000000;2.256809
4786.000000;2.254299
4785.000000;2.252056
4784.000000;2.249814
4783.000000;2.247162
4782.000000;2.244220
4781.000000;2.241479
4780.000000;2.239142
4779.000000;2.236860
4778.000000;2.234056
4777.000000;2.230476
4776.000000;2.226552
4775.000000;2.223174
4774.000000;2.220802
4773.000000;2.218828
4772.000000;2.216175
4771.000000;2.212506
4770.000000;2.208415
4769.000000;2.204560
4768.000000;2.201244
4767.000000;2.198769
4766.000000;2.197322
4765.000000;2.196258
4764.000000;2.194297
4763.000000;2.190920
4762.000000;2.186973
4761.000000;2.183524
4760.000000;2.180824
4759.000000;2.178788
4758.000000;2.177584
4757.000000;2.177032
4756.000000;2.176053
4755.000000;2.173636
4754.000000;2.170027
4753.000000;2.166248
4752.000000;2.162859
4751.000000;2.159892
4750.000000;2.157522
4749.000000;2.155879
4748.000000;2.154405
4747.000000;2.152311
4746.000000;2.149595
4745.000000;2.146877
4744.000000;2.144305
4743.000000;2.141426
4742.000000;2.138099
4741.000000;2.134712
4740.000000;2.131438
4739.000000;2.128044
4738.000000;2.124616
4737.000000;2.121740
4736.000000;2.119660
4735.000000;2.117811
4734.000000;2.115483
4733.000000;2.112543
4732.000000;2.109270
4731.000000;2.105928
4730.000000;2.102787
4729.000000;2.100149
4728.000000;2.098057
4727.000000;2.096179
4726.000000;2.094214
4725.000000;2.092217
4724.000000;2.090367
4723.000000;2.088634
4722.000000;2.086812
4721.000000;2.084797
4720.000000;2.082775
4719.000000;2.081208
4718.000000;2.080452
4717.000000;2.080136
4716.000000;2.079131
4715.000000;2.076641
4714.000000;2.073168
4713.000000;2.069870
4712.000000;2.067107
4711.000000;2.064345
4710.000000;2.061437
4709.000000;2.059096
4708.000000;2.057755
4707.000000;2.056721
4706.000000;2.055037
4705.000000;2.052646
4704.000000;2.050137
4703.000000;2.047749
4702.000000;2.045268
4701.000000;2.042642
4700.000000;2.040082
4699.000000;2.037652
4698.000000;2.035271
4697.000000;2.033089
4696.000000;2.031417
4695.000000;2.030232
4694.000000;2.029119
4693.000000;2.027746
4692.000000;2.026109
4691.000000;2.024299
4690.000000;2.022374
4689.000000;2.020511
4688.000000;2.019021
4687.000000;2.017998
4686.000000;2.017047
4685.000000;2.015545
4684.000000;2.013185
4683.000000;2.010220
4682.000000;2.007220
4681.000000;2.004666
4680.000000;2.002715
4679.000000;2.001221
4678.000000;1.999846
4677.000000;1.998193
4676.000000;1.996039
4675.000000;1.993622
4674.000000;1.991546
4673.000000;1.990158
4672.000000;1.989028
4671.000000;1.987378
4670.000000;1.985030
4669.000000;1.982619
4668.000000;1.980749
4667.000000;1.979315
4666.000000;1.977795
4665.000000;1.975935
4664.000000;1.973879
4663.000000;1.971832
4662.000000;1.969872
4661.000000;1.968018
4660.000000;1.966280
4659.000000;1.964680
4658.000000;1.963302
4657.000000;1.962204
4656.000000;1.961220
4655.000000;1.960044
4654.000000;1.958623
4653.000000;1.957256
4652.000000;1.956162
4651.000000;1.955190
4650.000000;1.954104
4649.000000;1.952916
4648.000000;1.951676
4647.000000;1.950167
4646.000000;1.948143
4645.000000;1.945739
4644.000000;1.943338
4643.000000;1.941146
4642.000000;1.939205
4641.000000;1.937685
4640.000000;1.936778
4639.000000;1.936290
4638.000000;1.935679
4637.000000;1.934600
4636.000000;1.933187
4635.000000;1.931788
4634.000000;1.930627
4633.000000;1.929732
4632.000000;1.928952
4631.000000;1.928013
4630.000000;1.926751
4629.000000;1.925315
4628.000000;1.923931
4627.000000;1.922476
4626.000000;1.920564
4625.000000;1.918133
4624.000000;1.915698
4623.000000;1.913904
4622.000000;1.912965
4621.000000;1.912615
4620.000000;1.912401
4619.000000;1.911907
4618.000000;1.910871
4617.000000;1.909303
4616.000000;1.907475
4615.000000;1.905749
4614.000000;1.904413
4613.000000;1.903588
4612.000000;1.903122
4611.000000;1.902532
4610.000000;1.901323
4609.000000;1.899496
4608.000000;1.897643
4607.000000;1.896380
4606.000000;1.895759
4605.000000;1.895308
4604.000000;1.894537
4603.000000;1.893300
4602.000000;1.891740
4601.000000;1.890084
4600.000000;1.888534
4599.000000;1.887232
4598.000000;1.886231
4597.000000;1.885471
4596.000000;1.884793
4595.000000;1.884020
4594.000000;1.883070
4593.000000;1.882042
4592.000000;1.881164
4591.000000;1.880628
4590.000000;1.880416
4589.000000;1.880254
4588.000000;1.879751
4587.000000;1.878662
4586.000000;1.877120
4585.000000;1.875574
4584.000000;1.874457
4583.000000;1.873866
4582.000000;1.873565
4581.000000;1.873242
4580.000000;1.872760
4579.000000;1.872200
4578.000000;1.871680
4577.000000;1.871148
4576.000000;1.870391
4575.000000;1.869355
4574.000000;1.868343
4573.000000;1.867712
4572.000000;1.867359
4571.000000;1.866776
4570.000000;1.865726
4569.000000;1.864582
4568.000000;1.863779
4567.000000;1.863185
4566.000000;1.862321
4565.000000;1.861066
4564.000000;1.859797
4563.000000;1.858890
4562.000000;1.858418
4561.000000;1.858354
4560.000000;1.858664
4559.000000;1.859089
4558.000000;1.859112
4557.000000;1.858365
4556.000000;1.856941
4555.000000;1.855256
4554.000000;1.853758
4553.000000;1.852803
4552.000000;1.852498
4551.000000;1.852481
4550.000000;1.852094
4549.000000;1.851041
4548.000000;1.849753
4547.000000;1.848910
4546.000000;1.848735
4545.000000;1.848915
4544.000000;1.849029
4543.000000;1.848798
4542.000000;1.848058
4541.000000;1.846842
4540.000000;1.845515
4539.000000;1.844545
4538.000000;1.844066
4537.000000;1.843863
4536.000000;1.843830
4535.000000;1.844113
4534.000000;1.844619
4533.000000;1.844691
4532.000000;1.843719
4531.000000;1.842028
4530.000000;1.840749
4529.000000;1.840650
4528.000000;1.841383
4527.000000;1.842032
4526.000000;1.842147
4525.000000;1.841945
4524.000000;1.841679
4523.000000;1.841263
4522.000000;1.840568
4521.000000;1.839696
4520.000000;1.838807
4519.000000;1.837996
4518.000000;1.837478
4517.000000;1.837546
4516.000000;1.838058
4515.000000;1.838262
4514.000000;1.837553
4513.000000;1.836304
4512.000000;1.835522
4511.000000;1.835710
4510.000000;1.836385
4509.000000;1.836771
4508.000000;1.836660
4507.000000;1.836464
4506.000000;1.836620
4505.000000;1.837099
4504.000000;1.837420
4503.000000;1.837135
4502.000000;1.836383
4501.000000;1.835872
4500.000000;1.836106
4499.000000;1.836732
4498.000000;1.836933
4497.000000;1.836449
4496.000000;1.835834
4495.000000;1.835636
4494.000000;1.835742
4493.000000;1.835736
4492.000000;1.835568
4491.000000;1.835521
4490.000000;1.835707
4489.000000;1.835937
4488.000000;1.836063
4487.000000;1.836140
4486.000000;1.836262
4485.000000;1.836459
4484.000000;1.836779
4483.000000;1.837303
4482.000000;1.838001
4481.000000;1.838703
4480.000000;1.839237
4479.000000;1.839561
4478.000000;1.839713
4477.000000;1.839746
4476.000000;1.839734
4475.000000;1.839774
4474.000000;1.839914
4473.000000;1.840076
4472.000000;1.840082
4471.000000;1.839826
4470.000000;1.839503
4469.000000;1.839540
4468.000000;1.840210
4467.000000;1.841319
4466.000000;1.842417
4465.000000;1.843278
4464.000000;1.844037
4463.000000;1.844909
4462.000000;1.845942
4461.000000;1.847010
4460.000000;1.847916
4459.000000;1.848513
4458.000000;1.848862
4457.000000;1.849257
4456.000000;1.849951
4455.000000;1.850864
4454.000000;1.851743
4453.000000;1.852590
4452.000000;1.853670
4451.000000;1.855079
4450.000000;1.856561
4449.000000;1.857817
4448.000000;1.858773
4447.000000;1.859528
4446.000000;1.860293
4445.000000;1.861418
4444.000000;1.863181
4443.000000;1.865401
4442.000000;1.867519
4441.000000;1.869226
4440.000000;1.870764
4439.000000;1.872436
4438.000000;1.874081
4437.000000;1.875277
4436.000000;1.875888
4435.000000;1.876195
4434.000000;1.876665
4433.000000;1.877719
4432.000000;1.879509
4431.000000;1.881663
4430.000000;1.883453
4429.000000;1.884462
4428.000000;1.885027
4427.000000;1.885899
4426.000000;1.887576
4425.000000;1.890053
4424.000000;1.892933
4423.000000;1.895693
4422.000000;1.898167
4421.000000;1.900929
4420.000000;1.904769
4419.000000;1.909502
4418.000000;1.913685
4417.000000;1.916047
4416.000000;1.916976
4415.000000;1.918043
4414.000000;1.920203
4413.000000;1.922999
4412.000000;1.925375
4411.000000;1.926750
4410.000000;1.927293
4409.000000;1.927656
4408.000000;1.928598
4407.000000;1.930487
4406.000000;1.932950
4405.000000;1.935193
4404.000000;1.936799
4403.000000;1.938027
4402.000000;1.939354
4401.000000;1.941060
4400.000000;1.943351
4399.000000;1.946448
4398.000000;1.950217
4397.000000;1.953896
4396.000000;1.956573
4395.000000;1.958112
4394.000000;1.959450
4393.000000;1.961771
4392.000000;1.965344
4391.000000;1.969274
4390.000000;1.972426
4389.000000;1.974495
4388.000000;1.976062
4387.000000;1.977869
4386.000000;1.980382
4385.000000;1.983894
4384.000000;1.988439
4383.000000;1.993387
4382.000000;1.997606
4381.000000;2.000394
4380.000000;2.002082
4379.000000;2.003666
4378.000000;2.006056
4377.000000;2.009456
4376.000000;2.012868
4375.000000;2.014373
4374.000000;2.012963
4373.000000;2.010362
4372.000000;2.009925
4371.000000;2.013217
4370.000000;2.018394
4369.000000;2.022544
4368.000000;2.025012
4367.000000;2.027399
4366.000000;2.030849
4365.000000;2.034696
4364.000000;2.037609
4363.000000;2.038906
4362.000000;2.038724
4361.000000;2.037880
4360.000000;2.037631
4359.000000;2.038733
4358.000000;2.040676
4357.000000;2.042426
4356.000000;2.043840
4355.000000;2.045723
4354.000000;2.048616
4353.000000;2.052275
4352.000000;2.056244
4351.000000;2.060150
4350.000000;2.063525
4349.000000;2.066197
4348.000000;2.068868
4347.000000;2.072457
4346.000000;2.076923
4345.000000;2.081430
4344.000000;2.085280
4343.000000;2.087757
4342.000000;2.087652
4341.000000;2.084600
4340.000000;2.080806
4339.000000;2.079603
4338.000000;2.082006
4337.000000;2.085991
4336.000000;2.089388
4335.000000;2.092069
4334.000000;2.094658
4333.000000;2.096732
4332.000000;2.097587
4331.000000;2.097716
4330.000000;2.098285
4329.000000;2.099909
4328.000000;2.102760
4327.000000;2.106979
4326.000000;2.111942
4325.000000;2.115790
4324.000000;2.116904
4323.000000;2.115518
4322.000000;2.113220
4321.000000;2.111735
4320.000000;2.112804
4319.000000;2.117724
4318.000000;2.125549
4317.000000;2.132593
4316.000000;2.135459
4315.000000;2.134521
4314.000000;2.132869
4313.000000;2.132154
4312.000000;2.131330
4311.000000;2.129361
4310.000000;2.127254
4309.000000;2.126899
4308.000000;2.129122
4307.000000;2.133365
4306.000000;2.138524
4305.000000;2.143652
4304.000000;2.148275
4303.000000;2.152249
4302.000000;2.155274
4301.000000;2.156884
4300.000000;2.157259
4299.000000;2.157578
4298.000000;2.159055
4297.000000;2.162042
4296.000000;2.166302
4295.000000;2.171389
4294.000000;2.176275
4293.000000;2.179506
4292.000000;2.180760
4291.000000;2.181705
4290.000000;2.184231
4289.000000;2.188410
4288.000000;2.192949
4287.000000;2.196677
4286.000000;2.198498
4285.000000;2.197008
4284.000000;2.192290
4283.000000;2.187548
4282.000000;2.186795
4281.000000;2.191177
4280.000000;2.198894
4279.000000;2.208161
4278.000000;2.218366
4277.000000;2.228076
4276.000000;2.234367
4275.000000;2.235855
4274.000000;2.234879
4273.000000;2.234991
4272.000000;2.237584
4271.000000;2.242091
4270.000000;2.247842
4269.000000;2.253804
4268.000000;2.257856
4267.000000;2.258798
4266.000000;2.257865
4265.000000;2.256903
4264.000000;2.256965
4263.000000;2.259050
4262.000000;2.264488
4261.000000;2.273138
4260.000000;2.281902
4259.000000;2.287570
4258.000000;2.290456
4257.000000;2.292845
4256.000000;2.295171
4255.000000;2.295859
4254.000000;2.294643
4253.000000;2.293958
4252.000000;2.296407
4251.000000;2.302579
4250.000000;2.311820
4249.000000;2.322933
4248.000000;2.332384
4247.000000;2.334640
4246.000000;2.327191
4245.000000;2.315352
4244.000000;2.308400
4243.000000;2.311326
4242.000000;2.321942
4241.000000;2.334513
4240.000000;2.344915
4239.000000;2.352652
4238.000000;2.359604
4237.000000;2.367960
4236.000000;2.378524
4235.000000;2.389982
4234.000000;2.400071
4233.000000;2.408206
4232.000000;2.415921
4231.000000;2.423948
4230.000000;2.431090
4229.000000;2.436899
4228.000000;2.443053
4227.000000;2.449439
4226.000000;2.450347
4225.000000;2.438434
4224.000000;2.414862
4223.000000;2.391501
4222.000000;2.380395
4221.000000;2.386011
4220.000000;2.405512
4219.000000;2.431082
4218.000000;2.451772
4217.000000;2.459651
4216.000000;2.458596
4215.000000;2.459911
4214.000000;2.468613
4213.000000;2.478047
4212.000000;2.478740
4211.000000;2.471389
4210.000000;2.466919
4209.000000;2.475134
4208.000000;2.493597
4207.000000;2.507648
4206.000000;2.506061
4205.000000;2.492379
4204.000000;2.476793
4203.000000;2.466590
4202.000000;2.465035
4201.000000;2.472199
4200.000000;2.484395
4199.000000;2.495675
4198.000000;2.503845
4197.000000;2.512841
4196.000000;2.523356
4195.000000;2.524556
4194.000000;2.505980
4193.000000;2.476338
4192.000000;2.454962
4191.000000;2.450020
4190.000000;2.455115
4189.000000;2.461323
4188.000000;2.466123
4187.000000;2.472456
4186.000000;2.484057
4185.000000;2.502214
4184.000000;2.527714
4183.000000;2.556684
4182.000000;2.572832
4181.000000;2.564394
4180.000000;2.542001
4179.000000;2.522042
4178.000000;2.507385
4177.000000;2.492999
4176.000000;2.485025
4175.000000;2.501142
4174.000000;2.550377
4173.000000;2.615977
4172.000000;2.655807
4171.000000;2.644568
4170.000000;2.605710
4169.000000;2.567850
4168.000000;2.542434
4167.000000;2.527073
4166.000000;2.513572
4165.000000;2.505371
4164.000000;2.511746
4163.000000;2.526276
4162.000000;2.528023
4161.000000;2.508771
4160.000000;2.487629
4159.000000;2.487449
4158.000000;2.512711
4157.000000;2.553413
4156.000000;2.601284
4155.000000;2.652432
4154.000000;2.692281
4153.000000;2.698337
4152.000000;2.676218
4151.000000;2.658986
4150.000000;2.661256
4149.000000;2.668964
4148.000000;2.666599
4147.000000;2.668702
4146.000000;2.701314
4145.000000;2.747323
4144.000000;2.754001
4143.000000;2.738419
4142.000000;2.745835
4141.000000;2.753949
4140.000000;2.714024
4139.000000;2.644531
4138.000000;2.584810
4137.000000;2.544549
4136.000000;2.520889
4135.000000;2.510096
4134.000000;2.506833
4133.000000;2.512184
4132.000000;2.538229
4131.000000;2.591674
4130.000000;2.647537
4129.000000;2.657216
4128.000000;2.622182
4127.000000;2.588849
4126.000000;2.583007
4125.000000;2.599360
4124.000000;2.615707
4123.000000;2.620397
4122.000000;2.621091
4121.000000;2.617309
4120.000000;2.595119
4119.000000;2.562104
4118.000000;2.535943
4117.000000;2.514508
4116.000000;2.495615
4115.000000;2.486938
4114.000000;2.493424
4113.000000;2.507838
4112.000000;2.508134
4111.000000;2.484594
4110.000000;2.456065
4109.000000;2.445228
4108.000000;2.464433
4107.000000;2.520439
4106.000000;2.611384
4105.000000;2.695633
4104.000000;2.689817
4103.000000;2.596961
4102.000000;2.514574
4101.000000;2.493882
4100.000000;2.520701
4099.000000;2.548729
4098.000000;2.544478
4097.000000;2.526286
4096.000000;2.529370
4095.000000;2.564245
4094.000000;2.616803
4093.000000;2.658104
4092.000000;2.665783
4091.000000;2.636290
4090.000000;2.578809
4089.000000;2.535104
4088.000000;2.532705
4087.000000;2.559187
4086.000000;2.576654
4085.000000;2.563034
4084.000000;2.527117
4083.000000;2.483901
4082.000000;2.445344
4081.000000;2.417663
4080.000000;2.416735
4079.000000;2.463850
4078.000000;2.559391
4077.000000;2.648411
4076.000000;2.629095
4075.000000;2.524910
4074.000000;2.433234
4073.000000;2.386189
4072.000000;2.387406
4071.000000;2.431353
4070.000000;2.496626
4069.000000;2.539917
4068.000000;2.523095
4067.000000;2.494119
4066.000000;2.517248
4065.000000;2.576903
4064.000000;2.590073
4063.000000;2.519092
4062.000000;2.426142
4061.000000;2.367595
4060.000000;2.345769
4059.000000;2.343915
4058.000000;2.367440
4057.000000;2.443780
4056.000000;2.595327
4055.000000;2.815308
4054.000000;3.037148
4053.000000;3.111026
4052.000000;2.945362
4051.000000;2.756436
4050.000000;2.636989
4049.000000;2.551007
4048.000000;2.480478
4047.000000;2.439420
4046.000000;2.438855
4045.000000;2.472687
4044.000000;2.530588
4043.000000;2.606561
4042.000000;2.680589
4041.000000;2.717124
4040.000000;2.673232
4039.000000;2.571093
4038.000000;2.478157
4037.000000;2.407035
4036.000000;2.360177
4035.000000;2.348628
4034.000000;2.379101
4033.000000;2.443110
4032.000000;2.520491
4031.000000;2.611928
4030.000000;2.707187
4029.000000;2.745187
4028.000000;2.726775
4027.000000;2.736198
4026.000000;2.783306
4025.000000;2.783510
4024.000000;2.768490
4023.000000;2.894538
4022.000000;3.228748
4021.000000;3.090841
4020.000000;2.870454
4019.000000;2.780489
4018.000000;2.659344
4017.000000;2.528087
4016.000000;2.406760
4015.000000;2.322419
4014.000000;2.282204
4013.000000;2.277929
4012.000000;2.296648
4011.000000;2.337862
4010.000000;2.394679
4009.000000;2.426079
4008.000000;2.395405
4007.000000;2.334119
4006.000000;2.308930
4005.000000;2.356646
4004.000000;2.463921
4003.000000;2.547852
4002.000000;2.562452
4001.000000;2.555478
4000.000000;2.488979
3999.000000;2.404033
3998.000000;2.384304
3997.000000;2.437740
3996.000000;2.514128
3995.000000;2.538238
3994.000000;2.543464
3993.000000;2.604786
3992.000000;2.813447
3991.000000;2.876567
3990.000000;2.674175
3989.000000;2.604161
3988.000000;2.642160
3987.000000;2.681750
3986.000000;2.689438
3985.000000;2.723948
3984.000000;2.801109
3983.000000;2.884836
3982.000000;2.902626
3981.000000;2.801064
3980.000000;2.651363
3979.000000;2.554979
3978.000000;2.556445
3977.000000;2.658107
3976.000000;2.947732
3975.000000;3.544592
3974.000000;3.016173
3973.000000;2.765979
3972.000000;2.690621
3971.000000;2.744271
3970.000000;2.825477
3969.000000;3.189470
3968.000000;3.271365
3967.000000;2.705631
3966.000000;2.530111
3965.000000;2.488598
3964.000000;2.519662
3963.000000;2.580706
3962.000000;2.672273
3961.000000;2.786741
3960.000000;2.857928
3959.000000;2.795788
3958.000000;2.696408
3957.000000;2.662163
3956.000000;2.689165
3955.000000;2.724318
3954.000000;2.760279
3953.000000;2.836525
3952.000000;2.926056
3951.000000;2.940923
3950.000000;2.890995
3949.000000;2.888220
3948.000000;2.935125
3947.000000;2.855742
3946.000000;2.775873
3945.000000;2.856905
3944.000000;3.063650
3943.000000;3.236778
3942.000000;3.203960
3941.000000;3.028229
3940.000000;2.924848
3939.000000;2.980211
3938.000000;3.027143
3937.000000;3.014952
3936.000000;3.171786
3935.000000;3.608820
3934.000000;3.190393
3933.000000;3.059062
3932.000000;3.222029
3931.000000;3.520563
3930.000000;3.231731
3929.000000;3.098577
3928.000000;3.461196
3927.000000;3.209119
3926.000000;2.842712
3925.000000;2.694034
3924.000000;2.596887
3923.000000;2.557113
3922.000000;2.604538
3921.000000;2.824525
3920.000000;3.160318
3919.000000;2.915532
3918.000000;2.790369
3917.000000;2.752294
3916.000000;2.727975
3915.000000;2.760686
3914.000000;2.840758
3913.000000;2.902901
3912.000000;2.955119
3911.000000;3.122651
3910.000000;3.693776
3909.000000;3.704407
3908.000000;3.303040
3907.000000;2.831353
3906.000000;2.583148
3905.000000;2.498844
3904.000000;2.527194
3903.000000;2.661600
3902.000000;2.571594
3901.000000;2.521774
3900.000000;2.659183
3899.000000;3.077689
3898.000000;2.965581
3897.000000;2.779584
3896.000000;2.877083
3895.000000;3.139656
3894.000000;3.312290
3893.000000;3.206335
3892.000000;3.098605
3891.000000;3.229147
3890.000000;3.449730
3889.000000;2.823934
3888.000000;2.729724
3887.000000;2.815457
3886.000000;2.929579
3885.000000;2.917557
3884.000000;2.745152
3883.000000;2.677523
3882.000000;2.709044
3881.000000;2.714189
3880.000000;2.689780
3879.000000;2.785169
3878.000000;3.177795
3877.000000;3.272626
3876.000000;3.386160
3875.000000;3.663532
3874.000000;3.267963
3873.000000;3.014100
3872.000000;2.937083
3871.000000;2.895080
3870.000000;2.783019
3869.000000;2.684684
3868.000000;2.737409
3867.000000;2.878774
3866.000000;2.951984
3865.000000;2.922755
3864.000000;2.867298
3863.000000;2.877822
3862.000000;2.957488
3861.000000;2.974447
3860.000000;2.925050
3859.000000;2.828964
3858.000000;2.673970
3857.000000;2.575657
3856.000000;2.652652
3855.000000;2.894516
3854.000000;3.162268
3853.000000;3.078697
3852.000000;2.791816
3851.000000;2.787685
3850.000000;2.986000
3849.000000;3.210151
3848.000000;3.424644
3847.000000;3.906731
3846.000000;3.790117
3845.000000;3.896992
3844.000000;3.764268
3843.000000;3.369725
3842.000000;3.306256
3841.000000;3.351955
3840.000000;3.375883
3839.000000;3.353146
3838.000000;3.301672
3837.000000;3.277793
3836.000000;3.310477
3835.000000;3.357483
3834.000000;3.345405
3833.000000;3.204525
3832.000000;3.045797
3831.000000;2.991019
3830.000000;3.133478
3829.000000;3.303561
3828.000000;3.294148
3827.000000;3.302318
3826.000000;3.332032
3825.000000;3.595292
3824.000000;3.686375
3823.000000;3.401398
3822.000000;3.428853
3821.000000;3.589075
3820.000000;3.862635
3819.000000;3.441068
3818.000000;3.429622
3817.000000;3.395720
3816.000000;3.156790
3815.000000;2.874314
3814.000000;2.777570
3813.000000;2.877043
3812.000000;3.025418
3811.000000;3.074583
3810.000000;3.081250
3809.000000;3.105377
3808.000000;3.162623
3807.000000;3.281561
3806.000000;3.531993
3805.000000;3.370232
3804.000000;3.272296
3803.000000;3.368052
3802.000000;3.387208
3801.000000;3.301383
3800.000000;3.311284
3799.000000;3.476544
3798.000000;3.636711
3797.000000;3.629243
3796.000000;3.316989
3795.000000;3.056687
3794.000000;3.055669
3793.000000;3.333313
3792.000000;3.758686
3791.000000;3.232197
3790.000000;2.991664
3789.000000;2.965688
3788.000000;3.123701
3787.000000;3.564528
3786.000000;4.385460
3785.000000;3.686425
3784.000000;3.427626
3783.000000;3.197494
3782.000000;3.179850
3781.000000;3.284411
3780.000000;3.343138
3779.000000;3.278904
3778.000000;3.233264
3777.000000;3.122528
3776.000000;2.981891
3775.000000;2.977294
3774.000000;3.107937
3773.000000;2.966118
3772.000000;2.812656
3771.000000;2.804085
3770.000000;2.883139
3769.000000;3.267425
3768.000000;3.254989
3767.000000;2.981365
3766.000000;2.944717
3765.000000;3.020145
3764.000000;3.299985
3763.000000;3.158140
3762.000000;2.996271
3761.000000;3.081207
3760.000000;3.279346
3759.000000;3.469715
3758.000000;3.538549
3757.000000;3.434155
3756.000000;3.267108
3755.000000;3.381552
3754.000000;3.715640
3753.000000;3.599399
3752.000000;3.379067
3751.000000;3.208539
3750.000000;3.045162
3749.000000;3.051690
3748.000000;3.193541
3747.000000;2.878475
3746.000000;2.728427
3745.000000;2.639761
3744.000000;2.521505
3743.000000;2.561810
3742.000000;2.832579
3741.000000;3.294543
3740.000000;3.539236
3739.000000;3.315247
3738.000000;3.292676
3737.000000;3.405079
3736.000000;3.419575
3735.000000;3.324329
3734.000000;3.367587
3733.000000;3.630888
3732.000000;3.523592
3731.000000;3.111309
3730.000000;3.000141
3729.000000;3.133273
3728.000000;3.584161
3727.000000;3.402484
3726.000000;3.104284
3725.000000;3.158035
3724.000000;3.437003
3723.000000;3.710490
3722.000000;3.436891
3721.000000;3.174367
3720.000000;3.074327
3719.000000;3.112177
3718.000000;3.196577
3717.000000;3.186733
3716.000000;3.141586
3715.000000;3.167695
3714.000000;3.274913
3713.000000;3.398483
3712.000000;3.387908
3711.000000;3.251038
3710.000000;3.159733
3709.000000;3.370188
3708.000000;4.222743
3707.000000;3.424853
3706.000000;3.440178
3705.000000;3.196789
3704.000000;2.922670
3703.000000;2.816972
3702.000000;2.773985
3701.000000;2.744335
3700.000000;2.719625
3699.000000;2.747711
3698.000000;2.839881
3697.000000;2.952495
3696.000000;3.075591
3695.000000;3.203695
3694.000000;3.433917
3693.000000;3.508433
3692.000000;3.315105
3691.000000;3.309913
3690.000000;3.407772
3689.000000;3.654813
3688.000000;3.672325
3687.000000;3.148226
3686.000000;3.068779
3685.000000;3.336149
3684.000000;3.726932
3683.000000;3.102700
3682.000000;2.933369
3681.000000;2.894541
3680.000000;2.905036
3679.000000;2.978980
3678.000000;3.191799
3677.000000;3.525293
3676.000000;3.546796
3675.000000;3.043318
3674.000000;2.679963
3673.000000;2.636365
3672.000000;2.839436
3671.000000;3.154447
3670.000000;3.635502
3669.000000;3.173482
3668.000000;2.926917
3667.000000;3.223139
3666.000000;3.603622
3665.000000;3.315735
3664.000000;3.162050
3663.000000;3.149183
3662.000000;3.121911
3661.000000;3.018013
3660.000000;2.959057
3659.000000;3.119884
3658.000000;4.234073
3657.000000;3.079749
3656.000000;2.845090
3655.000000;2.889775
3654.000000;3.396327
3653.000000;3.487778
3652.000000;3.537057
3651.000000;4.096458
3650.000000;4.179949
3649.000000;3.669426
3648.000000;3.189593
3647.000000;2.923824
3646.000000;2.829915
3645.000000;2.843527
3644.000000;2.910589
3643.000000;3.001716
3642.000000;3.103103
3641.000000;3.245165
3640.000000;3.315225
3639.000000;3.215507
3638.000000;3.167585
3637.000000;3.253247
3636.000000;3.425206
3635.000000;3.501382
3634.000000;3.366670
3633.000000;3.187362
3632.000000;3.145754
3631.000000;3.382657
3630.000000;3.658908
3629.000000;3.287058
3628.000000;3.056881
3627.000000;3.147236
3626.000000;3.435225
3625.000000;3.254398
3624.000000;3.075815
3623.000000;3.096003
3622.000000;3.242754
3621.000000;3.273959
3620.000000;3.279850
3619.000000;3.381613
3618.000000;3.324434
3617.000000;3.212217
3616.000000;3.248016
3615.000000;3.361084
3614.000000;3.214924
3613.000000;2.880191
3612.000000;2.655384
3611.000000;2.590487
3610.000000;2.653508
3609.000000;2.817931
3608.000000;3.108404
3607.000000;3.359555
3606.000000;3.202106
3605.000000;3.183095
3604.000000;3.317732
3603.000000;3.339529
3602.000000;3.248993
3601.000000;3.175412
3600.000000;3.086819
3599.000000;2.981241
3598.000000;2.895567
3597.000000;2.858645
3596.000000;2.876038
3595.000000;2.934223
3594.000000;2.984482
3593.000000;2.973915
3592.000000;3.076507
3591.000000;3.342503
3590.000000;3.243768
3589.000000;3.108993
3588.000000;2.933548
3587.000000;2.716099
3586.000000;2.616821
3585.000000;2.697749
3584.000000;2.953059
3583.000000;3.280834
3582.000000;3.490700
3581.000000;3.750703
3580.000000;3.744438
3579.000000;3.407702
3578.000000;3.310664
3577.000000;3.417403
3576.000000;3.808894
3575.000000;4.360384
3574.000000;3.546346
3573.000000;3.209418
3572.000000;3.015042
3571.000000;2.958651
3570.000000;3.018010
3569.000000;3.155835
3568.000000;3.312379
3567.000000;3.371699
3566.000000;3.261909
3565.000000;3.152098
3564.000000;3.172890
3563.000000;3.213668
3562.000000;3.156632
3561.000000;3.228544
3560.000000;3.457652
3559.000000;3.392420
3558.000000;3.338034
3557.000000;3.048697
3556.000000;2.811695
3555.000000;2.746210
3554.000000;2.794049
3553.000000;2.931770
3552.000000;3.186007
3551.000000;3.370466
3550.000000;3.195052
3549.000000;3.089592
3548.000000;2.983826
3547.000000;2.874486
3546.000000;2.810761
3545.000000;2.838749
3544.000000;2.991371
3543.000000;3.039148
3542.000000;2.882172
3541.000000;2.848662
3540.000000;2.859898
3539.000000;2.842675
3538.000000;2.875065
3537.000000;2.990795
3536.000000;3.096378
3535.000000;3.175124
3534.000000;3.274005
3533.000000;3.303336
3532.000000;3.410403
3531.000000;3.500781
3530.000000;3.388420
3529.000000;3.297736
3528.000000;3.237347
3527.000000;3.182043
3526.000000;3.153618
3525.000000;3.204247
3524.000000;3.366991
3523.000000;3.495625
3522.000000;3.249181
3521.000000;3.024111
3520.000000;2.990625
3519.000000;3.086376
3518.000000;3.024216
3517.000000;2.873933
3516.000000;2.837921
3515.000000;2.857372
3514.000000;2.807756
3513.000000;2.723420
3512.000000;2.736065
3511.000000;2.882426
3510.000000;3.133291
3509.000000;3.256034
3508.000000;3.350027
3507.000000;3.853781
3506.000000;3.373283
3505.000000;3.078087
3504.000000;3.037389
3503.000000;3.148756
3502.000000;3.457833
3501.000000;3.718251
3500.000000;3.275050
3499.000000;2.858012
3498.000000;2.704848
3497.000000;2.717401
3496.000000;2.850076
3495.000000;3.110400
3494.000000;3.523388
3493.000000;3.371334
3492.000000;3.086176
3491.000000;3.000275
3490.000000;3.016957
3489.000000;3.132518
3488.000000;3.483442
3487.000000;3.366052
3486.000000;3.011334
3485.000000;2.977856
3484.000000;3.070792
3483.000000;3.333803
3482.000000;3.755772
3481.000000;3.402376
3480.000000;3.176711
3479.000000;3.247646
3478.000000;3.452819
3477.000000;3.421157
3476.000000;3.341230
3475.000000;3.427775
3474.000000;3.359192
3473.000000;3.152827
3472.000000;2.978675
3471.000000;2.817635
3470.000000;2.757839
3469.000000;2.835867
3468.000000;3.044658
3467.000000;3.283849
3466.000000;3.143554
3465.000000;2.943964
3464.000000;2.859850
3463.000000;2.823599
3462.000000;2.812040
3461.000000;2.836956
3460.000000;2.918865
3459.000000;3.084657
3458.000000;3.355937
3457.000000;3.403526
3456.000000;3.147572
3455.000000;3.035439
3454.000000;3.134125
3453.000000;3.450137
3452.000000;3.266473
3451.000000;2.915892
3450.000000;2.757237
3449.000000;2.756100
3448.000000;2.894936
3447.000000;3.163154
3446.000000;3.437936
3445.000000;3.316548
3444.000000;3.360677
3443.000000;3.859764
3442.000000;3.560750
3441.000000;3.332542
3440.000000;3.186680
3439.000000;3.057494
3438.000000;3.027263
3437.000000;3.178064
3436.000000;3.585965
3435.000000;3.185145
3434.000000;2.797400
3433.000000;2.650881
3432.000000;2.645745
3431.000000;2.763071
3430.000000;2.940013
3429.000000;3.139266
3428.000000;3.105684
3427.000000;2.952763
3426.000000;2.970175
3425.000000;3.155680
3424.000000;3.271746
3423.000000;3.381257
3422.000000;3.627666
3421.000000;3.147043
3420.000000;2.870134
3419.000000;2.717906
3418.000000;2.640717
3417.000000;2.672933
3416.000000;2.873238
3415.000000;3.427587
3414.000000;3.383618
3413.000000;3.181908
3412.000000;3.376065
3411.000000;3.529607
3410.000000;3.305665
3409.000000;3.280590
3408.000000;3.430452
3407.000000;3.810337
3406.000000;3.724826
3405.000000;3.335697
3404.000000;3.210533
3403.000000;3.160753
3402.000000;3.185284
3401.000000;3.177518
3400.000000;3.058554
3399.000000;2.997090
3398.000000;3.078300
3397.000000;3.717550
3396.000000;3.437038
3395.000000;3.061096
3394.000000;3.054735
3393.000000;3.204862
3392.000000;3.243461
3391.000000;3.123951
3390.000000;3.093499
3389.000000;3.000643
3388.000000;2.898673
3387.000000;2.888714
3386.000000;2.896080
3385.000000;2.849999
3384.000000;2.815018
3383.000000;2.842204
3382.000000;3.071296
3381.000000;3.363341
3380.000000;3.027615
3379.000000;2.897786
3378.000000;2.927115
3377.000000;3.075635
3376.000000;3.233244
3375.000000;3.081877
3374.000000;2.977228
3373.000000;3.072120
3372.000000;3.207580
3371.000000;3.163677
3370.000000;3.043261
3369.000000;2.995629
3368.000000;3.026524
3367.000000;3.102598
3366.000000;3.195695
3365.000000;3.040099
3364.000000;2.875571
3363.000000;2.865331
3362.000000;2.998556
3361.000000;3.283320
3360.000000;3.589137
3359.000000;3.451518
3358.000000;3.494174
3357.000000;3.717396
3356.000000;3.474832
3355.000000;3.501388
3354.000000;3.784190
3353.000000;3.630045
3352.000000;3.555528
3351.000000;3.471877
3350.000000;3.353979
3349.000000;3.516157
3348.000000;3.667264
3347.000000;3.556796
3346.000000;3.400437
3345.000000;3.205538
3344.000000;3.049813
3343.000000;2.914560
3342.000000;2.832584
3341.000000;2.842471
3340.000000;2.968354
3339.000000;3.191512
3338.000000;3.278290
3337.000000;3.183809
3336.000000;3.187948
3335.000000;3.388247
3334.000000;3.481282
3333.000000;3.322930
3332.000000;3.388989
3331.000000;3.518455
3330.000000;3.365146
3329.000000;3.217286
3328.000000;3.114474
3327.000000;2.973721
3326.000000;2.825503
3325.000000;2.754798
3324.000000;2.797041
3323.000000;2.918958
3322.000000;2.999896
3321.000000;3.022668
3320.000000;3.085526
3319.000000;3.193349
3318.000000;3.161951
3317.000000;2.992448
3316.000000;2.895807
3315.000000;2.850407
3314.000000;2.821277
3313.000000;2.866218
3312.000000;3.086064
3311.000000;3.663716
3310.000000;3.509477
3309.000000;3.278056
3308.000000;3.129720
3307.000000;2.997818
3306.000000;2.962230
3305.000000;3.089966
3304.000000;3.466556
3303.000000;3.347499
3302.000000;2.941937
3301.000000;2.761268
3300.000000;2.719548
3299.000000;2.819975
3298.000000;3.336598
3297.000000;3.399908
3296.000000;2.892166
3295.000000;2.851893
3294.000000;2.895360
3293.000000;3.169344
3292.000000;3.524332
3291.000000;3.037731
3290.000000;2.843379
3289.000000;2.894127
3288.000000;3.137878
3287.000000;3.740810
3286.000000;4.584492
3285.000000;3.866057
3284.000000;3.321734
3283.000000;3.111338
3282.000000;3.084024
3281.000000;3.091952
3280.000000;2.999973
3279.000000;2.895429
3278.000000;2.867577
3277.000000;2.916035
3276.000000;2.982553
3275.000000;2.935513
3274.000000;2.816575
3273.000000;2.759539
3272.000000;2.803091
3271.000000;3.048267
3270.000000;3.371588
3269.000000;3.135600
3268.000000;3.016726
3267.000000;3.079873
3266.000000;3.184258
3265.000000;3.192716
3264.000000;3.140737
3263.000000;3.209036
3262.000000;3.350256
3261.000000;3.118073
3260.000000;2.883092
3259.000000;2.776471
3258.000000;2.741296
3257.000000;2.745052
3256.000000;2.763863
3255.000000;2.803294
3254.000000;2.888286
3253.000000;2.989611
3252.000000;2.996773
3251.000000;2.970942
3250.000000;3.103544
3249.000000;3.563080
3248.000000;3.453447
3247.000000;3.174746
3246.000000;3.194002
3245.000000;3.176020
3244.000000;3.139152
3243.000000;3.095854
3242.000000;3.013309
3241.000000;2.958846
3240.000000;2.958642
3239.000000;2.940030
3238.000000;2.870758
3237.000000;2.857356
3236.000000;2.899945
3235.000000;2.966714
3234.000000;3.057870
3233.000000;3.260442
3232.000000;3.783047
3231.000000;3.077367
3230.000000;2.760141
3229.000000;2.684906
3228.000000;2.743914
3227.000000;2.891260
3226.000000;3.079699
3225.000000;3.281565
3224.000000;3.170515
3223.000000;3.031263
3222.000000;3.074663
3221.000000;3.178818
3220.000000;3.274055
3219.000000;3.094792
3218.000000;2.820524
3217.000000;2.718618
3216.000000;2.715482
3215.000000;2.766746
3214.000000;2.869963
3213.000000;3.187783
3212.000000;3.455017
3211.000000;3.215725
3210.000000;3.243483
3209.000000;3.084377
3208.000000;2.863535
3207.000000;2.810107
3206.000000;2.879363
3205.000000;3.003072
3204.000000;3.063088
3203.000000;3.088921
3202.000000;3.213747
3201.000000;3.478057
3200.000000;3.719307
3199.000000;3.619514
3198.000000;3.345217
3197.000000;3.356173
3196.000000;3.734497
3195.000000;3.896473
3194.000000;3.598219
3193.000000;3.356247
3192.000000;3.196473
3191.000000;3.218440
3190.000000;3.375306
3189.000000;3.583792
3188.000000;3.975587
3187.000000;3.820417
3186.000000;3.327724
3185.000000;3.109565
3184.000000;3.009058
3183.000000;2.944645
3182.000000;2.832855
3181.000000;2.715279
3180.000000;2.695962
3179.000000;2.817888
3178.000000;3.118308
3177.000000;3.563519
3176.000000;3.714759
3175.000000;3.733945
3174.000000;3.569199
3173.000000;3.573323
3172.000000;3.833748
3171.000000;3.464099
3170.000000;3.145873
3169.000000;3.031801
3168.000000;3.047011
3167.000000;3.437370
3166.000000;3.671438
3165.000000;3.061990
3164.000000;2.986392
3163.000000;3.037843
3162.000000;3.165949
3161.000000;3.571710
3160.000000;3.805816
3159.000000;3.312670
3158.000000;3.154379
3157.000000;3.095246
3156.000000;3.009316
3155.000000;2.934388
3154.000000;2.959382
3153.000000;3.221244
3152.000000;3.276240
3151.000000;2.989151
3150.000000;2.890962
3149.000000;2.871125
3148.000000;2.874201
3147.000000;2.929626
3146.000000;3.161498
3145.000000;3.781724
3144.000000;3.433721
3143.000000;3.157231
3142.000000;2.961891
3141.000000;2.774723
3140.000000;2.668569
3139.000000;2.650448
3138.000000;2.736466
3137.000000;2.955337
3136.000000;3.264439
3135.000000;3.348484
3134.000000;3.393370
3133.000000;3.861789
3132.000000;3.847327
3131.000000;3.374572
3130.000000;3.170857
3129.000000;3.047994
3128.000000;3.022512
3127.000000;3.093225
3126.000000;3.210323
3125.000000;3.237592
3124.000000;3.115952
3123.000000;2.979007
3122.000000;2.924585
3121.000000;2.977518
3120.000000;3.205642
3119.000000;3.463227
3118.000000;3.243699
3117.000000;3.106703
3116.000000;3.001585
3115.000000;2.893113
3114.000000;2.832835
3113.000000;2.811308
3112.000000;2.814746
3111.000000;2.845712
3110.000000;2.938915
3109.000000;3.208924
3108.000000;3.427397
3107.000000;3.331431
3106.000000;3.430414
3105.000000;3.506142
3104.000000;3.407459
3103.000000;3.196890
3102.000000;3.094223
3101.000000;3.170384
3100.000000;3.251394
3099.000000;3.151269
3098.000000;3.048099
3097.000000;3.019944
3096.000000;3.003001
3095.000000;2.997820
3094.000000;3.073468
3093.000000;3.290462
3092.000000;3.615107
3091.000000;3.483467
3090.000000;3.203790
3089.000000;3.017919
3088.000000;2.885931
3087.000000;2.828841
3086.000000;2.869069
3085.000000;2.947724
3084.000000;2.943267
3083.000000;2.936913
3082.000000;3.008167
3081.000000;3.133977
3080.000000;3.338028
3079.000000;3.325093
3078.000000;3.065976
3077.000000;2.944532
3076.000000;2.946781
3075.000000;3.008705
3074.000000;3.103149
3073.000000;3.349419
3072.000000;3.566045
3071.000000;3.121713
3070.000000;2.846599
3069.000000;2.752070
3068.000000;2.799983
3067.000000;2.970920
3066.000000;3.226574
3065.000000;3.551006
3064.000000;3.514509
3063.000000;3.218051
3062.000000;3.039109
3061.000000;2.976974
3060.000000;2.993124
3059.000000;3.120576
3058.000000;3.305315
3057.000000;3.206980
3056.000000;3.094322
3055.000000;3.158753
3054.000000;3.398896
3053.000000;3.362515
3052.000000;3.071292
3051.000000;2.912323
3050.000000;2.818070
3049.000000;2.763902
3048.000000;2.766071
3047.000000;2.853229
3046.000000;3.113834
3045.000000;3.541535
3044.000000;3.443926
3043.000000;3.221601
3042.000000;3.289129
3041.000000;3.798254
3040.000000;3.375353
3039.000000;3.269210
3038.000000;3.305389
3037.000000;3.159837
3036.000000;3.221590
3035.000000;3.326900
3034.000000;3.164213
3033.000000;3.053539
3032.000000;3.073963
3031.000000;3.194197
3030.000000;3.304685
3029.000000;3.413737
3028.000000;3.409775
3027.000000;3.177590
3026.000000;3.037439
3025.000000;3.115717
3024.000000;3.427056
3023.000000;3.095978
3022.000000;2.831496
3021.000000;2.825328
3020.000000;2.898084
3019.000000;2.893858
3018.000000;2.811635
3017.000000;2.751047
3016.000000;2.685757
3015.000000;2.604460
3014.000000;2.567079
3013.000000;2.624000
3012.000000;2.802923
3011.000000;3.130617
3010.000000;3.405075
3009.000000;3.267743
3008.000000;3.076259
3007.000000;2.897451
3006.000000;2.857455
3005.000000;3.067919
3004.000000;3.494764
3003.000000;3.807752
3002.000000;3.304460
3001.000000;2.803534
3000.000000;2.619002
2999.000000;2.609592
2998.000000;2.741863
2997.000000;3.025198
2996.000000;3.415062
2995.000000;3.509455
2994.000000;3.214506
2993.000000;3.007674
2992.000000;2.943384
2991.000000;3.020343
2990.000000;3.247783
2989.000000;3.666999
2988.000000;4.203357
2987.000000;4.033552
2986.000000;3.716664
2985.000000;3.519111
2984.000000;3.287496
2983.000000;3.054445
2982.000000;2.909122
2981.000000;2.889985
2980.000000;2.967305
2979.000000;2.964716
2978.000000;2.852508
2977.000000;2.805147
2976.000000;2.859156
2975.000000;3.027977
2974.000000;3.432511
2973.000000;3.458297
2972.000000;3.017584
2971.000000;2.833529
2970.000000;2.827726
2969.000000;3.031178
2968.000000;3.595776
2967.000000;4.507018
2966.000000;3.949180
2965.000000;3.688893
2964.000000;3.240459
2963.000000;2.953475
2962.000000;2.872243
2961.000000;2.931251
2960.000000;3.030080
2959.000000;3.041753
2958.000000;3.033432
2957.000000;3.039553
2956.000000;3.039241
2955.000000;3.076938
2954.000000;3.166384
2953.000000;3.253859
2952.000000;3.296438
2951.000000;3.378239
2950.000000;3.584401
2949.000000;3.500871
2948.000000;3.239348
2947.000000;3.163559
2946.000000;3.186977
2945.000000;3.284924
2944.000000;3.607329
2943.000000;3.855832
2942.000000;3.333053
2941.000000;3.019636
2940.000000;2.863383
2939.000000;2.811616
2938.000000;2.839596
2937.000000;2.857312
2936.000000;2.823328
2935.000000;2.852330
2934.000000;2.987373
2933.000000;3.331895
2932.000000;3.665505
2931.000000;3.061287
2930.000000;2.801340
2929.000000;2.686354
2928.000000;2.658665
2927.000000;2.711512
2926.000000;2.817460
2925.000000;2.924196
2924.000000;2.979202
2923.000000;3.060894
2922.000000;3.213096
2921.000000;3.790818
2920.000000;3.801314
2919.000000;3.203745
2918.000000;3.156972
2917.000000;3.288846
2916.000000;3.612692
2915.000000;3.649567
2914.000000;3.587776
2913.000000;3.869854
2912.000000;3.183563
2911.000000;2.825753
2910.000000;2.686482
2909.000000;2.666552
2908.000000;2.757617
2907.000000;2.892910
2906.000000;2.970953
2905.000000;2.952978
2904.000000;2.910936
2903.000000;2.952688
2902.000000;3.128812
2901.000000;3.201389
2900.000000;2.993204
2899.000000;2.809169
2898.000000;2.684884
2897.000000;2.633062
2896.000000;2.648496
2895.000000;2.712944
2894.000000;2.783910
2893.000000;2.825212
2892.000000;2.861079
2891.000000;2.974550
2890.000000;3.359433
2889.000000;3.450633
2888.000000;3.191633
2887.000000;3.232815
2886.000000;3.260896
2885.000000;3.075375
2884.000000;2.856293
2883.000000;2.741083
2882.000000;2.735337
2881.000000;2.801957
2880.000000;2.893881
2879.000000;2.939349
2878.000000;2.913382
2877.000000;2.889357
2876.000000;2.957429
2875.000000;3.117270
2874.000000;3.372989
2873.000000;3.790215
2872.000000;3.380057
2871.000000;3.061681
2870.000000;3.101214
2869.000000;3.311202
2868.000000;3.224757
2867.000000;3.112542
2866.000000;3.137930
2865.000000;3.083387
2864.000000;3.005231
2863.000000;3.042696
2862.000000;3.166007
2861.000000;3.222196
2860.000000;3.202417
2859.000000;3.378148
2858.000000;3.795197
2857.000000;3.329523
2856.000000;3.114063
2855.000000;3.147224
2854.000000;3.218081
2853.000000;3.227796
2852.000000;3.160431
2851.000000;3.061311
2850.000000;2.975559
2849.000000;2.933486
2848.000000;2.909192
2847.000000;2.894719
2846.000000;2.936118
2845.000000;3.090656
2844.000000;3.410233
2843.000000;3.614745
2842.000000;3.280534
2841.000000;3.009168
2840.000000;2.862095
2839.000000;2.801189
2838.000000;2.824923
2837.000000;2.903170
2836.000000;3.130775
2835.000000;3.425874
2834.000000;3.034742
2833.000000;2.809625
2832.000000;2.818437
2831.000000;2.963007
2830.000000;3.310186
2829.000000;3.990842
2828.000000;3.560656
2827.000000;3.276667
2826.000000;3.189434
2825.000000;3.260542
2824.000000;3.568345
2823.000000;3.488427
2822.000000;3.248805
2821.000000;3.164745
2820.000000;3.157945
2819.000000;3.297238
2818.000000;3.269382
2817.000000;3.011530
2816.000000;2.929954
2815.000000;3.037148
2814.000000;3.252756
2813.000000;3.070732
2812.000000;2.783891
2811.000000;2.654030
2810.000000;2.631803
2809.000000;2.721449
2808.000000;2.921207
2807.000000;3.256427
2806.000000;3.882290
2805.000000;3.805722
2804.000000;3.456373
2803.000000;3.272526
2802.000000;3.101837
2801.000000;2.980137
2800.000000;2.912820
2799.000000;2.911359
2798.000000;2.961298
2797.000000;2.969548
2796.000000;2.913660
2795.000000;2.893805
2794.000000;3.040711
2793.000000;3.261525
2792.000000;3.326569
2791.000000;3.645158
2790.000000;3.366568
2789.000000;3.094385
2788.000000;3.099771
2787.000000;3.053813
2786.000000;3.018722
2785.000000;3.047235
2784.000000;3.089757
2783.000000;3.096356
2782.000000;3.024124
2781.000000;2.925602
2780.000000;2.871394
2779.000000;2.880467
2778.000000;2.953768
2777.000000;3.095648
2776.000000;3.164187
2775.000000;3.108023
2774.000000;3.116578
2773.000000;3.245376
2772.000000;3.358276
2771.000000;3.520717
2770.000000;3.652468
2769.000000;3.269684
2768.000000;3.112825
2767.000000;3.209952
2766.000000;3.390835
2765.000000;3.255131
2764.000000;3.073271
2763.000000;3.025473
2762.000000;3.139326
2761.000000;3.249630
2760.000000;3.134338
2759.000000;3.134816
2758.000000;3.253231
2757.000000;3.213963
2756.000000;3.048282
2755.000000;2.936910
2754.000000;2.902126
2753.000000;2.920342
2752.000000;2.969733
2751.000000;2.976563
2750.000000;3.030127
2749.000000;3.253208
2748.000000;3.173835
2747.000000;2.970110
2746.000000;2.967404
2745.000000;3.068867
2744.000000;3.117489
2743.000000;3.132419
2742.000000;3.216003
2741.000000;3.269078
2740.000000;3.164753
2739.000000;3.029188
2738.000000;3.003819
2737.000000;3.109090
2736.000000;3.606038
2735.000000;4.044500
2734.000000;3.423435
2733.000000;3.470101
2732.000000;3.470553
2731.000000;3.215784
2730.000000;3.146350
2729.000000;3.482346
2728.000000;3.340183
2727.000000;3.019812
2726.000000;3.124561
2725.000000;3.403102
2724.000000;3.192912
2723.000000;2.973123
2722.000000;2.906488
2721.000000;2.931226
2720.000000;2.973511
2719.000000;2.864167
2718.000000;2.729956
2717.000000;2.675182
2716.000000;2.706704
2715.000000;2.851426
2714.000000;3.205165
2713.000000;3.293509
2712.000000;2.950090
2711.000000;2.846175
2710.000000;2.915454
2709.000000;3.190546
2708.000000;3.183264
2707.000000;2.933789
2706.000000;2.929634
2705.000000;3.075596
2704.000000;3.388504
2703.000000;3.510385
2702.000000;3.270015
2701.000000;3.174087
2700.000000;3.185301
2699.000000;3.181865
2698.000000;3.251294
2697.000000;3.553929
2696.000000;3.520252
2695.000000;3.132649
2694.000000;3.030702
2693.000000;3.184428
2692.000000;3.021228
2691.000000;2.763455
2690.000000;2.696775
2689.000000;2.734180
2688.000000;2.810733
2687.000000;2.881866
2686.000000;2.921655
2685.000000;2.936212
2684.000000;2.982670
2683.000000;3.050502
2682.000000;3.016995
2681.000000;2.913392
2680.000000;2.843991
2679.000000;2.826712
2678.000000;2.826383
2677.000000;2.795188
2676.000000;2.747019
2675.000000;2.741807
2674.000000;2.813784
2673.000000;2.934231
2672.000000;3.023235
2671.000000;3.047569
2670.000000;3.017050
2669.000000;2.968710
2668.000000;2.961678
2667.000000;3.037374
2666.000000;3.120502
2665.000000;3.182590
2664.000000;3.168514
2663.000000;2.933971
2662.000000;2.822365
2661.000000;2.907983
2660.000000;3.321136
2659.000000;3.794075
2658.000000;3.200031
2657.000000;3.007926
2656.000000;2.867840
2655.000000;2.789563
2654.000000;2.836258
2653.000000;2.965209
2652.000000;2.949418
2651.000000;2.845930
2650.000000;2.878768
2649.000000;3.074065
2648.000000;3.166651
2647.000000;2.923176
2646.000000;2.789750
2645.000000;2.789911
2644.000000;2.860304
2643.000000;2.963927
2642.000000;3.076875
2641.000000;3.096386
2640.000000;2.941484
2639.000000;2.821648
2638.000000;2.800356
2637.000000;2.846275
2636.000000;2.921333
2635.000000;2.994935
2634.000000;3.039622
2633.000000;2.993528
2632.000000;2.925244
2631.000000;2.931089
2630.000000;2.968650
2629.000000;3.178710
2628.000000;3.428087
2627.000000;3.000581
2626.000000;2.798156
2625.000000;2.690783
2624.000000;2.627679
2623.000000;2.638280
2622.000000;2.788662
2621.000000;3.386944
2620.000000;3.089802
2619.000000;2.728439
2618.000000;2.702184
2617.000000;2.717198
2616.000000;2.756622
2615.000000;2.799696
2614.000000;2.874934
2613.000000;3.001794
2612.000000;3.046956
2611.000000;2.960517
2610.000000;2.891465
2609.000000;2.995499
2608.000000;3.420006
2607.000000;3.454816
2606.000000;3.116175
2605.000000;3.051623
2604.000000;3.060664
2603.000000;3.163827
2602.000000;3.203970
2601.000000;2.969287
2600.000000;2.798187
2599.000000;2.761392
2598.000000;2.867088
2597.000000;3.138060
2596.000000;3.473224
2595.000000;3.435506
2594.000000;3.436443
2593.000000;3.952488
2592.000000;3.553896
2591.000000;3.208608
2590.000000;3.170179
2589.000000;3.136140
2588.000000;3.073315
2587.000000;2.982293
2586.000000;2.848892
2585.000000;2.721260
2584.000000;2.660526
2583.000000;2.687390
2582.000000;2.814782
2581.000000;3.062220
2580.000000;3.470265
2579.000000;3.834175
2578.000000;3.581134
2577.000000;3.383202
2576.000000;3.287755
2575.000000;3.330848
2574.000000;3.373793
2573.000000;3.177664
2572.000000;3.007698
2571.000000;2.938214
2570.000000;2.952196
2569.000000;2.985851
2568.000000;2.935904
2567.000000;2.857730
2566.000000;2.859620
2565.000000;2.983006
2564.000000;3.115705
2563.000000;3.108558
2562.000000;3.090100
2561.000000;3.062192
2560.000000;2.976766
2559.000000;2.898547
2558.000000;2.877839
2557.000000;2.956374
2556.000000;3.138092
2555.000000;3.441751
2554.000000;3.816853
2553.000000;3.777506
2552.000000;3.446552
2551.000000;3.089510
2550.000000;2.894625
2549.000000;2.828134
2548.000000;2.845941
2547.000000;2.943547
2546.000000;3.115601
2545.000000;3.292900
2544.000000;3.223546
2543.000000;3.059399
2542.000000;3.007033
2541.000000;3.035652
2540.000000;3.032109
2539.000000;2.937572
2538.000000;2.878957
2537.000000;2.900069
2536.000000;2.901427
2535.000000;2.890273
2534.000000;2.961534
2533.000000;3.094098
2532.000000;3.139417
2531.000000;3.134729
2530.000000;3.264322
2529.000000;3.421682
2528.000000;3.272887
2527.000000;3.119393
2526.000000;3.211013
2525.000000;3.380569
2524.000000;3.200623
2523.000000;3.107003
2522.000000;3.157975
2521.000000;3.223974
2520.000000;3.250489
2519.000000;3.155926
2518.000000;3.014023
2517.000000;2.968606
2516.000000;3.019596
2515.000000;3.101153
2514.000000;3.188796
2513.000000;3.331344
2512.000000;3.625216
2511.000000;3.564153
2510.000000;3.250092
2509.000000;3.041895
2508.000000;2.949208
2507.000000;2.982214
2506.000000;3.207920
2505.000000;3.681415
2504.000000;3.444736
2503.000000;3.232431
2502.000000;3.203870
2501.000000;3.403771
2500.000000;3.393735
2499.000000;2.923673
2498.000000;2.778101
2497.000000;2.789112
2496.000000;3.175301
2495.000000;3.658948
2494.000000;2.912948
2493.000000;2.801801
2492.000000;2.788876
2491.000000;2.742968
2490.000000;2.694656
2489.000000;2.672889
2488.000000;2.774950
2487.000000;3.119373
2486.000000;3.422874
2485.000000;3.228935
2484.000000;3.107627
2483.000000;2.933624
2482.000000;2.880486
2481.000000;2.937085
2480.000000;2.974603
2479.000000;2.983458
2478.000000;3.034379
2477.000000;3.226851
2476.000000;3.584432
2475.000000;3.488987
2474.000000;3.262070
2473.000000;3.312339
2472.000000;3.421452
2471.000000;3.154201
2470.000000;2.962333
2469.000000;2.931842
2468.000000;2.985510
2467.000000;3.080862
2466.000000;3.105927
2465.000000;3.078033
2464.000000;3.049761
2463.000000;2.974957
2462.000000;2.903736
2461.000000;2.921365
2460.000000;3.151520
2459.000000;3.241007
2458.000000;3.111305
2457.000000;3.386552
2456.000000;3.355921
2455.000000;3.061786
2454.000000;3.080554
2453.000000;3.150622
2452.000000;3.009662
2451.000000;2.845214
2450.000000;2.779009
2449.000000;2.811803
2448.000000;2.942129
2447.000000;3.204668
2446.000000;3.547140
2445.000000;3.309224
2444.000000;3.057857
2443.000000;2.996119
2442.000000;2.991288
2441.000000;2.949426
2440.000000;2.905725
2439.000000;2.852444
2438.000000;2.740223
2437.000000;2.662575
2436.000000;2.657248
2435.000000;2.724517
2434.000000;2.842363
2433.000000;2.978169
2432.000000;3.316139
2431.000000;3.400052
2430.000000;2.984683
2429.000000;2.854951
2428.000000;2.873501
2427.000000;2.981346
2426.000000;3.111752
2425.000000;3.299701
2424.000000;3.649007
2423.000000;3.288296
2422.000000;3.026565
2421.000000;2.935336
2420.000000;2.845222
2419.000000;2.774070
2418.000000;2.774307
2417.000000;2.917416
2416.000000;3.232226
2415.000000;3.237571
2414.000000;2.999553
2413.000000;2.899778
2412.000000;2.870642
2411.000000;2.935749
2410.000000;3.134034
2409.000000;3.577760
2408.000000;4.270872
2407.000000;4.032261
2406.000000;3.664678
2405.000000;3.299048
2404.000000;3.095392
2403.000000;3.082915
2402.000000;3.123567
2401.000000;2.986084
2400.000000;2.917840
2399.000000;3.088636
2398.000000;3.239173
2397.000000;3.087692
2396.000000;3.128617
2395.000000;3.583084
2394.000000;3.655155
2393.000000;3.463246
2392.000000;3.694574
2391.000000;3.361363
2390.000000;3.037121
2389.000000;2.902078
2388.000000;2.850702
2387.000000;2.862996
2386.000000;2.914556
2385.000000;2.979548
2384.000000;2.973569
2383.000000;2.835366
2382.000000;2.678468
2381.000000;2.558846
2380.000000;2.553207
2379.000000;2.579676
2378.000000;2.875208
2377.000000;3.306770
2376.000000;3.201985
2375.000000;3.439860
2374.000000;3.372933
2373.000000;3.285474
2372.000000;3.236188
2371.000000;3.273508
2370.000000;3.359779
2369.000000;3.616910
2368.000000;3.586822
2367.000000;3.163030
2366.000000;2.924821
2365.000000;2.850793
2364.000000;2.921989
2363.000000;3.038843
2362.000000;3.037736
2361.000000;2.989293
2360.000000;2.919035
2359.000000;2.858566
2358.000000;2.843609
2357.000000;2.859478
2356.000000;2.896139
2355.000000;2.989538
2354.000000;3.262023
2353.000000;3.480969
2352.000000;3.308387
2351.000000;3.241957
2350.000000;3.235382
2349.000000;3.295899
2348.000000;3.399925
2347.000000;3.386375
2346.000000;3.337327
2345.000000;3.463476
2344.000000;3.434057
2343.000000;3.866186
2342.000000;3.356067
2341.000000;4.278075
2340.000000;2.565528
2339.000000;2.274147
2338.000000;2.311058
2337.000000;2.360555
2336.000000;2.542094
2335.000000;2.703741
2334.000000;2.572083
2333.000000;2.377141
2332.000000;2.311042
2331.000000;2.424973
2330.000000;2.922579
2329.000000;2.815957
2328.000000;2.474177
2327.000000;2.470978
2326.000000;2.515861
2325.000000;2.565292
2324.000000;2.572870
2323.000000;2.598169
2322.000000;2.549561
2321.000000;2.455926
2320.000000;2.468098
2319.000000;2.663869
2318.000000;2.810492
2317.000000;2.671018
2316.000000;2.738624
2315.000000;3.103358
2314.000000;3.606835
2313.000000;3.116592
2312.000000;2.809517
2311.000000;2.703713
2310.000000;2.672672
2309.000000;2.647726
2308.000000;2.605439
2307.000000;2.577915
2306.000000;2.580144
2305.000000;2.628930
2304.000000;2.723004
2303.000000;2.848604
2302.000000;2.970251
2301.000000;3.018486
2300.000000;2.916332
2299.000000;2.759893
2298.000000;2.683836
2297.000000;2.719462
2296.000000;2.844027
2295.000000;2.922585
2294.000000;2.891706
2293.000000;2.850977
2292.000000;2.864848
2291.000000;2.932292
2290.000000;3.117721
2289.000000;3.671766
2288.000000;3.674512
2287.000000;3.560363
2286.000000;3.724105
2285.000000;3.341057
2284.000000;3.180970
2283.000000;3.137166
2282.000000;3.176883
2281.000000;3.357540
2280.000000;3.261395
2279.000000;3.038787
2278.000000;2.929639
2277.000000;2.889709
2276.000000;2.844046
2275.000000;2.816657
2274.000000;2.851197
2273.000000;2.993117
2272.000000;3.619410
2271.000000;3.551688
2270.000000;3.091887
2269.000000;3.190939
2268.000000;3.404952
2267.000000;3.367478
2266.000000;3.145785
2265.000000;2.957393
2264.000000;2.835264
2263.000000;2.772824
2262.000000;2.758356
2261.000000;2.782781
2260.000000;2.876747
2259.000000;3.046457
2258.000000;3.090895
2257.000000;2.959859
2256.000000;2.924600
2255.000000;3.062347
2254.000000;3.233634
2253.000000;3.211054
2252.000000;3.197981
2251.000000;3.239206
2250.000000;3.574792
2249.000000;3.641156
2248.000000;3.177535
2247.000000;3.063441
2246.000000;3.155858
2245.000000;3.554438
2244.000000;3.360712
2243.000000;3.090808
2242.000000;3.148416
2241.000000;3.166219
2240.000000;3.105935
2239.000000;3.072022
2238.000000;3.109052
2237.000000;3.204566
2236.000000;3.326150
2235.000000;3.273334
2234.000000;3.312489
2233.000000;3.770037
2232.000000;3.374942
2231.000000;3.007897
2230.000000;2.895721
2229.000000;2.896547
2228.000000;2.987589
2227.000000;3.120044
2226.000000;3.301878
2225.000000;3.395549
2224.000000;3.286349
2223.000000;3.115146
2222.000000;3.019554
2221.000000;3.247173
2220.000000;3.662093
2219.000000;3.272443
2218.000000;3.126888
2217.000000;3.135296
2216.000000;3.111876
2215.000000;3.164387
2214.000000;3.171058
2213.000000;3.003336
2212.000000;2.804861
2211.000000;2.709920
2210.000000;2.690087
2209.000000;2.827628
2208.000000;3.204460
2207.000000;2.992152
2206.000000;2.795181
2205.000000;2.867354
2204.000000;3.123716
2203.000000;3.689664
2202.000000;3.986010
2201.000000;3.615487
2200.000000;3.271089
2199.000000;3.091669
2198.000000;3.070061
2197.000000;3.240106
2196.000000;3.753229
2195.000000;3.598235
2194.000000;3.191963
2193.000000;3.101917
2192.000000;3.063927
2191.000000;3.018691
2190.000000;3.061740
2189.000000;3.223565
2188.000000;3.322221
2187.000000;3.492327
2186.000000;3.850165
2185.000000;3.802665
2184.000000;3.410410
2183.000000;3.394303
2182.000000;3.872377
2181.000000;3.352653
2180.000000;3.141746
2179.000000;3.227396
2178.000000;3.327479
2177.000000;3.414000
2176.000000;3.413088
2175.000000;3.343810
2174.000000;3.235309
2173.000000;3.099453
2172.000000;2.949017
2171.000000;2.859284
2170.000000;2.905087
2169.000000;3.165175
2168.000000;3.290546
2167.000000;3.075803
2166.000000;2.960272
2165.000000;2.887297
2164.000000;2.831747
2163.000000;2.806678
2162.000000;2.867151
2161.000000;3.068855
2160.000000;3.374593
2159.000000;3.602661
2158.000000;3.802857
2157.000000;3.600205
2156.000000;3.159184
2155.000000;2.881471
2154.000000;2.718571
2153.000000;2.672945
2152.000000;2.764868
2151.000000;3.005763
2150.000000;3.234803
2149.000000;3.221851
2148.000000;3.256277
2147.000000;3.255556
2146.000000;3.128524
2145.000000;3.033725
2144.000000;2.989198
2143.000000;2.974109
2142.000000;2.974223
2141.000000;3.278777
2140.000000;3.563788
2139.000000;3.074697
2138.000000;2.990606
2137.000000;3.177268
2136.000000;3.545552
2135.000000;3.874245
2134.000000;4.307821
2133.000000;4.036973
2132.000000;3.626724
2131.000000;3.462452
2130.000000;3.251357
2129.000000;3.089900
2128.000000;2.983640
2127.000000;2.926224
2126.000000;2.885829
2125.000000;2.852050
2124.000000;2.841137
2123.000000;2.851401
2122.000000;2.903231
2121.000000;2.995649
2120.000000;3.246113
2119.000000;3.595595
2118.000000;3.404052
2117.000000;3.363941
2116.000000;3.211132
2115.000000;3.027438
2114.000000;3.045263
2113.000000;3.131846
2112.000000;3.140444
2111.000000;3.074267
2110.000000;2.997492
2109.000000;2.894124
2108.000000;2.805264
2107.000000;2.777995
2106.000000;2.780131
2105.000000;2.775916
2104.000000;2.802531
2103.000000;2.921007
2102.000000;3.146314
2101.000000;3.294616
2100.000000;3.230407
2099.000000;3.108984
2098.000000;2.982977
2097.000000;2.922998
2096.000000;3.005110
2095.000000;3.321256
2094.000000;4.321787
2093.000000;4.042110
2092.000000;3.230852
2091.000000;2.962978
2090.000000;2.930813
2089.000000;3.024957
2088.000000;3.145888
2087.000000;3.279945
2086.000000;3.490662
2085.000000;3.984919
2084.000000;3.513976
2083.000000;3.120924
2082.000000;3.107982
2081.000000;3.288007
2080.000000;3.398917
2079.000000;3.226294
2078.000000;3.057133
2077.000000;3.002047
2076.000000;3.108638
2075.000000;3.347520
2074.000000;3.720662
2073.000000;3.654754
2072.000000;3.607034
2071.000000;3.856287
2070.000000;3.899142
2069.000000;4.077161
2068.000000;3.177241
2067.000000;2.847198
2066.000000;2.776409
2065.000000;2.855938
2064.000000;3.103673
2063.000000;3.452999
2062.000000;4.017949
2061.000000;3.940303
2060.000000;3.573218
2059.000000;3.801542
2058.000000;3.716164
2057.000000;3.287762
2056.000000;3.114235
2055.000000;3.132772
2054.000000;3.460463
2053.000000;3.489771
2052.000000;3.157658
2051.000000;3.157157
2050.000000;3.175998
2049.000000;2.900861
2048.000000;2.733500
2047.000000;2.729122
2046.000000;2.779237
2045.000000;2.825202
2044.000000;2.899217
2043.000000;3.025698
2042.000000;3.126856
2041.000000;3.127362
2040.000000;3.168718
2039.000000;3.337105
2038.000000;3.456182
2037.000000;3.362508
2036.000000;3.230050
2035.000000;3.125639
2034.000000;3.187028
2033.000000;3.408499
2032.000000;3.106193
2031.000000;2.793479
2030.000000;2.717146
2029.000000;2.775147
2028.000000;3.031759
2027.000000;3.636939
2026.000000;3.192153
2025.000000;2.936994
2024.000000;2.940349
2023.000000;3.093692
2022.000000;3.536093
2021.000000;3.308439
2020.000000;3.053533
2019.000000;2.992048
2018.000000;2.967589
2017.000000;2.966042
2016.000000;2.948089
2015.000000;2.955263
2014.000000;3.011738
2013.000000;3.110422
2012.000000;3.129217
2011.000000;3.039177
2010.000000;2.963899
2009.000000;2.975922
2008.000000;3.177183
2007.000000;3.266996
2006.000000;3.058408
2005.000000;2.986851
2004.000000;3.066228
2003.000000;3.368894
2002.000000;3.472826
2001.000000;3.505016
2000.000000;3.649910
1999.000000;3.321214
1998.000000;3.294062
1997.000000;3.234354
1996.000000;3.050758
1995.000000;3.074058
1994.000000;3.218153
1993.000000;3.277818
1992.000000;3.326811
1991.000000;3.282184
1990.000000;3.191557
1989.000000;3.148696
1988.000000;3.028977
1987.000000;2.918083
1986.000000;2.877777
1985.000000;2.856042
1984.000000;2.839964
1983.000000;2.874077
1982.000000;2.925308
1981.000000;2.935925
1980.000000;2.976643
1979.000000;3.074055
1978.000000;3.050241
1977.000000;2.948686
1976.000000;2.965964
1975.000000;3.040309
1974.000000;3.040094
1973.000000;3.026063
1972.000000;3.026662
1971.000000;3.012936
1970.000000;2.977542
1969.000000;2.924865
1968.000000;2.924020
1967.000000;2.947541
1966.000000;2.834713
1965.000000;2.687018
1964.000000;2.581734
1963.000000;2.570142
1962.000000;2.643338
1961.000000;2.959058
1960.000000;3.701068
1959.000000;3.119027
1958.000000;3.000765
1957.000000;3.265124
1956.000000;3.711776
1955.000000;3.356389
1954.000000;3.114920
1953.000000;3.174022
1952.000000;3.481940
1951.000000;3.493662
1950.000000;3.153053
1949.000000;3.115608
1948.000000;3.127025
1947.000000;3.107033
1946.000000;3.042904
1945.000000;2.957443
1944.000000;2.874228
1943.000000;2.833575
1942.000000;2.842050
1941.000000;2.858731
1940.000000;2.893692
1939.000000;3.042820
1938.000000;3.425637
1937.000000;3.435710
1936.000000;3.152674
1935.000000;3.084458
1934.000000;3.130705
1933.000000;3.170499
1932.000000;3.047312
1931.000000;2.863681
1930.000000;2.777324
1929.000000;2.802895
1928.000000;2.893343
1927.000000;3.179802
1926.000000;3.253113
1925.000000;2.910534
1924.000000;2.848000
1923.000000;2.909683
1922.000000;2.925071
1921.000000;2.891492
1920.000000;2.930696
1919.000000;3.170529
1918.000000;3.481381
1917.000000;3.296860
1916.000000;3.111580
1915.000000;2.986579
1914.000000;2.971791
1913.000000;3.222931
1912.000000;3.091794
1911.000000;2.779719
1910.000000;2.701610
1909.000000;2.781547
1908.000000;3.169040
1907.000000;3.282408
1906.000000;2.840687
1905.000000;2.812917
1904.000000;3.039714
1903.000000;3.175454
1902.000000;3.150281
1901.000000;3.355565
1900.000000;3.163524
1899.000000;2.868509
1898.000000;2.790210
1897.000000;2.766430
1896.000000;2.759911
1895.000000;2.726957
1894.000000;2.700433
1893.000000;2.742667
1892.000000;2.883567
1891.000000;3.172941
1890.000000;3.432421
1889.000000;3.256479
1888.000000;3.065378
1887.000000;2.973763
1886.000000;2.889300
1885.000000;2.860431
1884.000000;2.847115
1883.000000;3.005428
1882.000000;3.566292
1881.000000;3.068677
1880.000000;2.757349
1879.000000;2.675806
1878.000000;2.673238
1877.000000;2.734965
1876.000000;2.780929
1875.000000;2.806883
1874.000000;2.831805
1873.000000;2.914331
1872.000000;3.085563
1871.000000;3.276984
1870.000000;3.254181
1869.000000;3.098272
1868.000000;3.017460
1867.000000;3.039227
1866.000000;3.080291
1865.000000;3.111062
1864.000000;3.197320
1863.000000;3.251283
1862.000000;3.161830
1861.000000;3.046398
1860.000000;2.954192
1859.000000;2.869605
1858.000000;2.839805
1857.000000;2.857221
1856.000000;2.842697
1855.000000;2.826637
1854.000000;2.853896
1853.000000;2.912254
1852.000000;3.008674
1851.000000;3.145704
1850.000000;3.143250
1849.000000;3.020653
1848.000000;3.008106
1847.000000;3.110806
1846.000000;3.224151
1845.000000;3.211514
1844.000000;3.161150
1843.000000;3.145779
1842.000000;3.109031
1841.000000;3.040643
1840.000000;2.914974
1839.000000;2.821070
1838.000000;2.822832
1837.000000;2.971830
1836.000000;3.189278
1835.000000;3.234669
1834.000000;3.261081
1833.000000;3.074131
1832.000000;2.931473
1831.000000;3.019975
1830.000000;3.250736
1829.000000;3.431859
1828.000000;3.413302
1827.000000;3.288561
1826.000000;3.187996
1825.000000;3.231640
1824.000000;3.339980
1823.000000;3.225134
1822.000000;3.009030
1821.000000;2.913099
1820.000000;2.989603
1819.000000;3.229016
1818.000000;3.468779
1817.000000;3.386999
1816.000000;3.141569
1815.000000;2.928165
1814.000000;2.828613
1813.000000;2.869542
1812.000000;3.061891
1811.000000;3.341716
1810.000000;3.472466
1809.000000;3.500808
1808.000000;3.418675
1807.000000;3.201523
1806.000000;3.163241
1805.000000;3.495840
1804.000000;3.443773
1803.000000;3.037988
1802.000000;2.962270
1801.000000;3.066548
1800.000000;3.248827
1799.000000;3.519522
1798.000000;4.063602
1797.000000;3.982200
1796.000000;3.587481
1795.000000;3.449226
1794.000000;3.285462
1793.000000;3.143336
1792.000000;3.110672
1791.000000;3.414802
1790.000000;3.756359
1789.000000;3.256921
1788.000000;3.114353
1787.000000;3.118117
1786.000000;3.104737
1785.000000;3.036450
1784.000000;2.969495
1783.000000;2.940815
1782.000000;2.870365
1781.000000;2.766939
1780.000000;2.685530
1779.000000;2.669552
1778.000000;2.738953
1777.000000;2.935897
1776.000000;3.370356
1775.000000;3.573232
1774.000000;3.227942
1773.000000;3.095489
1772.000000;3.062773
1771.000000;3.071450
1770.000000;3.109743
1769.000000;3.212751
1768.000000;3.423120
1767.000000;3.831257
1766.000000;4.004403
1765.000000;3.661247
1764.000000;3.542071
1763.000000;3.563965
1762.000000;3.593726
1761.000000;3.433388
1760.000000;3.285453
1759.000000;3.391293
1758.000000;3.751275
1757.000000;3.406003
1756.000000;3.211465
1755.000000;3.355826
1754.000000;3.545944
1753.000000;3.706904
1752.000000;3.752118
1751.000000;3.778907
1750.000000;4.338659
1749.000000;3.873366
1748.000000;3.783276
1747.000000;4.126787
1746.000000;3.381103
1745.000000;3.066495
1744.000000;2.938691
1743.000000;2.890563
1742.000000;2.922937
1741.000000;3.049370
1740.000000;3.271058
1739.000000;3.417565
1738.000000;3.448699
1737.000000;3.319126
1736.000000;3.119088
1735.000000;3.112087
1734.000000;3.244262
1733.000000;3.224295
1732.000000;3.155556
1731.000000;3.123174
1730.000000;3.086497
1729.000000;3.065837
1728.000000;3.069272
1727.000000;3.057127
1726.000000;3.061862
1725.000000;3.155837
1724.000000;3.336693
1723.000000;3.365779
1722.000000;3.189394
1721.000000;3.081048
1720.000000;3.050126
1719.000000;3.209680
1718.000000;3.611039
1717.000000;3.424555
1716.000000;3.174910
1715.000000;3.096680
1714.000000;3.144717
1713.000000;3.248005
1712.000000;3.184686
1711.000000;3.033576
1710.000000;2.991814
1709.000000;3.095021
1708.000000;3.245207
1707.000000;3.279199
1706.000000;3.244658
1705.000000;3.210340
1704.000000;3.254363
1703.000000;3.274470
1702.000000;3.333966
1701.000000;3.772777
1700.000000;3.789213
1699.000000;3.550740
1698.000000;3.573319
1697.000000;3.788773
1696.000000;3.723707
1695.000000;3.372331
1694.000000;3.337674
1693.000000;3.366537
1692.000000;3.334398
1691.000000;3.330725
1690.000000;3.354282
1689.000000;3.335349
1688.000000;3.331047
1687.000000;3.368670
1686.000000;3.330362
1685.000000;3.280779
1684.000000;3.278043
1683.000000;3.236267
1682.000000;3.152035
1681.000000;3.109060
1680.000000;3.133582
1679.000000;3.198604
1678.000000;3.338669
1677.000000;3.563534
1676.000000;3.519779
1675.000000;3.263200
1674.000000;3.139809
1673.000000;3.114010
1672.000000;3.118141
1671.000000;3.164286
1670.000000;3.306065
1669.000000;3.520799
1668.000000;3.566962
1667.000000;3.362110
1666.000000;3.104715
1665.000000;2.964239
1664.000000;2.978230
1663.000000;3.106573
1662.000000;3.260745
1661.000000;3.297210
1660.000000;3.247519
1659.000000;3.221857
1658.000000;3.327139
1657.000000;3.741756
1656.000000;3.889021
1655.000000;3.798099
1654.000000;3.679941
1653.000000;3.397757
1652.000000;3.332699
1651.000000;3.327908
1650.000000;3.306062
1649.000000;3.308664
1648.000000;3.399740
1647.000000;3.579883
1646.000000;3.691561
1645.000000;3.856583
1644.000000;4.529211
1643.000000;3.966522
1642.000000;3.532716
1641.000000;3.364307
1640.000000;3.287361
1639.000000;3.272259
1638.000000;3.249128
1637.000000;3.215987
1636.000000;3.201575
1635.000000;3.217772
1634.000000;3.307714
1633.000000;3.579049
1632.000000;3.484839
1631.000000;3.133550
1630.000000;2.995668
1629.000000;2.971170
1628.000000;3.049870
1627.000000;3.331936
1626.000000;3.787367
1625.000000;3.443754
1624.000000;3.188966
1623.000000;3.120968
1622.000000;3.158030
1621.000000;3.210703
1620.000000;3.179585
1619.000000;3.155460
1618.000000;3.346463
1617.000000;4.123798
1616.000000;3.667251
1615.000000;3.380331
1614.000000;3.397050
1613.000000;3.467892
1612.000000;3.325559
1611.000000;3.156382
1610.000000;3.266443
1609.000000;3.440378
1608.000000;3.119824
1607.000000;2.876721
1606.000000;2.789946
1605.000000;2.799223
1604.000000;2.900461
1603.000000;3.077219
1602.000000;3.332662
1601.000000;3.865441
1600.000000;3.759574
1599.000000;3.294499
1598.000000;3.158575
1597.000000;3.172422
1596.000000;3.305156
1595.000000;3.519149
1594.000000;3.993110
1593.000000;3.760815
1592.000000;3.260760
1591.000000;3.000027
1590.000000;2.852460
1589.000000;2.818950
1588.000000;2.918921
1587.000000;3.249809
1586.000000;3.477697
1585.000000;3.205165
1584.000000;3.150633
1583.000000;3.176766
1582.000000;3.302319
1581.000000;3.397485
1580.000000;3.151165
1579.000000;2.932984
1578.000000;2.821833
1577.000000;2.838149
1576.000000;2.964927
1575.000000;3.246187
1574.000000;3.520326
1573.000000;3.161709
1572.000000;2.930313
1571.000000;2.952250
1570.000000;3.194700
1569.000000;3.651874
1568.000000;3.869975
1567.000000;3.522389
1566.000000;3.323472
1565.000000;3.364641
1564.000000;3.507279
1563.000000;3.410893
1562.000000;3.303155
1561.000000;3.348225
1560.000000;3.676453
1559.000000;4.381655
1558.000000;3.911354
1557.000000;3.671993
1556.000000;3.585312
1555.000000;3.479179
1554.000000;3.511572
1553.000000;3.845369
1552.000000;3.768311
1551.000000;3.731548
1550.000000;4.131051
1549.000000;3.898064
1548.000000;3.661515
1547.000000;3.514554
1546.000000;3.477728
1545.000000;3.499242
1544.000000;3.441124
1543.000000;3.461469
1542.000000;3.636107
1541.000000;4.049088
1540.000000;4.461729
1539.000000;3.938517
1538.000000;3.791928
1537.000000;4.123491
1536.000000;3.632672
1535.000000;3.234097
1534.000000;3.170703
1533.000000;3.271785
1532.000000;3.361185
1531.000000;3.472299
1530.000000;3.432294
1529.000000;3.202163
1528.000000;3.176070
1527.000000;3.317735
1526.000000;3.600797
1525.000000;4.057106
1524.000000;3.642674
1523.000000;3.316912
1522.000000;3.244017
1521.000000;3.353822
1520.000000;3.536520
1519.000000;3.495151
1518.000000;3.300079
1517.000000;3.120826
1516.000000;3.021156
1515.000000;2.990735
1514.000000;2.961995
1513.000000;2.927828
1512.000000;2.933915
1511.000000;3.015810
1510.000000;3.201949
1509.000000;3.612429
1508.000000;4.109018
1507.000000;3.795934
1506.000000;3.715411
1505.000000;3.721705
1504.000000;3.795088
1503.000000;3.773512
1502.000000;3.554178
1501.000000;3.550643
1500.000000;3.714042
1499.000000;3.756098
1498.000000;3.667298
1497.000000;3.628377
1496.000000;3.685325
1495.000000;3.450264
1494.000000;3.224597
1493.000000;3.157033
1492.000000;3.385567
1491.000000;3.589060
1490.000000;3.180070
1489.000000;3.049558
1488.000000;3.139121
1487.000000;3.254260
1486.000000;3.116747
1485.000000;3.039373
1484.000000;3.184113
1483.000000;3.381856
1482.000000;3.156435
1481.000000;2.878134
1480.000000;2.750092
1479.000000;2.743555
1478.000000;2.841123
1477.000000;2.965726
1476.000000;3.023212
1475.000000;3.012385
1474.000000;2.998853
1473.000000;3.034747
1472.000000;3.159549
1471.000000;3.423061
1470.000000;3.395212
1469.000000;3.151109
1468.000000;3.088440
1467.000000;3.205080
1466.000000;3.371254
1465.000000;3.141520
1464.000000;2.953220
1463.000000;2.943398
1462.000000;3.107677
1461.000000;3.512390
1460.000000;3.499432
1459.000000;3.265621
1458.000000;3.156756
1457.000000;3.062584
1456.000000;3.012518
1455.000000;3.000356
1454.000000;3.007680
1453.000000;2.998740
1452.000000;2.997790
1451.000000;3.030924
1450.000000;3.247334
1449.000000;3.540332
1448.000000;3.164133
1447.000000;2.995510
1446.000000;2.969711
1445.000000;3.025138
1444.000000;3.241566
1443.000000;3.217325
1442.000000;2.945100
1441.000000;2.858826
1440.000000;2.891683
1439.000000;2.974986
1438.000000;3.084504
1437.000000;3.077442
1436.000000;3.015835
1435.000000;3.001235
1434.000000;2.975502
1433.000000;2.968808
1432.000000;3.029804
1431.000000;3.094700
1430.000000;3.069971
1429.000000;3.015458
1428.000000;3.075677
1427.000000;3.267304
1426.000000;3.387988
1425.000000;3.275162
1424.000000;3.478112
1423.000000;3.995752
1422.000000;3.152250
1421.000000;2.883993
1420.000000;2.761200
1419.000000;2.726950
1418.000000;2.789683
1417.000000;2.906751
1416.000000;3.136600
1415.000000;3.527133
1414.000000;3.481744
1413.000000;3.240546
1412.000000;3.184684
1411.000000;3.151179
1410.000000;3.136307
1409.000000;3.230918
1408.000000;3.431709
1407.000000;3.167327
1406.000000;2.954086
1405.000000;2.977584
1404.000000;3.133015
1403.000000;3.285395
1402.000000;3.268928
1401.000000;3.163775
1400.000000;3.081158
1399.000000;3.071913
1398.000000;3.114636
1397.000000;3.147212
1396.000000;3.132958
1395.000000;3.122664
1394.000000;3.202620
1393.000000;3.294407
1392.000000;3.235230
1391.000000;3.224521
1390.000000;3.263887
1389.000000;3.011787
1388.000000;2.793757
1387.000000;2.771857
1386.000000;2.868153
1385.000000;2.989318
1384.000000;2.989626
1383.000000;2.881131
1382.000000;2.825976
1381.000000;2.872528
1380.000000;2.985075
1379.000000;3.166810
1378.000000;3.411684
1377.000000;3.601115
1376.000000;4.027275
1375.000000;3.576863
1374.000000;3.189837
1373.000000;3.066894
1372.000000;3.013218
1371.000000;2.952302
1370.000000;2.921156
1369.000000;2.978159
1368.000000;3.122240
1367.000000;3.249979
1366.000000;3.257361
1365.000000;3.325632
1364.000000;3.572423
1363.000000;3.562719
1362.000000;3.222650
1361.000000;3.071770
1360.000000;3.059740
1359.000000;3.122985
1358.000000;3.439016
1357.000000;3.731110
1356.000000;3.274940
1355.000000;3.071334
1354.000000;2.997325
1353.000000;2.979373
1352.000000;3.033246
1351.000000;3.082789
1350.000000;3.086773
1349.000000;3.069019
1348.000000;3.206651
1347.000000;3.415717
1346.000000;3.017489
1345.000000;2.811261
1344.000000;2.800536
1343.000000;2.896138
1342.000000;3.080381
1341.000000;3.171100
1340.000000;3.053376
1339.000000;2.998742
1338.000000;3.054394
1337.000000;3.099935
1336.000000;3.081322
1335.000000;3.041702
1334.000000;3.003540
1333.000000;2.979788
1332.000000;2.997742
1331.000000;3.073685
1330.000000;3.242382
1329.000000;3.473964
1328.000000;3.465402
1327.000000;3.398278
1326.000000;3.573057
1325.000000;3.475032
1324.000000;3.072632
1323.000000;2.854046
1322.000000;2.782775
1321.000000;2.776903
1320.000000;2.749755
1319.000000;2.728648
1318.000000;2.800083
1317.000000;3.004488
1316.000000;3.374249
1315.000000;3.839489
1314.000000;3.650587
1313.000000;3.277516
1312.000000;3.032741
1311.000000;2.864956
1310.000000;2.764424
1309.000000;2.741489
1308.000000;2.812661
1307.000000;3.029589
1306.000000;3.247710
1305.000000;3.127495
1304.000000;3.029379
1303.000000;3.014249
1302.000000;3.008224
1301.000000;2.999717
1300.000000;2.911030
1299.000000;2.758954
1298.000000;2.646640
1297.000000;2.611255
1296.000000;2.637793
1295.000000;2.723340
1294.000000;2.873766
1293.000000;3.176477
1292.000000;3.603829
1291.000000;3.287104
1290.000000;3.222494
1289.000000;3.592529
1288.000000;3.830820
1287.000000;3.563457
1286.000000;3.639663
1285.000000;3.628585
1284.000000;3.538172
1283.000000;3.230029
1282.000000;3.026611
1281.000000;3.020889
1280.000000;3.141988
1279.000000;3.224098
1278.000000;3.145190
1277.000000;3.174105
1276.000000;3.589275
1275.000000;3.463919
1274.000000;3.070127
1273.000000;2.923748
1272.000000;2.807566
1271.000000;2.744414
1270.000000;2.757810
1269.000000;2.843238
1268.000000;2.951639
1267.000000;2.981555
1266.000000;2.947105
1265.000000;2.927999
1264.000000;2.928173
1263.000000;2.905413
1262.000000;2.852340
1261.000000;2.792591
1260.000000;2.744511
1259.000000;2.743270
1258.000000;2.817665
1257.000000;3.036911
1256.000000;3.250153
1255.000000;3.043412
1254.000000;2.894505
1253.000000;2.948514
1252.000000;3.261321
1251.000000;3.163988
1250.000000;2.889232
1249.000000;2.874445
1248.000000;2.926267
1247.000000;3.015536
1246.000000;3.068800
1245.000000;3.032493
1244.000000;2.999888
1243.000000;3.085357
1242.000000;3.553510
1241.000000;3.455242
1240.000000;3.059453
1239.000000;2.956334
1238.000000;2.965989
1237.000000;3.056730
1236.000000;3.126163
1235.000000;3.043963
1234.000000;2.977308
1233.000000;3.029979
1232.000000;3.237761
1231.000000;3.730768
1230.000000;3.896661
1229.000000;3.634709
1228.000000;3.615203
1227.000000;3.359701
1226.000000;3.162607
1225.000000;3.078697
1224.000000;3.040864
1223.000000;3.023717
1222.000000;3.054258
1221.000000;3.282059
1220.000000;3.616092
1219.000000;3.321870
1218.000000;3.138976
1217.000000;3.108251
1216.000000;3.095273
1215.000000;3.065631
1214.000000;3.024088
1213.000000;3.034894
1212.000000;3.107507
1211.000000;3.161547
1210.000000;3.124590
1209.000000;3.105026
1208.000000;3.178364
1207.000000;3.214458
1206.000000;3.100222
1205.000000;2.992985
1204.000000;2.936557
1203.000000;2.939957
1202.000000;3.033382
1201.000000;3.112133
1200.000000;3.116735
