Criado como novo conjunto de dados;"e0108.spp","-4257883.6 Secs"
cm-1;Abs
10000.000000;1.052425
9999.000000;1.051740
9998.000000;1.051055
9997.000000;1.050371
9996.000000;1.049689
9995.000000;1.049006
9994.000000;1.048329
9993.000000;1.047644
9992.000000;1.046977
9991.000000;1.046280
9990.000000;1.045645
9989.000000;1.044792
9988.000000;1.043976
9987.000000;1.043714
9986.000000;1.043628
9985.000000;1.042996
9984.000000;1.041444
9983.000000;1.039425
9982.000000;1.037796
9981.000000;1.037195
9980.000000;1.037772
9979.000000;1.039341
9978.000000;1.041656
9977.000000;1.044524
9976.000000;1.047535
9975.000000;1.049682
9974.000000;1.049618
9973.000000;1.046795
9972.000000;1.042370
9971.000000;1.038551
9970.000000;1.036895
9969.000000;1.037340
9968.000000;1.038723
9967.000000;1.039910
9966.000000;1.040365
9965.000000;1.040045
9964.000000;1.039229
9963.000000;1.038427
9962.000000;1.038132
9961.000000;1.038451
9960.000000;1.039016
9959.000000;1.039214
9958.000000;1.038530
9957.000000;1.036864
9956.000000;1.034689
9955.000000;1.032797
9954.000000;1.031712
9953.000000;1.031358
9952.000000;1.031383
9951.000000;1.031691
9950.000000;1.032397
9949.000000;1.033219
9948.000000;1.033236
9947.000000;1.031585
9946.000000;1.028481
9945.000000;1.025381
9944.000000;1.023952
9943.000000;1.024796
9942.000000;1.027058
9941.000000;1.029147
9940.000000;1.029862
9939.000000;1.029056
9938.000000;1.027549
9937.000000;1.026526
9936.000000;1.026727
9935.000000;1.027848
9934.000000;1.028680
9933.000000;1.028077
9932.000000;1.025993
9931.000000;1.023580
9930.000000;1.022238
9929.000000;1.022612
9928.000000;1.024311
9927.000000;1.026274
9926.000000;1.027372
9925.000000;1.026950
9924.000000;1.025125
9923.000000;1.022644
9922.000000;1.020436
9921.000000;1.019201
9920.000000;1.019238
9919.000000;1.020390
9918.000000;1.022087
9917.000000;1.023583
9916.000000;1.024333
9915.000000;1.024251
9914.000000;1.023673
9913.000000;1.023069
9912.000000;1.022661
9911.000000;1.022164
9910.000000;1.020980
9909.000000;1.018845
9908.000000;1.016368
9907.000000;1.014743
9906.000000;1.014737
9905.000000;1.015963
9904.000000;1.017144
9903.000000;1.017158
9902.000000;1.015878
9901.000000;1.014079
9900.000000;1.012677
9899.000000;1.012133
9898.000000;1.012437
9897.000000;1.013388
9896.000000;1.014679
9895.000000;1.015843
9894.000000;1.016507
9893.000000;1.016812
9892.000000;1.017271
9891.000000;1.017898
9890.000000;1.017707
9889.000000;1.015626
9888.000000;1.011957
9887.000000;1.008434
9886.000000;1.006583
9885.000000;1.006321
9884.000000;1.006361
9883.000000;1.005820
9882.000000;1.005112
9881.000000;1.005251
9880.000000;1.006618
9879.000000;1.008566
9878.000000;1.010083
9877.000000;1.010612
9876.000000;1.010231
9875.000000;1.009268
9874.000000;1.008017
9873.000000;1.006827
9872.000000;1.006149
9871.000000;1.006129
9870.000000;1.006239
9869.000000;1.005675
9868.000000;1.004275
9867.000000;1.002793
9866.000000;1.002138
9865.000000;1.002534
9864.000000;1.003535
9863.000000;1.004625
9862.000000;1.005515
9861.000000;1.006001
9860.000000;1.005919
9859.000000;1.005355
9858.000000;1.004673
9857.000000;1.004208
9856.000000;1.004004
9855.000000;1.003863
9854.000000;1.003511
9853.000000;1.002698
9852.000000;1.001410
9851.000000;1.000113
9850.000000;0.999542
9849.000000;0.999974
9848.000000;1.000783
9847.000000;1.000997
9846.000000;1.000305
9845.000000;0.999270
9844.000000;0.998543
9843.000000;0.998160
9842.000000;0.997737
9841.000000;0.997024
9840.000000;0.996008
9839.000000;0.994771
9838.000000;0.993628
9837.000000;0.993278
9836.000000;0.994306
9835.000000;0.996373
9834.000000;0.998212
9833.000000;0.998618
9832.000000;0.997300
9831.000000;0.994806
9830.000000;0.992009
9829.000000;0.989840
9828.000000;0.989040
9827.000000;0.989622
9826.000000;0.990685
9825.000000;0.991142
9824.000000;0.990656
9823.000000;0.989682
9822.000000;0.988735
9821.000000;0.988009
9820.000000;0.987601
9819.000000;0.987586
9818.000000;0.987753
9817.000000;0.987670
9816.000000;0.987206
9815.000000;0.986682
9814.000000;0.986375
9813.000000;0.986177
9812.000000;0.985948
9811.000000;0.985871
9810.000000;0.986159
9809.000000;0.986595
9808.000000;0.986691
9807.000000;0.986240
9806.000000;0.985502
9805.000000;0.984898
9804.000000;0.984696
9803.000000;0.984870
9802.000000;0.985057
9801.000000;0.984770
9800.000000;0.983875
9799.000000;0.982750
9798.000000;0.981797
9797.000000;0.980950
9796.000000;0.979960
9795.000000;0.979004
9794.000000;0.978538
9793.000000;0.978588
9792.000000;0.978640
9791.000000;0.978374
9790.000000;0.978068
9789.000000;0.978111
9788.000000;0.978462
9787.000000;0.978906
9786.000000;0.979500
9785.000000;0.980314
9784.000000;0.980870
9783.000000;0.980401
9782.000000;0.978777
9781.000000;0.976807
9780.000000;0.975455
9779.000000;0.975022
9778.000000;0.975195
9777.000000;0.975563
9776.000000;0.975841
9775.000000;0.975816
9774.000000;0.975472
9773.000000;0.975122
9772.000000;0.975141
9771.000000;0.975473
9770.000000;0.975580
9769.000000;0.975056
9768.000000;0.974211
9767.000000;0.973865
9766.000000;0.974502
9765.000000;0.975650
9764.000000;0.976157
9763.000000;0.975132
9762.000000;0.972684
9761.000000;0.969768
9760.000000;0.967427
9759.000000;0.966292
9758.000000;0.966646
9757.000000;0.968477
9756.000000;0.971188
9755.000000;0.973555
9754.000000;0.974453
9753.000000;0.973695
9752.000000;0.971939
9751.000000;0.969878
9750.000000;0.967897
9749.000000;0.966389
9748.000000;0.965816
9747.000000;0.966191
9746.000000;0.966894
9745.000000;0.967324
9744.000000;0.967455
9743.000000;0.967527
9742.000000;0.967519
9741.000000;0.967295
9740.000000;0.966994
9739.000000;0.966761
9738.000000;0.966251
9737.000000;0.965014
9736.000000;0.963393
9735.000000;0.962426
9734.000000;0.962627
9733.000000;0.963350
9732.000000;0.963662
9731.000000;0.963487
9730.000000;0.963491
9729.000000;0.964074
9728.000000;0.964881
9727.000000;0.965230
9726.000000;0.964705
9725.000000;0.963377
9724.000000;0.961690
9723.000000;0.960152
9722.000000;0.958984
9721.000000;0.958056
9720.000000;0.957271
9719.000000;0.956855
9718.000000;0.957089
9717.000000;0.957859
9716.000000;0.958724
9715.000000;0.959393
9714.000000;0.959894
9713.000000;0.960252
9712.000000;0.960314
9711.000000;0.959953
9710.000000;0.959257
9709.000000;0.958391
9708.000000;0.957413
9707.000000;0.956314
9706.000000;0.955138
9705.000000;0.953999
9704.000000;0.953060
9703.000000;0.952499
9702.000000;0.952405
9701.000000;0.952625
9700.000000;0.952813
9699.000000;0.952723
9698.000000;0.952377
9697.000000;0.951924
9696.000000;0.951470
9695.000000;0.951123
9694.000000;0.951022
9693.000000;0.951216
9692.000000;0.951574
9691.000000;0.951890
9690.000000;0.951966
9689.000000;0.951542
9688.000000;0.950381
9687.000000;0.948613
9686.000000;0.946864
9685.000000;0.945777
9684.000000;0.945448
9683.000000;0.945501
9682.000000;0.945681
9681.000000;0.946122
9680.000000;0.946943
9679.000000;0.947829
9678.000000;0.948201
9677.000000;0.947739
9676.000000;0.946622
9675.000000;0.945321
9674.000000;0.944259
9673.000000;0.943589
9672.000000;0.943159
9671.000000;0.942682
9670.000000;0.942010
9669.000000;0.941269
9668.000000;0.940733
9667.000000;0.940651
9666.000000;0.941173
9665.000000;0.942280
9664.000000;0.943654
9663.000000;0.944750
9662.000000;0.945223
9661.000000;0.945247
9660.000000;0.945228
9659.000000;0.945188
9658.000000;0.944666
9657.000000;0.943350
9656.000000;0.941651
9655.000000;0.940460
9654.000000;0.940348
9653.000000;0.941100
9652.000000;0.941924
9651.000000;0.942003
9650.000000;0.940950
9649.000000;0.939012
9648.000000;0.936952
9647.000000;0.935570
9646.000000;0.935137
9645.000000;0.935290
9644.000000;0.935532
9643.000000;0.935801
9642.000000;0.936415
9641.000000;0.937440
9640.000000;0.938294
9639.000000;0.938162
9638.000000;0.936776
9637.000000;0.934706
9636.000000;0.932933
9635.000000;0.932222
9634.000000;0.932772
9633.000000;0.934123
9632.000000;0.935314
9631.000000;0.935431
9630.000000;0.934349
9629.000000;0.932944
9628.000000;0.932351
9627.000000;0.932949
9626.000000;0.934121
9625.000000;0.934928
9624.000000;0.934859
9623.000000;0.933995
9622.000000;0.932744
9621.000000;0.931659
9620.000000;0.931325
9619.000000;0.932024
9618.000000;0.933328
9617.000000;0.934179
9616.000000;0.933657
9615.000000;0.931822
9614.000000;0.929754
9613.000000;0.928643
9612.000000;0.928792
9611.000000;0.929484
9610.000000;0.929820
9609.000000;0.929625
9608.000000;0.929425
9607.000000;0.929619
9606.000000;0.929983
9605.000000;0.930040
9604.000000;0.929641
9603.000000;0.928940
9602.000000;0.927990
9601.000000;0.926700
9600.000000;0.925204
9599.000000;0.923955
9598.000000;0.923322
9597.000000;0.923255
9596.000000;0.923424
9595.000000;0.923513
9594.000000;0.923291
9593.000000;0.922636
9592.000000;0.921719
9591.000000;0.921010
9590.000000;0.920826
9589.000000;0.920948
9588.000000;0.920907
9587.000000;0.920610
9586.000000;0.920420
9585.000000;0.920612
9584.000000;0.921019
9583.000000;0.921365
9582.000000;0.921658
9581.000000;0.921984
9580.000000;0.922095
9579.000000;0.921561
9578.000000;0.920350
9577.000000;0.918946
9576.000000;0.917770
9575.000000;0.916784
9574.000000;0.915875
9573.000000;0.915412
9572.000000;0.915998
9571.000000;0.917607
9570.000000;0.919226
9569.000000;0.919636
9568.000000;0.918546
9567.000000;0.916774
9566.000000;0.915313
9565.000000;0.914447
9564.000000;0.913898
9563.000000;0.913583
9562.000000;0.913886
9561.000000;0.915077
9560.000000;0.916688
9559.000000;0.917660
9558.000000;0.917157
9557.000000;0.915242
9556.000000;0.912845
9555.000000;0.911165
9554.000000;0.910898
9553.000000;0.911772
9552.000000;0.912768
9551.000000;0.913002
9550.000000;0.912494
9549.000000;0.911974
9548.000000;0.911932
9547.000000;0.912073
9546.000000;0.911777
9545.000000;0.910905
9544.000000;0.909918
9543.000000;0.909308
9542.000000;0.909138
9541.000000;0.909162
9540.000000;0.909207
9539.000000;0.909312
9538.000000;0.909580
9537.000000;0.909993
9536.000000;0.910383
9535.000000;0.910521
9534.000000;0.910255
9533.000000;0.909597
9532.000000;0.908752
9531.000000;0.908008
9530.000000;0.907506
9529.000000;0.907069
9528.000000;0.906362
9527.000000;0.905366
9526.000000;0.904613
9525.000000;0.904695
9524.000000;0.905502
9523.000000;0.906134
9522.000000;0.905680
9521.000000;0.904076
9520.000000;0.902141
9519.000000;0.900905
9518.000000;0.900929
9517.000000;0.902054
9516.000000;0.903607
9515.000000;0.904899
9514.000000;0.905645
9513.000000;0.905906
9512.000000;0.905670
9511.000000;0.904714
9510.000000;0.903085
9509.000000;0.901506
9508.000000;0.900887
9507.000000;0.901406
9506.000000;0.902332
9505.000000;0.902855
9504.000000;0.902874
9503.000000;0.902824
9502.000000;0.902918
9501.000000;0.902837
9500.000000;0.902194
9499.000000;0.901085
9498.000000;0.899995
9497.000000;0.899253
9496.000000;0.898778
9495.000000;0.898428
9494.000000;0.898343
9493.000000;0.898665
9492.000000;0.899049
9491.000000;0.898898
9490.000000;0.898164
9489.000000;0.897509
9488.000000;0.897446
9487.000000;0.897675
9486.000000;0.897610
9485.000000;0.897229
9484.000000;0.896966
9483.000000;0.896974
9482.000000;0.897040
9481.000000;0.897116
9480.000000;0.897315
9479.000000;0.897401
9478.000000;0.896891
9477.000000;0.895823
9476.000000;0.894899
9475.000000;0.894632
9474.000000;0.894820
9473.000000;0.895068
9472.000000;0.895327
9471.000000;0.895560
9470.000000;0.895368
9469.000000;0.894439
9468.000000;0.893140
9467.000000;0.892131
9466.000000;0.891603
9465.000000;0.891312
9464.000000;0.891191
9463.000000;0.891438
9462.000000;0.892108
9461.000000;0.893010
9460.000000;0.893953
9459.000000;0.894714
9458.000000;0.894871
9457.000000;0.894129
9456.000000;0.892833
9455.000000;0.891724
9454.000000;0.891148
9453.000000;0.890856
9452.000000;0.890560
9451.000000;0.890238
9450.000000;0.889848
9449.000000;0.889244
9448.000000;0.888581
9447.000000;0.888365
9446.000000;0.888818
9445.000000;0.889496
9444.000000;0.889816
9443.000000;0.889678
9442.000000;0.889282
9441.000000;0.888620
9440.000000;0.887591
9439.000000;0.886477
9438.000000;0.885892
9437.000000;0.886141
9436.000000;0.886896
9435.000000;0.887601
9434.000000;0.887996
9433.000000;0.888169
9432.000000;0.888215
9431.000000;0.888015
9430.000000;0.887366
9429.000000;0.886274
9428.000000;0.885029
9427.000000;0.883953
9426.000000;0.883140
9425.000000;0.882542
9424.000000;0.882227
9423.000000;0.882367
9422.000000;0.882941
9421.000000;0.883680
9420.000000;0.884329
9419.000000;0.884723
9418.000000;0.884578
9417.000000;0.883619
9416.000000;0.882130
9415.000000;0.881034
9414.000000;0.881008
9413.000000;0.881658
9412.000000;0.881913
9411.000000;0.881223
9410.000000;0.880021
9409.000000;0.878995
9408.000000;0.878327
9407.000000;0.877849
9406.000000;0.877637
9405.000000;0.878036
9404.000000;0.879091
9403.000000;0.880199
9402.000000;0.880549
9401.000000;0.879939
9400.000000;0.879018
9399.000000;0.878559
9398.000000;0.878527
9397.000000;0.878115
9396.000000;0.876803
9395.000000;0.875093
9394.000000;0.873973
9393.000000;0.873899
9392.000000;0.874543
9391.000000;0.875345
9390.000000;0.875906
9389.000000;0.875982
9388.000000;0.875599
9387.000000;0.875264
9386.000000;0.875581
9385.000000;0.876436
9384.000000;0.876955
9383.000000;0.876513
9382.000000;0.875467
9381.000000;0.874651
9380.000000;0.874464
9379.000000;0.874759
9378.000000;0.875288
9377.000000;0.875812
9376.000000;0.875984
9375.000000;0.875615
9374.000000;0.874998
9373.000000;0.874556
9372.000000;0.874249
9371.000000;0.873732
9370.000000;0.873058
9369.000000;0.872734
9368.000000;0.872997
9367.000000;0.873466
9366.000000;0.873665
9365.000000;0.873507
9364.000000;0.873093
9363.000000;0.872408
9362.000000;0.871521
9361.000000;0.870800
9360.000000;0.870608
9359.000000;0.870954
9358.000000;0.871642
9357.000000;0.872530
9356.000000;0.873394
9355.000000;0.873784
9354.000000;0.873351
9353.000000;0.872297
9352.000000;0.871214
9351.000000;0.870507
9350.000000;0.870160
9349.000000;0.869917
9348.000000;0.869514
9347.000000;0.868893
9346.000000;0.868313
9345.000000;0.868105
9344.000000;0.868167
9343.000000;0.867914
9342.000000;0.866971
9341.000000;0.865760
9340.000000;0.865098
9339.000000;0.865357
9338.000000;0.866291
9337.000000;0.867437
9336.000000;0.868281
9335.000000;0.868202
9334.000000;0.866927
9333.000000;0.865108
9332.000000;0.863899
9331.000000;0.863739
9330.000000;0.863970
9329.000000;0.863818
9328.000000;0.863307
9327.000000;0.862947
9326.000000;0.862944
9325.000000;0.863138
9324.000000;0.863463
9323.000000;0.863998
9322.000000;0.864628
9321.000000;0.865041
9320.000000;0.865085
9319.000000;0.864888
9318.000000;0.864648
9317.000000;0.864485
9316.000000;0.864441
9315.000000;0.864435
9314.000000;0.864245
9313.000000;0.863697
9312.000000;0.862846
9311.000000;0.861854
9310.000000;0.860828
9309.000000;0.859934
9308.000000;0.859518
9307.000000;0.859845
9306.000000;0.860775
9305.000000;0.861893
9304.000000;0.862868
9303.000000;0.863485
9302.000000;0.863472
9301.000000;0.862696
9300.000000;0.861520
9299.000000;0.860625
9298.000000;0.860364
9297.000000;0.860520
9296.000000;0.860767
9295.000000;0.861055
9294.000000;0.861394
9293.000000;0.861549
9292.000000;0.861239
9291.000000;0.860524
9290.000000;0.859738
9289.000000;0.859075
9288.000000;0.858460
9287.000000;0.857846
9286.000000;0.857421
9285.000000;0.857411
9284.000000;0.857781
9283.000000;0.858239
9282.000000;0.858545
9281.000000;0.858706
9280.000000;0.858822
9279.000000;0.858841
9278.000000;0.858572
9277.000000;0.857976
9276.000000;0.857324
9275.000000;0.856962
9274.000000;0.856929
9273.000000;0.856866
9272.000000;0.856307
9271.000000;0.855102
9270.000000;0.853632
9269.000000;0.852623
9268.000000;0.852631
9267.000000;0.853556
9266.000000;0.854671
9265.000000;0.855238
9264.000000;0.855078
9263.000000;0.854524
9262.000000;0.853940
9261.000000;0.853441
9260.000000;0.853019
9259.000000;0.852682
9258.000000;0.852390
9257.000000;0.851985
9256.000000;0.851332
9255.000000;0.850513
9254.000000;0.849814
9253.000000;0.849529
9252.000000;0.849751
9251.000000;0.850304
9250.000000;0.850841
9249.000000;0.851061
9248.000000;0.850895
9247.000000;0.850467
9246.000000;0.849945
9245.000000;0.849489
9244.000000;0.849310
9243.000000;0.849616
9242.000000;0.850386
9241.000000;0.851269
9240.000000;0.851862
9239.000000;0.852124
9238.000000;0.852400
9237.000000;0.852969
9236.000000;0.853635
9235.000000;0.853903
9234.000000;0.853563
9233.000000;0.852920
9232.000000;0.852373
9231.000000;0.851962
9230.000000;0.851507
9229.000000;0.851043
9228.000000;0.850791
9227.000000;0.850723
9226.000000;0.850477
9225.000000;0.849859
9224.000000;0.849173
9223.000000;0.848824
9222.000000;0.848802
9221.000000;0.848763
9220.000000;0.848518
9219.000000;0.848224
9218.000000;0.848145
9217.000000;0.848423
9216.000000;0.849030
9215.000000;0.849743
9214.000000;0.850221
9213.000000;0.850298
9212.000000;0.850154
9211.000000;0.850012
9210.000000;0.849721
9209.000000;0.848906
9208.000000;0.847566
9207.000000;0.846271
9206.000000;0.845633
9205.000000;0.845754
9204.000000;0.846300
9203.000000;0.846947
9202.000000;0.847550
9201.000000;0.847959
9200.000000;0.847918
9199.000000;0.847312
9198.000000;0.846437
9197.000000;0.845832
9196.000000;0.845738
9195.000000;0.845816
9194.000000;0.845570
9193.000000;0.844991
9192.000000;0.844503
9191.000000;0.844213
9190.000000;0.843584
9189.000000;0.842194
9188.000000;0.840568
9187.000000;0.839805
9186.000000;0.840362
9185.000000;0.841567
9184.000000;0.842412
9183.000000;0.842541
9182.000000;0.842324
9181.000000;0.842192
9180.000000;0.842187
9179.000000;0.842064
9178.000000;0.841636
9177.000000;0.840989
9176.000000;0.840441
9175.000000;0.840277
9174.000000;0.840522
9173.000000;0.840957
9172.000000;0.841324
9171.000000;0.841475
9170.000000;0.841369
9169.000000;0.841058
9168.000000;0.840673
9167.000000;0.840346
9166.000000;0.840141
9165.000000;0.840136
9164.000000;0.840446
9163.000000;0.841045
9162.000000;0.841659
9161.000000;0.841987
9160.000000;0.841972
9159.000000;0.841687
9158.000000;0.841129
9157.000000;0.840373
9156.000000;0.839772
9155.000000;0.839621
9154.000000;0.839678
9153.000000;0.839462
9152.000000;0.839055
9151.000000;0.839110
9150.000000;0.839887
9149.000000;0.840733
9148.000000;0.840826
9147.000000;0.840114
9146.000000;0.839191
9145.000000;0.838521
9144.000000;0.838151
9143.000000;0.837994
9142.000000;0.837974
9141.000000;0.837926
9140.000000;0.837659
9139.000000;0.837150
9138.000000;0.836526
9137.000000;0.835951
9136.000000;0.835651
9135.000000;0.835859
9134.000000;0.836486
9133.000000;0.836988
9132.000000;0.836853
9131.000000;0.836172
9130.000000;0.835505
9129.000000;0.835240
9128.000000;0.835328
9127.000000;0.835527
9126.000000;0.835651
9125.000000;0.835617
9124.000000;0.835455
9123.000000;0.835275
9122.000000;0.835059
9121.000000;0.834619
9120.000000;0.833930
9119.000000;0.833346
9118.000000;0.833200
9117.000000;0.833335
9116.000000;0.833359
9115.000000;0.833239
9114.000000;0.833267
9113.000000;0.833474
9112.000000;0.833517
9111.000000;0.833206
9110.000000;0.832774
9109.000000;0.832494
9108.000000;0.832391
9107.000000;0.832447
9106.000000;0.832738
9105.000000;0.833213
9104.000000;0.833611
9103.000000;0.833823
9102.000000;0.834027
9101.000000;0.834275
9100.000000;0.834224
9099.000000;0.833578
9098.000000;0.832582
9097.000000;0.831776
9096.000000;0.831425
9095.000000;0.831466
9094.000000;0.831815
9093.000000;0.832377
9092.000000;0.832794
9091.000000;0.832576
9090.000000;0.831611
9089.000000;0.830316
9088.000000;0.829231
9087.000000;0.828648
9086.000000;0.828622
9085.000000;0.829078
9084.000000;0.829731
9083.000000;0.830096
9082.000000;0.829851
9081.000000;0.829203
9080.000000;0.828751
9079.000000;0.828950
9078.000000;0.829705
9077.000000;0.830479
9076.000000;0.830727
9075.000000;0.830292
9074.000000;0.829498
9073.000000;0.828902
9072.000000;0.828861
9071.000000;0.829252
9070.000000;0.829616
9069.000000;0.829639
9068.000000;0.829470
9067.000000;0.829500
9066.000000;0.829871
9065.000000;0.830278
9064.000000;0.830250
9063.000000;0.829531
9062.000000;0.828251
9061.000000;0.826906
9060.000000;0.826177
9059.000000;0.826527
9058.000000;0.827780
9057.000000;0.829174
9056.000000;0.829983
9055.000000;0.830013
9054.000000;0.829453
9053.000000;0.828527
9052.000000;0.827550
9051.000000;0.827034
9050.000000;0.827270
9049.000000;0.827835
9048.000000;0.827975
9047.000000;0.827554
9046.000000;0.827242
9045.000000;0.827612
9044.000000;0.828413
9043.000000;0.828941
9042.000000;0.828825
9041.000000;0.828193
9040.000000;0.827350
9039.000000;0.826619
9038.000000;0.826347
9037.000000;0.826671
9036.000000;0.827280
9035.000000;0.827617
9034.000000;0.827362
9033.000000;0.826630
9032.000000;0.825788
9031.000000;0.825244
9030.000000;0.825273
9029.000000;0.825785
9028.000000;0.826315
9027.000000;0.826421
9026.000000;0.826077
9025.000000;0.825528
9024.000000;0.824927
9023.000000;0.824349
9022.000000;0.824052
9021.000000;0.824312
9020.000000;0.824935
9019.000000;0.825287
9018.000000;0.825001
9017.000000;0.824476
9016.000000;0.824442
9015.000000;0.825076
9014.000000;0.825734
9013.000000;0.825593
9012.000000;0.824510
9011.000000;0.823244
9010.000000;0.822829
9009.000000;0.823662
9008.000000;0.825166
9007.000000;0.826318
9006.000000;0.826448
9005.000000;0.825536
9004.000000;0.823985
9003.000000;0.822377
9002.000000;0.821312
9001.000000;0.821112
9000.000000;0.821566
8999.000000;0.822124
8998.000000;0.822509
8997.000000;0.822949
8996.000000;0.823692
8995.000000;0.824502
8994.000000;0.824890
8993.000000;0.824740
8992.000000;0.824449
8991.000000;0.824401
8990.000000;0.824487
8989.000000;0.824247
8988.000000;0.823428
8987.000000;0.822300
8986.000000;0.821385
8985.000000;0.820941
8984.000000;0.820788
8983.000000;0.820664
8982.000000;0.820594
8981.000000;0.820768
8980.000000;0.821138
8979.000000;0.821413
8978.000000;0.821492
8977.000000;0.821661
8976.000000;0.822205
8975.000000;0.822983
8974.000000;0.823598
8973.000000;0.823890
8972.000000;0.824034
8971.000000;0.824181
8970.000000;0.824230
8969.000000;0.824015
8968.000000;0.823567
8967.000000;0.823063
8966.000000;0.822623
8965.000000;0.822254
8964.000000;0.821952
8963.000000;0.821762
8962.000000;0.821700
8961.000000;0.821664
8960.000000;0.821470
8959.000000;0.821040
8958.000000;0.820558
8957.000000;0.820354
8956.000000;0.820562
8955.000000;0.820928
8954.000000;0.821056
8953.000000;0.820844
8952.000000;0.820550
8951.000000;0.820406
8950.000000;0.820290
8949.000000;0.819906
8948.000000;0.819235
8947.000000;0.818656
8946.000000;0.818552
8945.000000;0.818878
8944.000000;0.819236
8943.000000;0.819376
8942.000000;0.819514
8941.000000;0.820016
8940.000000;0.820839
8939.000000;0.821453
8938.000000;0.821437
8937.000000;0.821008
8936.000000;0.820795
8935.000000;0.821114
8934.000000;0.821650
8933.000000;0.821877
8932.000000;0.821638
8931.000000;0.821186
8930.000000;0.820790
8929.000000;0.820466
8928.000000;0.820100
8927.000000;0.819686
8926.000000;0.819337
8925.000000;0.819092
8924.000000;0.818833
8923.000000;0.818479
8922.000000;0.818214
8921.000000;0.818407
8920.000000;0.819199
8919.000000;0.820221
8918.000000;0.820850
8917.000000;0.820773
8916.000000;0.820176
8915.000000;0.819387
8914.000000;0.818503
8913.000000;0.817506
8912.000000;0.816572
8911.000000;0.816047
8910.000000;0.816131
8909.000000;0.816731
8908.000000;0.817635
8907.000000;0.818648
8906.000000;0.819523
8905.000000;0.819954
8904.000000;0.819791
8903.000000;0.819223
8902.000000;0.818654
8901.000000;0.818426
8900.000000;0.818640
8899.000000;0.819119
8898.000000;0.819438
8897.000000;0.819175
8896.000000;0.818318
8895.000000;0.817403
8894.000000;0.817044
8893.000000;0.817300
8892.000000;0.817650
8891.000000;0.817653
8890.000000;0.817459
8889.000000;0.817567
8888.000000;0.818176
8887.000000;0.818961
8886.000000;0.819465
8885.000000;0.819558
8884.000000;0.819400
8883.000000;0.819074
8882.000000;0.818472
8881.000000;0.817654
8880.000000;0.817113
8879.000000;0.817416
8878.000000;0.818504
8877.000000;0.819587
8876.000000;0.819902
8875.000000;0.819506
8874.000000;0.819121
8873.000000;0.819278
8872.000000;0.819828
8871.000000;0.820300
8870.000000;0.820446
8869.000000;0.820338
8868.000000;0.820114
8867.000000;0.819862
8866.000000;0.819662
8865.000000;0.819538
8864.000000;0.819346
8863.000000;0.818881
8862.000000;0.818172
8861.000000;0.817568
8860.000000;0.817430
8859.000000;0.817750
8858.000000;0.818110
8857.000000;0.818051
8856.000000;0.817494
8855.000000;0.816833
8854.000000;0.816609
8853.000000;0.817061
8852.000000;0.817933
8851.000000;0.818678
8850.000000;0.818868
8849.000000;0.818460
8848.000000;0.817730
8847.000000;0.817019
8846.000000;0.816534
8845.000000;0.816361
8844.000000;0.816578
8843.000000;0.817266
8842.000000;0.818360
8841.000000;0.819520
8840.000000;0.820268
8839.000000;0.820310
8838.000000;0.819738
8837.000000;0.818924
8836.000000;0.818251
8835.000000;0.817957
8834.000000;0.818129
8833.000000;0.818699
8832.000000;0.819398
8831.000000;0.819827
8830.000000;0.819724
8829.000000;0.819228
8828.000000;0.818807
8827.000000;0.818823
8826.000000;0.819160
8825.000000;0.819350
8824.000000;0.819081
8823.000000;0.818501
8822.000000;0.818036
8821.000000;0.818005
8820.000000;0.818450
8819.000000;0.819166
8818.000000;0.819787
8817.000000;0.819986
8816.000000;0.819789
8815.000000;0.819635
8814.000000;0.819933
8813.000000;0.820567
8812.000000;0.821037
8811.000000;0.821062
8810.000000;0.820823
8809.000000;0.820554
8808.000000;0.820197
8807.000000;0.819626
8806.000000;0.819010
8805.000000;0.818701
8804.000000;0.818860
8803.000000;0.819370
8802.000000;0.820085
8801.000000;0.820970
8800.000000;0.821947
8799.000000;0.822763
8798.000000;0.823119
8797.000000;0.822936
8796.000000;0.822479
8795.000000;0.822173
8794.000000;0.822252
8793.000000;0.822548
8792.000000;0.822718
8791.000000;0.822680
8790.000000;0.822714
8789.000000;0.823066
8788.000000;0.823580
8787.000000;0.823876
8786.000000;0.823791
8785.000000;0.823490
8784.000000;0.823185
8783.000000;0.822932
8782.000000;0.822736
8781.000000;0.822711
8780.000000;0.823037
8779.000000;0.823743
8778.000000;0.824564
8777.000000;0.825056
8776.000000;0.824990
8775.000000;0.824671
8774.000000;0.824709
8773.000000;0.825374
8772.000000;0.826277
8771.000000;0.826840
8770.000000;0.826953
8769.000000;0.826946
8768.000000;0.826997
8767.000000;0.826893
8766.000000;0.826439
8765.000000;0.825857
8764.000000;0.825599
8763.000000;0.825894
8762.000000;0.826593
8761.000000;0.827365
8760.000000;0.827920
8759.000000;0.828115
8758.000000;0.827969
8757.000000;0.827630
8756.000000;0.827277
8755.000000;0.827055
8754.000000;0.827087
8753.000000;0.827440
8752.000000;0.828033
8751.000000;0.828646
8750.000000;0.829064
8749.000000;0.829260
8748.000000;0.829414
8747.000000;0.829786
8746.000000;0.830483
8745.000000;0.831269
8744.000000;0.831651
8743.000000;0.831302
8742.000000;0.830459
8741.000000;0.829776
8740.000000;0.829718
8739.000000;0.830175
8738.000000;0.830712
8737.000000;0.831066
8736.000000;0.831307
8735.000000;0.831611
8734.000000;0.832017
8733.000000;0.832430
8732.000000;0.832747
8731.000000;0.832962
8730.000000;0.833170
8729.000000;0.833481
8728.000000;0.833889
8727.000000;0.834239
8726.000000;0.834363
8725.000000;0.834258
8724.000000;0.834142
8723.000000;0.834317
8722.000000;0.834942
8721.000000;0.835852
8720.000000;0.836601
8719.000000;0.836778
8718.000000;0.836390
8717.000000;0.835891
8716.000000;0.835791
8715.000000;0.836191
8714.000000;0.836748
8713.000000;0.837061
8712.000000;0.837048
8711.000000;0.836917
8710.000000;0.836831
8709.000000;0.836708
8708.000000;0.836424
8707.000000;0.836127
8706.000000;0.836197
8705.000000;0.836792
8704.000000;0.837580
8703.000000;0.838070
8702.000000;0.838161
8701.000000;0.838183
8700.000000;0.838409
8699.000000;0.838747
8698.000000;0.838980
8697.000000;0.839096
8696.000000;0.839226
8695.000000;0.839376
8694.000000;0.839406
8693.000000;0.839266
8692.000000;0.839086
8691.000000;0.839061
8690.000000;0.839308
8689.000000;0.839797
8688.000000;0.840290
8687.000000;0.840408
8686.000000;0.839958
8685.000000;0.839238
8684.000000;0.838878
8683.000000;0.839312
8682.000000;0.840438
8681.000000;0.841785
8680.000000;0.842866
8679.000000;0.843352
8678.000000;0.843121
8677.000000;0.842373
8676.000000;0.841654
8675.000000;0.841506
8674.000000;0.841995
8673.000000;0.842673
8672.000000;0.843050
8671.000000;0.843022
8670.000000;0.842807
8669.000000;0.842613
8668.000000;0.842505
8667.000000;0.842536
8666.000000;0.842776
8665.000000;0.843169
8664.000000;0.843487
8663.000000;0.843544
8662.000000;0.843399
8661.000000;0.843272
8660.000000;0.843309
8659.000000;0.843546
8658.000000;0.844004
8657.000000;0.844680
8656.000000;0.845428
8655.000000;0.845978
8654.000000;0.846149
8653.000000;0.845974
8652.000000;0.845579
8651.000000;0.845015
8650.000000;0.844303
8649.000000;0.843589
8648.000000;0.843131
8647.000000;0.843124
8646.000000;0.843552
8645.000000;0.844213
8644.000000;0.844845
8643.000000;0.845254
8642.000000;0.845410
8641.000000;0.845441
8640.000000;0.845506
8639.000000;0.845654
8638.000000;0.845802
8637.000000;0.845851
8636.000000;0.845800
8635.000000;0.845726
8634.000000;0.845685
8633.000000;0.845669
8632.000000;0.845669
8631.000000;0.845751
8630.000000;0.846007
8629.000000;0.846371
8628.000000;0.846560
8627.000000;0.846311
8626.000000;0.845716
8625.000000;0.845204
8624.000000;0.845099
8623.000000;0.845272
8622.000000;0.845369
8621.000000;0.845304
8620.000000;0.845354
8619.000000;0.845751
8618.000000;0.846379
8617.000000;0.846952
8616.000000;0.847318
8615.000000;0.847467
8614.000000;0.847399
8613.000000;0.847192
8612.000000;0.847120
8611.000000;0.847417
8610.000000;0.847919
8609.000000;0.848144
8608.000000;0.847831
8607.000000;0.847219
8606.000000;0.846735
8605.000000;0.846565
8604.000000;0.846661
8603.000000;0.847011
8602.000000;0.847670
8601.000000;0.848551
8600.000000;0.849378
8599.000000;0.849887
8598.000000;0.849997
8597.000000;0.849785
8596.000000;0.849382
8595.000000;0.848900
8594.000000;0.848394
8593.000000;0.847898
8592.000000;0.847524
8591.000000;0.847452
8590.000000;0.847706
8589.000000;0.848021
8588.000000;0.848102
8587.000000;0.847987
8586.000000;0.847999
8585.000000;0.848358
8584.000000;0.848958
8583.000000;0.849502
8582.000000;0.849695
8581.000000;0.849348
8580.000000;0.848510
8579.000000;0.847573
8578.000000;0.847044
8577.000000;0.847121
8576.000000;0.847602
8575.000000;0.848210
8574.000000;0.848810
8573.000000;0.849245
8572.000000;0.849255
8571.000000;0.848785
8570.000000;0.848201
8569.000000;0.847944
8568.000000;0.848072
8567.000000;0.848334
8566.000000;0.848558
8565.000000;0.848730
8564.000000;0.848787
8563.000000;0.848643
8562.000000;0.848439
8561.000000;0.848491
8560.000000;0.848866
8559.000000;0.849219
8558.000000;0.849140
8557.000000;0.848564
8556.000000;0.847741
8555.000000;0.846970
8554.000000;0.846452
8553.000000;0.846288
8552.000000;0.846450
8551.000000;0.846770
8550.000000;0.847053
8549.000000;0.847186
8548.000000;0.847147
8547.000000;0.846983
8546.000000;0.846848
8545.000000;0.846950
8544.000000;0.847378
8543.000000;0.847964
8542.000000;0.848411
8541.000000;0.848539
8540.000000;0.848380
8539.000000;0.848093
8538.000000;0.847854
8537.000000;0.847820
8536.000000;0.848082
8535.000000;0.848562
8534.000000;0.848977
8533.000000;0.849027
8532.000000;0.848688
8531.000000;0.848298
8530.000000;0.848245
8529.000000;0.848545
8528.000000;0.848802
8527.000000;0.848626
8526.000000;0.848039
8525.000000;0.847445
8524.000000;0.847304
8523.000000;0.847857
8522.000000;0.849003
8521.000000;0.850266
8520.000000;0.851001
8519.000000;0.850854
8518.000000;0.850074
8517.000000;0.849225
8516.000000;0.848617
8515.000000;0.848155
8514.000000;0.847736
8513.000000;0.847529
8512.000000;0.847725
8511.000000;0.848192
8510.000000;0.848580
8509.000000;0.848716
8508.000000;0.848750
8507.000000;0.848898
8506.000000;0.849167
8505.000000;0.849372
8504.000000;0.849352
8503.000000;0.849131
8502.000000;0.848905
8501.000000;0.848884
8500.000000;0.849137
8499.000000;0.849544
8498.000000;0.849893
8497.000000;0.850014
8496.000000;0.849874
8495.000000;0.849573
8494.000000;0.849279
8493.000000;0.849123
8492.000000;0.849113
8491.000000;0.849146
8490.000000;0.849129
8489.000000;0.849080
8488.000000;0.849115
8487.000000;0.849323
8486.000000;0.849652
8485.000000;0.849945
8484.000000;0.850097
8483.000000;0.850129
8482.000000;0.850081
8481.000000;0.849900
8480.000000;0.849546
8479.000000;0.849188
8478.000000;0.849104
8477.000000;0.849317
8476.000000;0.849479
8475.000000;0.849289
8474.000000;0.848914
8473.000000;0.848828
8472.000000;0.849281
8471.000000;0.850080
8470.000000;0.850859
8469.000000;0.851364
8468.000000;0.851463
8467.000000;0.851121
8466.000000;0.850510
8465.000000;0.850029
8464.000000;0.850043
8463.000000;0.850570
8462.000000;0.851256
8461.000000;0.851638
8460.000000;0.851453
8459.000000;0.850771
8458.000000;0.849901
8457.000000;0.849134
8456.000000;0.848591
8455.000000;0.848309
8454.000000;0.848384
8453.000000;0.848882
8452.000000;0.849633
8451.000000;0.850305
8450.000000;0.850731
8449.000000;0.851022
8448.000000;0.851299
8447.000000;0.851488
8446.000000;0.851487
8445.000000;0.851382
8444.000000;0.851321
8443.000000;0.851234
8442.000000;0.850907
8441.000000;0.850328
8440.000000;0.849789
8439.000000;0.849578
8438.000000;0.849690
8437.000000;0.849897
8436.000000;0.850017
8435.000000;0.850051
8434.000000;0.850100
8433.000000;0.850224
8432.000000;0.850366
8431.000000;0.850389
8430.000000;0.850234
8429.000000;0.850035
8428.000000;0.850022
8427.000000;0.850253
8426.000000;0.850495
8425.000000;0.850478
8424.000000;0.850260
8423.000000;0.850243
8422.000000;0.850719
8421.000000;0.851495
8420.000000;0.852080
8419.000000;0.852262
8418.000000;0.852347
8417.000000;0.852723
8416.000000;0.853288
8415.000000;0.853484
8414.000000;0.852941
8413.000000;0.851955
8412.000000;0.851242
8411.000000;0.851282
8410.000000;0.851935
8409.000000;0.852623
8408.000000;0.852811
8407.000000;0.852356
8406.000000;0.851548
8405.000000;0.850893
8404.000000;0.850796
8403.000000;0.851311
8402.000000;0.852107
8401.000000;0.852705
8400.000000;0.852817
8399.000000;0.852517
8398.000000;0.852129
8397.000000;0.851949
8396.000000;0.852073
8395.000000;0.852389
8394.000000;0.852684
8393.000000;0.852772
8392.000000;0.852614
8391.000000;0.852382
8390.000000;0.852327
8389.000000;0.852579
8388.000000;0.853075
8387.000000;0.853696
8386.000000;0.854355
8385.000000;0.854905
8384.000000;0.855065
8383.000000;0.854616
8382.000000;0.853682
8381.000000;0.852727
8380.000000;0.852214
8379.000000;0.852285
8378.000000;0.852755
8377.000000;0.853315
8376.000000;0.853696
8375.000000;0.853737
8374.000000;0.853393
8373.000000;0.852742
8372.000000;0.851985
8371.000000;0.851416
8370.000000;0.851327
8369.000000;0.851813
8368.000000;0.852637
8367.000000;0.853325
8366.000000;0.853515
8365.000000;0.853293
8364.000000;0.853148
8363.000000;0.853495
8362.000000;0.854196
8361.000000;0.854653
8360.000000;0.854453
8359.000000;0.853837
8358.000000;0.853393
8357.000000;0.853360
8356.000000;0.853442
8355.000000;0.853300
8354.000000;0.852970
8353.000000;0.852646
8352.000000;0.852329
8351.000000;0.851945
8350.000000;0.851681
8349.000000;0.851904
8348.000000;0.852696
8347.000000;0.853671
8346.000000;0.854314
8345.000000;0.854404
8344.000000;0.854099
8343.000000;0.853737
8342.000000;0.853596
8341.000000;0.853709
8340.000000;0.853869
8339.000000;0.853879
8338.000000;0.853807
8337.000000;0.853865
8336.000000;0.854062
8335.000000;0.854143
8334.000000;0.853944
8333.000000;0.853651
8332.000000;0.853590
8331.000000;0.853855
8330.000000;0.854264
8329.000000;0.854575
8328.000000;0.854649
8327.000000;0.854444
8326.000000;0.854017
8325.000000;0.853532
8324.000000;0.853184
8323.000000;0.853052
8322.000000;0.853072
8321.000000;0.853180
8320.000000;0.853422
8319.000000;0.853863
8318.000000;0.854405
8317.000000;0.854772
8316.000000;0.854768
8315.000000;0.854508
8314.000000;0.854289
8313.000000;0.854252
8312.000000;0.854265
8311.000000;0.854178
8310.000000;0.854014
8309.000000;0.853831
8308.000000;0.853544
8307.000000;0.853103
8306.000000;0.852761
8305.000000;0.852926
8304.000000;0.853694
8303.000000;0.854696
8302.000000;0.855456
8301.000000;0.855771
8300.000000;0.855703
8299.000000;0.855378
8298.000000;0.854920
8297.000000;0.854479
8296.000000;0.854182
8295.000000;0.854063
8294.000000;0.854081
8293.000000;0.854187
8292.000000;0.854343
8291.000000;0.854546
8290.000000;0.854819
8289.000000;0.855125
8288.000000;0.855290
8287.000000;0.855136
8286.000000;0.854732
8285.000000;0.854398
8284.000000;0.854402
8283.000000;0.854687
8282.000000;0.854981
8281.000000;0.855083
8280.000000;0.855030
8279.000000;0.855008
8278.000000;0.855163
8277.000000;0.855438
8276.000000;0.855593
8275.000000;0.855431
8274.000000;0.855046
8273.000000;0.854782
8272.000000;0.854889
8271.000000;0.855289
8270.000000;0.855692
8269.000000;0.855862
8268.000000;0.855745
8267.000000;0.855432
8266.000000;0.855097
8265.000000;0.854904
8264.000000;0.854903
8263.000000;0.855005
8262.000000;0.855085
8261.000000;0.855075
8260.000000;0.854956
8259.000000;0.854755
8258.000000;0.854594
8257.000000;0.854660
8256.000000;0.855031
8255.000000;0.855568
8254.000000;0.856025
8253.000000;0.856252
8252.000000;0.856241
8251.000000;0.856019
8250.000000;0.855592
8249.000000;0.855013
8248.000000;0.854491
8247.000000;0.854352
8246.000000;0.854827
8245.000000;0.855791
8244.000000;0.856762
8243.000000;0.857241
8242.000000;0.857063
8241.000000;0.856435
8240.000000;0.855723
8239.000000;0.855295
8238.000000;0.855413
8237.000000;0.856053
8236.000000;0.856832
8235.000000;0.857303
8234.000000;0.857375
8233.000000;0.857281
8232.000000;0.857162
8231.000000;0.856929
8230.000000;0.856597
8229.000000;0.856471
8228.000000;0.856811
8227.000000;0.857433
8226.000000;0.857848
8225.000000;0.857737
8224.000000;0.857179
8223.000000;0.856523
8222.000000;0.856166
8221.000000;0.856349
8220.000000;0.856986
8219.000000;0.857698
8218.000000;0.858106
8217.000000;0.858083
8216.000000;0.857717
8215.000000;0.857171
8214.000000;0.856662
8213.000000;0.856425
8212.000000;0.856523
8211.000000;0.856792
8210.000000;0.857069
8209.000000;0.857361
8208.000000;0.857656
8207.000000;0.857748
8206.000000;0.857506
8205.000000;0.857193
8204.000000;0.857216
8203.000000;0.857602
8202.000000;0.857983
8201.000000;0.858112
8200.000000;0.858120
8199.000000;0.858191
8198.000000;0.858256
8197.000000;0.858159
8196.000000;0.857921
8195.000000;0.857682
8194.000000;0.857513
8193.000000;0.857417
8192.000000;0.857406
8191.000000;0.857450
8190.000000;0.857437
8189.000000;0.857331
8188.000000;0.857292
8187.000000;0.857470
8186.000000;0.857725
8185.000000;0.857748
8184.000000;0.857480
8183.000000;0.857234
8182.000000;0.857307
8181.000000;0.857571
8180.000000;0.857605
8179.000000;0.857236
8178.000000;0.856802
8177.000000;0.856809
8176.000000;0.857361
8175.000000;0.858050
8174.000000;0.858403
8173.000000;0.858350
8172.000000;0.858201
8171.000000;0.858275
8170.000000;0.858645
8169.000000;0.859167
8168.000000;0.859616
8167.000000;0.859788
8166.000000;0.859580
8165.000000;0.859075
8164.000000;0.858527
8163.000000;0.858208
8162.000000;0.858241
8161.000000;0.858548
8160.000000;0.858910
8159.000000;0.859111
8158.000000;0.859094
8157.000000;0.859020
8156.000000;0.859133
8155.000000;0.859527
8154.000000;0.860049
8153.000000;0.860433
8152.000000;0.860508
8151.000000;0.860312
8150.000000;0.860036
8149.000000;0.859875
8148.000000;0.859891
8147.000000;0.860000
8146.000000;0.860089
8145.000000;0.860142
8144.000000;0.860235
8143.000000;0.860406
8142.000000;0.860586
8141.000000;0.860673
8140.000000;0.860644
8139.000000;0.860569
8138.000000;0.860515
8137.000000;0.860448
8136.000000;0.860284
8135.000000;0.860050
8134.000000;0.859924
8133.000000;0.860034
8132.000000;0.860244
8131.000000;0.860275
8130.000000;0.860078
8129.000000;0.859958
8128.000000;0.860213
8127.000000;0.860728
8126.000000;0.861073
8125.000000;0.861001
8124.000000;0.860674
8123.000000;0.860392
8122.000000;0.860244
8121.000000;0.860137
8120.000000;0.860061
8119.000000;0.860159
8118.000000;0.860514
8117.000000;0.860980
8116.000000;0.861290
8115.000000;0.861288
8114.000000;0.861030
8113.000000;0.860703
8112.000000;0.860513
8111.000000;0.860634
8110.000000;0.861146
8109.000000;0.861940
8108.000000;0.862715
8107.000000;0.863166
8106.000000;0.863192
8105.000000;0.862926
8104.000000;0.862585
8103.000000;0.862312
8102.000000;0.862121
8101.000000;0.861916
8100.000000;0.861590
8099.000000;0.861158
8098.000000;0.860772
8097.000000;0.860560
8096.000000;0.860497
8095.000000;0.860525
8094.000000;0.860732
8093.000000;0.861252
8092.000000;0.861978
8091.000000;0.862552
8090.000000;0.862698
8089.000000;0.862455
8088.000000;0.862028
8087.000000;0.861586
8086.000000;0.861275
8085.000000;0.861264
8084.000000;0.861612
8083.000000;0.862146
8082.000000;0.862618
8081.000000;0.862893
8080.000000;0.862931
8079.000000;0.862683
8078.000000;0.862186
8077.000000;0.861664
8076.000000;0.861382
8075.000000;0.861421
8074.000000;0.861699
8073.000000;0.862118
8072.000000;0.862552
8071.000000;0.862796
8070.000000;0.862744
8069.000000;0.862596
8068.000000;0.862667
8067.000000;0.862980
8066.000000;0.863255
8065.000000;0.863302
8064.000000;0.863222
8063.000000;0.863195
8062.000000;0.863265
8061.000000;0.863437
8060.000000;0.863762
8059.000000;0.864180
8058.000000;0.864439
8057.000000;0.864356
8056.000000;0.864069
8055.000000;0.863865
8054.000000;0.863822
8053.000000;0.863753
8052.000000;0.863490
8051.000000;0.863090
8050.000000;0.862758
8049.000000;0.862648
8048.000000;0.862754
8047.000000;0.862955
8046.000000;0.863135
8045.000000;0.863281
8044.000000;0.863468
8043.000000;0.863741
8042.000000;0.864071
8041.000000;0.864394
8040.000000;0.864649
8039.000000;0.864752
8038.000000;0.864630
8037.000000;0.864334
8036.000000;0.864052
8035.000000;0.863949
8034.000000;0.864040
8033.000000;0.864222
8032.000000;0.864386
8031.000000;0.864448
8030.000000;0.864381
8029.000000;0.864271
8028.000000;0.864286
8027.000000;0.864517
8026.000000;0.864862
8025.000000;0.865133
8024.000000;0.865224
8023.000000;0.865156
8022.000000;0.865004
8021.000000;0.864840
8020.000000;0.864704
8019.000000;0.864560
8018.000000;0.864355
8017.000000;0.864150
8016.000000;0.864139
8015.000000;0.864432
8014.000000;0.864900
8013.000000;0.865293
8012.000000;0.865483
8011.000000;0.865523
8010.000000;0.865544
8009.000000;0.865666
8008.000000;0.865929
8007.000000;0.866164
8006.000000;0.866010
8005.000000;0.865281
8004.000000;0.864291
8003.000000;0.863657
8002.000000;0.863726
8001.000000;0.864340
8000.000000;0.865146
7999.000000;0.865943
7998.000000;0.866621
7997.000000;0.866994
7996.000000;0.866952
7995.000000;0.866684
7994.000000;0.866563
7993.000000;0.866773
7992.000000;0.867186
7991.000000;0.867567
7990.000000;0.867763
7989.000000;0.867690
7988.000000;0.867339
7987.000000;0.866894
7986.000000;0.866675
7985.000000;0.866837
7984.000000;0.867169
7983.000000;0.867334
7982.000000;0.867241
7981.000000;0.867076
7980.000000;0.867003
7979.000000;0.866991
7978.000000;0.866963
7977.000000;0.866947
7976.000000;0.867001
7975.000000;0.867088
7974.000000;0.867143
7973.000000;0.867208
7972.000000;0.867378
7971.000000;0.867630
7970.000000;0.867803
7969.000000;0.867756
7968.000000;0.867485
7967.000000;0.867094
7966.000000;0.866748
7965.000000;0.866653
7964.000000;0.866951
7963.000000;0.867549
7962.000000;0.868113
7961.000000;0.868339
7960.000000;0.868235
7959.000000;0.868082
7958.000000;0.868139
7957.000000;0.868440
7956.000000;0.868822
7955.000000;0.869115
7954.000000;0.869254
7953.000000;0.869258
7952.000000;0.869130
7951.000000;0.868837
7950.000000;0.868431
7949.000000;0.868153
7948.000000;0.868280
7947.000000;0.868811
7946.000000;0.869373
7945.000000;0.869564
7944.000000;0.869339
7943.000000;0.869025
7942.000000;0.868965
7941.000000;0.869260
7940.000000;0.869765
7939.000000;0.870236
7938.000000;0.870458
7937.000000;0.870374
7936.000000;0.870121
7935.000000;0.869873
7934.000000;0.869668
7933.000000;0.869462
7932.000000;0.869326
7931.000000;0.869394
7930.000000;0.869604
7929.000000;0.869687
7928.000000;0.869519
7927.000000;0.869348
7926.000000;0.869501
7925.000000;0.869967
7924.000000;0.870445
7923.000000;0.870743
7922.000000;0.870936
7921.000000;0.871135
7920.000000;0.871285
7919.000000;0.871283
7918.000000;0.871159
7917.000000;0.871076
7916.000000;0.871168
7915.000000;0.871414
7914.000000;0.871619
7913.000000;0.871562
7912.000000;0.871227
7911.000000;0.870903
7910.000000;0.870915
7909.000000;0.871269
7908.000000;0.871668
7907.000000;0.871878
7906.000000;0.871925
7905.000000;0.871911
7904.000000;0.871822
7903.000000;0.871648
7902.000000;0.871524
7901.000000;0.871587
7900.000000;0.871768
7899.000000;0.871889
7898.000000;0.871886
7897.000000;0.871810
7896.000000;0.871660
7895.000000;0.871425
7894.000000;0.871252
7893.000000;0.871353
7892.000000;0.871716
7891.000000;0.872061
7890.000000;0.872173
7889.000000;0.872125
7888.000000;0.872129
7887.000000;0.872289
7886.000000;0.872605
7885.000000;0.873067
7884.000000;0.873603
7883.000000;0.874007
7882.000000;0.874085
7881.000000;0.873869
7880.000000;0.873580
7879.000000;0.873410
7878.000000;0.873409
7877.000000;0.873536
7876.000000;0.873686
7875.000000;0.873719
7874.000000;0.873582
7873.000000;0.873445
7872.000000;0.873575
7871.000000;0.874018
7870.000000;0.874504
7869.000000;0.874739
7868.000000;0.874708
7867.000000;0.874623
7866.000000;0.874652
7865.000000;0.874791
7864.000000;0.874960
7863.000000;0.875082
7862.000000;0.875053
7861.000000;0.874766
7860.000000;0.874259
7859.000000;0.873781
7858.000000;0.873614
7857.000000;0.873835
7856.000000;0.874268
7855.000000;0.874690
7854.000000;0.875024
7853.000000;0.875331
7852.000000;0.875662
7851.000000;0.875962
7850.000000;0.876124
7849.000000;0.876115
7848.000000;0.876019
7847.000000;0.875966
7846.000000;0.876012
7845.000000;0.876118
7844.000000;0.876240
7843.000000;0.876404
7842.000000;0.876653
7841.000000;0.876931
7840.000000;0.877095
7839.000000;0.877089
7838.000000;0.877057
7837.000000;0.877201
7836.000000;0.877520
7835.000000;0.877769
7834.000000;0.877713
7833.000000;0.877400
7832.000000;0.877128
7831.000000;0.877131
7830.000000;0.877354
7829.000000;0.877543
7828.000000;0.877537
7827.000000;0.877424
7826.000000;0.877412
7825.000000;0.877590
7824.000000;0.877877
7823.000000;0.878175
7822.000000;0.878494
7821.000000;0.878860
7820.000000;0.879168
7819.000000;0.879232
7818.000000;0.879004
7817.000000;0.878653
7816.000000;0.878387
7815.000000;0.878260
7814.000000;0.878215
7813.000000;0.878253
7812.000000;0.878465
7811.000000;0.878873
7810.000000;0.879355
7809.000000;0.879756
7808.000000;0.880030
7807.000000;0.880213
7806.000000;0.880312
7805.000000;0.880313
7804.000000;0.880269
7803.000000;0.880300
7802.000000;0.880464
7801.000000;0.880676
7800.000000;0.880815
7799.000000;0.880848
7798.000000;0.880828
7797.000000;0.880795
7796.000000;0.880757
7795.000000;0.880755
7794.000000;0.880858
7793.000000;0.881073
7792.000000;0.881285
7791.000000;0.881364
7790.000000;0.881323
7789.000000;0.881330
7788.000000;0.881544
7787.000000;0.881946
7786.000000;0.882320
7785.000000;0.882431
7784.000000;0.882241
7783.000000;0.881969
7782.000000;0.881910
7781.000000;0.882167
7780.000000;0.882586
7779.000000;0.882949
7778.000000;0.883173
7777.000000;0.883285
7776.000000;0.883285
7775.000000;0.883144
7774.000000;0.882936
7773.000000;0.882851
7772.000000;0.883018
7771.000000;0.883352
7770.000000;0.883636
7769.000000;0.883756
7768.000000;0.883793
7767.000000;0.883903
7766.000000;0.884144
7765.000000;0.884447
7764.000000;0.884726
7763.000000;0.884976
7762.000000;0.885228
7761.000000;0.885428
7760.000000;0.885412
7759.000000;0.885078
7758.000000;0.884554
7757.000000;0.884150
7756.000000;0.884096
7755.000000;0.884351
7754.000000;0.884707
7753.000000;0.885030
7752.000000;0.885370
7751.000000;0.885842
7750.000000;0.886461
7749.000000;0.887098
7748.000000;0.887548
7747.000000;0.887632
7746.000000;0.887297
7745.000000;0.886711
7744.000000;0.886208
7743.000000;0.886078
7742.000000;0.886347
7741.000000;0.886779
7740.000000;0.887101
7739.000000;0.887213
7738.000000;0.887191
7737.000000;0.887160
7736.000000;0.887197
7735.000000;0.887334
7734.000000;0.887574
7733.000000;0.887894
7732.000000;0.888255
7731.000000;0.888618
7730.000000;0.888957
7729.000000;0.889238
7728.000000;0.889413
7727.000000;0.889458
7726.000000;0.889433
7725.000000;0.889487
7724.000000;0.889764
7723.000000;0.890258
7722.000000;0.890763
7721.000000;0.891020
7720.000000;0.890958
7719.000000;0.890765
7718.000000;0.890694
7717.000000;0.890831
7716.000000;0.891090
7715.000000;0.891368
7714.000000;0.891652
7713.000000;0.891970
7712.000000;0.892302
7711.000000;0.892564
7710.000000;0.892647
7709.000000;0.892503
7708.000000;0.892239
7707.000000;0.892093
7706.000000;0.892237
7705.000000;0.892587
7704.000000;0.892884
7703.000000;0.892987
7702.000000;0.893016
7701.000000;0.893191
7700.000000;0.893601
7699.000000;0.894134
7698.000000;0.894575
7697.000000;0.894747
7696.000000;0.894641
7695.000000;0.894455
7694.000000;0.894446
7693.000000;0.894692
7692.000000;0.895050
7691.000000;0.895369
7690.000000;0.895647
7689.000000;0.895912
7688.000000;0.896074
7687.000000;0.896034
7686.000000;0.895879
7685.000000;0.895841
7684.000000;0.896043
7683.000000;0.896385
7682.000000;0.896673
7681.000000;0.896797
7680.000000;0.896787
7679.000000;0.896774
7678.000000;0.896914
7677.000000;0.897257
7676.000000;0.897678
7675.000000;0.897995
7674.000000;0.898149
7673.000000;0.898227
7672.000000;0.898346
7671.000000;0.898566
7670.000000;0.898885
7669.000000;0.899229
7668.000000;0.899457
7667.000000;0.899492
7666.000000;0.899483
7665.000000;0.899701
7664.000000;0.900229
7663.000000;0.900822
7662.000000;0.901149
7661.000000;0.901133
7660.000000;0.900994
7659.000000;0.900990
7658.000000;0.901182
7657.000000;0.901423
7656.000000;0.901546
7655.000000;0.901535
7654.000000;0.901542
7653.000000;0.901715
7652.000000;0.902032
7651.000000;0.902336
7650.000000;0.902530
7649.000000;0.902683
7648.000000;0.902916
7647.000000;0.903232
7646.000000;0.903482
7645.000000;0.903509
7644.000000;0.903316
7643.000000;0.903125
7642.000000;0.903217
7641.000000;0.903690
7640.000000;0.904357
7639.000000;0.904913
7638.000000;0.905185
7637.000000;0.905220
7636.000000;0.905185
7635.000000;0.905260
7634.000000;0.905578
7633.000000;0.906135
7632.000000;0.906746
7631.000000;0.907182
7630.000000;0.907395
7629.000000;0.907540
7628.000000;0.907745
7627.000000;0.907964
7626.000000;0.908100
7625.000000;0.908175
7624.000000;0.908284
7623.000000;0.908450
7622.000000;0.908635
7621.000000;0.908870
7620.000000;0.909254
7619.000000;0.909795
7618.000000;0.910321
7617.000000;0.910626
7616.000000;0.910702
7615.000000;0.910770
7614.000000;0.911040
7613.000000;0.911476
7612.000000;0.911843
7611.000000;0.911994
7610.000000;0.912039
7609.000000;0.912153
7608.000000;0.912337
7607.000000;0.912465
7606.000000;0.912534
7605.000000;0.912691
7604.000000;0.913019
7603.000000;0.913433
7602.000000;0.913833
7601.000000;0.914205
7600.000000;0.914504
7599.000000;0.914615
7598.000000;0.914528
7597.000000;0.914474
7596.000000;0.914724
7595.000000;0.915283
7594.000000;0.915891
7593.000000;0.916294
7592.000000;0.916448
7591.000000;0.916513
7590.000000;0.916746
7589.000000;0.917334
7588.000000;0.918216
7587.000000;0.919062
7586.000000;0.919534
7585.000000;0.919591
7584.000000;0.919491
7583.000000;0.919508
7582.000000;0.919729
7581.000000;0.920082
7580.000000;0.920453
7579.000000;0.920743
7578.000000;0.920897
7577.000000;0.920923
7576.000000;0.920858
7575.000000;0.920731
7574.000000;0.920607
7573.000000;0.920631
7572.000000;0.920932
7571.000000;0.921485
7570.000000;0.922125
7569.000000;0.922717
7568.000000;0.923244
7567.000000;0.923726
7566.000000;0.924148
7565.000000;0.924508
7564.000000;0.924860
7563.000000;0.925272
7562.000000;0.925753
7561.000000;0.926256
7560.000000;0.926712
7559.000000;0.927071
7558.000000;0.927336
7557.000000;0.927581
7556.000000;0.927878
7555.000000;0.928183
7554.000000;0.928362
7553.000000;0.928351
7552.000000;0.928259
7551.000000;0.928267
7550.000000;0.928468
7549.000000;0.928806
7548.000000;0.929150
7547.000000;0.929417
7546.000000;0.929660
7545.000000;0.930041
7544.000000;0.930654
7543.000000;0.931356
7542.000000;0.931860
7541.000000;0.932037
7540.000000;0.932078
7539.000000;0.932311
7538.000000;0.932875
7537.000000;0.933621
7536.000000;0.934278
7535.000000;0.934668
7534.000000;0.934820
7533.000000;0.934937
7532.000000;0.935272
7531.000000;0.935920
7530.000000;0.936732
7529.000000;0.937458
7528.000000;0.937980
7527.000000;0.938358
7526.000000;0.938661
7525.000000;0.938847
7524.000000;0.938850
7523.000000;0.938731
7522.000000;0.938669
7521.000000;0.938796
7520.000000;0.939105
7519.000000;0.939506
7518.000000;0.939939
7517.000000;0.940412
7516.000000;0.940952
7515.000000;0.941538
7514.000000;0.942110
7513.000000;0.942611
7512.000000;0.943025
7511.000000;0.943365
7510.000000;0.943633
7509.000000;0.943822
7508.000000;0.943959
7507.000000;0.944132
7506.000000;0.944457
7505.000000;0.944998
7504.000000;0.945698
7503.000000;0.946383
7502.000000;0.946853
7501.000000;0.947035
7500.000000;0.947075
7499.000000;0.947258
7498.000000;0.947777
7497.000000;0.948563
7496.000000;0.949349
7495.000000;0.949911
7494.000000;0.950226
7493.000000;0.950408
7492.000000;0.950559
7491.000000;0.950735
7490.000000;0.950981
7489.000000;0.951389
7488.000000;0.951937
7487.000000;0.952476
7486.000000;0.952831
7485.000000;0.952962
7484.000000;0.953011
7483.000000;0.953185
7482.000000;0.953597
7481.000000;0.954224
7480.000000;0.954952
7479.000000;0.955642
7478.000000;0.956171
7477.000000;0.956495
7476.000000;0.956701
7475.000000;0.956966
7474.000000;0.957391
7473.000000;0.957896
7472.000000;0.958320
7471.000000;0.958613
7470.000000;0.958893
7469.000000;0.959290
7468.000000;0.959795
7467.000000;0.960294
7466.000000;0.960701
7465.000000;0.961014
7464.000000;0.961271
7463.000000;0.961508
7462.000000;0.961770
7461.000000;0.962110
7460.000000;0.962558
7459.000000;0.963096
7458.000000;0.963656
7457.000000;0.964130
7456.000000;0.964436
7455.000000;0.964612
7454.000000;0.964824
7453.000000;0.965225
7452.000000;0.965790
7451.000000;0.966320
7450.000000;0.966642
7449.000000;0.966783
7448.000000;0.966961
7447.000000;0.967385
7446.000000;0.968049
7445.000000;0.968707
7444.000000;0.969096
7443.000000;0.969213
7442.000000;0.969340
7441.000000;0.969766
7440.000000;0.970496
7439.000000;0.971286
7438.000000;0.971908
7437.000000;0.972322
7436.000000;0.972621
7435.000000;0.972905
7434.000000;0.973213
7433.000000;0.973515
7432.000000;0.973729
7431.000000;0.973812
7430.000000;0.973849
7429.000000;0.974006
7428.000000;0.974382
7427.000000;0.974929
7426.000000;0.975520
7425.000000;0.976033
7424.000000;0.976386
7423.000000;0.976571
7422.000000;0.976701
7421.000000;0.976947
7420.000000;0.977400
7419.000000;0.978006
7418.000000;0.978664
7417.000000;0.979313
7416.000000;0.979907
7415.000000;0.980383
7414.000000;0.980713
7413.000000;0.980964
7412.000000;0.981216
7411.000000;0.981475
7410.000000;0.981695
7409.000000;0.981876
7408.000000;0.982087
7407.000000;0.982404
7406.000000;0.982876
7405.000000;0.983517
7404.000000;0.984269
7403.000000;0.984976
7402.000000;0.985446
7401.000000;0.985586
7400.000000;0.985498
7399.000000;0.985431
7398.000000;0.985627
7397.000000;0.986139
7396.000000;0.986817
7395.000000;0.987462
7394.000000;0.987994
7393.000000;0.988442
7392.000000;0.988834
7391.000000;0.989191
7390.000000;0.989600
7389.000000;0.990150
7388.000000;0.990755
7387.000000;0.991148
7386.000000;0.991151
7385.000000;0.990882
7384.000000;0.990612
7383.000000;0.990509
7382.000000;0.990576
7381.000000;0.990758
7380.000000;0.990995
7379.000000;0.991199
7378.000000;0.991325
7377.000000;0.991458
7376.000000;0.991766
7375.000000;0.992321
7374.000000;0.993019
7373.000000;0.993663
7372.000000;0.994101
7371.000000;0.994329
7370.000000;0.994520
7369.000000;0.994939
7368.000000;0.995703
7367.000000;0.996644
7366.000000;0.997461
7365.000000;0.997994
7364.000000;0.998284
7363.000000;0.998449
7362.000000;0.998632
7361.000000;0.999014
7360.000000;0.999678
7359.000000;1.000424
7358.000000;1.000901
7357.000000;1.000991
7356.000000;1.000946
7355.000000;1.001079
7354.000000;1.001428
7353.000000;1.001814
7352.000000;1.002111
7351.000000;1.002324
7350.000000;1.002489
7349.000000;1.002641
7348.000000;1.002878
7347.000000;1.003315
7346.000000;1.003926
7345.000000;1.004524
7344.000000;1.004879
7343.000000;1.004867
7342.000000;1.004572
7341.000000;1.004320
7340.000000;1.004524
7339.000000;1.005346
7338.000000;1.006494
7337.000000;1.007473
7336.000000;1.008045
7335.000000;1.008388
7334.000000;1.008818
7333.000000;1.009485
7332.000000;1.010292
7331.000000;1.011027
7330.000000;1.011521
7329.000000;1.011787
7328.000000;1.012003
7327.000000;1.012324
7326.000000;1.012732
7325.000000;1.013150
7324.000000;1.013652
7323.000000;1.014383
7322.000000;1.015296
7321.000000;1.016177
7320.000000;1.016955
7319.000000;1.017787
7318.000000;1.018721
7317.000000;1.019498
7316.000000;1.019862
7315.000000;1.019927
7314.000000;1.020041
7313.000000;1.020375
7312.000000;1.020844
7311.000000;1.021355
7310.000000;1.021929
7309.000000;1.022599
7308.000000;1.023343
7307.000000;1.024133
7306.000000;1.024930
7305.000000;1.025616
7304.000000;1.026104
7303.000000;1.026525
7302.000000;1.027161
7301.000000;1.028132
7300.000000;1.029263
7299.000000;1.030316
7298.000000;1.031215
7297.000000;1.031969
7296.000000;1.032556
7295.000000;1.033013
7294.000000;1.033550
7293.000000;1.034374
7292.000000;1.035428
7291.000000;1.036457
7290.000000;1.037331
7289.000000;1.038146
7288.000000;1.039031
7287.000000;1.039988
7286.000000;1.040960
7285.000000;1.041937
7284.000000;1.042946
7283.000000;1.043983
7282.000000;1.045030
7281.000000;1.046082
7280.000000;1.047136
7279.000000;1.048185
7278.000000;1.049236
7277.000000;1.050283
7276.000000;1.051294
7275.000000;1.052293
7274.000000;1.053433
7273.000000;1.054875
7272.000000;1.056541
7271.000000;1.058054
7270.000000;1.059074
7269.000000;1.059644
7268.000000;1.060154
7267.000000;1.060930
7266.000000;1.061965
7265.000000;1.063055
7264.000000;1.064138
7263.000000;1.065391
7262.000000;1.066981
7261.000000;1.068793
7260.000000;1.070498
7259.000000;1.071884
7258.000000;1.073030
7257.000000;1.074127
7256.000000;1.075237
7255.000000;1.076315
7254.000000;1.077414
7253.000000;1.078707
7252.000000;1.080279
7251.000000;1.082016
7250.000000;1.083771
7249.000000;1.085530
7248.000000;1.087316
7247.000000;1.089000
7246.000000;1.090353
7245.000000;1.091331
7244.000000;1.092236
7243.000000;1.093506
7242.000000;1.095347
7241.000000;1.097534
7240.000000;1.099630
7239.000000;1.101417
7238.000000;1.103061
7237.000000;1.104847
7236.000000;1.106827
7235.000000;1.108827
7234.000000;1.110754
7233.000000;1.112731
7232.000000;1.114909
7231.000000;1.117252
7230.000000;1.119611
7229.000000;1.121905
7228.000000;1.124161
7227.000000;1.126443
7226.000000;1.128821
7225.000000;1.131376
7224.000000;1.134112
7223.000000;1.136875
7222.000000;1.139494
7221.000000;1.141984
7220.000000;1.144501
7219.000000;1.147118
7218.000000;1.149777
7217.000000;1.152486
7216.000000;1.155383
7215.000000;1.158492
7214.000000;1.161584
7213.000000;1.164421
7212.000000;1.167075
7211.000000;1.169866
7210.000000;1.173014
7209.000000;1.176442
7208.000000;1.179894
7207.000000;1.183155
7206.000000;1.186158
7205.000000;1.188992
7204.000000;1.191836
7203.000000;1.194860
7202.000000;1.198148
7201.000000;1.201682
7200.000000;1.205344
7199.000000;1.208912
7198.000000;1.212175
7197.000000;1.215153
7196.000000;1.218180
7195.000000;1.221665
7194.000000;1.225734
7193.000000;1.230123
7192.000000;1.234415
7191.000000;1.238368
7190.000000;1.242027
7189.000000;1.245606
7188.000000;1.249295
7187.000000;1.253173
7186.000000;1.257206
7185.000000;1.261277
7184.000000;1.265218
7183.000000;1.268921
7182.000000;1.272482
7181.000000;1.276199
7180.000000;1.280332
7179.000000;1.284854
7178.000000;1.289530
7177.000000;1.294217
7176.000000;1.298967
7175.000000;1.303809
7174.000000;1.308563
7173.000000;1.312984
7172.000000;1.317044
7171.000000;1.321017
7170.000000;1.325276
7169.000000;1.330001
7168.000000;1.335059
7167.000000;1.340136
7166.000000;1.345000
7165.000000;1.349638
7164.000000;1.354161
7163.000000;1.358689
7162.000000;1.363339
7161.000000;1.368182
7160.000000;1.373115
7159.000000;1.377894
7158.000000;1.382450
7157.000000;1.387079
7156.000000;1.392105
7155.000000;1.397413
7154.000000;1.402566
7153.000000;1.407379
7152.000000;1.412132
7151.000000;1.417138
7150.000000;1.422357
7149.000000;1.427563
7148.000000;1.432658
7147.000000;1.437675
7146.000000;1.442642
7145.000000;1.447627
7144.000000;1.452759
7143.000000;1.458001
7142.000000;1.463042
7141.000000;1.467669
7140.000000;1.472145
7139.000000;1.476973
7138.000000;1.482256
7137.000000;1.487494
7136.000000;1.492130
7135.000000;1.496179
7134.000000;1.500263
7133.000000;1.505068
7132.000000;1.510749
7131.000000;1.516776
7130.000000;1.522370
7129.000000;1.527183
7128.000000;1.531593
7127.000000;1.536299
7126.000000;1.541635
7125.000000;1.547304
7124.000000;1.552701
7123.000000;1.557435
7122.000000;1.561599
7121.000000;1.565615
7120.000000;1.569852
7119.000000;1.574386
7118.000000;1.579112
7117.000000;1.583983
7116.000000;1.588989
7115.000000;1.593971
7114.000000;1.598736
7113.000000;1.603362
7112.000000;1.608136
7111.000000;1.613033
7110.000000;1.617551
7109.000000;1.621342
7108.000000;1.624822
7107.000000;1.628805
7106.000000;1.633570
7105.000000;1.638554
7104.000000;1.643037
7103.000000;1.646954
7102.000000;1.650889
7101.000000;1.655326
7100.000000;1.660061
7099.000000;1.664470
7098.000000;1.668325
7097.000000;1.672114
7096.000000;1.676361
7095.000000;1.680787
7094.000000;1.684559
7093.000000;1.687446
7092.000000;1.690284
7091.000000;1.693994
7090.000000;1.698545
7089.000000;1.703223
7088.000000;1.707638
7087.000000;1.711986
7086.000000;1.716360
7085.000000;1.720313
7084.000000;1.723321
7083.000000;1.725458
7082.000000;1.727434
7081.000000;1.730092
7080.000000;1.733881
7079.000000;1.738626
7078.000000;1.743664
7077.000000;1.748296
7076.000000;1.752170
7075.000000;1.755324
7074.000000;1.758014
7073.000000;1.760597
7072.000000;1.763379
7071.000000;1.766360
7070.000000;1.769210
7069.000000;1.771626
7068.000000;1.773635
7067.000000;1.775471
7066.000000;1.777408
7065.000000;1.779871
7064.000000;1.783372
7063.000000;1.787958
7062.000000;1.792880
7061.000000;1.797188
7060.000000;1.800627
7059.000000;1.803597
7058.000000;1.806331
7057.000000;1.808614
7056.000000;1.810357
7055.000000;1.811953
7054.000000;1.813835
7053.000000;1.816019
7052.000000;1.818271
7051.000000;1.820505
7050.000000;1.822831
7049.000000;1.825324
7048.000000;1.827921
7047.000000;1.830412
7046.000000;1.832480
7045.000000;1.833921
7044.000000;1.834982
7043.000000;1.836297
7042.000000;1.838281
7041.000000;1.840707
7040.000000;1.843025
7039.000000;1.845011
7038.000000;1.846860
7037.000000;1.848744
7036.000000;1.850547
7035.000000;1.852176
7034.000000;1.853928
7033.000000;1.856294
7032.000000;1.859268
7031.000000;1.862059
7030.000000;1.863711
7029.000000;1.864038
7028.000000;1.863768
7027.000000;1.863769
7026.000000;1.864395
7025.000000;1.865637
7024.000000;1.867472
7023.000000;1.869698
7022.000000;1.871685
7021.000000;1.872859
7020.000000;1.873522
7019.000000;1.874727
7018.000000;1.877163
7017.000000;1.880423
7016.000000;1.883551
7015.000000;1.886014
7014.000000;1.887873
7013.000000;1.889266
7012.000000;1.890168
7011.000000;1.890631
7010.000000;1.890909
7009.000000;1.891215
7008.000000;1.891489
7007.000000;1.891469
7006.000000;1.890941
7005.000000;1.889977
7004.000000;1.889133
7003.000000;1.889307
7002.000000;1.890994
7001.000000;1.893494
7000.000000;1.895227
6999.000000;1.895255
6998.000000;1.894394
6997.000000;1.894435
6996.000000;1.896269
6995.000000;1.899094
6994.000000;1.901504
6993.000000;1.903026
6992.000000;1.904344
6991.000000;1.906153
6990.000000;1.908176
6989.000000;1.909407
6988.000000;1.909242
6987.000000;1.908254
6986.000000;1.907742
6985.000000;1.908483
6984.000000;1.910019
6983.000000;1.911259
6982.000000;1.911624
6981.000000;1.911376
6980.000000;1.911032
6979.000000;1.910983
6978.000000;1.911663
6977.000000;1.913410
6976.000000;1.915713
6975.000000;1.917169
6974.000000;1.916869
6973.000000;1.915577
6972.000000;1.914864
6971.000000;1.915299
6970.000000;1.916104
6969.000000;1.916429
6968.000000;1.916287
6967.000000;1.916133
6966.000000;1.916166
6965.000000;1.916385
6964.000000;1.916863
6963.000000;1.917541
6962.000000;1.918063
6961.000000;1.918168
6960.000000;1.918017
6959.000000;1.917893
6958.000000;1.917827
6957.000000;1.917796
6956.000000;1.917979
6955.000000;1.918490
6954.000000;1.919054
6953.000000;1.919283
6952.000000;1.919189
6951.000000;1.919156
6950.000000;1.919410
6949.000000;1.919794
6948.000000;1.920085
6947.000000;1.920318
6946.000000;1.920675
6945.000000;1.921159
6944.000000;1.921499
6943.000000;1.921408
6942.000000;1.920949
6941.000000;1.920587
6940.000000;1.920735
6939.000000;1.921278
6938.000000;1.921669
6937.000000;1.921535
6936.000000;1.921020
6935.000000;1.920473
6934.000000;1.920000
6933.000000;1.919416
6932.000000;1.918551
6931.000000;1.917592
6930.000000;1.917153
6929.000000;1.917845
6928.000000;1.919558
6927.000000;1.921264
6926.000000;1.921842
6925.000000;1.921177
6924.000000;1.920122
6923.000000;1.919355
6922.000000;1.918815
6921.000000;1.918435
6920.000000;1.918749
6919.000000;1.920191
6918.000000;1.922152
6917.000000;1.923387
6916.000000;1.923339
6915.000000;1.922514
6914.000000;1.921534
6913.000000;1.920433
6912.000000;1.919065
6911.000000;1.917669
6910.000000;1.916636
6909.000000;1.915924
6908.000000;1.915089
6907.000000;1.913889
6906.000000;1.912690
6905.000000;1.912182
6904.000000;1.912763
6903.000000;1.914204
6902.000000;1.915799
6901.000000;1.916784
6900.000000;1.916792
6899.000000;1.916091
6898.000000;1.915418
6897.000000;1.915385
6896.000000;1.915916
6895.000000;1.916344
6894.000000;1.916122
6893.000000;1.915327
6892.000000;1.914341
6891.000000;1.913253
6890.000000;1.911889
6889.000000;1.910341
6888.000000;1.909126
6887.000000;1.908709
6886.000000;1.909061
6885.000000;1.909748
6884.000000;1.910329
6883.000000;1.910646
6882.000000;1.910869
6881.000000;1.911266
6880.000000;1.911810
6879.000000;1.912089
6878.000000;1.911776
6877.000000;1.911075
6876.000000;1.910484
6875.000000;1.910188
6874.000000;1.910025
6873.000000;1.909985
6872.000000;1.910329
6871.000000;1.911079
6870.000000;1.911748
6869.000000;1.911829
6868.000000;1.911276
6867.000000;1.910323
6866.000000;1.909147
6865.000000;1.907961
6864.000000;1.907154
6863.000000;1.906899
6862.000000;1.906667
6861.000000;1.905570
6860.000000;1.903366
6859.000000;1.900949
6858.000000;1.899734
6857.000000;1.900468
6856.000000;1.902449
6855.000000;1.903905
6854.000000;1.903459
6853.000000;1.901400
6852.000000;1.899307
6851.000000;1.898417
6850.000000;1.898625
6849.000000;1.899026
6848.000000;1.899056
6847.000000;1.898832
6846.000000;1.898656
6845.000000;1.898553
6844.000000;1.898264
6843.000000;1.897465
6842.000000;1.896151
6841.000000;1.894936
6840.000000;1.894679
6839.000000;1.895499
6838.000000;1.896384
6837.000000;1.896099
6836.000000;1.894374
6835.000000;1.891928
6834.000000;1.889506
6833.000000;1.887338
6832.000000;1.885501
6831.000000;1.884143
6830.000000;1.883197
6829.000000;1.882367
6828.000000;1.881529
6827.000000;1.880797
6826.000000;1.880139
6825.000000;1.879282
6824.000000;1.878198
6823.000000;1.877336
6822.000000;1.877006
6821.000000;1.876739
6820.000000;1.875650
6819.000000;1.873378
6818.000000;1.870382
6817.000000;1.867343
6816.000000;1.864619
6815.000000;1.862320
6814.000000;1.860578
6813.000000;1.859439
6812.000000;1.858651
6811.000000;1.857786
6810.000000;1.856609
6809.000000;1.855195
6808.000000;1.853671
6807.000000;1.851990
6806.000000;1.850046
6805.000000;1.847895
6804.000000;1.845758
6803.000000;1.843869
6802.000000;1.842369
6801.000000;1.841260
6800.000000;1.840310
6799.000000;1.839058
6798.000000;1.837177
6797.000000;1.834941
6796.000000;1.833144
6795.000000;1.832305
6794.000000;1.831988
6793.000000;1.831106
6792.000000;1.829021
6791.000000;1.826191
6790.000000;1.823578
6789.000000;1.821591
6788.000000;1.819892
6787.000000;1.818171
6786.000000;1.816671
6785.000000;1.815720
6784.000000;1.815008
6783.000000;1.813828
6782.000000;1.811982
6781.000000;1.810005
6780.000000;1.808359
6779.000000;1.806814
6778.000000;1.804833
6777.000000;1.802222
6776.000000;1.799182
6775.000000;1.796084
6774.000000;1.793528
6773.000000;1.792228
6772.000000;1.792239
6771.000000;1.792444
6770.000000;1.791414
6769.000000;1.788925
6768.000000;1.786142
6767.000000;1.784173
6766.000000;1.782951
6765.000000;1.781682
6764.000000;1.779897
6763.000000;1.777712
6762.000000;1.775354
6761.000000;1.772853
6760.000000;1.770151
6759.000000;1.767238
6758.000000;1.764270
6757.000000;1.761673
6756.000000;1.759909
6755.000000;1.758895
6754.000000;1.757793
6753.000000;1.755681
6752.000000;1.752474
6751.000000;1.749005
6750.000000;1.746251
6749.000000;1.744643
6748.000000;1.743975
6747.000000;1.743654
6746.000000;1.742944
6745.000000;1.741264
6744.000000;1.738511
6743.000000;1.735123
6742.000000;1.731789
6741.000000;1.729024
6740.000000;1.726930
6739.000000;1.725267
6738.000000;1.723754
6737.000000;1.722310
6736.000000;1.720958
6735.000000;1.719504
6734.000000;1.717472
6733.000000;1.714555
6732.000000;1.711122
6731.000000;1.708117
6730.000000;1.706327
6729.000000;1.705725
6728.000000;1.705504
6727.000000;1.704745
6726.000000;1.703100
6725.000000;1.700863
6724.000000;1.698511
6723.000000;1.696296
6722.000000;1.694274
6721.000000;1.692517
6720.000000;1.691073
6719.000000;1.689766
6718.000000;1.688232
6717.000000;1.686230
6716.000000;1.683810
6715.000000;1.681194
6714.000000;1.678614
6713.000000;1.676306
6712.000000;1.674433
6711.000000;1.672930
6710.000000;1.671531
6709.000000;1.670080
6708.000000;1.668641
6707.000000;1.667220
6706.000000;1.665545
6705.000000;1.663341
6704.000000;1.660725
6703.000000;1.658124
6702.000000;1.655821
6701.000000;1.653770
6700.000000;1.651808
6699.000000;1.649853
6698.000000;1.647864
6697.000000;1.645878
6696.000000;1.644045
6695.000000;1.642594
6694.000000;1.641486
6693.000000;1.640281
6692.000000;1.638557
6691.000000;1.636345
6690.000000;1.634073
6689.000000;1.632110
6688.000000;1.630494
6687.000000;1.629002
6686.000000;1.627305
6685.000000;1.625111
6684.000000;1.622414
6683.000000;1.619641
6682.000000;1.617343
6681.000000;1.615597
6680.000000;1.613884
6679.000000;1.611698
6678.000000;1.609172
6677.000000;1.606935
6676.000000;1.605421
6675.000000;1.604519
6674.000000;1.603792
6673.000000;1.602799
6672.000000;1.601234
6671.000000;1.599028
6670.000000;1.596470
6669.000000;1.594040
6668.000000;1.591984
6667.000000;1.590149
6666.000000;1.588285
6665.000000;1.586348
6664.000000;1.584455
6663.000000;1.582729
6662.000000;1.581294
6661.000000;1.580210
6660.000000;1.579249
6659.000000;1.577933
6658.000000;1.576021
6657.000000;1.573861
6656.000000;1.572050
6655.000000;1.570798
6654.000000;1.569797
6653.000000;1.568612
6652.000000;1.567001
6651.000000;1.564928
6650.000000;1.562523
6649.000000;1.560069
6648.000000;1.557840
6647.000000;1.555920
6646.000000;1.554242
6645.000000;1.552735
6644.000000;1.551306
6643.000000;1.549792
6642.000000;1.548159
6641.000000;1.546643
6640.000000;1.545438
6639.000000;1.544289
6638.000000;1.542712
6637.000000;1.540642
6636.000000;1.538539
6635.000000;1.536756
6634.000000;1.535089
6633.000000;1.533134
6632.000000;1.530879
6631.000000;1.528724
6630.000000;1.527032
6629.000000;1.525815
6628.000000;1.524777
6627.000000;1.523546
6626.000000;1.521947
6625.000000;1.520152
6624.000000;1.518494
6623.000000;1.517084
6622.000000;1.515683
6621.000000;1.514037
6620.000000;1.512206
6619.000000;1.510467
6618.000000;1.508976
6617.000000;1.507647
6616.000000;1.506316
6615.000000;1.504940
6614.000000;1.503609
6613.000000;1.502395
6612.000000;1.501189
6611.000000;1.499740
6610.000000;1.497952
6609.000000;1.496069
6608.000000;1.494423
6607.000000;1.493012
6606.000000;1.491506
6605.000000;1.489686
6604.000000;1.487724
6603.000000;1.485964
6602.000000;1.484629
6601.000000;1.483780
6600.000000;1.483319
6599.000000;1.482887
6598.000000;1.481954
6597.000000;1.480242
6596.000000;1.478010
6595.000000;1.475801
6594.000000;1.473966
6593.000000;1.472506
6592.000000;1.471249
6591.000000;1.470009
6590.000000;1.468674
6589.000000;1.467256
6588.000000;1.465862
6587.000000;1.464556
6586.000000;1.463315
6585.000000;1.462153
6584.000000;1.461130
6583.000000;1.460159
6582.000000;1.458975
6581.000000;1.457446
6580.000000;1.455765
6579.000000;1.454187
6578.000000;1.452701
6577.000000;1.451162
6576.000000;1.449596
6575.000000;1.448155
6574.000000;1.446841
6573.000000;1.445509
6572.000000;1.444148
6571.000000;1.442894
6570.000000;1.441771
6569.000000;1.440617
6568.000000;1.439318
6567.000000;1.437931
6566.000000;1.436516
6565.000000;1.435000
6564.000000;1.433336
6563.000000;1.431667
6562.000000;1.430234
6561.000000;1.429147
6560.000000;1.428264
6559.000000;1.427268
6558.000000;1.425885
6557.000000;1.424144
6556.000000;1.422411
6555.000000;1.421079
6554.000000;1.420223
6553.000000;1.419598
6552.000000;1.418931
6551.000000;1.418067
6550.000000;1.416905
6549.000000;1.415406
6548.000000;1.413733
6547.000000;1.412203
6546.000000;1.410984
6545.000000;1.409961
6544.000000;1.408950
6543.000000;1.407950
6542.000000;1.407083
6541.000000;1.406386
6540.000000;1.405771
6539.000000;1.405110
6538.000000;1.404269
6537.000000;1.403107
6536.000000;1.401576
6535.000000;1.399789
6534.000000;1.397949
6533.000000;1.396214
6532.000000;1.394678
6531.000000;1.393394
6530.000000;1.392321
6529.000000;1.391309
6528.000000;1.390228
6527.000000;1.389111
6526.000000;1.388101
6525.000000;1.387270
6524.000000;1.386551
6523.000000;1.385816
6522.000000;1.384958
6521.000000;1.383903
6520.000000;1.382643
6519.000000;1.381293
6518.000000;1.380032
6517.000000;1.378962
6516.000000;1.378045
6515.000000;1.377182
6514.000000;1.376300
6513.000000;1.375338
6512.000000;1.374224
6511.000000;1.372967
6510.000000;1.371719
6509.000000;1.370677
6508.000000;1.369858
6507.000000;1.369058
6506.000000;1.368065
6505.000000;1.366891
6504.000000;1.365747
6503.000000;1.364801
6502.000000;1.364028
6501.000000;1.363295
6500.000000;1.362509
6499.000000;1.361658
6498.000000;1.360758
6497.000000;1.359811
6496.000000;1.358808
6495.000000;1.357710
6494.000000;1.356480
6493.000000;1.355171
6492.000000;1.353955
6491.000000;1.352968
6490.000000;1.352161
6489.000000;1.351389
6488.000000;1.350618
6487.000000;1.349918
6486.000000;1.349239
6485.000000;1.348348
6484.000000;1.347107
6483.000000;1.345704
6482.000000;1.344447
6481.000000;1.343405
6480.000000;1.342410
6479.000000;1.341388
6478.000000;1.340486
6477.000000;1.339801
6476.000000;1.339169
6475.000000;1.338357
6474.000000;1.337363
6473.000000;1.336391
6472.000000;1.335557
6471.000000;1.334783
6470.000000;1.333942
6469.000000;1.333014
6468.000000;1.332057
6467.000000;1.331147
6466.000000;1.330381
6465.000000;1.329814
6464.000000;1.329344
6463.000000;1.328739
6462.000000;1.327852
6461.000000;1.326752
6460.000000;1.325595
6459.000000;1.324433
6458.000000;1.323246
6457.000000;1.322096
6456.000000;1.321121
6455.000000;1.320376
6454.000000;1.319742
6453.000000;1.319041
6452.000000;1.318198
6451.000000;1.317308
6450.000000;1.316566
6449.000000;1.316091
6448.000000;1.315760
6447.000000;1.315262
6446.000000;1.314416
6445.000000;1.313413
6444.000000;1.312623
6443.000000;1.312156
6442.000000;1.311728
6441.000000;1.310989
6440.000000;1.309893
6439.000000;1.308693
6438.000000;1.307650
6437.000000;1.306862
6436.000000;1.306272
6435.000000;1.305742
6434.000000;1.305111
6433.000000;1.304294
6432.000000;1.303351
6431.000000;1.302425
6430.000000;1.301605
6429.000000;1.300856
6428.000000;1.300080
6427.000000;1.299228
6426.000000;1.298343
6425.000000;1.297512
6424.000000;1.296773
6423.000000;1.296072
6422.000000;1.295329
6421.000000;1.294541
6420.000000;1.293786
6419.000000;1.293103
6418.000000;1.292449
6417.000000;1.291781
6416.000000;1.291143
6415.000000;1.290602
6414.000000;1.290138
6413.000000;1.289640
6412.000000;1.289010
6411.000000;1.288232
6410.000000;1.287343
6409.000000;1.286406
6408.000000;1.285491
6407.000000;1.284666
6406.000000;1.283972
6405.000000;1.283411
6404.000000;1.282933
6403.000000;1.282448
6402.000000;1.281861
6401.000000;1.281131
6400.000000;1.280287
6399.000000;1.279404
6398.000000;1.278581
6397.000000;1.277917
6396.000000;1.277431
6395.000000;1.277003
6394.000000;1.276454
6393.000000;1.275732
6392.000000;1.274959
6391.000000;1.274263
6390.000000;1.273646
6389.000000;1.273044
6388.000000;1.272445
6387.000000;1.271852
6386.000000;1.271226
6385.000000;1.270535
6384.000000;1.269835
6383.000000;1.269194
6382.000000;1.268580
6381.000000;1.267926
6380.000000;1.267280
6379.000000;1.266762
6378.000000;1.266369
6377.000000;1.265931
6376.000000;1.265297
6375.000000;1.264496
6374.000000;1.263670
6373.000000;1.262936
6372.000000;1.262333
6371.000000;1.261838
6370.000000;1.261386
6369.000000;1.260924
6368.000000;1.260462
6367.000000;1.260035
6366.000000;1.259599
6365.000000;1.259054
6364.000000;1.258377
6363.000000;1.257669
6362.000000;1.257013
6361.000000;1.256379
6360.000000;1.255715
6359.000000;1.255063
6358.000000;1.254482
6357.000000;1.253935
6356.000000;1.253312
6355.000000;1.252586
6354.000000;1.251832
6353.000000;1.251118
6352.000000;1.250447
6351.000000;1.249813
6350.000000;1.249261
6349.000000;1.248836
6348.000000;1.248506
6347.000000;1.248186
6346.000000;1.247815
6345.000000;1.247410
6344.000000;1.247013
6343.000000;1.246614
6342.000000;1.246127
6341.000000;1.245481
6340.000000;1.244725
6339.000000;1.244005
6338.000000;1.243417
6337.000000;1.242939
6336.000000;1.242510
6335.000000;1.242129
6334.000000;1.241806
6333.000000;1.241477
6332.000000;1.241039
6331.000000;1.240483
6330.000000;1.239904
6329.000000;1.239369
6328.000000;1.238849
6327.000000;1.238285
6326.000000;1.237684
6325.000000;1.237105
6324.000000;1.236595
6323.000000;1.236183
6322.000000;1.235882
6321.000000;1.235643
6320.000000;1.235343
6319.000000;1.234856
6318.000000;1.234172
6317.000000;1.233392
6316.000000;1.232638
6315.000000;1.231982
6314.000000;1.231453
6313.000000;1.231024
6312.000000;1.230610
6311.000000;1.230134
6310.000000;1.229619
6309.000000;1.229183
6308.000000;1.228879
6307.000000;1.228606
6306.000000;1.228197
6305.000000;1.227605
6304.000000;1.226947
6303.000000;1.226380
6302.000000;1.225970
6301.000000;1.225686
6300.000000;1.225470
6299.000000;1.225287
6298.000000;1.225123
6297.000000;1.224948
6296.000000;1.224683
6295.000000;1.224239
6294.000000;1.223600
6293.000000;1.222883
6292.000000;1.222250
6291.000000;1.221775
6290.000000;1.221402
6289.000000;1.221041
6288.000000;1.220665
6287.000000;1.220291
6286.000000;1.219915
6285.000000;1.219511
6284.000000;1.219071
6283.000000;1.218623
6282.000000;1.218217
6281.000000;1.217888
6280.000000;1.217626
6279.000000;1.217369
6278.000000;1.217041
6277.000000;1.216630
6276.000000;1.216189
6275.000000;1.215771
6274.000000;1.215376
6273.000000;1.215002
6272.000000;1.214687
6271.000000;1.214462
6270.000000;1.214274
6269.000000;1.214011
6268.000000;1.213615
6267.000000;1.213134
6266.000000;1.212667
6265.000000;1.212274
6264.000000;1.211952
6263.000000;1.211645
6262.000000;1.211281
6261.000000;1.210826
6260.000000;1.210324
6259.000000;1.209865
6258.000000;1.209509
6257.000000;1.209244
6256.000000;1.209016
6255.000000;1.208778
6254.000000;1.208519
6253.000000;1.208274
6252.000000;1.208096
6251.000000;1.208000
6250.000000;1.207908
6249.000000;1.207697
6248.000000;1.207313
6247.000000;1.206818
6246.000000;1.206320
6245.000000;1.205883
6244.000000;1.205494
6243.000000;1.205100
6242.000000;1.204665
6241.000000;1.204209
6240.000000;1.203793
6239.000000;1.203468
6238.000000;1.203222
6237.000000;1.202997
6236.000000;1.202734
6235.000000;1.202390
6234.000000;1.201947
6233.000000;1.201445
6232.000000;1.200999
6231.000000;1.200718
6230.000000;1.200603
6229.000000;1.200545
6228.000000;1.200444
6227.000000;1.200272
6226.000000;1.200013
6225.000000;1.199637
6224.000000;1.199151
6223.000000;1.198652
6222.000000;1.198242
6221.000000;1.197943
6220.000000;1.197699
6219.000000;1.197463
6218.000000;1.197234
6217.000000;1.197043
6216.000000;1.196927
6215.000000;1.196901
6214.000000;1.196912
6213.000000;1.196841
6212.000000;1.196589
6211.000000;1.196159
6210.000000;1.195640
6209.000000;1.195139
6208.000000;1.194746
6207.000000;1.194510
6206.000000;1.194392
6205.000000;1.194252
6204.000000;1.193956
6203.000000;1.193487
6202.000000;1.192955
6201.000000;1.192495
6200.000000;1.192194
6199.000000;1.192090
6198.000000;1.192149
6197.000000;1.192245
6196.000000;1.192224
6195.000000;1.192018
6194.000000;1.191690
6193.000000;1.191364
6192.000000;1.191125
6191.000000;1.190983
6190.000000;1.190865
6189.000000;1.190646
6188.000000;1.190229
6187.000000;1.189634
6186.000000;1.188998
6185.000000;1.188455
6184.000000;1.188061
6183.000000;1.187804
6182.000000;1.187658
6181.000000;1.187588
6180.000000;1.187544
6179.000000;1.187494
6178.000000;1.187438
6177.000000;1.187376
6176.000000;1.187265
6175.000000;1.187059
6174.000000;1.186769
6173.000000;1.186467
6172.000000;1.186217
6171.000000;1.186026
6170.000000;1.185847
6169.000000;1.185630
6168.000000;1.185347
6167.000000;1.185006
6166.000000;1.184631
6165.000000;1.184242
6164.000000;1.183867
6163.000000;1.183570
6162.000000;1.183444
6161.000000;1.183517
6160.000000;1.183687
6159.000000;1.183758
6158.000000;1.183590
6157.000000;1.183198
6156.000000;1.182737
6155.000000;1.182382
6154.000000;1.182211
6153.000000;1.182161
6152.000000;1.182080
6151.000000;1.181856
6150.000000;1.181520
6149.000000;1.181231
6148.000000;1.181130
6147.000000;1.181204
6146.000000;1.181290
6145.000000;1.181232
6144.000000;1.181020
6143.000000;1.180771
6142.000000;1.180583
6141.000000;1.180438
6140.000000;1.180260
6139.000000;1.180034
6138.000000;1.179825
6137.000000;1.179698
6136.000000;1.179643
6135.000000;1.179589
6134.000000;1.179480
6133.000000;1.179303
6132.000000;1.179069
6131.000000;1.178799
6130.000000;1.178533
6129.000000;1.178326
6128.000000;1.178221
6127.000000;1.178200
6126.000000;1.178192
6125.000000;1.178111
6124.000000;1.177918
6123.000000;1.177631
6122.000000;1.177303
6121.000000;1.177003
6120.000000;1.176801
6119.000000;1.176740
6118.000000;1.176789
6117.000000;1.176841
6116.000000;1.176789
6115.000000;1.176587
6114.000000;1.176258
6113.000000;1.175841
6112.000000;1.175379
6111.000000;1.174945
6110.000000;1.174647
6109.000000;1.174555
6108.000000;1.174635
6107.000000;1.174762
6106.000000;1.174825
6105.000000;1.174808
6104.000000;1.174778
6103.000000;1.174789
6102.000000;1.174821
6101.000000;1.174801
6100.000000;1.174695
6099.000000;1.174532
6098.000000;1.174352
6097.000000;1.174164
6096.000000;1.173974
6095.000000;1.173830
6094.000000;1.173778
6093.000000;1.173788
6092.000000;1.173766
6091.000000;1.173645
6090.000000;1.173435
6089.000000;1.173175
6088.000000;1.172880
6087.000000;1.172565
6086.000000;1.172281
6085.000000;1.172097
6084.000000;1.172041
6083.000000;1.172071
6082.000000;1.172113
6081.000000;1.172108
6080.000000;1.172038
6079.000000;1.171917
6078.000000;1.171773
6077.000000;1.171637
6076.000000;1.171549
6075.000000;1.171533
6074.000000;1.171556
6073.000000;1.171551
6072.000000;1.171486
6071.000000;1.171413
6070.000000;1.171390
6069.000000;1.171375
6068.000000;1.171277
6067.000000;1.171111
6066.000000;1.171033
6065.000000;1.171169
6064.000000;1.171439
6063.000000;1.171626
6062.000000;1.171591
6061.000000;1.171391
6060.000000;1.171182
6059.000000;1.171067
6058.000000;1.171038
6057.000000;1.171014
6056.000000;1.170913
6055.000000;1.170715
6054.000000;1.170466
6053.000000;1.170233
6052.000000;1.170058
6051.000000;1.169956
6050.000000;1.169949
6049.000000;1.170050
6048.000000;1.170216
6047.000000;1.170327
6046.000000;1.170270
6045.000000;1.170036
6044.000000;1.169744
6043.000000;1.169543
6042.000000;1.169487
6041.000000;1.169505
6040.000000;1.169504
6039.000000;1.169481
6038.000000;1.169513
6037.000000;1.169641
6036.000000;1.169778
6035.000000;1.169789
6034.000000;1.169638
6033.000000;1.169433
6032.000000;1.169315
6031.000000;1.169329
6030.000000;1.169419
6029.000000;1.169511
6028.000000;1.169587
6027.000000;1.169658
6026.000000;1.169723
6025.000000;1.169765
6024.000000;1.169792
6023.000000;1.169841
6022.000000;1.169926
6021.000000;1.169996
6020.000000;1.169986
6019.000000;1.169888
6018.000000;1.169761
6017.000000;1.169649
6016.000000;1.169542
6015.000000;1.169428
6014.000000;1.169352
6013.000000;1.169352
6012.000000;1.169380
6011.000000;1.169328
6010.000000;1.169170
6009.000000;1.169020
6008.000000;1.169025
6007.000000;1.169210
6006.000000;1.169468
6005.000000;1.169676
6004.000000;1.169796
6003.000000;1.169878
6002.000000;1.169988
6001.000000;1.170145
6000.000000;1.170307
5999.000000;1.170401
5998.000000;1.170392
5997.000000;1.170314
5996.000000;1.170243
5995.000000;1.170228
5994.000000;1.170259
5993.000000;1.170322
5992.000000;1.170445
5991.000000;1.170670
5990.000000;1.170967
5989.000000;1.171234
5988.000000;1.171386
5987.000000;1.171429
5986.000000;1.171440
5985.000000;1.171494
5984.000000;1.171627
5983.000000;1.171847
5982.000000;1.172117
5981.000000;1.172353
5980.000000;1.172484
5979.000000;1.172528
5978.000000;1.172570
5977.000000;1.172653
5976.000000;1.172737
5975.000000;1.172768
5974.000000;1.172765
5973.000000;1.172801
5972.000000;1.172927
5971.000000;1.173142
5970.000000;1.173413
5969.000000;1.173693
5968.000000;1.173923
5967.000000;1.174068
5966.000000;1.174141
5965.000000;1.174192
5964.000000;1.174275
5963.000000;1.174437
5962.000000;1.174732
5961.000000;1.175182
5960.000000;1.175734
5959.000000;1.176262
5958.000000;1.176646
5957.000000;1.176850
5956.000000;1.176938
5955.000000;1.177022
5954.000000;1.177186
5953.000000;1.177448
5952.000000;1.177764
5951.000000;1.178074
5950.000000;1.178351
5949.000000;1.178621
5948.000000;1.178932
5947.000000;1.179303
5946.000000;1.179688
5945.000000;1.179989
5944.000000;1.180138
5943.000000;1.180163
5942.000000;1.180157
5941.000000;1.180195
5940.000000;1.180307
5939.000000;1.180509
5938.000000;1.180828
5937.000000;1.181253
5936.000000;1.181706
5935.000000;1.182092
5934.000000;1.182378
5933.000000;1.182601
5932.000000;1.182809
5931.000000;1.183030
5930.000000;1.183266
5929.000000;1.183513
5928.000000;1.183772
5927.000000;1.184054
5926.000000;1.184356
5925.000000;1.184644
5924.000000;1.184866
5923.000000;1.185014
5922.000000;1.185140
5921.000000;1.185305
5920.000000;1.185526
5919.000000;1.185798
5918.000000;1.186115
5917.000000;1.186439
5916.000000;1.186683
5915.000000;1.186781
5914.000000;1.186762
5913.000000;1.186718
5912.000000;1.186702
5911.000000;1.186690
5910.000000;1.186643
5909.000000;1.186551
5908.000000;1.186443
5907.000000;1.186389
5906.000000;1.186476
5905.000000;1.186729
5904.000000;1.187043
5903.000000;1.187260
5902.000000;1.187340
5901.000000;1.187403
5900.000000;1.187560
5899.000000;1.187779
5898.000000;1.187947
5897.000000;1.188043
5896.000000;1.188159
5895.000000;1.188356
5894.000000;1.188571
5893.000000;1.188669
5892.000000;1.188588
5891.000000;1.188399
5890.000000;1.188247
5889.000000;1.188242
5888.000000;1.188389
5887.000000;1.188608
5886.000000;1.188800
5885.000000;1.188913
5884.000000;1.188956
5883.000000;1.188972
5882.000000;1.189007
5881.000000;1.189085
5880.000000;1.189202
5879.000000;1.189327
5878.000000;1.189441
5877.000000;1.189570
5876.000000;1.189775
5875.000000;1.190093
5874.000000;1.190469
5873.000000;1.190780
5872.000000;1.190940
5871.000000;1.191000
5870.000000;1.191116
5869.000000;1.191393
5868.000000;1.191781
5867.000000;1.192121
5866.000000;1.192300
5865.000000;1.192334
5864.000000;1.192345
5863.000000;1.192474
5862.000000;1.192804
5861.000000;1.193304
5860.000000;1.193836
5859.000000;1.194257
5858.000000;1.194544
5857.000000;1.194801
5856.000000;1.195136
5855.000000;1.195555
5854.000000;1.195968
5853.000000;1.196288
5852.000000;1.196518
5851.000000;1.196762
5850.000000;1.197155
5849.000000;1.197738
5848.000000;1.198402
5847.000000;1.198970
5846.000000;1.199368
5845.000000;1.199682
5844.000000;1.200039
5843.000000;1.200463
5842.000000;1.200895
5841.000000;1.201318
5840.000000;1.201789
5839.000000;1.202342
5838.000000;1.202908
5837.000000;1.203383
5836.000000;1.203759
5835.000000;1.204148
5834.000000;1.204647
5833.000000;1.205217
5832.000000;1.205703
5831.000000;1.206005
5830.000000;1.206205
5829.000000;1.206504
5828.000000;1.207020
5827.000000;1.207677
5826.000000;1.208295
5825.000000;1.208766
5824.000000;1.209125
5823.000000;1.209476
5822.000000;1.209897
5821.000000;1.210401
5820.000000;1.210953
5819.000000;1.211494
5818.000000;1.211965
5817.000000;1.212341
5816.000000;1.212628
5815.000000;1.212857
5814.000000;1.213082
5813.000000;1.213380
5812.000000;1.213830
5811.000000;1.214449
5810.000000;1.215167
5809.000000;1.215899
5808.000000;1.216621
5807.000000;1.217363
5806.000000;1.218097
5805.000000;1.218706
5804.000000;1.219115
5803.000000;1.219420
5802.000000;1.219824
5801.000000;1.220405
5800.000000;1.221027
5799.000000;1.221515
5798.000000;1.221886
5797.000000;1.222334
5796.000000;1.223007
5795.000000;1.223847
5794.000000;1.224669
5793.000000;1.225334
5792.000000;1.225820
5791.000000;1.226180
5790.000000;1.226503
5789.000000;1.226888
5788.000000;1.227398
5787.000000;1.228035
5786.000000;1.228752
5785.000000;1.229488
5784.000000;1.230177
5783.000000;1.230758
5782.000000;1.231225
5781.000000;1.231653
5780.000000;1.232129
5779.000000;1.232661
5778.000000;1.233179
5777.000000;1.233651
5776.000000;1.234136
5775.000000;1.234709
5774.000000;1.235356
5773.000000;1.235979
5772.000000;1.236504
5771.000000;1.236950
5770.000000;1.237405
5769.000000;1.237938
5768.000000;1.238538
5767.000000;1.239132
5766.000000;1.239673
5765.000000;1.240200
5764.000000;1.240788
5763.000000;1.241437
5762.000000;1.242047
5761.000000;1.242529
5760.000000;1.242913
5759.000000;1.243313
5758.000000;1.243811
5757.000000;1.244414
5756.000000;1.245105
5755.000000;1.245841
5754.000000;1.246530
5753.000000;1.247082
5752.000000;1.247521
5751.000000;1.247993
5750.000000;1.248590
5749.000000;1.249233
5748.000000;1.249769
5747.000000;1.250157
5746.000000;1.250493
5745.000000;1.250886
5744.000000;1.251384
5743.000000;1.252021
5742.000000;1.252809
5741.000000;1.253667
5740.000000;1.254416
5739.000000;1.254934
5738.000000;1.255294
5737.000000;1.255694
5736.000000;1.256257
5735.000000;1.256926
5734.000000;1.257536
5733.000000;1.257975
5732.000000;1.258284
5731.000000;1.258650
5730.000000;1.259250
5729.000000;1.260079
5728.000000;1.260938
5727.000000;1.261619
5726.000000;1.262097
5725.000000;1.262511
5724.000000;1.262992
5723.000000;1.263558
5722.000000;1.264168
5721.000000;1.264797
5720.000000;1.265448
5719.000000;1.266122
5718.000000;1.266819
5717.000000;1.267544
5716.000000;1.268286
5715.000000;1.269013
5714.000000;1.269702
5713.000000;1.270350
5712.000000;1.270963
5711.000000;1.271554
5710.000000;1.272164
5709.000000;1.272858
5708.000000;1.273668
5707.000000;1.274539
5706.000000;1.275352
5705.000000;1.275998
5704.000000;1.276450
5703.000000;1.276775
5702.000000;1.277103
5701.000000;1.277543
5700.000000;1.278123
5699.000000;1.278776
5698.000000;1.279413
5697.000000;1.279993
5696.000000;1.280550
5695.000000;1.281147
5694.000000;1.281814
5693.000000;1.282493
5692.000000;1.283102
5691.000000;1.283622
5690.000000;1.284142
5689.000000;1.284794
5688.000000;1.285604
5687.000000;1.286470
5686.000000;1.287270
5685.000000;1.287959
5684.000000;1.288564
5683.000000;1.289124
5682.000000;1.289685
5681.000000;1.290301
5680.000000;1.290998
5679.000000;1.291742
5678.000000;1.292467
5677.000000;1.293128
5676.000000;1.293725
5675.000000;1.294264
5674.000000;1.294745
5673.000000;1.295165
5672.000000;1.295549
5671.000000;1.295962
5670.000000;1.296498
5669.000000;1.297210
5668.000000;1.298040
5667.000000;1.298844
5666.000000;1.299515
5665.000000;1.300075
5664.000000;1.300618
5663.000000;1.301194
5662.000000;1.301767
5661.000000;1.302271
5660.000000;1.302689
5659.000000;1.303084
5658.000000;1.303577
5657.000000;1.304268
5656.000000;1.305114
5655.000000;1.305909
5654.000000;1.306441
5653.000000;1.306695
5652.000000;1.306859
5651.000000;1.307149
5650.000000;1.307643
5649.000000;1.308281
5648.000000;1.308946
5647.000000;1.309543
5646.000000;1.310050
5645.000000;1.310534
5644.000000;1.311086
5643.000000;1.311715
5642.000000;1.312332
5641.000000;1.312849
5640.000000;1.313272
5639.000000;1.313668
5638.000000;1.314087
5637.000000;1.314539
5636.000000;1.315024
5635.000000;1.315532
5634.000000;1.316035
5633.000000;1.316510
5632.000000;1.316972
5631.000000;1.317462
5630.000000;1.317991
5629.000000;1.318524
5628.000000;1.319014
5627.000000;1.319450
5626.000000;1.319860
5625.000000;1.320293
5624.000000;1.320774
5623.000000;1.321271
5622.000000;1.321716
5621.000000;1.322059
5620.000000;1.322296
5619.000000;1.322460
5618.000000;1.322606
5617.000000;1.322821
5616.000000;1.323188
5615.000000;1.323705
5614.000000;1.324269
5613.000000;1.324769
5612.000000;1.325194
5611.000000;1.325605
5610.000000;1.326022
5609.000000;1.326382
5608.000000;1.326629
5607.000000;1.326811
5606.000000;1.327063
5605.000000;1.327494
5604.000000;1.328075
5603.000000;1.328650
5602.000000;1.329063
5601.000000;1.329290
5600.000000;1.329434
5599.000000;1.329598
5598.000000;1.329799
5597.000000;1.330008
5596.000000;1.330225
5595.000000;1.330457
5594.000000;1.330676
5593.000000;1.330851
5592.000000;1.330991
5591.000000;1.331127
5590.000000;1.331259
5589.000000;1.331379
5588.000000;1.331527
5587.000000;1.331744
5586.000000;1.331979
5585.000000;1.332130
5584.000000;1.332165
5583.000000;1.332164
5582.000000;1.332203
5581.000000;1.332294
5580.000000;1.332435
5579.000000;1.332639
5578.000000;1.332870
5577.000000;1.333033
5576.000000;1.333100
5575.000000;1.333191
5574.000000;1.333432
5573.000000;1.333777
5572.000000;1.334050
5571.000000;1.334157
5570.000000;1.334172
5569.000000;1.334207
5568.000000;1.334295
5567.000000;1.334430
5566.000000;1.334643
5565.000000;1.334967
5564.000000;1.335357
5563.000000;1.335690
5562.000000;1.335845
5561.000000;1.335783
5560.000000;1.335566
5559.000000;1.335321
5558.000000;1.335163
5557.000000;1.335129
5556.000000;1.335185
5555.000000;1.335295
5554.000000;1.335449
5553.000000;1.335627
5552.000000;1.335765
5551.000000;1.335803
5550.000000;1.335757
5549.000000;1.335715
5548.000000;1.335756
5547.000000;1.335870
5546.000000;1.335948
5545.000000;1.335876
5544.000000;1.335631
5543.000000;1.335324
5542.000000;1.335122
5541.000000;1.335138
5540.000000;1.335381
5539.000000;1.335778
5538.000000;1.336199
5537.000000;1.336489
5536.000000;1.336552
5535.000000;1.336451
5534.000000;1.336372
5533.000000;1.336449
5532.000000;1.336638
5531.000000;1.336790
5530.000000;1.336805
5529.000000;1.336699
5528.000000;1.336540
5527.000000;1.336402
5526.000000;1.336340
5525.000000;1.336355
5524.000000;1.336377
5523.000000;1.336324
5522.000000;1.336194
5521.000000;1.336080
5520.000000;1.336081
5519.000000;1.336219
5518.000000;1.336442
5517.000000;1.336660
5516.000000;1.336782
5515.000000;1.336772
5514.000000;1.336693
5513.000000;1.336661
5512.000000;1.336731
5511.000000;1.336854
5510.000000;1.336943
5509.000000;1.336955
5508.000000;1.336894
5507.000000;1.336763
5506.000000;1.336573
5505.000000;1.336393
5504.000000;1.336351
5503.000000;1.336544
5502.000000;1.336939
5501.000000;1.337387
5500.000000;1.337739
5499.000000;1.337961
5498.000000;1.338105
5497.000000;1.338191
5496.000000;1.338175
5495.000000;1.338054
5494.000000;1.337946
5493.000000;1.337969
5492.000000;1.338085
5491.000000;1.338139
5490.000000;1.338078
5489.000000;1.338050
5488.000000;1.338237
5487.000000;1.338666
5486.000000;1.339196
5485.000000;1.339668
5484.000000;1.340017
5483.000000;1.340299
5482.000000;1.340649
5481.000000;1.341200
5480.000000;1.341943
5479.000000;1.342682
5478.000000;1.343177
5477.000000;1.343347
5476.000000;1.343301
5475.000000;1.343207
5474.000000;1.343148
5473.000000;1.343124
5472.000000;1.343157
5471.000000;1.343335
5470.000000;1.343724
5469.000000;1.344280
5468.000000;1.344853
5467.000000;1.345306
5466.000000;1.345633
5465.000000;1.345942
5464.000000;1.346335
5463.000000;1.346822
5462.000000;1.347335
5461.000000;1.347797
5460.000000;1.348174
5459.000000;1.348493
5458.000000;1.348828
5457.000000;1.349279
5456.000000;1.349928
5455.000000;1.350807
5454.000000;1.351858
5453.000000;1.352946
5452.000000;1.353930
5451.000000;1.354747
5450.000000;1.355396
5449.000000;1.355874
5448.000000;1.356190
5447.000000;1.356458
5446.000000;1.356850
5445.000000;1.357419
5444.000000;1.358041
5443.000000;1.358599
5442.000000;1.359143
5441.000000;1.359795
5440.000000;1.360576
5439.000000;1.361415
5438.000000;1.362269
5437.000000;1.363166
5436.000000;1.364139
5435.000000;1.365210
5434.000000;1.366389
5433.000000;1.367629
5432.000000;1.368808
5431.000000;1.369850
5430.000000;1.370846
5429.000000;1.371983
5428.000000;1.373345
5427.000000;1.374816
5426.000000;1.376229
5425.000000;1.377556
5424.000000;1.378921
5423.000000;1.380416
5422.000000;1.381969
5421.000000;1.383436
5420.000000;1.384813
5419.000000;1.386243
5418.000000;1.387817
5417.000000;1.389455
5416.000000;1.391035
5415.000000;1.392526
5414.000000;1.393961
5413.000000;1.395361
5412.000000;1.396764
5411.000000;1.398299
5410.000000;1.400115
5409.000000;1.402201
5408.000000;1.404371
5407.000000;1.406474
5406.000000;1.408555
5405.000000;1.410762
5404.000000;1.413173
5403.000000;1.415738
5402.000000;1.418336
5401.000000;1.420880
5400.000000;1.423389
5399.000000;1.425999
5398.000000;1.428847
5397.000000;1.431920
5396.000000;1.435034
5395.000000;1.437981
5394.000000;1.440701
5393.000000;1.443310
5392.000000;1.446020
5391.000000;1.449015
5390.000000;1.452378
5389.000000;1.456050
5388.000000;1.459865
5387.000000;1.463683
5386.000000;1.467485
5385.000000;1.471301
5384.000000;1.475102
5383.000000;1.478845
5382.000000;1.482601
5381.000000;1.486546
5380.000000;1.490792
5379.000000;1.495315
5378.000000;1.500046
5377.000000;1.504951
5376.000000;1.510025
5375.000000;1.515206
5374.000000;1.520367
5373.000000;1.525434
5372.000000;1.530494
5371.000000;1.535765
5370.000000;1.541407
5369.000000;1.547372
5368.000000;1.553470
5367.000000;1.559634
5366.000000;1.566023
5365.000000;1.572818
5364.000000;1.579992
5363.000000;1.587351
5362.000000;1.594763
5361.000000;1.602247
5360.000000;1.609884
5359.000000;1.617748
5358.000000;1.625890
5357.000000;1.634301
5356.000000;1.642917
5355.000000;1.651738
5354.000000;1.660879
5353.000000;1.670393
5352.000000;1.680077
5351.000000;1.689659
5350.000000;1.699136
5349.000000;1.708732
5348.000000;1.718539
5347.000000;1.728483
5346.000000;1.738646
5345.000000;1.749424
5344.000000;1.761186
5343.000000;1.773787
5342.000000;1.786638
5341.000000;1.799346
5340.000000;1.812080
5339.000000;1.825310
5338.000000;1.839327
5337.000000;1.853985
5336.000000;1.868882
5335.000000;1.883804
5334.000000;1.898914
5333.000000;1.914511
5332.000000;1.930659
5331.000000;1.947121
5330.000000;1.963650
5329.000000;1.980254
5328.000000;1.997228
5327.000000;2.014956
5326.000000;2.033569
5325.000000;2.052745
5324.000000;2.071977
5323.000000;2.091061
5322.000000;2.110203
5321.000000;2.129753
5320.000000;2.150037
5319.000000;2.171373
5318.000000;2.193820
5317.000000;2.216841
5316.000000;2.239679
5315.000000;2.262236
5314.000000;2.285012
5313.000000;2.308053
5312.000000;2.330803
5311.000000;2.353272
5310.000000;2.376404
5309.000000;2.400612
5308.000000;2.424860
5307.000000;2.448108
5306.000000;2.470978
5305.000000;2.494827
5304.000000;2.519768
5303.000000;2.544637
5302.000000;2.568272
5301.000000;2.589948
5300.000000;2.609580
5299.000000;2.628614
5298.000000;2.649657
5297.000000;2.673864
5296.000000;2.699342
5295.000000;2.723248
5294.000000;2.744803
5293.000000;2.765132
5292.000000;2.784965
5291.000000;2.803811
5290.000000;2.820714
5289.000000;2.834693
5288.000000;2.845131
5287.000000;2.852570
5286.000000;2.858335
5285.000000;2.863034
5284.000000;2.867118
5283.000000;2.873043
5282.000000;2.884047
5281.000000;2.899587
5280.000000;2.914289
5279.000000;2.923377
5278.000000;2.927085
5277.000000;2.927903
5276.000000;2.926995
5275.000000;2.925128
5274.000000;2.923835
5273.000000;2.923522
5272.000000;2.922914
5271.000000;2.922213
5270.000000;2.924265
5269.000000;2.930934
5268.000000;2.940340
5267.000000;2.949087
5266.000000;2.955382
5265.000000;2.958677
5264.000000;2.959124
5263.000000;2.959280
5262.000000;2.962812
5261.000000;2.969482
5260.000000;2.974933
5259.000000;2.977229
5258.000000;2.979743
5257.000000;2.984802
5256.000000;2.988230
5255.000000;2.984372
5254.000000;2.974653
5253.000000;2.965305
5252.000000;2.959219
5251.000000;2.955589
5250.000000;2.953999
5249.000000;2.954716
5248.000000;2.956451
5247.000000;2.956564
5246.000000;2.953901
5245.000000;2.950202
5244.000000;2.948887
5243.000000;2.952905
5242.000000;2.961745
5241.000000;2.969556
5240.000000;2.969360
5239.000000;2.961452
5238.000000;2.954184
5237.000000;2.954474
5236.000000;2.960732
5235.000000;2.966453
5234.000000;2.968831
5233.000000;2.970677
5232.000000;2.974432
5231.000000;2.978654
5230.000000;2.980548
5229.000000;2.979012
5228.000000;2.975388
5227.000000;2.972716
5226.000000;2.973125
5225.000000;2.975354
5224.000000;2.975624
5223.000000;2.971499
5222.000000;2.964571
5221.000000;2.958329
5220.000000;2.954442
5219.000000;2.952558
5218.000000;2.952092
5217.000000;2.952596
5216.000000;2.953491
5215.000000;2.954828
5214.000000;2.957405
5213.000000;2.961190
5212.000000;2.964854
5211.000000;2.967647
5210.000000;2.970020
5209.000000;2.971514
5208.000000;2.970609
5207.000000;2.968437
5206.000000;2.969256
5205.000000;2.974733
5204.000000;2.981033
5203.000000;2.983705
5202.000000;2.982651
5201.000000;2.979583
5200.000000;2.973770
5199.000000;2.964548
5198.000000;2.955944
5197.000000;2.954208
5196.000000;2.960883
5195.000000;2.970389
5194.000000;2.975449
5193.000000;2.974307
5192.000000;2.971216
5191.000000;2.971081
5190.000000;2.974832
5189.000000;2.979149
5188.000000;2.980650
5187.000000;2.980232
5186.000000;2.981595
5185.000000;2.985511
5184.000000;2.988083
5183.000000;2.986136
5182.000000;2.981991
5181.000000;2.979641
5180.000000;2.978427
5179.000000;2.974087
5178.000000;2.965561
5177.000000;2.957168
5176.000000;2.953575
5175.000000;2.955515
5174.000000;2.960471
5173.000000;2.965502
5172.000000;2.968791
5171.000000;2.969796
5170.000000;2.969399
5169.000000;2.969800
5168.000000;2.972663
5167.000000;2.976890
5166.000000;2.979023
5165.000000;2.976912
5164.000000;2.973039
5163.000000;2.972144
5162.000000;2.975047
5161.000000;2.976694
5160.000000;2.972538
5159.000000;2.965681
5158.000000;2.962886
5157.000000;2.964451
5156.000000;2.963378
5155.000000;2.956294
5154.000000;2.950084
5153.000000;2.953053
5152.000000;2.963479
5151.000000;2.971183
5150.000000;2.970556
5149.000000;2.967201
5148.000000;2.968967
5147.000000;2.976254
5146.000000;2.983129
5145.000000;2.984496
5144.000000;2.980001
5143.000000;2.972503
5142.000000;2.965620
5141.000000;2.961915
5140.000000;2.961610
5139.000000;2.962695
5138.000000;2.962576
5137.000000;2.960112
5136.000000;2.956014
5135.000000;2.951711
5134.000000;2.948288
5133.000000;2.946285
5132.000000;2.946131
5131.000000;2.948561
5130.000000;2.954294
5129.000000;2.962430
5128.000000;2.969135
5127.000000;2.970013
5126.000000;2.965033
5125.000000;2.959324
5124.000000;2.958199
5123.000000;2.962584
5122.000000;2.969258
5121.000000;2.974282
5120.000000;2.975738
5119.000000;2.974027
5118.000000;2.970831
5117.000000;2.967959
5116.000000;2.966099
5115.000000;2.964468
5114.000000;2.962636
5113.000000;2.962436
5112.000000;2.966555
5111.000000;2.974961
5110.000000;2.983537
5109.000000;2.987005
5108.000000;2.983540
5107.000000;2.975995
5106.000000;2.968531
5105.000000;2.963063
5104.000000;2.959267
5103.000000;2.956594
5102.000000;2.954946
5101.000000;2.954204
5100.000000;2.954031
5099.000000;2.953972
5098.000000;2.954072
5097.000000;2.955220
5096.000000;2.958158
5095.000000;2.962022
5094.000000;2.964148
5093.000000;2.962439
5092.000000;2.958135
5091.000000;2.954685
5090.000000;2.953811
5089.000000;2.954050
5088.000000;2.953676
5087.000000;2.953488
5086.000000;2.954532
5085.000000;2.955009
5084.000000;2.952705
5083.000000;2.949117
5082.000000;2.948203
5081.000000;2.951729
5080.000000;2.957641
5079.000000;2.962238
5078.000000;2.962482
5077.000000;2.957078
5076.000000;2.947477
5075.000000;2.937771
5074.000000;2.931964
5073.000000;2.931332
5072.000000;2.935063
5071.000000;2.942573
5070.000000;2.953169
5069.000000;2.963335
5068.000000;2.967505
5067.000000;2.963470
5066.000000;2.954872
5065.000000;2.947034
5064.000000;2.942594
5063.000000;2.941519
5062.000000;2.942553
5061.000000;2.943315
5060.000000;2.940930
5059.000000;2.934602
5058.000000;2.926723
5057.000000;2.920520
5056.000000;2.917676
5055.000000;2.918292
5054.000000;2.921613
5053.000000;2.926071
5052.000000;2.929568
5051.000000;2.930970
5050.000000;2.930871
5049.000000;2.930712
5048.000000;2.931922
5047.000000;2.935334
5046.000000;2.940310
5045.000000;2.944264
5044.000000;2.944296
5043.000000;2.940293
5042.000000;2.935260
5041.000000;2.931849
5040.000000;2.929839
5039.000000;2.927556
5038.000000;2.924698
5037.000000;2.922673
5036.000000;2.922244
5035.000000;2.921931
5034.000000;2.919376
5033.000000;2.913979
5032.000000;2.907958
5031.000000;2.904471
5030.000000;2.904572
5029.000000;2.906764
5028.000000;2.909638
5027.000000;2.913400
5026.000000;2.917680
5025.000000;2.919491
5024.000000;2.915989
5023.000000;2.908861
5022.000000;2.903172
5021.000000;2.901900
5020.000000;2.903481
5019.000000;2.904591
5018.000000;2.903599
5017.000000;2.900336
5016.000000;2.895109
5015.000000;2.890144
5014.000000;2.888943
5013.000000;2.891933
5012.000000;2.894664
5011.000000;2.892313
5010.000000;2.885386
5009.000000;2.878840
5008.000000;2.875981
5007.000000;2.875209
5006.000000;2.872982
5005.000000;2.869053
5004.000000;2.867350
5003.000000;2.870778
5002.000000;2.875874
5001.000000;2.874604
5000.000000;2.863493
4999.000000;2.849252
4998.000000;2.841784
4997.000000;2.843436
4996.000000;2.847850
4995.000000;2.848477
4994.000000;2.845541
4993.000000;2.842750
4992.000000;2.840782
4991.000000;2.837915
4990.000000;2.834571
4989.000000;2.833122
4988.000000;2.833913
4987.000000;2.834500
4986.000000;2.832873
4985.000000;2.829320
4984.000000;2.824978
4983.000000;2.820566
4982.000000;2.817235
4981.000000;2.816846
4980.000000;2.819519
4979.000000;2.822065
4978.000000;2.820920
4977.000000;2.816229
4976.000000;2.811527
4975.000000;2.809510
4974.000000;2.809108
4973.000000;2.806828
4972.000000;2.800653
4971.000000;2.792236
4970.000000;2.785426
4969.000000;2.783181
4968.000000;2.785406
4967.000000;2.788812
4966.000000;2.789238
4965.000000;2.785457
4964.000000;2.780610
4963.000000;2.778451
4962.000000;2.778325
4961.000000;2.775519
4960.000000;2.767497
4959.000000;2.757697
4958.000000;2.750936
4957.000000;2.747422
4956.000000;2.743873
4955.000000;2.739427
4954.000000;2.737240
4953.000000;2.739463
4952.000000;2.743281
4951.000000;2.743563
4950.000000;2.738356
4949.000000;2.730061
4948.000000;2.722184
4947.000000;2.716746
4946.000000;2.713945
4945.000000;2.712617
4944.000000;2.711136
4943.000000;2.708595
4942.000000;2.705033
4941.000000;2.700702
4940.000000;2.695863
4939.000000;2.691280
4938.000000;2.688021
4937.000000;2.686490
4936.000000;2.686300
4935.000000;2.687037
4934.000000;2.688118
4933.000000;2.687906
4932.000000;2.684548
4931.000000;2.678295
4930.000000;2.671616
4929.000000;2.666692
4928.000000;2.663723
4927.000000;2.661844
4926.000000;2.660675
4925.000000;2.660040
4924.000000;2.659048
4923.000000;2.656656
4922.000000;2.652819
4921.000000;2.648191
4920.000000;2.643215
4919.000000;2.638323
4918.000000;2.634207
4917.000000;2.631084
4916.000000;2.628193
4915.000000;2.624555
4914.000000;2.620026
4913.000000;2.615153
4912.000000;2.610312
4911.000000;2.605603
4910.000000;2.601069
4909.000000;2.596472
4908.000000;2.591494
4907.000000;2.586705
4906.000000;2.583446
4905.000000;2.581959
4904.000000;2.580471
4903.000000;2.577129
4902.000000;2.572384
4901.000000;2.568413
4900.000000;2.566499
4899.000000;2.565911
4898.000000;2.565143
4897.000000;2.563287
4896.000000;2.560266
4895.000000;2.556679
4894.000000;2.553398
4893.000000;2.550562
4892.000000;2.547185
4891.000000;2.542503
4890.000000;2.537361
4889.000000;2.533419
4888.000000;2.531157
4887.000000;2.529354
4886.000000;2.526533
4885.000000;2.522251
4884.000000;2.516898
4883.000000;2.511206
4882.000000;2.506208
4881.000000;2.502861
4880.000000;2.501335
4879.000000;2.500932
4878.000000;2.500678
4877.000000;2.499720
4876.000000;2.497389
4875.000000;2.493532
4874.000000;2.488879
4873.000000;2.484643
4872.000000;2.481643
4871.000000;2.479933
4870.000000;2.478919
4869.000000;2.477458
4868.000000;2.474345
4867.000000;2.469462
4866.000000;2.464149
4865.000000;2.459750
4864.000000;2.456078
4863.000000;2.452046
4862.000000;2.447577
4861.000000;2.443954
4860.000000;2.442184
4859.000000;2.441746
4858.000000;2.441074
4857.000000;2.438868
4856.000000;2.435022
4855.000000;2.430748
4854.000000;2.427735
4853.000000;2.426564
4852.000000;2.425846
4851.000000;2.423415
4850.000000;2.418555
4849.000000;2.412540
4848.000000;2.407052
4847.000000;2.402851
4846.000000;2.399898
4845.000000;2.397758
4844.000000;2.395663
4843.000000;2.393003
4842.000000;2.390053
4841.000000;2.387540
4840.000000;2.385319
4839.000000;2.382282
4838.000000;2.377951
4837.000000;2.373363
4836.000000;2.369791
4835.000000;2.367267
4834.000000;2.364993
4833.000000;2.362665
4832.000000;2.360611
4831.000000;2.358839
4830.000000;2.356753
4829.000000;2.353871
4828.000000;2.350302
4827.000000;2.346395
4826.000000;2.342315
4825.000000;2.338112
4824.000000;2.333930
4823.000000;2.330077
4822.000000;2.326959
4821.000000;2.324812
4820.000000;2.323336
4819.000000;2.321729
4818.000000;2.319382
4817.000000;2.316520
4816.000000;2.313914
4815.000000;2.311925
4814.000000;2.309977
4813.000000;2.307083
4812.000000;2.302940
4811.000000;2.298460
4810.000000;2.295048
4809.000000;2.293169
4808.000000;2.291689
4807.000000;2.288928
4806.000000;2.284449
4805.000000;2.279400
4804.000000;2.275031
4803.000000;2.271431
4802.000000;2.268052
4801.000000;2.264997
4800.000000;2.263088
4799.000000;2.262614
4798.000000;2.262528
4797.000000;2.261173
4796.000000;2.257746
4795.000000;2.252966
4794.000000;2.248374
4793.000000;2.245068
4792.000000;2.242992
4791.000000;2.241266
4790.000000;2.239091
4789.000000;2.236272
4788.000000;2.232963
4787.000000;2.229269
4786.000000;2.225317
4785.000000;2.221452
4784.000000;2.218056
4783.000000;2.215244
4782.000000;2.212941
4781.000000;2.211103
4780.000000;2.209643
4779.000000;2.208196
4778.000000;2.206253
4777.000000;2.203637
4776.000000;2.200683
4775.000000;2.197904
4774.000000;2.195544
4773.000000;2.193410
4772.000000;2.191035
4771.000000;2.188099
4770.000000;2.184817
4769.000000;2.181796
4768.000000;2.179382
4767.000000;2.177314
4766.000000;2.175178
4765.000000;2.172882
4764.000000;2.170354
4763.000000;2.167052
4762.000000;2.162462
4761.000000;2.157114
4760.000000;2.152470
4759.000000;2.149529
4758.000000;2.147971
4757.000000;2.146837
4756.000000;2.145601
4755.000000;2.144194
4754.000000;2.142434
4753.000000;2.140028
4752.000000;2.137114
4751.000000;2.134280
4750.000000;2.131894
4749.000000;2.129735
4748.000000;2.127397
4747.000000;2.124767
4746.000000;2.122010
4745.000000;2.119320
4744.000000;2.116836
4743.000000;2.114557
4742.000000;2.112150
4741.000000;2.109083
4740.000000;2.105230
4739.000000;2.101230
4738.000000;2.098012
4737.000000;2.095956
4736.000000;2.094668
4735.000000;2.093523
4734.000000;2.092226
4733.000000;2.090764
4732.000000;2.089013
4731.000000;2.086697
4730.000000;2.083780
4729.000000;2.080671
4728.000000;2.077865
4727.000000;2.075431
4726.000000;2.073010
4725.000000;2.070324
4724.000000;2.067546
4723.000000;2.065094
4722.000000;2.063144
4721.000000;2.061482
4720.000000;2.059774
4719.000000;2.057843
4718.000000;2.055728
4717.000000;2.053637
4716.000000;2.051847
4715.000000;2.050489
4714.000000;2.049271
4713.000000;2.047512
4712.000000;2.044660
4711.000000;2.040876
4710.000000;2.037031
4709.000000;2.034053
4708.000000;2.032238
4707.000000;2.031139
4706.000000;2.030021
4705.000000;2.028398
4704.000000;2.026255
4703.000000;2.023894
4702.000000;2.021655
4701.000000;2.019688
4700.000000;2.017919
4699.000000;2.016204
4698.000000;2.014489
4697.000000;2.012733
4696.000000;2.010666
4695.000000;2.007916
4694.000000;2.004609
4693.000000;2.001638
4692.000000;1.999904
4691.000000;1.999229
4690.000000;1.998335
4689.000000;1.996164
4688.000000;1.992984
4687.000000;1.989881
4686.000000;1.987403
4685.000000;1.985168
4684.000000;1.982718
4683.000000;1.980201
4682.000000;1.978028
4681.000000;1.976244
4680.000000;1.974642
4679.000000;1.973235
4678.000000;1.972214
4677.000000;1.971407
4676.000000;1.970157
4675.000000;1.967946
4674.000000;1.965052
4673.000000;1.962426
4672.000000;1.960920
4671.000000;1.960617
4670.000000;1.960827
4669.000000;1.960681
4668.000000;1.959729
4667.000000;1.958040
4666.000000;1.955864
4665.000000;1.953347
4664.000000;1.950627
4663.000000;1.948005
4662.000000;1.945816
4661.000000;1.944157
4660.000000;1.942865
4659.000000;1.941765
4658.000000;1.940838
4657.000000;1.940097
4656.000000;1.939392
4655.000000;1.938454
4654.000000;1.937080
4653.000000;1.935240
4652.000000;1.933059
4651.000000;1.930784
4650.000000;1.928748
4649.000000;1.927212
4648.000000;1.926120
4647.000000;1.925037
4646.000000;1.923481
4645.000000;1.921419
4644.000000;1.919381
4643.000000;1.917971
4642.000000;1.917232
4641.000000;1.916570
4640.000000;1.915319
4639.000000;1.913408
4638.000000;1.911448
4637.000000;1.910150
4636.000000;1.909598
4635.000000;1.909055
4634.000000;1.907587
4633.000000;1.904999
4632.000000;1.902132
4631.000000;1.900099
4630.000000;1.899239
4629.000000;1.898891
4628.000000;1.898158
4627.000000;1.896707
4626.000000;1.894812
4625.000000;1.892870
4624.000000;1.891070
4623.000000;1.889409
4622.000000;1.887816
4621.000000;1.886278
4620.000000;1.884940
4619.000000;1.883999
4618.000000;1.883371
4617.000000;1.882590
4616.000000;1.881276
4615.000000;1.879628
4614.000000;1.878214
4613.000000;1.877271
4612.000000;1.876463
4611.000000;1.875371
4610.000000;1.873995
4609.000000;1.872621
4608.000000;1.871419
4607.000000;1.870388
4606.000000;1.869528
4605.000000;1.868794
4604.000000;1.867950
4603.000000;1.866755
4602.000000;1.865346
4601.000000;1.864221
4600.000000;1.863708
4599.000000;1.863604
4598.000000;1.863429
4597.000000;1.862933
4596.000000;1.862219
4595.000000;1.861426
4594.000000;1.860469
4593.000000;1.859162
4592.000000;1.857487
4591.000000;1.855701
4590.000000;1.854161
4589.000000;1.853038
4588.000000;1.852184
4587.000000;1.851279
4586.000000;1.850152
4585.000000;1.848945
4584.000000;1.847960
4583.000000;1.847383
4582.000000;1.847173
4581.000000;1.847131
4580.000000;1.846974
4579.000000;1.846404
4578.000000;1.845312
4577.000000;1.843969
4576.000000;1.842869
4575.000000;1.842236
4574.000000;1.841738
4573.000000;1.840763
4572.000000;1.839031
4571.000000;1.836919
4570.000000;1.835217
4569.000000;1.834558
4568.000000;1.834964
4567.000000;1.835845
4566.000000;1.836448
4565.000000;1.836399
4564.000000;1.835827
4563.000000;1.835018
4562.000000;1.834106
4561.000000;1.833156
4560.000000;1.832351
4559.000000;1.831870
4558.000000;1.831623
4557.000000;1.831304
4556.000000;1.830753
4555.000000;1.830140
4554.000000;1.829708
4553.000000;1.829407
4552.000000;1.828883
4551.000000;1.827808
4550.000000;1.826229
4549.000000;1.824578
4548.000000;1.823310
4547.000000;1.822515
4546.000000;1.821955
4545.000000;1.821450
4544.000000;1.821033
4543.000000;1.820641
4542.000000;1.819917
4541.000000;1.818661
4540.000000;1.817326
4539.000000;1.816640
4538.000000;1.816699
4537.000000;1.816784
4536.000000;1.816271
4535.000000;1.815404
4534.000000;1.814906
4533.000000;1.815052
4532.000000;1.815412
4531.000000;1.815406
4530.000000;1.814849
4529.000000;1.813984
4528.000000;1.813237
4527.000000;1.812969
4526.000000;1.813267
4525.000000;1.813844
4524.000000;1.814213
4523.000000;1.814013
4522.000000;1.813210
4521.000000;1.812066
4520.000000;1.810957
4519.000000;1.810160
4518.000000;1.809702
4517.000000;1.809424
4516.000000;1.809179
4515.000000;1.808906
4514.000000;1.808522
4513.000000;1.807935
4512.000000;1.807212
4511.000000;1.806585
4510.000000;1.806188
4509.000000;1.805969
4508.000000;1.805945
4507.000000;1.806305
4506.000000;1.807045
4505.000000;1.807714
4504.000000;1.807839
4503.000000;1.807498
4502.000000;1.807191
4501.000000;1.807228
4500.000000;1.807490
4499.000000;1.807710
4498.000000;1.807656
4497.000000;1.807083
4496.000000;1.805900
4495.000000;1.804483
4494.000000;1.803499
4493.000000;1.803298
4492.000000;1.803662
4491.000000;1.804227
4490.000000;1.804844
4489.000000;1.805415
4488.000000;1.805632
4487.000000;1.805175
4486.000000;1.804093
4485.000000;1.802836
4484.000000;1.801983
4483.000000;1.801951
4482.000000;1.802754
4481.000000;1.803921
4480.000000;1.804826
4479.000000;1.805269
4478.000000;1.805610
4477.000000;1.806238
4476.000000;1.807101
4475.000000;1.807898
4474.000000;1.808529
4473.000000;1.809132
4472.000000;1.809806
4471.000000;1.810489
4470.000000;1.811017
4469.000000;1.811164
4468.000000;1.810771
4467.000000;1.810018
4466.000000;1.809456
4465.000000;1.809565
4464.000000;1.810327
4463.000000;1.811420
4462.000000;1.812712
4461.000000;1.814277
4460.000000;1.815926
4459.000000;1.817092
4458.000000;1.817382
4457.000000;1.817097
4456.000000;1.816981
4455.000000;1.817486
4454.000000;1.818392
4453.000000;1.819178
4452.000000;1.819721
4451.000000;1.820549
4450.000000;1.822319
4449.000000;1.825060
4448.000000;1.827993
4447.000000;1.830126
4446.000000;1.830999
4445.000000;1.830908
4444.000000;1.830631
4443.000000;1.831035
4442.000000;1.832667
4441.000000;1.835376
4440.000000;1.838327
4439.000000;1.840564
4438.000000;1.841651
4437.000000;1.841825
4436.000000;1.841790
4435.000000;1.842487
4434.000000;1.844683
4433.000000;1.848298
4432.000000;1.852148
4431.000000;1.854823
4430.000000;1.855984
4429.000000;1.856598
4428.000000;1.857790
4427.000000;1.859756
4426.000000;1.861847
4425.000000;1.863429
4424.000000;1.864463
4423.000000;1.865450
4422.000000;1.867011
4421.000000;1.869423
4420.000000;1.872434
4419.000000;1.875595
4418.000000;1.878751
4417.000000;1.882037
4416.000000;1.885396
4415.000000;1.888397
4414.000000;1.890654
4413.000000;1.892236
4412.000000;1.893511
4411.000000;1.894757
4410.000000;1.896051
4409.000000;1.897395
4408.000000;1.898815
4407.000000;1.900457
4406.000000;1.902638
4405.000000;1.905640
4404.000000;1.909327
4403.000000;1.913129
4402.000000;1.916540
4401.000000;1.919497
4400.000000;1.922184
4399.000000;1.924696
4398.000000;1.927045
4397.000000;1.929311
4396.000000;1.931617
4395.000000;1.934070
4394.000000;1.936831
4393.000000;1.940017
4392.000000;1.943429
4391.000000;1.946664
4390.000000;1.949611
4389.000000;1.952489
4388.000000;1.955228
4387.000000;1.957273
4386.000000;1.958396
4385.000000;1.959239
4384.000000;1.960544
4383.000000;1.962217
4382.000000;1.963782
4381.000000;1.965484
4380.000000;1.968093
4379.000000;1.971667
4378.000000;1.975354
4377.000000;1.978460
4376.000000;1.981008
4375.000000;1.983157
4374.000000;1.984834
4373.000000;1.986319
4372.000000;1.988485
4371.000000;1.991836
4370.000000;1.995707
4369.000000;1.998951
4368.000000;2.001130
4367.000000;2.002573
4366.000000;2.003626
4365.000000;2.004466
4364.000000;2.005456
4363.000000;2.007088
4362.000000;2.009442
4361.000000;2.012090
4360.000000;2.014567
4359.000000;2.016481
4358.000000;2.017432
4357.000000;2.017596
4356.000000;2.018286
4355.000000;2.021032
4354.000000;2.025661
4353.000000;2.029877
4352.000000;2.031418
4351.000000;2.030507
4350.000000;2.029540
4349.000000;2.030598
4348.000000;2.033785
4347.000000;2.037743
4346.000000;2.041187
4345.000000;2.043746
4344.000000;2.045818
4343.000000;2.048064
4342.000000;2.050896
4341.000000;2.054059
4340.000000;2.056741
4339.000000;2.058298
4338.000000;2.058849
4337.000000;2.059043
4336.000000;2.059469
4335.000000;2.060481
4334.000000;2.062317
4333.000000;2.064709
4332.000000;2.066444
4331.000000;2.066385
4330.000000;2.065470
4329.000000;2.066668
4328.000000;2.072090
4327.000000;2.080386
4326.000000;2.087609
4325.000000;2.090776
4324.000000;2.090087
4323.000000;2.087677
4322.000000;2.085536
4321.000000;2.084966
4320.000000;2.086640
4319.000000;2.090075
4318.000000;2.093525
4317.000000;2.095416
4316.000000;2.096000
4315.000000;2.097042
4314.000000;2.099838
4313.000000;2.103824
4312.000000;2.107046
4311.000000;2.107930
4310.000000;2.106786
4309.000000;2.105671
4308.000000;2.106623
4307.000000;2.110067
4306.000000;2.114944
4305.000000;2.119943
4304.000000;2.124141
4303.000000;2.126867
4302.000000;2.128015
4301.000000;2.128736
4300.000000;2.130878
4299.000000;2.135362
4298.000000;2.141549
4297.000000;2.147992
4296.000000;2.152864
4295.000000;2.153664
4294.000000;2.148611
4293.000000;2.139678
4292.000000;2.132366
4291.000000;2.130969
4290.000000;2.135026
4289.000000;2.141118
4288.000000;2.147294
4287.000000;2.154166
4286.000000;2.161768
4285.000000;2.168069
4284.000000;2.171855
4283.000000;2.174882
4282.000000;2.179358
4281.000000;2.184642
4280.000000;2.188046
4279.000000;2.188335
4278.000000;2.187136
4277.000000;2.187143
4276.000000;2.189816
4275.000000;2.194301
4274.000000;2.198076
4273.000000;2.199440
4272.000000;2.199865
4271.000000;2.203085
4270.000000;2.211142
4269.000000;2.221772
4268.000000;2.230452
4267.000000;2.234939
4266.000000;2.236722
4265.000000;2.238115
4264.000000;2.239455
4263.000000;2.239619
4262.000000;2.238525
4261.000000;2.238435
4260.000000;2.242330
4259.000000;2.250678
4258.000000;2.259720
4257.000000;2.263967
4256.000000;2.261719
4255.000000;2.257202
4254.000000;2.256305
4253.000000;2.261609
4252.000000;2.271767
4251.000000;2.283822
4250.000000;2.294947
4249.000000;2.302592
4248.000000;2.304596
4247.000000;2.300667
4246.000000;2.293729
4245.000000;2.288722
4244.000000;2.289933
4243.000000;2.298750
4242.000000;2.311979
4241.000000;2.323367
4240.000000;2.328786
4239.000000;2.330222
4238.000000;2.332767
4237.000000;2.338128
4236.000000;2.342830
4235.000000;2.343035
4234.000000;2.339931
4233.000000;2.338925
4232.000000;2.344311
4231.000000;2.355749
4230.000000;2.368797
4229.000000;2.377741
4228.000000;2.379318
4227.000000;2.375261
4226.000000;2.370896
4225.000000;2.372562
4224.000000;2.383216
4223.000000;2.398115
4222.000000;2.408076
4221.000000;2.408980
4220.000000;2.406877
4219.000000;2.411785
4218.000000;2.427044
4217.000000;2.445286
4216.000000;2.455492
4215.000000;2.453574
4214.000000;2.444883
4213.000000;2.437389
4212.000000;2.433547
4211.000000;2.428622
4210.000000;2.417039
4209.000000;2.400259
4208.000000;2.387262
4207.000000;2.386879
4206.000000;2.399881
4205.000000;2.419102
4204.000000;2.437194
4203.000000;2.453243
4202.000000;2.470090
4201.000000;2.485749
4200.000000;2.490627
4199.000000;2.479172
4198.000000;2.459477
4197.000000;2.442866
4196.000000;2.434670
4195.000000;2.435801
4194.000000;2.444998
4193.000000;2.459441
4192.000000;2.475720
4191.000000;2.490018
4190.000000;2.497642
4189.000000;2.496908
4188.000000;2.493281
4187.000000;2.493833
4186.000000;2.499961
4185.000000;2.506783
4184.000000;2.506958
4183.000000;2.498106
4182.000000;2.485915
4181.000000;2.478717
4180.000000;2.483094
4179.000000;2.501554
4178.000000;2.528678
4177.000000;2.550552
4176.000000;2.554926
4175.000000;2.542565
4174.000000;2.520838
4173.000000;2.494296
4172.000000;2.468395
4171.000000;2.453010
4170.000000;2.456048
4169.000000;2.475312
4168.000000;2.503828
4167.000000;2.540062
4166.000000;2.574283
4165.000000;2.583329
4164.000000;2.564685
4163.000000;2.538522
4162.000000;2.523837
4161.000000;2.529393
4160.000000;2.547947
4159.000000;2.561779
4158.000000;2.559022
4157.000000;2.545744
4156.000000;2.537434
4155.000000;2.543867
4154.000000;2.569123
4153.000000;2.614031
4152.000000;2.666808
4151.000000;2.693707
4150.000000;2.665561
4149.000000;2.602889
4148.000000;2.550164
4147.000000;2.531297
4146.000000;2.544434
4145.000000;2.574530
4144.000000;2.608316
4143.000000;2.639694
4142.000000;2.664174
4141.000000;2.674183
4140.000000;2.664614
4139.000000;2.639453
4138.000000;2.607935
4137.000000;2.578986
4136.000000;2.554688
4135.000000;2.534992
4134.000000;2.525633
4133.000000;2.530394
4132.000000;2.548107
4131.000000;2.573618
4130.000000;2.587236
4129.000000;2.563580
4128.000000;2.516432
4127.000000;2.495590
4126.000000;2.536005
4125.000000;2.629834
4124.000000;2.716294
4123.000000;2.735178
4122.000000;2.705363
4121.000000;2.675421
4120.000000;2.661836
4119.000000;2.661845
4118.000000;2.678485
4117.000000;2.707299
4116.000000;2.713909
4115.000000;2.670389
4114.000000;2.606642
4113.000000;2.567034
4112.000000;2.559860
4111.000000;2.562694
4110.000000;2.556670
4109.000000;2.549329
4108.000000;2.559569
4107.000000;2.588197
4106.000000;2.607453
4105.000000;2.591811
4104.000000;2.558885
4103.000000;2.541035
4102.000000;2.540919
4101.000000;2.541531
4100.000000;2.540095
4099.000000;2.547506
4098.000000;2.553766
4097.000000;2.528990
4096.000000;2.474647
4095.000000;2.426760
4094.000000;2.411061
4093.000000;2.420698
4092.000000;2.435395
4091.000000;2.452863
4090.000000;2.461117
4089.000000;2.446744
4088.000000;2.436516
4087.000000;2.448540
4086.000000;2.467188
4085.000000;2.465410
4084.000000;2.443448
4083.000000;2.442565
4082.000000;2.507639
4081.000000;2.652412
4080.000000;2.825138
4079.000000;2.895105
4078.000000;2.839283
4077.000000;2.755939
4076.000000;2.663079
4075.000000;2.556248
4074.000000;2.471898
4073.000000;2.437157
4072.000000;2.441795
4071.000000;2.457289
4070.000000;2.476160
4069.000000;2.509971
4068.000000;2.546137
4067.000000;2.542839
4066.000000;2.489464
4065.000000;2.432087
4064.000000;2.410519
4063.000000;2.434437
4062.000000;2.488978
4061.000000;2.532235
4060.000000;2.527594
4059.000000;2.513086
4058.000000;2.571607
4057.000000;2.789654
4056.000000;2.996837
4055.000000;2.829504
4054.000000;2.686444
4053.000000;2.567144
4052.000000;2.497524
4051.000000;2.459206
4050.000000;2.419920
4049.000000;2.389376
4048.000000;2.395796
4047.000000;2.449669
4046.000000;2.526724
4045.000000;2.574070
4044.000000;2.547061
4043.000000;2.454407
4042.000000;2.363112
4041.000000;2.330328
4040.000000;2.373545
4039.000000;2.483652
4038.000000;2.625624
4037.000000;2.736574
4036.000000;2.784611
4035.000000;2.810736
4034.000000;2.750004
4033.000000;2.585354
4032.000000;2.438529
4031.000000;2.340529
4030.000000;2.295163
4029.000000;2.301037
4028.000000;2.327728
4027.000000;2.319115
4026.000000;2.285438
4025.000000;2.289972
4024.000000;2.353153
4023.000000;2.453605
4022.000000;2.538482
4021.000000;2.545072
4020.000000;2.475128
4019.000000;2.393504
4018.000000;2.347557
4017.000000;2.355807
4016.000000;2.404780
4015.000000;2.481910
4014.000000;2.592845
4013.000000;2.824064
4012.000000;3.031611
4011.000000;3.033589
4010.000000;3.632960
4009.000000;2.936859
4008.000000;2.682465
4007.000000;2.735016
4006.000000;2.814749
4005.000000;2.641609
4004.000000;2.470372
4003.000000;2.384852
4002.000000;2.360494
4001.000000;2.406428
4000.000000;2.473075
3999.000000;2.441230
3998.000000;2.380635
3997.000000;2.401538
3996.000000;2.513434
3995.000000;2.758688
3994.000000;2.883289
3993.000000;2.677859
3992.000000;2.545694
3991.000000;2.451888
3990.000000;2.387561
3989.000000;2.412590
3988.000000;2.530024
3987.000000;2.654731
3986.000000;2.606752
3985.000000;2.429275
3984.000000;2.300299
3983.000000;2.269395
3982.000000;2.338036
3981.000000;2.510463
3980.000000;2.786468
3979.000000;3.115139
3978.000000;3.222709
3977.000000;2.938509
3976.000000;2.696314
3975.000000;2.569141
3974.000000;2.532272
3973.000000;2.575422
3972.000000;2.672105
3971.000000;2.758551
3970.000000;2.793263
3969.000000;2.852795
3968.000000;3.038338
3967.000000;3.023644
3966.000000;2.847248
3965.000000;2.897029
3964.000000;2.892129
3963.000000;2.630014
3962.000000;2.461490
3961.000000;2.423344
3960.000000;2.474521
3959.000000;2.616159
3958.000000;2.858643
3957.000000;2.942477
3956.000000;2.841244
3955.000000;2.819026
3954.000000;2.826352
3953.000000;2.820358
3952.000000;2.804793
3951.000000;2.746510
3950.000000;2.623478
3949.000000;2.529339
3948.000000;2.542020
3947.000000;2.701196
3946.000000;2.977644
3945.000000;3.008036
3944.000000;2.909035
3943.000000;2.848311
3942.000000;2.720110
3941.000000;2.654712
3940.000000;2.721732
3939.000000;2.939204
3938.000000;3.332546
3937.000000;3.562184
3936.000000;3.248908
3935.000000;2.944250
3934.000000;2.756016
3933.000000;2.673933
3932.000000;2.692077
3931.000000;2.785979
3930.000000;2.869901
3929.000000;2.883216
3928.000000;2.842156
3927.000000;2.760608
3926.000000;2.685168
3925.000000;2.677089
3924.000000;2.748554
3923.000000;2.836998
3922.000000;2.884750
3921.000000;2.925691
3920.000000;2.965163
3919.000000;2.908783
3918.000000;2.771870
3917.000000;2.685464
3916.000000;2.690155
3915.000000;2.765543
3914.000000;2.851825
3913.000000;2.887398
3912.000000;2.890858
3911.000000;2.962863
3910.000000;3.161562
3909.000000;3.235117
3908.000000;3.044202
3907.000000;2.976267
3906.000000;3.113501
3905.000000;3.042718
3904.000000;2.837273
3903.000000;2.811288
3902.000000;2.918699
3901.000000;3.107408
3900.000000;3.312913
3899.000000;3.369942
3898.000000;3.303119
3897.000000;3.261462
3896.000000;3.254835
3895.000000;3.264874
3894.000000;3.316506
3893.000000;3.416364
3892.000000;3.740726
3891.000000;3.498795
3890.000000;3.035504
3889.000000;2.907829
3888.000000;2.936105
3887.000000;3.046943
3886.000000;3.132814
3885.000000;3.150872
3884.000000;3.166760
3883.000000;3.159196
3882.000000;3.090085
3881.000000;2.977746
3880.000000;2.889671
3879.000000;2.915953
3878.000000;3.123882
3877.000000;3.216753
3876.000000;3.068300
3875.000000;2.995204
3874.000000;2.917443
3873.000000;2.859773
3872.000000;2.918669
3871.000000;3.050345
3870.000000;3.064155
3869.000000;3.018539
3868.000000;2.993803
3867.000000;3.252111
3866.000000;3.636360
3865.000000;3.063307
3864.000000;2.878613
3863.000000;2.887330
3862.000000;3.118562
3861.000000;3.203351
3860.000000;2.894382
3859.000000;2.779767
3858.000000;2.791018
3857.000000;2.920369
3856.000000;3.070066
3855.000000;2.951355
3854.000000;2.796410
3853.000000;2.761924
3852.000000;2.833912
3851.000000;2.898888
3850.000000;2.793721
3849.000000;2.671466
3848.000000;2.664668
3847.000000;2.769180
3846.000000;2.865118
3845.000000;2.845775
3844.000000;2.819198
3843.000000;2.855632
3842.000000;2.956637
3841.000000;3.114129
3840.000000;3.207680
3839.000000;3.125251
3838.000000;3.054420
3837.000000;3.014687
3836.000000;2.818905
3835.000000;2.593344
3834.000000;2.534093
3833.000000;2.722162
3832.000000;3.192433
3831.000000;3.362386
3830.000000;3.193018
3829.000000;3.147875
3828.000000;3.103254
3827.000000;3.153857
3826.000000;3.406458
3825.000000;3.525144
3824.000000;3.601408
3823.000000;3.579142
3822.000000;3.149643
3821.000000;2.959863
3820.000000;2.977923
3819.000000;3.021384
3818.000000;2.940943
3817.000000;2.805739
3816.000000;2.933621
3815.000000;3.343806
3814.000000;2.756400
3813.000000;2.463695
3812.000000;2.424990
3811.000000;2.479336
3810.000000;2.592804
3809.000000;2.760406
3808.000000;2.999814
3807.000000;3.177327
3806.000000;3.289038
3805.000000;3.332206
3804.000000;3.233228
3803.000000;3.052632
3802.000000;2.893307
3801.000000;2.708161
3800.000000;2.547388
3799.000000;2.449733
3798.000000;2.538310
3797.000000;2.837332
3796.000000;2.790987
3795.000000;2.640554
3794.000000;2.645933
3793.000000;2.762558
3792.000000;3.014469
3791.000000;3.375267
3790.000000;3.660495
3789.000000;3.445498
3788.000000;3.295781
3787.000000;3.468707
3786.000000;3.522278
3785.000000;3.627712
3784.000000;3.517512
3783.000000;2.937749
3782.000000;2.656742
3781.000000;2.567798
3780.000000;2.598023
3779.000000;2.784905
3778.000000;3.419600
3777.000000;3.111172
3776.000000;2.714345
3775.000000;2.678943
3774.000000;2.742464
3773.000000;2.885240
3772.000000;3.083421
3771.000000;3.379333
3770.000000;3.367900
3769.000000;3.199640
3768.000000;3.182656
3767.000000;3.145865
3766.000000;3.103597
3765.000000;3.163466
3764.000000;3.165331
3763.000000;2.990529
3762.000000;2.908641
3761.000000;2.936218
3760.000000;3.103302
3759.000000;3.538867
3758.000000;3.979456
3757.000000;3.561907
3756.000000;3.133658
3755.000000;2.889604
3754.000000;2.799352
3753.000000;2.772242
3752.000000;2.748178
3751.000000;2.720559
3750.000000;2.708080
3749.000000;2.688244
3748.000000;2.649168
3747.000000;2.608912
3746.000000;2.560036
3745.000000;2.537488
3744.000000;2.618315
3743.000000;2.789060
3742.000000;2.893498
3741.000000;2.931437
3740.000000;2.955661
3739.000000;2.960956
3738.000000;2.932319
3737.000000;2.787946
3736.000000;2.683247
3735.000000;2.690701
3734.000000;2.731184
3733.000000;2.752874
3732.000000;2.784375
3731.000000;2.872060
3730.000000;3.089534
3729.000000;3.363109
3728.000000;3.310325
3727.000000;3.528249
3726.000000;3.749696
3725.000000;3.610531
3724.000000;3.761125
3723.000000;3.345224
3722.000000;3.091895
3721.000000;3.049614
3720.000000;3.182731
3719.000000;3.073593
3718.000000;2.805406
3717.000000;2.732210
3716.000000;2.815402
3715.000000;2.978882
3714.000000;3.018198
3713.000000;2.912775
3712.000000;2.862374
3711.000000;2.892288
3710.000000;2.944031
3709.000000;2.943767
3708.000000;2.890790
3707.000000;2.874485
3706.000000;2.909888
3705.000000;2.897943
3704.000000;2.828970
3703.000000;2.787713
3702.000000;2.805637
3701.000000;2.846632
3700.000000;2.881565
3699.000000;2.915221
3698.000000;2.972505
3697.000000;3.030601
3696.000000;3.092387
3695.000000;3.060502
3694.000000;3.094728
3693.000000;3.416334
3692.000000;3.087897
3691.000000;2.866870
3690.000000;2.918648
3689.000000;2.943907
3688.000000;2.797226
3687.000000;2.740566
3686.000000;3.102594
3685.000000;2.880614
3684.000000;2.589711
3683.000000;2.637902
3682.000000;2.998800
3681.000000;3.318142
3680.000000;2.813247
3679.000000;2.759989
3678.000000;2.893242
3677.000000;3.099987
3676.000000;3.180894
3675.000000;3.164434
3674.000000;3.315070
3673.000000;3.319882
3672.000000;3.233886
3671.000000;3.253033
3670.000000;3.348486
3669.000000;3.174718
3668.000000;2.952229
3667.000000;2.871889
3666.000000;2.912808
3665.000000;2.994282
3664.000000;3.068799
3663.000000;3.146996
3662.000000;3.344660
3661.000000;3.519288
3660.000000;3.242147
3659.000000;3.043686
3658.000000;2.945961
3657.000000;2.921079
3656.000000;2.961982
3655.000000;2.977568
3654.000000;2.975828
3653.000000;3.023245
3652.000000;3.075474
3651.000000;3.166697
3650.000000;3.444333
3649.000000;3.381759
3648.000000;3.196535
3647.000000;3.284914
3646.000000;3.054245
3645.000000;2.777663
3644.000000;2.709156
3643.000000;2.733968
3642.000000;2.808906
3641.000000;3.074229
3640.000000;3.499309
3639.000000;3.209063
3638.000000;3.215650
3637.000000;3.567149
3636.000000;3.345769
3635.000000;3.179212
3634.000000;3.088711
3633.000000;3.009037
3632.000000;3.051250
3631.000000;3.176832
3630.000000;3.171532
3629.000000;3.168293
3628.000000;3.327124
3627.000000;3.437651
3626.000000;3.427522
3625.000000;3.348443
3624.000000;3.176022
3623.000000;3.011094
3622.000000;2.940993
3621.000000;2.982363
3620.000000;3.203775
3619.000000;3.762354
3618.000000;3.496490
3617.000000;3.136032
3616.000000;3.025996
3615.000000;3.000646
3614.000000;3.118444
3613.000000;3.327432
3612.000000;3.310024
3611.000000;3.285719
3610.000000;3.357070
3609.000000;3.259830
3608.000000;3.173320
3607.000000;3.132947
3606.000000;3.111548
3605.000000;3.108233
3604.000000;3.308998
3603.000000;3.500020
3602.000000;3.048836
3601.000000;2.857234
3600.000000;3.053048
3599.000000;3.484166
3598.000000;2.809224
3597.000000;2.586343
3596.000000;2.615601
3595.000000;2.760457
3594.000000;2.976245
3593.000000;3.019146
3592.000000;2.870808
3591.000000;2.780725
3590.000000;2.872724
3589.000000;3.140034
3588.000000;3.477997
3587.000000;3.541553
3586.000000;3.614679
3585.000000;3.723304
3584.000000;3.881788
3583.000000;4.539756
3582.000000;3.581825
3581.000000;3.066880
3580.000000;2.799144
3579.000000;2.722117
3578.000000;2.802059
3577.000000;2.979738
3576.000000;3.002045
3575.000000;3.191692
3574.000000;3.720752
3573.000000;2.908471
3572.000000;2.691205
3571.000000;2.704076
3570.000000;2.837000
3569.000000;2.975208
3568.000000;2.899673
3567.000000;2.845504
3566.000000;2.909057
3565.000000;3.107024
3564.000000;3.190591
3563.000000;3.059786
3562.000000;3.043234
3561.000000;3.026367
3560.000000;2.859566
3559.000000;2.754664
3558.000000;2.782858
3557.000000;2.933890
3556.000000;3.331167
3555.000000;3.488389
3554.000000;2.983903
3553.000000;2.749272
3552.000000;2.640583
3551.000000;2.608424
3550.000000;2.655650
3549.000000;2.720208
3548.000000;2.703479
3547.000000;2.665547
3546.000000;2.672205
3545.000000;2.711688
3544.000000;2.802213
3543.000000;2.948421
3542.000000;3.117584
3541.000000;3.081561
3540.000000;2.949094
3539.000000;3.211863
3538.000000;3.277116
3537.000000;2.836025
3536.000000;2.695222
3535.000000;2.663515
3534.000000;2.680302
3533.000000;2.748505
3532.000000;2.852848
3531.000000;2.996012
3530.000000;3.106615
3529.000000;3.289885
3528.000000;4.137319
3527.000000;3.258921
3526.000000;2.817952
3525.000000;2.640132
3524.000000;2.594331
3523.000000;2.680055
3522.000000;2.852545
3521.000000;2.990437
3520.000000;3.007771
3519.000000;3.015857
3518.000000;3.084168
3517.000000;3.140592
3516.000000;3.046283
3515.000000;2.945840
3514.000000;2.891596
3513.000000;2.893285
3512.000000;2.965631
3511.000000;3.077919
3510.000000;3.173922
3509.000000;3.226648
3508.000000;3.437154
3507.000000;3.509229
3506.000000;3.243563
3505.000000;3.148681
3504.000000;3.184481
3503.000000;3.212648
3502.000000;3.320764
3501.000000;3.614554
3500.000000;3.167926
3499.000000;2.950239
3498.000000;2.987659
3497.000000;3.264848
3496.000000;3.464088
3495.000000;3.049993
3494.000000;2.919837
3493.000000;2.998084
3492.000000;3.278232
3491.000000;3.397784
3490.000000;3.263355
3489.000000;3.315524
3488.000000;3.366604
3487.000000;3.171276
3486.000000;2.963531
3485.000000;2.904084
3484.000000;2.978721
3483.000000;3.198608
3482.000000;3.633870
3481.000000;4.096486
3480.000000;3.434724
3479.000000;3.099493
3478.000000;3.067565
3477.000000;3.374872
3476.000000;3.516798
3475.000000;3.247877
3474.000000;3.220540
3473.000000;3.141449
3472.000000;3.014000
3471.000000;2.941433
3470.000000;2.928847
3469.000000;3.005289
3468.000000;3.280769
3467.000000;3.926860
3466.000000;3.829587
3465.000000;3.665177
3464.000000;3.378253
3463.000000;3.125595
3462.000000;3.001298
3461.000000;3.004789
3460.000000;3.131929
3459.000000;3.430102
3458.000000;3.825519
3457.000000;3.817570
3456.000000;3.720814
3455.000000;3.334642
3454.000000;3.068918
3453.000000;3.014467
3452.000000;3.238565
3451.000000;3.727112
3450.000000;3.297799
3449.000000;3.099276
3448.000000;3.048107
3447.000000;2.991314
3446.000000;3.029747
3445.000000;3.231195
3444.000000;3.202416
3443.000000;2.964514
3442.000000;2.912780
3441.000000;3.026830
3440.000000;3.247963
3439.000000;3.354032
3438.000000;3.275927
3437.000000;3.106735
3436.000000;2.974691
3435.000000;2.958214
3434.000000;3.047520
3433.000000;3.192885
3432.000000;3.239689
3431.000000;3.119021
3430.000000;3.005610
3429.000000;2.997222
3428.000000;3.101974
3427.000000;3.260926
3426.000000;3.265062
3425.000000;3.179715
3424.000000;3.188872
3423.000000;3.342996
3422.000000;3.539603
3421.000000;3.402124
3420.000000;3.296010
3419.000000;3.255948
3418.000000;3.188564
3417.000000;3.166481
3416.000000;3.173570
3415.000000;3.126339
3414.000000;3.032466
3413.000000;2.994532
3412.000000;3.153429
3411.000000;3.504922
3410.000000;3.265121
3409.000000;3.055695
3408.000000;3.002245
3407.000000;3.087432
3406.000000;3.347294
3405.000000;3.292120
3404.000000;3.280441
3403.000000;3.481843
3402.000000;3.135229
3401.000000;2.943864
3400.000000;2.990921
3399.000000;3.532605
3398.000000;3.173035
3397.000000;2.770202
3396.000000;2.685444
3395.000000;2.722167
3394.000000;2.829132
3393.000000;2.875045
3392.000000;2.974663
3391.000000;3.349214
3390.000000;3.084562
3389.000000;2.909378
3388.000000;2.990744
3387.000000;3.310744
3386.000000;4.021215
3385.000000;3.254547
3384.000000;2.988205
3383.000000;2.895566
3382.000000;2.907539
3381.000000;2.967442
3380.000000;2.981307
3379.000000;2.939733
3378.000000;2.934008
3377.000000;3.038722
3376.000000;3.304129
3375.000000;3.901666
3374.000000;3.942190
3373.000000;3.610401
3372.000000;3.288468
3371.000000;3.058986
3370.000000;3.023596
3369.000000;3.095222
3368.000000;3.143141
3367.000000;3.124697
3366.000000;3.142234
3365.000000;3.302781
3364.000000;3.618416
3363.000000;3.461658
3362.000000;3.408023
3361.000000;3.748248
3360.000000;3.311356
3359.000000;3.068983
3358.000000;3.127818
3357.000000;3.175916
3356.000000;3.029889
3355.000000;3.015864
3354.000000;3.125025
3353.000000;3.258400
3352.000000;3.173500
3351.000000;2.964868
3350.000000;2.836507
3349.000000;2.805423
3348.000000;2.849720
3347.000000;2.919957
3346.000000;2.943691
3345.000000;2.901245
3344.000000;2.838754
3343.000000;2.758748
3342.000000;2.676747
3341.000000;2.629978
3340.000000;2.637741
3339.000000;2.695243
3338.000000;2.769191
3337.000000;2.800303
3336.000000;2.782951
3335.000000;2.772719
3334.000000;2.818301
3333.000000;2.946061
3332.000000;3.053003
3331.000000;2.998831
3330.000000;2.943034
3329.000000;3.014492
3328.000000;3.388374
3327.000000;3.423130
3326.000000;3.061513
3325.000000;2.992434
3324.000000;2.955205
3323.000000;3.094524
3322.000000;3.558712
3321.000000;3.461239
3320.000000;3.252803
3319.000000;3.264150
3318.000000;3.164543
3317.000000;3.076673
3316.000000;3.041896
3315.000000;3.019254
3314.000000;2.965029
3313.000000;2.918296
3312.000000;2.912104
3311.000000;2.940613
3310.000000;3.080747
3309.000000;3.485243
3308.000000;2.939452
3307.000000;2.741332
3306.000000;2.769080
3305.000000;2.984788
3304.000000;3.391905
3303.000000;3.705045
3302.000000;3.591275
3301.000000;3.483299
3300.000000;3.436050
3299.000000;3.405963
3298.000000;3.193709
3297.000000;3.038656
3296.000000;3.008047
3295.000000;3.091963
3294.000000;3.028304
3293.000000;2.836129
3292.000000;2.765441
3291.000000;2.829110
3290.000000;3.002689
3289.000000;3.099332
3288.000000;3.038242
3287.000000;3.006315
3286.000000;3.075356
3285.000000;3.341871
3284.000000;3.929719
3283.000000;3.381898
3282.000000;3.339820
3281.000000;3.471902
3280.000000;3.419905
3279.000000;3.174428
3278.000000;3.007441
3277.000000;2.962371
3276.000000;3.019934
3275.000000;3.190359
3274.000000;3.441888
3273.000000;3.372870
3272.000000;3.199041
3271.000000;3.160509
3270.000000;3.200957
3269.000000;3.357308
3268.000000;3.661373
3267.000000;3.400695
3266.000000;3.171941
3265.000000;3.179215
3264.000000;3.208297
3263.000000;3.198668
3262.000000;3.400744
3261.000000;3.725835
3260.000000;3.197458
3259.000000;3.024782
3258.000000;3.028946
3257.000000;3.110767
3256.000000;3.281256
3255.000000;3.387771
3254.000000;3.201546
3253.000000;3.143192
3252.000000;3.189646
3251.000000;3.097284
3250.000000;2.980606
3249.000000;2.973666
3248.000000;3.054196
3247.000000;3.162764
3246.000000;3.151686
3245.000000;3.009936
3244.000000;2.897324
3243.000000;2.878844
3242.000000;2.950926
3241.000000;3.042225
3240.000000;3.260920
3239.000000;3.585957
3238.000000;3.245679
3237.000000;3.086884
3236.000000;3.105264
3235.000000;3.174787
3234.000000;3.274375
3233.000000;3.379182
3232.000000;3.275615
3231.000000;3.021373
3230.000000;2.905822
3229.000000;2.955055
3228.000000;3.129168
3227.000000;3.117526
3226.000000;3.039723
3225.000000;3.069505
3224.000000;3.137781
3223.000000;3.203544
3222.000000;3.276182
3221.000000;3.325983
3220.000000;3.307923
3219.000000;3.240020
3218.000000;3.178231
3217.000000;3.150157
3216.000000;3.075509
3215.000000;2.973314
3214.000000;2.920945
3213.000000;2.938856
3212.000000;3.011331
3211.000000;3.276484
3210.000000;3.299574
3209.000000;2.964958
3208.000000;2.863994
3207.000000;2.962908
3206.000000;3.108497
3205.000000;2.950289
3204.000000;2.794025
3203.000000;2.698537
3202.000000;2.633567
3201.000000;2.603626
3200.000000;2.611700
3199.000000;2.645490
3198.000000;2.665126
3197.000000;2.644858
3196.000000;2.649223
3195.000000;2.750985
3194.000000;3.029488
3193.000000;3.084057
3192.000000;2.798002
3191.000000;2.722123
3190.000000;2.731157
3189.000000;2.789775
3188.000000;2.846928
3187.000000;2.904168
3186.000000;2.960102
3185.000000;2.979439
3184.000000;2.977342
3183.000000;2.980961
3182.000000;2.994432
3181.000000;2.993135
3180.000000;2.931346
3179.000000;2.856364
3178.000000;2.837196
3177.000000;2.884889
3176.000000;2.991449
3175.000000;3.159263
3174.000000;3.390563
3173.000000;3.292994
3172.000000;3.114712
3171.000000;3.056896
3170.000000;3.021666
3169.000000;2.937921
3168.000000;2.852219
3167.000000;2.829722
3166.000000;2.845608
3165.000000;2.855664
3164.000000;2.885655
3163.000000;2.994845
3162.000000;3.275688
3161.000000;3.440580
3160.000000;3.261150
3159.000000;3.259358
3158.000000;3.362572
3157.000000;3.452183
3156.000000;3.599291
3155.000000;3.238715
3154.000000;3.027555
3153.000000;3.036870
3152.000000;3.053305
3151.000000;3.046727
3150.000000;3.157804
3149.000000;3.540318
3148.000000;3.273056
3147.000000;3.088660
3146.000000;3.082973
3145.000000;3.069933
3144.000000;2.988508
3143.000000;2.929291
3142.000000;2.915696
3141.000000;2.938180
3140.000000;2.978237
3139.000000;3.042464
3138.000000;3.239803
3137.000000;3.570715
3136.000000;3.354387
3135.000000;3.210219
3134.000000;3.249738
3133.000000;3.466836
3132.000000;3.688384
3131.000000;3.163343
3130.000000;2.930283
3129.000000;2.913182
3128.000000;2.994701
3127.000000;3.112104
3126.000000;3.306444
3125.000000;3.284229
3124.000000;2.907173
3123.000000;2.698078
3122.000000;2.635759
3121.000000;2.697426
3120.000000;2.896246
3119.000000;3.160384
3118.000000;3.031578
3117.000000;2.941465
3116.000000;2.971525
3115.000000;3.230067
3114.000000;3.419360
3113.000000;2.814838
3112.000000;2.608628
3111.000000;2.575639
3110.000000;2.716658
3109.000000;2.997922
3108.000000;3.032416
3107.000000;2.915789
3106.000000;3.015360
3105.000000;3.156315
3104.000000;3.034934
3103.000000;2.980988
3102.000000;3.158589
3101.000000;3.120175
3100.000000;2.964130
3099.000000;2.932659
3098.000000;2.950113
3097.000000;2.957514
3096.000000;2.939223
3095.000000;2.936367
3094.000000;2.953712
3093.000000;2.947738
3092.000000;2.907623
3091.000000;2.827232
3090.000000;2.715493
3089.000000;2.618791
3088.000000;2.587785
3087.000000;2.652872
3086.000000;2.937577
3085.000000;3.194583
3084.000000;2.856094
3083.000000;2.813756
3082.000000;2.941831
3081.000000;3.324604
3080.000000;3.217387
3079.000000;2.909853
3078.000000;2.855249
3077.000000;2.929613
3076.000000;3.149629
3075.000000;3.518366
3074.000000;3.437920
3073.000000;3.329368
3072.000000;3.376778
3071.000000;3.302983
3070.000000;3.166051
3069.000000;3.068531
3068.000000;3.051250
3067.000000;3.093891
3066.000000;3.139736
3065.000000;3.251346
3064.000000;3.677662
3063.000000;3.379432
3062.000000;2.996478
3061.000000;2.909526
3060.000000;2.973349
3059.000000;3.128310
3058.000000;3.230791
3057.000000;3.283852
3056.000000;3.432928
3055.000000;3.890785
3054.000000;3.714958
3053.000000;3.381029
3052.000000;3.529618
3051.000000;3.707182
3050.000000;3.391057
3049.000000;3.043508
3048.000000;2.861797
3047.000000;2.855539
3046.000000;2.917639
3045.000000;2.931889
3044.000000;3.011472
3043.000000;2.987306
3042.000000;2.846591
3041.000000;2.815754
3040.000000;2.899433
3039.000000;3.128715
3038.000000;3.557963
3037.000000;3.156526
3036.000000;2.967986
3035.000000;2.968737
3034.000000;3.103519
3033.000000;3.291262
3032.000000;3.291702
3031.000000;3.143218
3030.000000;3.013747
3029.000000;2.978337
3028.000000;3.047593
3027.000000;3.135230
3026.000000;3.258672
3025.000000;3.305420
3024.000000;3.126567
3023.000000;3.031552
3022.000000;3.070635
3021.000000;3.302455
3020.000000;3.505802
3019.000000;3.111721
3018.000000;2.919269
3017.000000;2.896287
3016.000000;2.956084
3015.000000;3.072406
3014.000000;3.280107
3013.000000;3.732596
3012.000000;3.570272
3011.000000;3.446534
3010.000000;3.467102
3009.000000;3.298250
3008.000000;3.232795
3007.000000;3.390706
3006.000000;3.615473
3005.000000;3.342981
3004.000000;3.159234
3003.000000;3.185624
3002.000000;3.314980
3001.000000;3.159280
3000.000000;2.989114
2999.000000;3.004810
2998.000000;3.200878
2997.000000;3.286916
2996.000000;3.079478
2995.000000;2.971722
2994.000000;2.965003
2993.000000;2.987801
2992.000000;2.981136
2991.000000;2.958906
2990.000000;3.009936
2989.000000;3.188016
2988.000000;3.524019
2987.000000;4.064599
2986.000000;3.267260
2985.000000;3.006219
2984.000000;2.966174
2983.000000;3.061655
2982.000000;3.272662
2981.000000;3.397933
2980.000000;3.336097
2979.000000;3.288849
2978.000000;3.046304
2977.000000;2.854721
2976.000000;2.821896
2975.000000;2.926684
2974.000000;3.034865
2973.000000;2.958171
2972.000000;2.884916
2971.000000;2.909125
2970.000000;3.187614
2969.000000;3.518675
2968.000000;3.066465
2967.000000;2.898387
2966.000000;2.917904
2965.000000;3.008510
2964.000000;3.119356
2963.000000;3.120442
2962.000000;3.195703
2961.000000;3.363653
2960.000000;3.222381
2959.000000;3.127958
2958.000000;3.145507
2957.000000;3.102057
2956.000000;2.905899
2955.000000;2.787455
2954.000000;2.812346
2953.000000;2.947050
2952.000000;3.091734
2951.000000;3.168282
2950.000000;3.194943
2949.000000;3.134413
2948.000000;3.059866
2947.000000;3.051192
2946.000000;3.159293
2945.000000;3.259950
2944.000000;3.159737
2943.000000;3.103624
2942.000000;3.094803
2941.000000;2.956482
2940.000000;2.832145
2939.000000;2.867222
2938.000000;3.190174
2937.000000;3.714990
2936.000000;3.717934
2935.000000;3.552692
2934.000000;3.089073
2933.000000;2.926059
2932.000000;2.923435
2931.000000;3.072498
2930.000000;3.304489
2929.000000;3.085134
2928.000000;2.966163
2927.000000;3.185846
2926.000000;3.515288
2925.000000;3.126372
2924.000000;3.066686
2923.000000;3.257643
2922.000000;3.411207
2921.000000;3.060750
2920.000000;2.797650
2919.000000;2.703537
2918.000000;2.740577
2917.000000;2.896768
2916.000000;3.030043
2915.000000;3.065151
2914.000000;3.212205
2913.000000;3.406384
2912.000000;3.262312
2911.000000;2.953177
2910.000000;2.764657
2909.000000;2.722837
2908.000000;2.896822
2907.000000;3.476651
2906.000000;3.084940
2905.000000;2.846852
2904.000000;2.801173
2903.000000;2.805881
2902.000000;2.896450
2901.000000;3.043023
2900.000000;3.022363
2899.000000;2.899915
2898.000000;2.927517
2897.000000;3.106181
2896.000000;3.211269
2895.000000;3.033595
2894.000000;2.882548
2893.000000;2.798630
2892.000000;2.779888
2891.000000;2.833402
2890.000000;2.992228
2889.000000;3.436303
2888.000000;3.416012
2887.000000;3.091252
2886.000000;3.056813
2885.000000;3.173436
2884.000000;3.343700
2883.000000;3.350960
2882.000000;3.277701
2881.000000;3.173025
2880.000000;3.205265
2879.000000;3.532126
2878.000000;3.284038
2877.000000;2.909558
2876.000000;2.764147
2875.000000;2.766081
2874.000000;2.955089
2873.000000;3.182044
2872.000000;3.042966
2871.000000;2.994098
2870.000000;3.154997
2869.000000;3.338063
2868.000000;3.066605
2867.000000;2.818139
2866.000000;2.741224
2865.000000;2.788430
2864.000000;2.932375
2863.000000;2.996749
2862.000000;2.927970
2861.000000;2.921854
2860.000000;3.089537
2859.000000;3.338038
2858.000000;3.151505
2857.000000;2.957199
2856.000000;2.841364
2855.000000;2.764830
2854.000000;2.777047
2853.000000;2.834034
2852.000000;2.867099
2851.000000;2.907127
2850.000000;2.970076
2849.000000;3.018558
2848.000000;3.023292
2847.000000;2.970771
2846.000000;2.945113
2845.000000;2.977107
2844.000000;3.054722
2843.000000;3.203330
2842.000000;3.408835
2841.000000;3.571089
2840.000000;3.523975
2839.000000;3.253992
2838.000000;3.117425
2837.000000;3.327789
2836.000000;3.333541
2835.000000;2.972115
2834.000000;2.850588
2833.000000;2.894850
2832.000000;3.032842
2831.000000;3.213520
2830.000000;3.496774
2829.000000;3.438358
2828.000000;3.424400
2827.000000;3.512802
2826.000000;3.161971
2825.000000;3.019067
2824.000000;3.115038
2823.000000;3.404025
2822.000000;3.408320
2821.000000;3.333843
2820.000000;3.273523
2819.000000;3.151511
2818.000000;3.129654
2817.000000;2.995788
2816.000000;2.864587
2815.000000;2.895573
2814.000000;3.029230
2813.000000;2.958303
2812.000000;2.827379
2811.000000;2.866874
2810.000000;3.085357
2809.000000;3.495259
2808.000000;3.378737
2807.000000;3.324765
2806.000000;3.686106
2805.000000;3.180846
2804.000000;2.919483
2803.000000;2.933243
2802.000000;3.125270
2801.000000;3.373431
2800.000000;3.209498
2799.000000;2.963639
2798.000000;2.838483
2797.000000;2.843360
2796.000000;3.116951
2795.000000;3.535063
2794.000000;3.104730
2793.000000;2.952533
2792.000000;2.893881
2791.000000;2.872172
2790.000000;2.945036
2789.000000;3.097044
2788.000000;3.341520
2787.000000;3.257640
2786.000000;3.034285
2785.000000;2.945582
2784.000000;2.973319
2783.000000;3.027729
2782.000000;3.125755
2781.000000;3.431716
2780.000000;3.392926
2779.000000;3.212633
2778.000000;3.395643
2777.000000;3.558584
2776.000000;3.249055
2775.000000;3.080680
2774.000000;3.066949
2773.000000;3.013039
2772.000000;2.886481
2771.000000;2.834228
2770.000000;2.903800
2769.000000;3.080870
2768.000000;3.267411
2767.000000;3.328300
2766.000000;3.442532
2765.000000;3.385401
2764.000000;3.144219
2763.000000;3.042002
2762.000000;3.129112
2761.000000;3.498570
2760.000000;3.228639
2759.000000;2.847197
2758.000000;2.720678
2757.000000;2.686871
2756.000000;2.720426
2755.000000;2.817866
2754.000000;3.089872
2753.000000;3.412051
2752.000000;3.180869
2751.000000;3.175755
2750.000000;3.429646
2749.000000;3.458286
2748.000000;3.292188
2747.000000;3.072878
2746.000000;2.888357
2745.000000;2.826065
2744.000000;2.894062
2743.000000;2.979900
2742.000000;3.042992
2741.000000;3.211189
2740.000000;3.303566
2739.000000;3.315488
2738.000000;3.350325
2737.000000;3.261855
2736.000000;3.382621
2735.000000;3.766587
2734.000000;3.336199
2733.000000;3.006244
2732.000000;2.885678
2731.000000;2.890336
2730.000000;3.024440
2729.000000;2.981903
2728.000000;2.790912
2727.000000;2.733520
2726.000000;2.766131
2725.000000;2.795198
2724.000000;2.779418
2723.000000;2.820929
2722.000000;3.091988
2721.000000;3.202636
2720.000000;2.890961
2719.000000;2.788815
2718.000000;2.835800
2717.000000;2.999626
2716.000000;3.451652
2715.000000;3.545351
2714.000000;3.429316
2713.000000;3.752175
2712.000000;3.263020
2711.000000;3.030942
2710.000000;3.103519
2709.000000;3.422008
2708.000000;3.422058
2707.000000;3.082167
2706.000000;2.980134
2705.000000;2.938490
2704.000000;2.938480
2703.000000;2.976997
2702.000000;3.085558
2701.000000;3.448238
2700.000000;3.660195
2699.000000;3.260006
2698.000000;3.112405
2697.000000;3.079162
2696.000000;3.245245
2695.000000;3.468327
2694.000000;3.099637
2693.000000;2.964715
2692.000000;3.098878
2691.000000;3.228349
2690.000000;3.264490
2689.000000;3.246200
2688.000000;3.006812
2687.000000;2.880752
2686.000000;2.909831
2685.000000;3.180683
2684.000000;3.709186
2683.000000;3.345347
2682.000000;3.228966
2681.000000;3.428701
2680.000000;3.710949
2679.000000;3.394614
2678.000000;3.110730
2677.000000;2.951357
2676.000000;2.835000
2675.000000;2.794388
2674.000000;2.825358
2673.000000;2.916910
2672.000000;3.040294
2671.000000;3.174680
2670.000000;3.305435
2669.000000;3.555033
2668.000000;3.402609
2667.000000;2.968663
2666.000000;2.764944
2665.000000;2.711131
2664.000000;2.732101
2663.000000;2.771733
2662.000000;2.789453
2661.000000;2.861440
2660.000000;2.957916
2659.000000;3.267818
2658.000000;3.842109
2657.000000;3.101141
2656.000000;2.883513
2655.000000;2.872298
2654.000000;3.031456
2653.000000;3.422432
2652.000000;3.729710
2651.000000;3.813639
2650.000000;3.357793
2649.000000;3.197413
2648.000000;3.227373
2647.000000;3.094791
2646.000000;2.943665
2645.000000;2.922746
2644.000000;2.993494
2643.000000;3.152873
2642.000000;3.376713
2641.000000;3.225304
2640.000000;3.007368
2639.000000;2.952369
2638.000000;2.944960
2637.000000;2.929505
2636.000000;2.935984
2635.000000;3.008251
2634.000000;3.152834
2633.000000;3.255844
2632.000000;3.141741
2631.000000;2.943175
2630.000000;2.804626
2629.000000;2.755876
2628.000000;2.787028
2627.000000;2.996376
2626.000000;3.352096
2625.000000;3.119383
2624.000000;2.973050
2623.000000;2.995958
2622.000000;2.951913
2621.000000;2.867472
2620.000000;2.828754
2619.000000;2.853048
2618.000000;2.985043
2617.000000;3.435450
2616.000000;3.585706
2615.000000;3.242034
2614.000000;3.215343
2613.000000;3.279082
2612.000000;3.321436
2611.000000;3.503061
2610.000000;3.590547
2609.000000;3.323677
2608.000000;3.470783
2607.000000;3.310722
2606.000000;2.917306
2605.000000;2.802381
2604.000000;2.819551
2603.000000;2.878447
2602.000000;2.923272
2601.000000;2.936108
2600.000000;2.997270
2599.000000;3.313168
2598.000000;3.147094
2597.000000;2.789260
2596.000000;2.723894
2595.000000;2.748567
2594.000000;2.791095
2593.000000;2.826630
2592.000000;2.890486
2591.000000;3.073931
2590.000000;3.337988
2589.000000;3.336676
2588.000000;3.164404
2587.000000;3.165815
2586.000000;3.235427
2585.000000;3.299629
2584.000000;3.648239
2583.000000;3.902441
2582.000000;3.389220
2581.000000;3.150658
2580.000000;3.063807
2579.000000;3.075813
2578.000000;3.130716
2577.000000;3.184167
2576.000000;3.271049
2575.000000;3.464229
2574.000000;3.247863
2573.000000;2.974764
2572.000000;3.009699
2571.000000;3.157810
2570.000000;3.080144
2569.000000;3.172200
2568.000000;3.540558
2567.000000;3.122526
2566.000000;2.895181
2565.000000;2.950490
2564.000000;3.161303
2563.000000;3.409860
2562.000000;3.191842
2561.000000;2.973309
2560.000000;2.908090
2559.000000;2.973836
2558.000000;3.106921
2557.000000;2.996150
2556.000000;2.807361
2555.000000;2.716213
2554.000000;2.719806
2553.000000;2.799194
2552.000000;2.968443
2551.000000;3.413176
2550.000000;3.314452
2549.000000;2.902542
2548.000000;2.828819
2547.000000;2.894141
2546.000000;3.025971
2545.000000;3.042469
2544.000000;2.919066
2543.000000;2.840976
2542.000000;2.865608
2541.000000;2.921405
2540.000000;2.834945
2539.000000;2.756967
2538.000000;2.791570
2537.000000;2.901172
2536.000000;3.031455
2535.000000;3.161754
2534.000000;3.298585
2533.000000;3.320707
2532.000000;3.143988
2531.000000;2.964709
2530.000000;2.857097
2529.000000;2.794003
2528.000000;2.763544
2527.000000;2.821489
2526.000000;2.999226
2525.000000;3.371279
2524.000000;3.610353
2523.000000;3.165285
2522.000000;2.995031
2521.000000;2.989179
2520.000000;3.291890
2519.000000;3.597853
2518.000000;3.074955
2517.000000;2.923538
2516.000000;2.961600
2515.000000;3.129951
2514.000000;3.147863
2513.000000;2.985309
2512.000000;2.888663
2511.000000;2.820178
2510.000000;2.790392
2509.000000;2.843126
2508.000000;2.967791
2507.000000;3.178543
2506.000000;3.413208
2505.000000;3.238427
2504.000000;3.031050
2503.000000;3.108688
2502.000000;3.555185
2501.000000;3.189146
2500.000000;2.911610
2499.000000;2.903908
2498.000000;3.005674
2497.000000;3.204972
2496.000000;3.395460
2495.000000;3.286089
2494.000000;3.038210
2493.000000;2.930703
2492.000000;3.148575
2491.000000;3.509866
2490.000000;3.198614
2489.000000;3.128685
2488.000000;3.167040
2487.000000;3.120009
2486.000000;3.264153
2485.000000;3.421096
2484.000000;2.992231
2483.000000;2.769287
2482.000000;2.740225
2481.000000;2.783574
2480.000000;2.873253
2479.000000;3.025376
2478.000000;3.323152
2477.000000;3.850642
2476.000000;4.547147
2475.000000;3.644645
2474.000000;3.232208
2473.000000;3.091592
2472.000000;3.296155
2471.000000;3.519252
2470.000000;3.007301
2469.000000;2.827408
2468.000000;2.762391
2467.000000;2.755206
2466.000000;2.841435
2465.000000;3.087227
2464.000000;3.560737
2463.000000;3.480849
2462.000000;3.234175
2461.000000;3.065617
2460.000000;2.896549
2459.000000;2.844803
2458.000000;2.898046
2457.000000;3.071021
2456.000000;3.421560
2455.000000;3.142341
2454.000000;2.881154
2453.000000;2.838574
2452.000000;2.932126
2451.000000;3.005445
2450.000000;2.845946
2449.000000;2.731182
2448.000000;2.701016
2447.000000;2.729077
2446.000000;2.842994
2445.000000;2.965157
2444.000000;2.965478
2443.000000;2.980032
2442.000000;3.135106
2441.000000;3.454845
2440.000000;3.490158
2439.000000;3.307688
2438.000000;3.221198
2437.000000;3.112081
2436.000000;3.103156
2435.000000;3.254469
2434.000000;3.472554
2433.000000;3.456071
2432.000000;3.480098
2431.000000;3.408919
2430.000000;3.162427
2429.000000;3.063690
2428.000000;3.154795
2427.000000;3.414077
2426.000000;3.274337
2425.000000;3.094360
2424.000000;3.043797
2423.000000;2.951542
2422.000000;2.863250
2421.000000;2.832159
2420.000000;2.826630
2419.000000;2.813801
2418.000000;2.825175
2417.000000;2.901245
2416.000000;3.072502
2415.000000;3.489757
2414.000000;4.114419
2413.000000;3.412324
2412.000000;3.049973
2411.000000;2.887082
2410.000000;2.876299
2409.000000;2.905898
2408.000000;2.858512
2407.000000;2.800461
2406.000000;2.810772
2405.000000;2.912583
2404.000000;3.060479
2403.000000;3.133193
2402.000000;3.059371
2401.000000;2.920844
2400.000000;2.856787
2399.000000;2.906124
2398.000000;3.094854
2397.000000;3.307563
2396.000000;3.340520
2395.000000;3.223942
2394.000000;3.320740
2393.000000;4.047335
2392.000000;3.018814
2391.000000;2.708572
2390.000000;2.613188
2389.000000;2.619873
2388.000000;2.664815
2387.000000;2.682607
2386.000000;2.710301
2385.000000;2.776952
2384.000000;3.096460
2383.000000;3.480881
2382.000000;2.974170
2381.000000;2.795039
2380.000000;2.754380
2379.000000;2.770739
2378.000000;2.806664
2377.000000;2.806222
2376.000000;2.787620
2375.000000;2.904970
2374.000000;3.000640
2373.000000;2.745361
2372.000000;2.629971
2371.000000;2.690967
2370.000000;2.792138
2369.000000;2.791300
2368.000000;2.756427
2367.000000;2.756808
2366.000000;2.726764
2365.000000;2.640827
2364.000000;2.569031
2363.000000;2.540589
2362.000000;2.561241
2361.000000;2.668988
2360.000000;2.908193
2359.000000;3.041771
2358.000000;2.897795
2357.000000;2.919702
2356.000000;3.118191
2355.000000;2.848228
2354.000000;2.552397
2353.000000;2.510304
2352.000000;2.710405
2351.000000;2.933122
2350.000000;2.770163
2349.000000;2.646064
2348.000000;2.607387
2347.000000;2.713192
2346.000000;3.095314
2345.000000;3.222929
2344.000000;3.093670
2343.000000;3.170294
2342.000000;3.058974
2341.000000;2.828493
2340.000000;2.719915
2339.000000;2.732932
2338.000000;2.848345
2337.000000;3.028284
2336.000000;3.125079
2335.000000;3.127403
2334.000000;3.051462
2333.000000;2.937517
2332.000000;2.888160
2331.000000;2.856423
2330.000000;2.810551
2329.000000;2.822835
2328.000000;3.116467
2327.000000;2.994313
2326.000000;2.619272
2325.000000;2.526206
2324.000000;2.583798
2323.000000;2.853026
2322.000000;3.547190
2321.000000;3.294690
2320.000000;3.125711
2319.000000;2.954889
2318.000000;2.831024
2317.000000;2.895582
2316.000000;3.119172
2315.000000;3.769268
2314.000000;3.324028
2313.000000;2.965652
2312.000000;2.819137
2311.000000;2.772800
2310.000000;2.783712
2309.000000;2.823989
2308.000000;2.891384
2307.000000;2.961779
2306.000000;3.007279
2305.000000;3.078611
2304.000000;3.258007
2303.000000;3.555531
2302.000000;3.701707
2301.000000;3.423942
2300.000000;3.413411
2299.000000;3.512615
2298.000000;2.984272
2297.000000;2.695573
2296.000000;2.626442
2295.000000;2.697569
2294.000000;2.881926
2293.000000;2.978167
2292.000000;2.946832
2291.000000;2.983571
2290.000000;3.064533
2289.000000;3.079211
2288.000000;3.001902
2287.000000;2.926590
2286.000000;3.057856
2285.000000;3.536621
2284.000000;2.961516
2283.000000;2.739267
2282.000000;2.684349
2281.000000;2.730728
2280.000000;2.854672
2279.000000;3.019669
2278.000000;3.207954
2277.000000;3.319497
2276.000000;3.234182
2275.000000;3.208625
2274.000000;3.259255
2273.000000;3.097164
2272.000000;2.944739
2271.000000;2.974085
2270.000000;3.367120
2269.000000;3.173688
2268.000000;2.835182
2267.000000;2.747680
2266.000000;2.760826
2265.000000;2.866579
2264.000000;3.015737
2263.000000;3.123282
2262.000000;3.260903
2261.000000;3.504728
2260.000000;3.225998
2259.000000;2.952961
2258.000000;2.793060
2257.000000;2.744306
2256.000000;2.819530
2255.000000;3.102624
2254.000000;3.752000
2253.000000;3.428449
2252.000000;3.350789
2251.000000;3.513588
2250.000000;3.526583
2249.000000;3.608212
2248.000000;3.621085
2247.000000;3.287288
2246.000000;3.179300
2245.000000;3.173399
2244.000000;3.140590
2243.000000;3.041431
2242.000000;2.980480
2241.000000;3.060111
2240.000000;3.290265
2239.000000;3.221437
2238.000000;3.086365
2237.000000;3.110832
2236.000000;3.216783
2235.000000;3.228802
2234.000000;3.108810
2233.000000;2.999244
2232.000000;2.978027
2231.000000;3.170923
2230.000000;3.451497
2229.000000;3.065074
2228.000000;3.005134
2227.000000;2.984943
2226.000000;2.911815
2225.000000;2.876522
2224.000000;2.913389
2223.000000;3.032682
2222.000000;3.219767
2221.000000;3.374783
2220.000000;3.399782
2219.000000;3.346060
2218.000000;3.294975
2217.000000;3.275614
2216.000000;3.302420
2215.000000;3.409460
2214.000000;3.479687
2213.000000;3.340668
2212.000000;3.202456
2211.000000;3.161818
2210.000000;3.171348
2209.000000;3.141414
2208.000000;3.070780
2207.000000;2.998654
2206.000000;2.996839
2205.000000;3.075533
2204.000000;3.119221
2203.000000;3.166479
2202.000000;3.315022
2201.000000;3.321703
2200.000000;3.356233
2199.000000;3.705732
2198.000000;3.289998
2197.000000;2.999160
2196.000000;2.976957
2195.000000;3.075884
2194.000000;3.194491
2193.000000;3.238171
2192.000000;3.302637
2191.000000;3.651000
2190.000000;4.067883
2189.000000;3.521467
2188.000000;3.243668
2187.000000;3.034454
2186.000000;2.873404
2185.000000;2.845015
2184.000000;2.983286
2183.000000;2.953993
2182.000000;2.800689
2181.000000;2.773232
2180.000000;2.817634
2179.000000;2.826841
2178.000000;2.774291
2177.000000;2.737846
2176.000000;2.767732
2175.000000;2.869114
2174.000000;3.026579
2173.000000;3.211895
2172.000000;3.411540
2171.000000;3.501753
2170.000000;3.335551
2169.000000;3.135275
2168.000000;2.966316
2167.000000;2.867716
2166.000000;2.815345
2165.000000;2.766378
2164.000000;2.715263
2163.000000;2.722418
2162.000000;2.818579
2161.000000;3.261941
2160.000000;3.389172
2159.000000;2.992664
2158.000000;2.862365
2157.000000;2.762315
2156.000000;2.696130
2155.000000;2.712944
2154.000000;2.848111
2153.000000;3.159875
2152.000000;3.866126
2151.000000;3.426256
2150.000000;3.271429
2149.000000;3.063370
2148.000000;2.967190
2147.000000;3.023762
2146.000000;3.235812
2145.000000;3.462997
2144.000000;3.222641
2143.000000;2.967294
2142.000000;2.873215
2141.000000;2.917158
2140.000000;3.099272
2139.000000;3.397356
2138.000000;3.757215
2137.000000;3.639721
2136.000000;3.557734
2135.000000;3.569167
2134.000000;3.278755
2133.000000;3.164605
2132.000000;3.251916
2131.000000;3.872896
2130.000000;3.428092
2129.000000;3.185715
2128.000000;3.173810
2127.000000;3.144683
2126.000000;3.065620
2125.000000;3.031562
2124.000000;3.128397
2123.000000;3.428444
2122.000000;3.491716
2121.000000;3.432255
2120.000000;3.611414
2119.000000;3.473090
2118.000000;3.322770
2117.000000;3.250234
2116.000000;3.221475
2115.000000;3.342550
2114.000000;3.569491
2113.000000;3.430912
2112.000000;3.283078
2111.000000;3.258461
2110.000000;3.213481
2109.000000;3.167285
2108.000000;3.155171
2107.000000;3.042344
2106.000000;2.916770
2105.000000;2.903840
2104.000000;2.989249
2103.000000;3.107009
2102.000000;3.078189
2101.000000;3.017789
2100.000000;3.105528
2099.000000;3.590927
2098.000000;3.434211
2097.000000;3.081721
2096.000000;2.995072
2095.000000;3.033469
2094.000000;3.144145
2093.000000;3.176273
2092.000000;3.048440
2091.000000;2.972021
2090.000000;3.018212
2089.000000;3.407780
2088.000000;3.904814
2087.000000;3.450752
2086.000000;3.425840
2085.000000;3.049431
2084.000000;2.852792
2083.000000;2.846560
2082.000000;3.031924
2081.000000;3.404316
2080.000000;3.803836
2079.000000;3.877351
2078.000000;3.428465
2077.000000;3.249915
2076.000000;3.164856
2075.000000;3.090626
2074.000000;3.078518
2073.000000;3.131717
2072.000000;3.218335
2071.000000;3.296022
2070.000000;3.405544
2069.000000;3.775098
2068.000000;3.702774
2067.000000;3.258424
2066.000000;3.176225
2065.000000;3.232406
2064.000000;3.245386
2063.000000;3.119219
2062.000000;3.091657
2061.000000;3.217950
2060.000000;3.371823
2059.000000;3.465409
2058.000000;3.461755
2057.000000;3.154804
2056.000000;2.965043
2055.000000;3.082687
2054.000000;3.239305
2053.000000;2.866301
2052.000000;2.702142
2051.000000;2.750897
2050.000000;2.946238
2049.000000;3.250049
2048.000000;3.296372
2047.000000;3.220025
2046.000000;3.337391
2045.000000;3.314209
2044.000000;3.040761
2043.000000;2.997361
2042.000000;3.209093
2041.000000;3.739326
2040.000000;3.494314
2039.000000;3.420046
2038.000000;3.468641
2037.000000;3.490357
2036.000000;3.622012
2035.000000;3.729648
2034.000000;3.470348
2033.000000;3.265332
2032.000000;3.099558
2031.000000;3.003580
2030.000000;3.077708
2029.000000;3.221488
2028.000000;3.052634
2027.000000;2.949920
2026.000000;2.972567
2025.000000;2.959334
2024.000000;2.934568
2023.000000;2.965682
2022.000000;3.246118
2021.000000;3.472114
2020.000000;2.962653
2019.000000;2.814044
2018.000000;2.801310
2017.000000;2.805784
2016.000000;2.804281
2015.000000;2.833052
2014.000000;2.887603
2013.000000;2.934587
2012.000000;2.992569
2011.000000;3.062823
2010.000000;3.085763
2009.000000;3.101891
2008.000000;3.159887
2007.000000;3.086240
2006.000000;2.974620
2005.000000;2.974143
2004.000000;3.242782
2003.000000;3.468923
2002.000000;3.039332
2001.000000;2.895518
2000.000000;3.025750
1999.000000;3.402439
1998.000000;3.151018
1997.000000;3.056660
1996.000000;3.417724
1995.000000;3.671948
1994.000000;3.266979
1993.000000;3.092074
1992.000000;3.068054
1991.000000;3.140768
1990.000000;2.993007
1989.000000;2.765349
1988.000000;2.634390
1987.000000;2.597138
1986.000000;2.651599
1985.000000;2.801193
1984.000000;3.030467
1983.000000;3.254112
1982.000000;3.392780
1981.000000;3.537392
1980.000000;3.724378
1979.000000;3.832876
1978.000000;3.886947
1977.000000;3.458176
1976.000000;3.148210
1975.000000;3.011131
1974.000000;2.937000
1973.000000;2.893678
1972.000000;2.855380
1971.000000;2.836336
1970.000000;2.874601
1969.000000;3.010818
1968.000000;3.221730
1967.000000;3.227661
1966.000000;3.174296
1965.000000;3.153481
1964.000000;3.122123
1963.000000;3.129018
1962.000000;3.109932
1961.000000;3.019787
1960.000000;2.984726
1959.000000;3.071645
1958.000000;3.277793
1957.000000;3.453843
1956.000000;3.322736
1955.000000;3.081205
1954.000000;2.929335
1953.000000;2.909247
1952.000000;3.027162
1951.000000;3.256347
1950.000000;3.362440
1949.000000;3.164122
1948.000000;2.935887
1947.000000;2.783142
1946.000000;2.714505
1945.000000;2.727483
1944.000000;2.809428
1943.000000;2.926939
1942.000000;3.066461
1941.000000;3.247025
1940.000000;3.492863
1939.000000;3.638571
1938.000000;3.341657
1937.000000;3.112255
1936.000000;3.048931
1935.000000;3.150411
1934.000000;3.451793
1933.000000;3.639623
1932.000000;3.246634
1931.000000;3.091241
1930.000000;3.185838
1929.000000;3.332468
1928.000000;3.079203
1927.000000;2.894570
1926.000000;2.855706
1925.000000;2.965226
1924.000000;3.236886
1923.000000;3.617207
1922.000000;3.576919
1921.000000;3.157436
1920.000000;3.004281
1919.000000;3.132553
1918.000000;3.214620
1917.000000;3.046752
1916.000000;3.042277
1915.000000;3.246477
1914.000000;3.303905
1913.000000;3.037629
1912.000000;2.893796
1911.000000;2.890970
1910.000000;3.133425
1909.000000;3.975010
1908.000000;3.081129
1907.000000;2.925547
1906.000000;2.935470
1905.000000;2.971588
1904.000000;2.973458
1903.000000;2.953838
1902.000000;2.979574
1901.000000;3.068022
1900.000000;3.181527
1899.000000;3.383422
1898.000000;3.242184
1897.000000;2.922920
1896.000000;2.859420
1895.000000;3.009158
1894.000000;3.601283
1893.000000;3.484354
1892.000000;3.205852
1891.000000;3.408755
1890.000000;3.875057
1889.000000;3.630068
1888.000000;3.288985
1887.000000;3.032905
1886.000000;2.920888
1885.000000;2.983299
1884.000000;3.196970
1883.000000;3.454934
1882.000000;3.653591
1881.000000;3.822524
1880.000000;3.653064
1879.000000;3.365360
1878.000000;3.195240
1877.000000;3.154025
1876.000000;3.245360
1875.000000;3.403252
1874.000000;3.389979
1873.000000;3.226410
1872.000000;3.100079
1871.000000;3.072918
1870.000000;3.143471
1869.000000;3.232406
1868.000000;3.268355
1867.000000;3.173261
1866.000000;3.000894
1865.000000;2.917264
1864.000000;2.977353
1863.000000;3.216393
1862.000000;3.262405
1861.000000;3.053848
1860.000000;2.993714
1859.000000;3.181425
1858.000000;3.358896
1857.000000;2.967257
1856.000000;2.832300
1855.000000;2.902425
1854.000000;3.117862
1853.000000;3.283005
1852.000000;3.191580
1851.000000;3.189921
1850.000000;3.370921
1849.000000;3.481725
1848.000000;3.269284
1847.000000;3.142997
1846.000000;3.013488
1845.000000;2.929624
1844.000000;2.968340
1843.000000;3.191095
1842.000000;3.682936
1841.000000;3.451974
1840.000000;3.126990
1839.000000;3.000574
1838.000000;2.956424
1837.000000;2.998274
1836.000000;3.035209
1835.000000;2.950346
1834.000000;2.843103
1833.000000;2.780464
1832.000000;2.754493
1831.000000;2.764600
1830.000000;2.939650
1829.000000;3.447753
1828.000000;3.332240
1827.000000;3.303844
1826.000000;3.275162
1825.000000;3.050349
1824.000000;3.072177
1823.000000;3.306070
1822.000000;3.537657
1821.000000;3.361971
1820.000000;3.241339
1819.000000;3.165466
1818.000000;3.225931
1817.000000;3.670211
1816.000000;3.361333
1815.000000;2.969195
1814.000000;2.848610
1813.000000;2.818702
1812.000000;2.912132
1811.000000;3.238846
1810.000000;3.696948
1809.000000;3.457242
1808.000000;3.385041
1807.000000;3.385965
1806.000000;3.240514
1805.000000;3.111604
1804.000000;3.015877
1803.000000;2.952417
1802.000000;2.934977
1801.000000;2.981573
1800.000000;3.072967
1799.000000;3.086399
1798.000000;2.972286
1797.000000;2.905233
1796.000000;2.971322
1795.000000;3.169328
1794.000000;3.255422
1793.000000;3.096780
1792.000000;3.080050
1791.000000;3.215509
1790.000000;3.115741
1789.000000;2.916145
1788.000000;2.858968
1787.000000;2.897728
1786.000000;2.911529
1785.000000;2.855332
1784.000000;2.813337
1783.000000;2.808174
1782.000000;2.841635
1781.000000;2.894863
1780.000000;2.915975
1779.000000;2.921714
1778.000000;2.984693
1777.000000;3.140037
1776.000000;3.280227
1775.000000;3.236380
1774.000000;3.145926
1773.000000;3.056627
1772.000000;2.935713
1771.000000;2.824072
1770.000000;2.796122
1769.000000;2.858825
1768.000000;2.952836
1767.000000;3.049793
1766.000000;3.178487
1765.000000;3.536104
1764.000000;3.698338
1763.000000;3.291292
1762.000000;3.160589
1761.000000;3.129060
1760.000000;3.186412
1759.000000;3.208776
1758.000000;3.132291
1757.000000;3.132285
1756.000000;3.278904
1755.000000;3.656218
1754.000000;3.686675
1753.000000;3.556452
1752.000000;3.725171
1751.000000;3.622398
1750.000000;3.301829
1749.000000;3.129603
1748.000000;3.067290
1747.000000;3.058109
1746.000000;3.030885
1745.000000;2.962137
1744.000000;2.934534
1743.000000;3.042678
1742.000000;3.294391
1741.000000;3.231444
1740.000000;3.040770
1739.000000;3.202010
1738.000000;3.225078
1737.000000;2.931178
1736.000000;2.900969
1735.000000;3.107704
1734.000000;3.462193
1733.000000;3.312737
1732.000000;3.149297
1731.000000;3.150156
1730.000000;3.132305
1729.000000;3.024841
1728.000000;2.892323
1727.000000;2.874967
1726.000000;3.008851
1725.000000;3.008080
1724.000000;2.814938
1723.000000;2.741204
1722.000000;2.784023
1721.000000;2.836109
1720.000000;2.812573
1719.000000;2.804999
1718.000000;2.905611
1717.000000;3.135896
1716.000000;3.550064
1715.000000;3.967529
1714.000000;4.080829
1713.000000;4.203343
1712.000000;3.865047
1711.000000;3.767743
1710.000000;3.509747
1709.000000;3.178536
1708.000000;3.028645
1707.000000;2.977558
1706.000000;2.973985
1705.000000;2.989224
1704.000000;3.016089
1703.000000;3.117259
1702.000000;3.397408
1701.000000;3.894203
1700.000000;3.709690
1699.000000;3.274998
1698.000000;3.119071
1697.000000;3.177152
1696.000000;3.449758
1695.000000;3.570961
1694.000000;3.331047
1693.000000;3.250245
1692.000000;3.331155
1691.000000;3.311114
1690.000000;3.023884
1689.000000;2.902802
1688.000000;2.958213
1687.000000;3.060630
1686.000000;3.081236
1685.000000;3.070890
1684.000000;3.094523
1683.000000;3.144128
1682.000000;3.227937
1681.000000;3.310372
1680.000000;3.683195
1679.000000;3.655494
1678.000000;3.208784
1677.000000;3.064902
1676.000000;3.017517
1675.000000;3.017031
1674.000000;3.135843
1673.000000;3.289798
1672.000000;3.177860
1671.000000;3.097924
1670.000000;3.040890
1669.000000;2.896687
1668.000000;2.814104
1667.000000;2.812108
1666.000000;2.852187
1665.000000;2.910416
1664.000000;2.970785
1663.000000;2.949753
1662.000000;2.862775
1661.000000;2.855185
1660.000000;2.894535
1659.000000;2.890864
1658.000000;2.894715
1657.000000;2.879093
1656.000000;2.831278
1655.000000;2.858516
1654.000000;2.975908
1653.000000;3.107167
1652.000000;3.185158
1651.000000;3.178523
1650.000000;3.193334
1649.000000;3.280809
1648.000000;3.309785
1647.000000;3.204968
1646.000000;3.065374
1645.000000;3.092828
1644.000000;3.235854
1643.000000;3.164742
1642.000000;3.040196
1641.000000;2.983544
1640.000000;2.972595
1639.000000;3.004174
1638.000000;3.078183
1637.000000;3.130488
1636.000000;3.021111
1635.000000;2.835245
1634.000000;2.742293
1633.000000;2.803272
1632.000000;2.984570
1631.000000;3.037777
1630.000000;2.901114
1629.000000;2.848262
1628.000000;2.910145
1627.000000;3.066689
1626.000000;3.463836
1625.000000;3.834822
1624.000000;3.317786
1623.000000;3.033347
1622.000000;2.858798
1621.000000;2.769512
1620.000000;2.790628
1619.000000;2.938246
1618.000000;3.014400
1617.000000;2.766697
1616.000000;2.608510
1615.000000;2.622662
1614.000000;2.814821
1613.000000;3.312202
1612.000000;3.389952
1611.000000;3.025227
1610.000000;2.998733
1609.000000;3.071570
1608.000000;3.078534
1607.000000;3.095787
1606.000000;3.305194
1605.000000;3.663494
1604.000000;3.385148
1603.000000;3.270120
1602.000000;3.720588
1601.000000;3.580073
1600.000000;3.137428
1599.000000;3.139529
1598.000000;3.112295
1597.000000;2.971865
1596.000000;2.899310
1595.000000;2.950107
1594.000000;3.073646
1593.000000;2.965935
1592.000000;2.823446
1591.000000;2.807021
1590.000000;2.879586
1589.000000;3.002925
1588.000000;3.070820
1587.000000;2.988814
1586.000000;2.854977
1585.000000;2.773708
1584.000000;2.786230
1583.000000;2.924056
1582.000000;3.187580
1581.000000;3.461276
1580.000000;3.285845
1579.000000;2.969557
1578.000000;2.828781
1577.000000;2.839196
1576.000000;2.943158
1575.000000;3.070627
1574.000000;3.184449
1573.000000;3.097889
1572.000000;2.900496
1571.000000;2.777154
1570.000000;2.714411
1569.000000;2.724253
1568.000000;2.797389
1567.000000;2.845325
1566.000000;2.832773
1565.000000;2.815369
1564.000000;2.829935
1563.000000;2.911235
1562.000000;3.166055
1561.000000;3.314990
1560.000000;3.054287
1559.000000;3.015345
1558.000000;3.088536
1557.000000;3.047719
1556.000000;3.021576
1555.000000;3.066912
1554.000000;3.137267
1553.000000;3.160861
1552.000000;3.153491
1551.000000;3.251571
1550.000000;3.609618
1549.000000;3.757088
1548.000000;3.592893
1547.000000;3.583913
1546.000000;3.211223
1545.000000;2.972465
1544.000000;2.915449
1543.000000;2.992989
1542.000000;3.259079
1541.000000;3.376965
1540.000000;3.063700
1539.000000;2.843987
1538.000000;2.833369
1537.000000;3.064385
1536.000000;3.469738
1535.000000;3.643326
1534.000000;3.619522
1533.000000;3.456450
1532.000000;3.292273
1531.000000;3.231539
1530.000000;3.226894
1529.000000;3.417188
1528.000000;3.815144
1527.000000;3.526614
1526.000000;3.406653
1525.000000;3.375863
1524.000000;3.156955
1523.000000;3.002798
1522.000000;2.975695
1521.000000;3.104738
1520.000000;3.219333
1519.000000;3.132426
1518.000000;3.060075
1517.000000;3.086693
1516.000000;3.259043
1515.000000;3.691194
1514.000000;4.211518
1513.000000;4.003911
1512.000000;4.108321
1511.000000;3.926149
1510.000000;3.724576
1509.000000;4.018831
1508.000000;3.911432
1507.000000;3.475933
1506.000000;3.374247
1505.000000;3.452306
1504.000000;3.332803
1503.000000;3.101185
1502.000000;2.996333
1501.000000;3.013429
1500.000000;3.102462
1499.000000;3.173793
1498.000000;3.335774
1497.000000;3.211762
1496.000000;2.979229
1495.000000;3.104456
1494.000000;3.442613
1493.000000;3.129263
1492.000000;2.995652
1491.000000;3.368545
1490.000000;3.392021
1489.000000;3.085223
1488.000000;3.122932
1487.000000;3.281866
1486.000000;3.482125
1485.000000;3.306892
1484.000000;3.282668
1483.000000;3.813331
1482.000000;3.370421
1481.000000;3.005462
1480.000000;2.902011
1479.000000;2.894824
1478.000000;2.984362
1477.000000;3.174422
1476.000000;3.569671
1475.000000;3.850955
1474.000000;3.689885
1473.000000;3.851773
1472.000000;4.271442
1471.000000;3.667059
1470.000000;3.159856
1469.000000;2.942017
1468.000000;2.922591
1467.000000;3.105575
1466.000000;3.599382
1465.000000;3.724594
1464.000000;3.258497
1463.000000;3.090677
1462.000000;3.077335
1461.000000;3.100459
1460.000000;3.312593
1459.000000;3.697009
1458.000000;3.336932
1457.000000;3.202305
1456.000000;3.237054
1455.000000;3.226794
1454.000000;3.168161
1453.000000;3.079674
1452.000000;3.070966
1451.000000;3.277475
1450.000000;3.566844
1449.000000;3.292429
1448.000000;3.145389
1447.000000;3.125595
1446.000000;3.128658
1445.000000;3.057057
1444.000000;2.912211
1443.000000;2.837112
1442.000000;2.879378
1441.000000;3.071019
1440.000000;3.318299
1439.000000;3.570302
1438.000000;3.955040
1437.000000;3.392409
1436.000000;3.080427
1435.000000;3.013124
1434.000000;3.042126
1433.000000;3.098570
1432.000000;3.126918
1431.000000;3.186776
1430.000000;3.461193
1429.000000;4.154297
1428.000000;3.591275
1427.000000;3.388976
1426.000000;3.441562
1425.000000;3.428800
1424.000000;3.220907
1423.000000;3.053800
1422.000000;3.029502
1421.000000;3.147752
1420.000000;3.358179
1419.000000;3.363510
1418.000000;3.238914
1417.000000;3.196354
1416.000000;3.243086
1415.000000;3.371771
1414.000000;3.560569
1413.000000;3.801545
1412.000000;3.994173
1411.000000;3.771322
1410.000000;3.646145
1409.000000;3.791813
1408.000000;3.652741
1407.000000;3.207002
1406.000000;2.970389
1405.000000;2.930294
1404.000000;3.085506
1403.000000;3.388659
1402.000000;3.332705
1401.000000;3.145585
1400.000000;3.096631
1399.000000;3.141992
1398.000000;3.329908
1397.000000;3.812469
1396.000000;3.687473
1395.000000;3.317960
1394.000000;3.216472
1393.000000;3.233804
1392.000000;3.199035
1391.000000;3.014374
1390.000000;2.914005
1389.000000;2.992040
1388.000000;3.063329
1387.000000;2.986797
1386.000000;2.978461
1385.000000;3.090170
1384.000000;3.238974
1383.000000;3.275056
1382.000000;3.604376
1381.000000;3.590601
1380.000000;3.110722
1379.000000;2.990941
1378.000000;3.035115
1377.000000;3.190565
1376.000000;3.266083
1375.000000;3.145268
1374.000000;3.108608
1373.000000;3.197839
1372.000000;3.266926
1371.000000;3.380569
1370.000000;3.827785
1369.000000;3.619030
1368.000000;3.488490
1367.000000;3.542594
1366.000000;3.434904
1365.000000;3.564323
1364.000000;4.075277
1363.000000;3.941113
1362.000000;3.583168
1361.000000;3.483985
1360.000000;3.441658
1359.000000;3.446954
1358.000000;3.527603
1357.000000;3.682128
1356.000000;3.646935
1355.000000;3.400576
1354.000000;3.274897
1353.000000;3.296643
1352.000000;3.373700
1351.000000;3.348942
1350.000000;3.181814
1349.000000;3.009671
1348.000000;2.914222
1347.000000;2.906051
1346.000000;2.975915
1345.000000;3.051062
1344.000000;3.124953
1343.000000;3.243040
1342.000000;3.109624
1341.000000;2.997575
1340.000000;3.154473
1339.000000;3.382924
1338.000000;3.304566
1337.000000;3.333796
1336.000000;3.507052
1335.000000;3.543615
1334.000000;3.707784
1333.000000;3.744830
1332.000000;3.257961
1331.000000;2.954361
1330.000000;2.797096
1329.000000;2.771517
1328.000000;2.908508
1327.000000;3.322981
1326.000000;3.792484
1325.000000;3.910520
1324.000000;3.256930
1323.000000;2.948407
1322.000000;2.916893
1321.000000;3.066726
1320.000000;3.406344
1319.000000;3.683369
1318.000000;3.591825
1317.000000;3.434182
1316.000000;3.561500
1315.000000;3.934903
1314.000000;3.520026
1313.000000;3.431363
1312.000000;3.455773
1311.000000;3.446982
1310.000000;3.445751
1309.000000;3.320378
1308.000000;3.087748
1307.000000;2.915834
1306.000000;2.872812
1305.000000;2.996525
1304.000000;3.167694
1303.000000;3.071956
1302.000000;3.007388
1301.000000;3.154021
1300.000000;3.537450
1299.000000;3.529791
1298.000000;3.401089
1297.000000;3.490699
1296.000000;3.510353
1295.000000;3.399749
1294.000000;3.313527
1293.000000;3.344586
1292.000000;3.479435
1291.000000;3.701244
1290.000000;3.599602
1289.000000;3.245079
1288.000000;3.055420
1287.000000;2.983216
1286.000000;2.976518
1285.000000;2.961654
1284.000000;2.899006
1283.000000;2.845265
1282.000000;2.862669
1281.000000;2.954601
1280.000000;3.133500
1279.000000;3.227130
1278.000000;2.983356
1277.000000;2.802729
1276.000000;2.767003
1275.000000;2.848316
1274.000000;3.030011
1273.000000;3.232621
1272.000000;3.267562
1271.000000;3.072458
1270.000000;2.931673
1269.000000;2.956525
1268.000000;3.318892
1267.000000;3.334709
1266.000000;2.875319
1265.000000;2.734437
1264.000000;2.768487
1263.000000;2.920406
1262.000000;3.028820
1261.000000;2.942940
1260.000000;2.858978
1259.000000;2.865811
1258.000000;2.941878
1257.000000;2.991388
1256.000000;2.935586
1255.000000;2.845211
1254.000000;2.812147
1253.000000;2.846786
1252.000000;2.923383
1251.000000;3.019688
1250.000000;3.075532
1249.000000;3.060307
1248.000000;3.065016
1247.000000;3.195736
1246.000000;3.567744
1245.000000;3.671823
1244.000000;3.425938
1243.000000;3.172295
1242.000000;3.008464
1241.000000;2.991997
1240.000000;3.070550
1239.000000;3.130344
1238.000000;3.200402
1237.000000;3.337566
1236.000000;3.282287
1235.000000;3.178178
1234.000000;3.128774
1233.000000;3.069304
1232.000000;3.037207
1231.000000;3.121305
1230.000000;3.287638
1229.000000;3.217822
1228.000000;3.090065
1227.000000;3.125570
1226.000000;3.220541
1225.000000;3.265584
1224.000000;3.612103
1223.000000;3.259814
1222.000000;2.870715
1221.000000;2.765499
1220.000000;2.771315
1219.000000;2.894178
1218.000000;3.182973
1217.000000;3.373169
1216.000000;3.141398
1215.000000;3.021133
1214.000000;2.994270
1213.000000;3.007501
1212.000000;3.113493
1211.000000;3.428234
1210.000000;3.933101
1209.000000;3.374282
1208.000000;3.182493
1207.000000;3.346154
1206.000000;3.967238
1205.000000;3.139908
1204.000000;2.928339
1203.000000;2.857518
1202.000000;2.882705
1201.000000;2.995922
1200.000000;3.200150
