Criado como novo conjunto de dados;"e0108.spp","-4226201.7 Secs"
cm-1;Abs
10000.000000;1.895941
9999.000000;1.892614
9998.000000;1.892375
9997.000000;1.893996
9996.000000;1.894331
9995.000000;1.891794
9994.000000;1.886229
9993.000000;1.879322
9992.000000;1.873461
9991.000000;1.870626
9990.000000;1.870966
9989.000000;1.873071
9988.000000;1.874409
9987.000000;1.872044
9986.000000;1.864899
9985.000000;1.856320
9984.000000;1.852440
9983.000000;1.856339
9982.000000;1.864372
9981.000000;1.869652
9980.000000;1.869707
9979.000000;1.868511
9978.000000;1.870335
9977.000000;1.874404
9976.000000;1.876365
9975.000000;1.873424
9974.000000;1.866735
9973.000000;1.859479
9972.000000;1.854059
9971.000000;1.851150
9970.000000;1.850681
9969.000000;1.852964
9968.000000;1.858206
9967.000000;1.865036
9966.000000;1.870168
9965.000000;1.870435
9964.000000;1.865530
9963.000000;1.858089
9962.000000;1.851639
9961.000000;1.849231
9960.000000;1.852429
9959.000000;1.859876
9958.000000;1.867393
9957.000000;1.871028
9956.000000;1.870203
9955.000000;1.867016
9954.000000;1.863020
9953.000000;1.858456
9952.000000;1.854341
9951.000000;1.852676
9950.000000;1.853789
9949.000000;1.855238
9948.000000;1.854285
9947.000000;1.850463
9946.000000;1.845271
9945.000000;1.840965
9944.000000;1.840352
9943.000000;1.845733
9942.000000;1.856184
9941.000000;1.866404
9940.000000;1.870193
9939.000000;1.865825
9938.000000;1.856736
9937.000000;1.847213
9936.000000;1.839311
9935.000000;1.833353
9934.000000;1.829558
9933.000000;1.828819
9932.000000;1.831817
9931.000000;1.837522
9930.000000;1.843149
9929.000000;1.845927
9928.000000;1.845709
9927.000000;1.845499
9926.000000;1.848044
9925.000000;1.852790
9924.000000;1.857188
9923.000000;1.859703
9922.000000;1.860737
9921.000000;1.861905
9920.000000;1.864755
9919.000000;1.868947
9918.000000;1.871706
9917.000000;1.870167
9916.000000;1.863991
9915.000000;1.855042
9914.000000;1.845138
9913.000000;1.834981
9912.000000;1.825470
9911.000000;1.818948
9910.000000;1.818072
9909.000000;1.823325
9908.000000;1.831696
9907.000000;1.838391
9906.000000;1.840962
9905.000000;1.841769
9904.000000;1.845234
9903.000000;1.852271
9902.000000;1.858177
9901.000000;1.857351
9900.000000;1.850137
9899.000000;1.842673
9898.000000;1.839911
9897.000000;1.840998
9896.000000;1.841702
9895.000000;1.839968
9894.000000;1.837428
9893.000000;1.835987
9892.000000;1.835489
9891.000000;1.835203
9890.000000;1.835795
9889.000000;1.838466
9888.000000;1.842348
9887.000000;1.844353
9886.000000;1.842618
9885.000000;1.838756
9884.000000;1.835226
9883.000000;1.831811
9882.000000;1.826633
9881.000000;1.819964
9880.000000;1.814876
9879.000000;1.813798
9878.000000;1.816066
9877.000000;1.819240
9876.000000;1.821307
9875.000000;1.820972
9874.000000;1.817657
9873.000000;1.812467
9872.000000;1.808176
9871.000000;1.807254
9870.000000;1.810050
9869.000000;1.815113
9868.000000;1.820688
9867.000000;1.825206
9866.000000;1.827003
9865.000000;1.825463
9864.000000;1.822684
9863.000000;1.822079
9862.000000;1.825088
9861.000000;1.829804
9860.000000;1.832294
9859.000000;1.829744
9858.000000;1.823036
9857.000000;1.816297
9856.000000;1.813706
9855.000000;1.816052
9854.000000;1.820426
9853.000000;1.823845
9852.000000;1.826232
9851.000000;1.829128
9850.000000;1.833277
9849.000000;1.838109
9848.000000;1.842137
9847.000000;1.843197
9846.000000;1.839734
9845.000000;1.833718
9844.000000;1.830882
9843.000000;1.834815
9842.000000;1.841078
9841.000000;1.840807
9840.000000;1.831854
9839.000000;1.821843
9838.000000;1.818076
9837.000000;1.819318
9836.000000;1.819003
9835.000000;1.813973
9834.000000;1.807146
9833.000000;1.802401
9832.000000;1.800767
9831.000000;1.801586
9830.000000;1.803991
9829.000000;1.806355
9828.000000;1.806572
9827.000000;1.804251
9826.000000;1.801513
9825.000000;1.800792
9824.000000;1.802906
9823.000000;1.807384
9822.000000;1.813088
9821.000000;1.817985
9820.000000;1.819865
9819.000000;1.818605
9818.000000;1.816499
9817.000000;1.814942
9816.000000;1.812213
9815.000000;1.806463
9814.000000;1.800093
9813.000000;1.798280
9812.000000;1.802596
9811.000000;1.808213
9810.000000;1.808918
9809.000000;1.804530
9808.000000;1.800959
9807.000000;1.802996
9806.000000;1.809805
9805.000000;1.817185
9804.000000;1.821776
9803.000000;1.822171
9802.000000;1.817751
9801.000000;1.809112
9800.000000;1.799404
9799.000000;1.793010
9798.000000;1.792425
9797.000000;1.796683
9796.000000;1.802042
9795.000000;1.803872
9794.000000;1.799624
9793.000000;1.791785
9792.000000;1.786637
9791.000000;1.788461
9790.000000;1.795249
9789.000000;1.800711
9788.000000;1.801028
9787.000000;1.798576
9786.000000;1.798234
9785.000000;1.802147
9784.000000;1.808747
9783.000000;1.814774
9782.000000;1.817071
9781.000000;1.813861
9780.000000;1.806271
9779.000000;1.798107
9778.000000;1.792990
9777.000000;1.791745
9776.000000;1.792465
9775.000000;1.792844
9774.000000;1.792312
9773.000000;1.792107
9772.000000;1.793789
9771.000000;1.797657
9770.000000;1.802293
9769.000000;1.805761
9768.000000;1.807249
9767.000000;1.807346
9766.000000;1.806589
9765.000000;1.804490
9764.000000;1.800459
9763.000000;1.795053
9762.000000;1.790364
9761.000000;1.789258
9760.000000;1.793521
9759.000000;1.801848
9758.000000;1.809628
9757.000000;1.811760
9756.000000;1.806166
9755.000000;1.794292
9754.000000;1.779678
9753.000000;1.767345
9752.000000;1.762537
9751.000000;1.767514
9750.000000;1.779058
9749.000000;1.789954
9748.000000;1.794369
9747.000000;1.791811
9746.000000;1.785468
9745.000000;1.778892
9744.000000;1.774928
9743.000000;1.775004
9742.000000;1.778120
9741.000000;1.782023
9740.000000;1.786051
9739.000000;1.791212
9738.000000;1.796999
9737.000000;1.800295
9736.000000;1.798359
9735.000000;1.791689
9734.000000;1.783164
9733.000000;1.775336
9732.000000;1.769569
9731.000000;1.766760
9730.000000;1.767199
9729.000000;1.769888
9728.000000;1.773068
9727.000000;1.775641
9726.000000;1.777538
9725.000000;1.778596
9724.000000;1.778065
9723.000000;1.775702
9722.000000;1.772415
9721.000000;1.769367
9720.000000;1.767004
9719.000000;1.765170
9718.000000;1.763761
9717.000000;1.763224
9716.000000;1.764671
9715.000000;1.768659
9714.000000;1.773329
9713.000000;1.775256
9712.000000;1.773271
9711.000000;1.770101
9710.000000;1.769162
9709.000000;1.770961
9708.000000;1.773672
9707.000000;1.776381
9706.000000;1.780191
9705.000000;1.785948
9704.000000;1.792147
9703.000000;1.795690
9702.000000;1.794564
9701.000000;1.789570
9700.000000;1.783296
9699.000000;1.777651
9698.000000;1.772912
9697.000000;1.769155
9696.000000;1.767723
9695.000000;1.770060
9694.000000;1.775158
9693.000000;1.779564
9692.000000;1.780570
9691.000000;1.778230
9690.000000;1.773745
9689.000000;1.767816
9688.000000;1.761810
9687.000000;1.758723
9686.000000;1.760931
9685.000000;1.767237
9684.000000;1.773411
9683.000000;1.775873
9682.000000;1.773943
9681.000000;1.768809
9680.000000;1.762225
9679.000000;1.756473
9678.000000;1.753769
9677.000000;1.754773
9676.000000;1.758143
9675.000000;1.761978
9674.000000;1.765513
9673.000000;1.768862
9672.000000;1.771857
9671.000000;1.774000
9670.000000;1.774820
9669.000000;1.773781
9668.000000;1.770609
9667.000000;1.765974
9666.000000;1.760570
9665.000000;1.754638
9664.000000;1.749255
9663.000000;1.746611
9662.000000;1.748674
9661.000000;1.754904
9660.000000;1.761468
9659.000000;1.764296
9658.000000;1.763088
9657.000000;1.761067
9656.000000;1.760647
9655.000000;1.760576
9654.000000;1.758153
9653.000000;1.753571
9652.000000;1.750227
9651.000000;1.750462
9650.000000;1.752833
9649.000000;1.754548
9648.000000;1.755358
9647.000000;1.756842
9646.000000;1.758436
9645.000000;1.757242
9644.000000;1.752508
9643.000000;1.747600
9642.000000;1.746078
9641.000000;1.747896
9640.000000;1.750742
9639.000000;1.753295
9638.000000;1.755039
9637.000000;1.754261
9636.000000;1.749224
9635.000000;1.741127
9634.000000;1.733863
9633.000000;1.730725
9632.000000;1.732757
9631.000000;1.739577
9630.000000;1.749392
9629.000000;1.758071
9628.000000;1.760960
9627.000000;1.757424
9626.000000;1.751548
9625.000000;1.747050
9624.000000;1.743627
9623.000000;1.739398
9622.000000;1.735319
9621.000000;1.735004
9620.000000;1.740066
9619.000000;1.747362
9618.000000;1.751883
9617.000000;1.751085
9616.000000;1.745917
9615.000000;1.739552
9614.000000;1.735060
9613.000000;1.733478
9612.000000;1.733801
9611.000000;1.734408
9610.000000;1.735012
9609.000000;1.736821
9608.000000;1.740153
9607.000000;1.742964
9606.000000;1.742691
9605.000000;1.739505
9604.000000;1.736539
9603.000000;1.736002
9602.000000;1.736783
9601.000000;1.736887
9600.000000;1.736219
9599.000000;1.735622
9598.000000;1.734715
9597.000000;1.732797
9596.000000;1.731182
9595.000000;1.732139
9594.000000;1.735446
9593.000000;1.738224
9592.000000;1.738849
9591.000000;1.738661
9590.000000;1.738812
9589.000000;1.738155
9588.000000;1.735744
9587.000000;1.733573
9586.000000;1.734416
9585.000000;1.737476
9584.000000;1.738457
9583.000000;1.734678
9582.000000;1.728577
9581.000000;1.725026
9580.000000;1.726781
9579.000000;1.732816
9578.000000;1.739369
9577.000000;1.742846
9576.000000;1.743090
9575.000000;1.743026
9574.000000;1.744187
9573.000000;1.744298
9572.000000;1.740662
9571.000000;1.734411
9570.000000;1.729249
9569.000000;1.727178
9568.000000;1.727570
9567.000000;1.729407
9566.000000;1.732082
9565.000000;1.734204
9564.000000;1.734170
9563.000000;1.732622
9562.000000;1.732299
9561.000000;1.734511
9560.000000;1.737314
9559.000000;1.737837
9558.000000;1.735282
9557.000000;1.731174
9556.000000;1.727827
9555.000000;1.726778
9554.000000;1.727623
9553.000000;1.727998
9552.000000;1.726045
9551.000000;1.723211
9550.000000;1.722643
9549.000000;1.724436
9548.000000;1.724670
9547.000000;1.720527
9546.000000;1.714245
9545.000000;1.710002
9544.000000;1.708926
9543.000000;1.709223
9542.000000;1.709949
9541.000000;1.712050
9540.000000;1.715344
9539.000000;1.716888
9538.000000;1.714038
9537.000000;1.708207
9536.000000;1.704008
9535.000000;1.705055
9534.000000;1.711309
9533.000000;1.719666
9532.000000;1.726082
9531.000000;1.727775
9530.000000;1.724576
9529.000000;1.718471
9528.000000;1.712175
9527.000000;1.707744
9526.000000;1.705930
9525.000000;1.706890
9524.000000;1.710890
9523.000000;1.717273
9522.000000;1.723104
9521.000000;1.724955
9520.000000;1.723373
9519.000000;1.723451
9518.000000;1.728598
9517.000000;1.735331
9516.000000;1.736898
9515.000000;1.731774
9514.000000;1.724887
9513.000000;1.720204
9512.000000;1.716666
9511.000000;1.712625
9510.000000;1.710353
9509.000000;1.712916
9508.000000;1.718484
9507.000000;1.721203
9506.000000;1.718037
9505.000000;1.711952
9504.000000;1.707440
9503.000000;1.705638
9502.000000;1.704731
9501.000000;1.703177
9500.000000;1.701301
9499.000000;1.700626
9498.000000;1.702493
9497.000000;1.706693
9496.000000;1.710941
9495.000000;1.712396
9494.000000;1.710358
9493.000000;1.707070
9492.000000;1.705579
9491.000000;1.707247
9490.000000;1.711414
9489.000000;1.716283
9488.000000;1.719315
9487.000000;1.718012
9486.000000;1.711809
9485.000000;1.703088
9484.000000;1.695759
9483.000000;1.692836
9482.000000;1.695021
9481.000000;1.700399
9480.000000;1.705442
9479.000000;1.707528
9478.000000;1.706782
9477.000000;1.705167
9476.000000;1.703807
9475.000000;1.701765
9474.000000;1.698095
9473.000000;1.694119
9472.000000;1.692310
9471.000000;1.693371
9470.000000;1.695444
9469.000000;1.696183
9468.000000;1.694867
9467.000000;1.692231
9466.000000;1.689133
9465.000000;1.686382
9464.000000;1.685508
9463.000000;1.688390
9462.000000;1.695432
9461.000000;1.704200
9460.000000;1.710568
9459.000000;1.712351
9458.000000;1.711408
9457.000000;1.710871
9456.000000;1.710811
9455.000000;1.708338
9454.000000;1.702452
9453.000000;1.696619
9452.000000;1.694793
9451.000000;1.696348
9450.000000;1.696711
9449.000000;1.693125
9448.000000;1.688017
9447.000000;1.685846
9446.000000;1.688429
9445.000000;1.694324
9444.000000;1.701121
9443.000000;1.706573
9442.000000;1.708590
9441.000000;1.706636
9440.000000;1.703200
9439.000000;1.701825
9438.000000;1.703053
9437.000000;1.703618
9436.000000;1.700612
9435.000000;1.695404
9434.000000;1.691832
9433.000000;1.691427
9432.000000;1.691967
9431.000000;1.690681
9430.000000;1.687750
9429.000000;1.685696
9428.000000;1.686085
9427.000000;1.688099
9426.000000;1.690251
9425.000000;1.692323
9424.000000;1.694631
9423.000000;1.696102
9422.000000;1.694859
9421.000000;1.691104
9420.000000;1.687728
9419.000000;1.687053
9418.000000;1.688196
9417.000000;1.688834
9416.000000;1.688693
9415.000000;1.689581
9414.000000;1.692126
9413.000000;1.694274
9412.000000;1.693706
9411.000000;1.690536
9410.000000;1.686635
9409.000000;1.683618
9408.000000;1.682404
9407.000000;1.683242
9406.000000;1.685117
9405.000000;1.686311
9404.000000;1.686500
9403.000000;1.687066
9402.000000;1.688523
9401.000000;1.689296
9400.000000;1.688269
9399.000000;1.686832
9398.000000;1.686471
9397.000000;1.686033
9396.000000;1.683623
9395.000000;1.680049
9394.000000;1.677794
9393.000000;1.677101
9392.000000;1.675579
9391.000000;1.671925
9390.000000;1.667882
9389.000000;1.665969
9388.000000;1.667052
9387.000000;1.670321
9386.000000;1.674070
9385.000000;1.676220
9384.000000;1.675557
9383.000000;1.673176
9382.000000;1.671626
9381.000000;1.672152
9380.000000;1.674099
9379.000000;1.676897
9378.000000;1.680578
9377.000000;1.683958
9376.000000;1.684375
9375.000000;1.680602
9374.000000;1.674664
9373.000000;1.669579
9372.000000;1.666761
9371.000000;1.666296
9370.000000;1.667715
9369.000000;1.669279
9368.000000;1.668484
9367.000000;1.665213
9366.000000;1.662754
9365.000000;1.663700
9364.000000;1.666306
9363.000000;1.666972
9362.000000;1.665506
9361.000000;1.665378
9360.000000;1.669101
9359.000000;1.675758
9358.000000;1.682910
9357.000000;1.688700
9356.000000;1.691601
9355.000000;1.690489
9354.000000;1.686291
9353.000000;1.681604
9352.000000;1.677839
9351.000000;1.674316
9350.000000;1.670599
9349.000000;1.667996
9348.000000;1.667705
9347.000000;1.668726
9346.000000;1.669051
9345.000000;1.668111
9344.000000;1.666688
9343.000000;1.665242
9342.000000;1.663757
9341.000000;1.662648
9340.000000;1.662494
9339.000000;1.662978
9338.000000;1.663219
9337.000000;1.663169
9336.000000;1.663526
9335.000000;1.664369
9334.000000;1.664999
9333.000000;1.664968
9332.000000;1.664365
9331.000000;1.663281
9330.000000;1.661977
9329.000000;1.661350
9328.000000;1.662253
9327.000000;1.664379
9326.000000;1.666564
9325.000000;1.668269
9324.000000;1.669914
9323.000000;1.671571
9322.000000;1.672299
9321.000000;1.671370
9320.000000;1.669532
9319.000000;1.668455
9318.000000;1.669224
9317.000000;1.671670
9316.000000;1.674644
9315.000000;1.676449
9314.000000;1.675609
9313.000000;1.672000
9312.000000;1.666916
9311.000000;1.661613
9310.000000;1.656430
9309.000000;1.651919
9308.000000;1.649940
9307.000000;1.652263
9306.000000;1.658044
9305.000000;1.663697
9304.000000;1.665983
9303.000000;1.664712
9302.000000;1.661809
9301.000000;1.658932
9300.000000;1.656913
9299.000000;1.656248
9298.000000;1.656770
9297.000000;1.657404
9296.000000;1.657374
9295.000000;1.657439
9294.000000;1.659068
9293.000000;1.662422
9292.000000;1.665844
9291.000000;1.667529
9290.000000;1.667025
9289.000000;1.664859
9288.000000;1.661641
9287.000000;1.657992
9286.000000;1.654623
9285.000000;1.652051
9284.000000;1.650580
9283.000000;1.650579
9282.000000;1.652051
9281.000000;1.653801
9280.000000;1.654134
9279.000000;1.653121
9278.000000;1.653186
9277.000000;1.656569
9276.000000;1.662717
9275.000000;1.668323
9274.000000;1.669949
9273.000000;1.666945
9272.000000;1.661912
9271.000000;1.658364
9270.000000;1.658041
9269.000000;1.660007
9268.000000;1.661868
9267.000000;1.662158
9266.000000;1.661465
9265.000000;1.661054
9264.000000;1.661426
9263.000000;1.662646
9262.000000;1.664604
9261.000000;1.666104
9260.000000;1.665119
9259.000000;1.661246
9258.000000;1.657082
9257.000000;1.655515
9256.000000;1.656086
9255.000000;1.655708
9254.000000;1.652858
9253.000000;1.649298
9252.000000;1.647317
9251.000000;1.647210
9250.000000;1.648258
9249.000000;1.650476
9248.000000;1.654016
9247.000000;1.657654
9246.000000;1.659317
9245.000000;1.658250
9244.000000;1.655785
9243.000000;1.653868
9242.000000;1.653366
9241.000000;1.653591
9240.000000;1.653016
9239.000000;1.650700
9238.000000;1.647357
9237.000000;1.644822
9236.000000;1.644412
9235.000000;1.646163
9234.000000;1.649354
9233.000000;1.652911
9232.000000;1.655302
9231.000000;1.655346
9230.000000;1.653920
9229.000000;1.653576
9228.000000;1.655262
9227.000000;1.656337
9226.000000;1.653406
9225.000000;1.646787
9224.000000;1.640347
9223.000000;1.637055
9222.000000;1.636470
9221.000000;1.636491
9220.000000;1.636141
9219.000000;1.636092
9218.000000;1.637217
9217.000000;1.639582
9216.000000;1.642678
9215.000000;1.645929
9214.000000;1.649116
9213.000000;1.652479
9212.000000;1.655987
9211.000000;1.658547
9210.000000;1.658510
9209.000000;1.655235
9208.000000;1.649784
9207.000000;1.644218
9206.000000;1.640844
9205.000000;1.641661
9204.000000;1.646995
9203.000000;1.653967
9202.000000;1.657320
9201.000000;1.653521
9200.000000;1.644420
9199.000000;1.635498
9198.000000;1.630856
9197.000000;1.630922
9196.000000;1.633605
9195.000000;1.636390
9194.000000;1.638129
9193.000000;1.639669
9192.000000;1.642411
9191.000000;1.645925
9190.000000;1.647751
9189.000000;1.646342
9188.000000;1.643405
9187.000000;1.641952
9186.000000;1.642657
9185.000000;1.643570
9184.000000;1.643285
9183.000000;1.642783
9182.000000;1.643529
9181.000000;1.644990
9180.000000;1.645089
9179.000000;1.642604
9178.000000;1.638307
9177.000000;1.634247
9176.000000;1.632406
9175.000000;1.633402
9174.000000;1.636038
9173.000000;1.638473
9172.000000;1.639981
9171.000000;1.641017
9170.000000;1.641692
9169.000000;1.641320
9168.000000;1.639786
9167.000000;1.638273
9166.000000;1.638086
9165.000000;1.639539
9164.000000;1.642352
9163.000000;1.645939
9162.000000;1.648644
9161.000000;1.648092
9160.000000;1.643795
9159.000000;1.638530
9158.000000;1.635670
9157.000000;1.635759
9156.000000;1.636692
9155.000000;1.636634
9154.000000;1.635527
9153.000000;1.633952
9152.000000;1.632026
9151.000000;1.629864
9150.000000;1.628202
9149.000000;1.628068
9148.000000;1.629971
9147.000000;1.633105
9146.000000;1.635177
9145.000000;1.634124
9144.000000;1.630869
9143.000000;1.629191
9142.000000;1.631585
9141.000000;1.636121
9140.000000;1.638611
9139.000000;1.637487
9138.000000;1.634810
9137.000000;1.632623
9136.000000;1.630865
9135.000000;1.629216
9134.000000;1.628735
9133.000000;1.630539
9132.000000;1.633954
9131.000000;1.637258
9130.000000;1.639577
9129.000000;1.640811
9128.000000;1.640594
9127.000000;1.638714
9126.000000;1.635988
9125.000000;1.633585
9124.000000;1.631852
9123.000000;1.630678
9122.000000;1.630426
9121.000000;1.631539
9120.000000;1.633537
9119.000000;1.635110
9118.000000;1.635214
9117.000000;1.633861
9116.000000;1.631993
9115.000000;1.630775
9114.000000;1.630723
9113.000000;1.631264
9112.000000;1.631320
9111.000000;1.630372
9110.000000;1.628756
9109.000000;1.627125
9108.000000;1.626087
9107.000000;1.626095
9106.000000;1.626908
9105.000000;1.627428
9104.000000;1.626727
9103.000000;1.625353
9102.000000;1.624894
9101.000000;1.625740
9100.000000;1.626496
9099.000000;1.626050
9098.000000;1.624549
9097.000000;1.621995
9096.000000;1.617887
9095.000000;1.613311
9094.000000;1.611421
9093.000000;1.614130
9092.000000;1.619351
9091.000000;1.622990
9090.000000;1.623277
9089.000000;1.621607
9088.000000;1.619816
9087.000000;1.618838
9086.000000;1.619591
9085.000000;1.622626
9084.000000;1.626378
9083.000000;1.627707
9082.000000;1.625305
9081.000000;1.621379
9080.000000;1.619242
9079.000000;1.620202
9078.000000;1.623051
9077.000000;1.625407
9076.000000;1.625325
9075.000000;1.622907
9074.000000;1.620472
9073.000000;1.619996
9072.000000;1.620722
9071.000000;1.620332
9070.000000;1.618161
9069.000000;1.615917
9068.000000;1.615158
9067.000000;1.615660
9066.000000;1.616580
9065.000000;1.617588
9064.000000;1.618163
9063.000000;1.617225
9062.000000;1.614631
9061.000000;1.612031
9060.000000;1.611211
9059.000000;1.612386
9058.000000;1.614697
9057.000000;1.617368
9056.000000;1.619543
9055.000000;1.620117
9054.000000;1.619066
9053.000000;1.618123
9052.000000;1.618766
9051.000000;1.620239
9050.000000;1.620971
9049.000000;1.621405
9048.000000;1.623403
9047.000000;1.626704
9046.000000;1.628201
9045.000000;1.626067
9044.000000;1.623023
9043.000000;1.623392
9042.000000;1.627660
9041.000000;1.631439
9040.000000;1.630145
9039.000000;1.624009
9038.000000;1.617489
9037.000000;1.614656
9036.000000;1.616228
9035.000000;1.620079
9034.000000;1.623197
9033.000000;1.623427
9032.000000;1.620791
9031.000000;1.617573
9030.000000;1.616669
9029.000000;1.619295
9028.000000;1.624089
9027.000000;1.628463
9026.000000;1.630479
9025.000000;1.629542
9024.000000;1.626238
9023.000000;1.621971
9022.000000;1.618340
9021.000000;1.616073
9020.000000;1.614545
9019.000000;1.612926
9018.000000;1.611695
9017.000000;1.612186
9016.000000;1.614557
9015.000000;1.616964
9014.000000;1.617270
9013.000000;1.615331
9012.000000;1.613224
9011.000000;1.613258
9010.000000;1.615760
9009.000000;1.618641
9008.000000;1.619538
9007.000000;1.618608
9006.000000;1.618379
9005.000000;1.620387
9004.000000;1.622897
9003.000000;1.622955
9002.000000;1.620255
9001.000000;1.617192
9000.000000;1.615098
8999.000000;1.612689
8998.000000;1.608661
8997.000000;1.604220
8996.000000;1.601980
8995.000000;1.603268
8994.000000;1.607437
8993.000000;1.612904
8992.000000;1.617879
8991.000000;1.620720
8990.000000;1.620746
8989.000000;1.618644
8988.000000;1.615656
8987.000000;1.612811
8986.000000;1.611113
8985.000000;1.611467
8984.000000;1.613586
8983.000000;1.615599
8982.000000;1.615740
8981.000000;1.614240
8980.000000;1.612731
8979.000000;1.612156
8978.000000;1.612133
8977.000000;1.612115
8976.000000;1.612251
8975.000000;1.612912
8974.000000;1.614401
8973.000000;1.617267
8972.000000;1.621836
8971.000000;1.627235
8970.000000;1.631387
8969.000000;1.632365
8968.000000;1.629848
8967.000000;1.625152
8966.000000;1.619985
8965.000000;1.615287
8964.000000;1.611259
8963.000000;1.608373
8962.000000;1.607768
8961.000000;1.610037
8960.000000;1.613733
8959.000000;1.615924
8958.000000;1.614839
8957.000000;1.611477
8956.000000;1.608091
8955.000000;1.605921
8954.000000;1.604996
8953.000000;1.605072
8952.000000;1.605721
8951.000000;1.606026
8950.000000;1.605323
8949.000000;1.604136
8948.000000;1.603501
8947.000000;1.603639
8946.000000;1.603988
8945.000000;1.604183
8944.000000;1.604290
8943.000000;1.604231
8942.000000;1.603953
8941.000000;1.604170
8940.000000;1.605855
8939.000000;1.608744
8938.000000;1.610896
8937.000000;1.610333
8936.000000;1.607201
8935.000000;1.603779
8934.000000;1.602384
8933.000000;1.603424
8932.000000;1.605277
8931.000000;1.606155
8930.000000;1.606140
8929.000000;1.606807
8928.000000;1.608635
8927.000000;1.609749
8926.000000;1.608140
8925.000000;1.604424
8924.000000;1.601056
8923.000000;1.599454
8922.000000;1.599323
8921.000000;1.600301
8920.000000;1.602525
8919.000000;1.605352
8918.000000;1.607199
8917.000000;1.607438
8916.000000;1.607226
8915.000000;1.607734
8914.000000;1.608607
8913.000000;1.608833
8912.000000;1.608165
8911.000000;1.606889
8910.000000;1.605015
8909.000000;1.602639
8908.000000;1.600513
8907.000000;1.599423
8906.000000;1.599540
8905.000000;1.600850
8904.000000;1.603401
8903.000000;1.606549
8902.000000;1.608767
8901.000000;1.609094
8900.000000;1.608222
8899.000000;1.607325
8898.000000;1.606475
8897.000000;1.605115
8896.000000;1.603505
8895.000000;1.602605
8894.000000;1.602881
8893.000000;1.604123
8892.000000;1.606023
8891.000000;1.607992
8890.000000;1.608693
8889.000000;1.607107
8888.000000;1.604207
8887.000000;1.602244
8886.000000;1.602161
8885.000000;1.602692
8884.000000;1.602263
8883.000000;1.601009
8882.000000;1.600434
8881.000000;1.601733
8880.000000;1.604884
8879.000000;1.608647
8878.000000;1.611050
8877.000000;1.610712
8876.000000;1.608273
8875.000000;1.605844
8874.000000;1.604584
8873.000000;1.603495
8872.000000;1.601220
8871.000000;1.598324
8870.000000;1.596678
8869.000000;1.596932
8868.000000;1.597805
8867.000000;1.598178
8866.000000;1.598892
8865.000000;1.601499
8864.000000;1.605601
8863.000000;1.608430
8862.000000;1.607465
8861.000000;1.603163
8860.000000;1.598665
8859.000000;1.596963
8858.000000;1.598598
8857.000000;1.601689
8856.000000;1.603868
8855.000000;1.604409
8854.000000;1.604622
8853.000000;1.606042
8852.000000;1.608307
8851.000000;1.609244
8850.000000;1.607433
8849.000000;1.604209
8848.000000;1.602245
8847.000000;1.602395
8846.000000;1.602940
8845.000000;1.602226
8844.000000;1.601065
8843.000000;1.601522
8842.000000;1.603896
8841.000000;1.606127
8840.000000;1.606332
8839.000000;1.604948
8838.000000;1.603802
8837.000000;1.603829
8836.000000;1.604316
8835.000000;1.603976
8834.000000;1.602312
8833.000000;1.600024
8832.000000;1.598288
8831.000000;1.597674
8830.000000;1.597746
8829.000000;1.597667
8828.000000;1.597308
8827.000000;1.597523
8826.000000;1.598971
8825.000000;1.601181
8824.000000;1.603161
8823.000000;1.604490
8822.000000;1.605357
8821.000000;1.605893
8820.000000;1.606134
8819.000000;1.606551
8818.000000;1.607806
8817.000000;1.609820
8816.000000;1.611849
8815.000000;1.613406
8814.000000;1.614358
8813.000000;1.614255
8812.000000;1.612382
8811.000000;1.608923
8810.000000;1.605458
8809.000000;1.603510
8808.000000;1.603036
8807.000000;1.602978
8806.000000;1.602910
8805.000000;1.603286
8804.000000;1.604168
8803.000000;1.604757
8802.000000;1.604530
8801.000000;1.604038
8800.000000;1.604024
8799.000000;1.604371
8798.000000;1.604609
8797.000000;1.604847
8796.000000;1.605295
8795.000000;1.605311
8794.000000;1.604166
8793.000000;1.602766
8792.000000;1.603372
8791.000000;1.607004
8790.000000;1.611718
8789.000000;1.614145
8788.000000;1.612782
8787.000000;1.609225
8786.000000;1.606244
8785.000000;1.605396
8784.000000;1.606365
8783.000000;1.607765
8782.000000;1.608315
8781.000000;1.607726
8780.000000;1.606689
8779.000000;1.605942
8778.000000;1.605561
8777.000000;1.605230
8776.000000;1.604890
8775.000000;1.604803
8774.000000;1.605063
8773.000000;1.605448
8772.000000;1.605776
8771.000000;1.606007
8770.000000;1.606040
8769.000000;1.605824
8768.000000;1.605581
8767.000000;1.605473
8766.000000;1.605050
8765.000000;1.603565
8764.000000;1.601085
8763.000000;1.598845
8762.000000;1.598159
8761.000000;1.599300
8760.000000;1.601642
8759.000000;1.604449
8758.000000;1.607007
8757.000000;1.608232
8756.000000;1.607072
8755.000000;1.603740
8754.000000;1.599931
8753.000000;1.597408
8752.000000;1.596675
8751.000000;1.597073
8750.000000;1.597889
8749.000000;1.599100
8748.000000;1.600983
8747.000000;1.603358
8746.000000;1.605449
8745.000000;1.606363
8744.000000;1.605711
8743.000000;1.603975
8742.000000;1.602437
8741.000000;1.602566
8740.000000;1.605072
8739.000000;1.609298
8738.000000;1.613633
8737.000000;1.616726
8736.000000;1.618393
8735.000000;1.619238
8734.000000;1.619308
8733.000000;1.617683
8732.000000;1.613886
8731.000000;1.609364
8730.000000;1.606731
8729.000000;1.607288
8728.000000;1.609649
8727.000000;1.611097
8726.000000;1.610128
8725.000000;1.607330
8724.000000;1.604065
8723.000000;1.601255
8722.000000;1.599585
8721.000000;1.599847
8720.000000;1.602273
8719.000000;1.605833
8718.000000;1.608867
8717.000000;1.610565
8716.000000;1.611466
8715.000000;1.612506
8714.000000;1.614138
8713.000000;1.616396
8712.000000;1.619030
8711.000000;1.621184
8710.000000;1.621517
8709.000000;1.619440
8708.000000;1.616232
8707.000000;1.614344
8706.000000;1.615275
8705.000000;1.618080
8704.000000;1.619900
8703.000000;1.618445
8702.000000;1.614345
8701.000000;1.610674
8700.000000;1.610044
8699.000000;1.612237
8698.000000;1.614702
8697.000000;1.615458
8696.000000;1.615047
8695.000000;1.615301
8694.000000;1.616960
8693.000000;1.619266
8692.000000;1.621413
8691.000000;1.623218
8690.000000;1.624188
8689.000000;1.623034
8688.000000;1.619102
8687.000000;1.613981
8686.000000;1.610799
8685.000000;1.611729
8684.000000;1.616291
8683.000000;1.621811
8682.000000;1.625398
8681.000000;1.625831
8680.000000;1.623917
8679.000000;1.621358
8678.000000;1.619410
8677.000000;1.618439
8676.000000;1.618263
8675.000000;1.618589
8674.000000;1.619141
8673.000000;1.619696
8672.000000;1.620155
8671.000000;1.620498
8670.000000;1.620612
8669.000000;1.620351
8668.000000;1.619927
8667.000000;1.619770
8666.000000;1.619844
8665.000000;1.619533
8664.000000;1.618338
8663.000000;1.616463
8662.000000;1.614556
8661.000000;1.613185
8660.000000;1.612817
8659.000000;1.613944
8658.000000;1.616659
8657.000000;1.620071
8656.000000;1.622592
8655.000000;1.623122
8654.000000;1.621881
8653.000000;1.619944
8652.000000;1.618205
8651.000000;1.616946
8650.000000;1.616263
8649.000000;1.616605
8648.000000;1.618546
8647.000000;1.621917
8646.000000;1.625436
8645.000000;1.627525
8644.000000;1.627554
8643.000000;1.626141
8642.000000;1.624300
8641.000000;1.622712
8640.000000;1.621866
8639.000000;1.622143
8638.000000;1.623424
8637.000000;1.625089
8636.000000;1.626706
8635.000000;1.628267
8634.000000;1.629334
8633.000000;1.628767
8632.000000;1.626129
8631.000000;1.622694
8630.000000;1.620091
8629.000000;1.618289
8628.000000;1.616163
8627.000000;1.613981
8626.000000;1.613737
8625.000000;1.616478
8624.000000;1.620534
8623.000000;1.623167
8622.000000;1.623400
8621.000000;1.622309
8620.000000;1.621092
8619.000000;1.620067
8618.000000;1.619280
8617.000000;1.618820
8616.000000;1.618476
8615.000000;1.618015
8614.000000;1.617924
8613.000000;1.619060
8612.000000;1.621254
8611.000000;1.622942
8610.000000;1.622705
8609.000000;1.620830
8608.000000;1.618946
8607.000000;1.618454
8606.000000;1.619545
8605.000000;1.621326
8604.000000;1.622601
8603.000000;1.622667
8602.000000;1.621645
8601.000000;1.620212
8600.000000;1.619245
8599.000000;1.619657
8598.000000;1.621833
8597.000000;1.624811
8596.000000;1.626716
8595.000000;1.626589
8594.000000;1.625394
8593.000000;1.624605
8592.000000;1.624097
8591.000000;1.622430
8590.000000;1.619276
8589.000000;1.616270
8588.000000;1.614967
8587.000000;1.615077
8586.000000;1.615369
8585.000000;1.615397
8584.000000;1.615427
8583.000000;1.615398
8582.000000;1.615140
8581.000000;1.615282
8580.000000;1.616805
8579.000000;1.619532
8578.000000;1.621989
8577.000000;1.623014
8576.000000;1.622749
8575.000000;1.621931
8574.000000;1.621016
8573.000000;1.620191
8572.000000;1.619509
8571.000000;1.618670
8570.000000;1.617405
8569.000000;1.616307
8568.000000;1.616469
8567.000000;1.617930
8566.000000;1.619132
8565.000000;1.618572
8564.000000;1.616573
8563.000000;1.614818
8562.000000;1.614647
8561.000000;1.616324
8560.000000;1.619278
8559.000000;1.622207
8558.000000;1.623448
8557.000000;1.622356
8556.000000;1.620315
8555.000000;1.619448
8554.000000;1.620359
8553.000000;1.621848
8552.000000;1.622701
8551.000000;1.622870
8550.000000;1.622635
8549.000000;1.621655
8548.000000;1.619516
8547.000000;1.616633
8546.000000;1.613970
8545.000000;1.612258
8544.000000;1.611864
8543.000000;1.613003
8542.000000;1.615516
8541.000000;1.618644
8540.000000;1.621517
8539.000000;1.623759
8538.000000;1.625300
8537.000000;1.625912
8536.000000;1.625473
8535.000000;1.624478
8534.000000;1.623682
8533.000000;1.623306
8532.000000;1.623044
8531.000000;1.622763
8530.000000;1.622671
8529.000000;1.622771
8528.000000;1.622636
8527.000000;1.621890
8526.000000;1.620567
8525.000000;1.618841
8524.000000;1.616751
8523.000000;1.614456
8522.000000;1.612437
8521.000000;1.611159
8520.000000;1.610804
8519.000000;1.611474
8518.000000;1.613296
8517.000000;1.616022
8516.000000;1.618754
8515.000000;1.620428
8514.000000;1.620597
8513.000000;1.619660
8512.000000;1.618462
8511.000000;1.617766
8510.000000;1.617907
8509.000000;1.618716
8508.000000;1.619787
8507.000000;1.621010
8506.000000;1.622699
8505.000000;1.624878
8504.000000;1.626575
8503.000000;1.626266
8502.000000;1.623173
8501.000000;1.618231
8500.000000;1.613718
8499.000000;1.611734
8498.000000;1.612821
8497.000000;1.615755
8496.000000;1.618630
8495.000000;1.620221
8494.000000;1.620328
8493.000000;1.619279
8492.000000;1.617742
8491.000000;1.616992
8490.000000;1.618308
8489.000000;1.621408
8488.000000;1.623975
8487.000000;1.623667
8486.000000;1.620722
8485.000000;1.617716
8484.000000;1.616637
8483.000000;1.617076
8482.000000;1.617426
8481.000000;1.617042
8480.000000;1.616633
8479.000000;1.617002
8478.000000;1.618162
8477.000000;1.619563
8476.000000;1.620613
8475.000000;1.620951
8474.000000;1.620514
8473.000000;1.619489
8472.000000;1.618153
8471.000000;1.616746
8470.000000;1.615642
8469.000000;1.615598
8468.000000;1.617356
8467.000000;1.620650
8466.000000;1.623935
8465.000000;1.625660
8464.000000;1.625775
8463.000000;1.625489
8462.000000;1.625488
8461.000000;1.624917
8460.000000;1.622443
8459.000000;1.618054
8458.000000;1.613493
8457.000000;1.611072
8456.000000;1.612104
8455.000000;1.615930
8454.000000;1.620088
8453.000000;1.621947
8452.000000;1.620762
8451.000000;1.618062
8450.000000;1.615842
8449.000000;1.614758
8448.000000;1.614350
8447.000000;1.614500
8446.000000;1.615691
8445.000000;1.617753
8444.000000;1.619353
8443.000000;1.619390
8442.000000;1.618428
8441.000000;1.617985
8440.000000;1.618657
8439.000000;1.619586
8438.000000;1.619708
8437.000000;1.618871
8436.000000;1.617491
8435.000000;1.615960
8434.000000;1.614865
8433.000000;1.615166
8432.000000;1.617431
8431.000000;1.620823
8430.000000;1.623322
8429.000000;1.623356
8428.000000;1.621093
8427.000000;1.617954
8426.000000;1.615199
8425.000000;1.613367
8424.000000;1.612650
8423.000000;1.612966
8422.000000;1.613532
8421.000000;1.613150
8420.000000;1.611532
8419.000000;1.610048
8418.000000;1.610488
8417.000000;1.613039
8416.000000;1.615976
8415.000000;1.617549
8414.000000;1.617791
8413.000000;1.618063
8412.000000;1.619139
8411.000000;1.620267
8410.000000;1.620050
8409.000000;1.617939
8408.000000;1.614722
8407.000000;1.611746
8406.000000;1.609845
8405.000000;1.608925
8404.000000;1.608466
8403.000000;1.608385
8402.000000;1.609358
8401.000000;1.612294
8400.000000;1.617358
8399.000000;1.623232
8398.000000;1.627314
8397.000000;1.627242
8396.000000;1.622895
8395.000000;1.616911
8394.000000;1.612721
8393.000000;1.611866
8392.000000;1.613342
8391.000000;1.615245
8390.000000;1.616520
8389.000000;1.617059
8388.000000;1.616869
8387.000000;1.615918
8386.000000;1.614526
8385.000000;1.613227
8384.000000;1.612292
8383.000000;1.611813
8382.000000;1.612169
8381.000000;1.613804
8380.000000;1.616362
8379.000000;1.618377
8378.000000;1.618293
8377.000000;1.615954
8376.000000;1.613054
8375.000000;1.611913
8374.000000;1.613526
8373.000000;1.616585
8372.000000;1.618625
8371.000000;1.618345
8370.000000;1.616581
8369.000000;1.614896
8368.000000;1.613833
8367.000000;1.612999
8366.000000;1.612207
8365.000000;1.611721
8364.000000;1.611680
8363.000000;1.612044
8362.000000;1.612996
8361.000000;1.614630
8360.000000;1.616326
8359.000000;1.617157
8358.000000;1.617044
8357.000000;1.616818
8356.000000;1.617136
8355.000000;1.618003
8354.000000;1.619192
8353.000000;1.620374
8352.000000;1.620810
8351.000000;1.619682
8350.000000;1.617191
8349.000000;1.614709
8348.000000;1.613398
8347.000000;1.613337
8346.000000;1.614262
8345.000000;1.616299
8344.000000;1.619328
8343.000000;1.622197
8342.000000;1.623438
8341.000000;1.622616
8340.000000;1.620480
8339.000000;1.618167
8338.000000;1.616825
8337.000000;1.617351
8336.000000;1.619465
8335.000000;1.621203
8334.000000;1.620374
8333.000000;1.616861
8332.000000;1.612793
8331.000000;1.610347
8330.000000;1.610099
8329.000000;1.611372
8328.000000;1.613177
8327.000000;1.614522
8326.000000;1.614661
8325.000000;1.613819
8324.000000;1.613393
8323.000000;1.614793
8322.000000;1.617942
8321.000000;1.621084
8320.000000;1.622208
8319.000000;1.620796
8318.000000;1.618270
8317.000000;1.616655
8316.000000;1.616792
8315.000000;1.617801
8314.000000;1.618219
8313.000000;1.617468
8312.000000;1.616016
8311.000000;1.614467
8310.000000;1.613128
8309.000000;1.612345
8308.000000;1.612505
8307.000000;1.613397
8306.000000;1.614100
8305.000000;1.613973
8304.000000;1.613588
8303.000000;1.614150
8302.000000;1.616017
8301.000000;1.618238
8300.000000;1.619407
8299.000000;1.618670
8298.000000;1.616194
8297.000000;1.613075
8296.000000;1.610798
8295.000000;1.610340
8294.000000;1.611433
8293.000000;1.612760
8292.000000;1.613108
8291.000000;1.612402
8290.000000;1.611542
8289.000000;1.611364
8288.000000;1.611974
8287.000000;1.613073
8286.000000;1.614627
8285.000000;1.616779
8284.000000;1.619074
8283.000000;1.620224
8282.000000;1.619126
8281.000000;1.616169
8280.000000;1.613085
8279.000000;1.611374
8278.000000;1.611122
8277.000000;1.611405
8276.000000;1.611526
8275.000000;1.611571
8274.000000;1.611934
8273.000000;1.612587
8272.000000;1.613016
8271.000000;1.612827
8270.000000;1.612276
8269.000000;1.612076
8268.000000;1.612675
8267.000000;1.613755
8266.000000;1.614478
8265.000000;1.614327
8264.000000;1.613686
8263.000000;1.613481
8262.000000;1.614211
8261.000000;1.615381
8260.000000;1.615890
8259.000000;1.615040
8258.000000;1.613159
8257.000000;1.611369
8256.000000;1.610815
8255.000000;1.611961
8254.000000;1.614347
8253.000000;1.616919
8252.000000;1.618704
8251.000000;1.619308
8250.000000;1.618854
8249.000000;1.617581
8248.000000;1.615672
8247.000000;1.613457
8246.000000;1.611628
8245.000000;1.610927
8244.000000;1.611468
8243.000000;1.612470
8242.000000;1.612728
8241.000000;1.611532
8240.000000;1.609400
8239.000000;1.607964
8238.000000;1.608779
8237.000000;1.611820
8236.000000;1.615114
8235.000000;1.616406
8234.000000;1.615469
8233.000000;1.614300
8232.000000;1.614805
8231.000000;1.616770
8230.000000;1.618367
8229.000000;1.618296
8228.000000;1.616932
8227.000000;1.615455
8226.000000;1.614574
8225.000000;1.614249
8224.000000;1.614003
8223.000000;1.613162
8222.000000;1.611323
8221.000000;1.609078
8220.000000;1.607966
8219.000000;1.609166
8218.000000;1.612243
8217.000000;1.615482
8216.000000;1.617471
8215.000000;1.618080
8214.000000;1.617933
8213.000000;1.617518
8212.000000;1.617101
8211.000000;1.616980
8210.000000;1.617214
8209.000000;1.617236
8208.000000;1.616295
8207.000000;1.614475
8206.000000;1.612890
8205.000000;1.612659
8204.000000;1.613859
8203.000000;1.615603
8202.000000;1.616942
8201.000000;1.617484
8200.000000;1.617295
8199.000000;1.616614
8198.000000;1.615831
8197.000000;1.615423
8196.000000;1.615589
8195.000000;1.615952
8194.000000;1.615945
8193.000000;1.615605
8192.000000;1.615634
8191.000000;1.616456
8190.000000;1.617430
8189.000000;1.617386
8188.000000;1.615997
8187.000000;1.614228
8186.000000;1.613171
8185.000000;1.612815
8184.000000;1.612336
8183.000000;1.611381
8182.000000;1.610663
8181.000000;1.611180
8180.000000;1.613147
8179.000000;1.615765
8178.000000;1.617780
8177.000000;1.618222
8176.000000;1.616971
8175.000000;1.614870
8174.000000;1.612948
8173.000000;1.611432
8172.000000;1.609931
8171.000000;1.608613
8170.000000;1.608536
8169.000000;1.610365
8168.000000;1.613149
8167.000000;1.615024
8166.000000;1.615092
8165.000000;1.613963
8164.000000;1.612486
8163.000000;1.610868
8162.000000;1.609311
8161.000000;1.608653
8160.000000;1.609631
8159.000000;1.611785
8158.000000;1.613657
8157.000000;1.614085
8156.000000;1.613043
8155.000000;1.611401
8154.000000;1.610270
8153.000000;1.610438
8152.000000;1.611907
8151.000000;1.613897
8150.000000;1.615571
8149.000000;1.616766
8148.000000;1.617790
8147.000000;1.618659
8146.000000;1.618933
8145.000000;1.618407
8144.000000;1.617461
8143.000000;1.616480
8142.000000;1.615392
8141.000000;1.614118
8140.000000;1.613043
8139.000000;1.612623
8138.000000;1.612766
8137.000000;1.612983
8136.000000;1.613081
8135.000000;1.613313
8134.000000;1.613784
8133.000000;1.614113
8132.000000;1.613967
8131.000000;1.613680
8130.000000;1.613941
8129.000000;1.614970
8128.000000;1.616267
8127.000000;1.617152
8126.000000;1.617329
8125.000000;1.616881
8124.000000;1.616006
8123.000000;1.615103
8122.000000;1.614879
8121.000000;1.615825
8120.000000;1.617493
8119.000000;1.618679
8118.000000;1.618577
8117.000000;1.617560
8116.000000;1.616613
8115.000000;1.616233
8114.000000;1.616170
8113.000000;1.616117
8112.000000;1.616230
8111.000000;1.616807
8110.000000;1.617700
8109.000000;1.618353
8108.000000;1.618420
8107.000000;1.618106
8106.000000;1.617765
8105.000000;1.617324
8104.000000;1.616442
8103.000000;1.615300
8102.000000;1.614874
8101.000000;1.615904
8100.000000;1.617650
8099.000000;1.618245
8098.000000;1.616713
8097.000000;1.614218
8096.000000;1.612754
8095.000000;1.612894
8094.000000;1.613459
8093.000000;1.613371
8092.000000;1.613092
8091.000000;1.613755
8090.000000;1.615458
8089.000000;1.617110
8088.000000;1.617778
8087.000000;1.617501
8086.000000;1.616753
8085.000000;1.615810
8084.000000;1.614973
8083.000000;1.614762
8082.000000;1.615334
8081.000000;1.615979
8080.000000;1.615787
8079.000000;1.614766
8078.000000;1.613838
8077.000000;1.613698
8076.000000;1.614110
8075.000000;1.614411
8074.000000;1.614298
8073.000000;1.613929
8072.000000;1.613645
8071.000000;1.613886
8070.000000;1.615044
8069.000000;1.616921
8068.000000;1.618402
8067.000000;1.618141
8066.000000;1.615850
8065.000000;1.612827
8064.000000;1.610994
8063.000000;1.611383
8062.000000;1.613438
8061.000000;1.615589
8060.000000;1.616500
8059.000000;1.615973
8058.000000;1.614818
8057.000000;1.613861
8056.000000;1.613271
8055.000000;1.612930
8054.000000;1.612994
8053.000000;1.613626
8052.000000;1.614353
8051.000000;1.614266
8050.000000;1.613028
8049.000000;1.611348
8048.000000;1.610282
8047.000000;1.610279
8046.000000;1.610984
8045.000000;1.611693
8044.000000;1.611874
8043.000000;1.611498
8042.000000;1.611076
8041.000000;1.611247
8040.000000;1.612131
8039.000000;1.613216
8038.000000;1.613946
8037.000000;1.614225
8036.000000;1.614309
8035.000000;1.614502
8034.000000;1.615080
8033.000000;1.616136
8032.000000;1.617216
8031.000000;1.617442
8030.000000;1.616412
8029.000000;1.614863
8028.000000;1.614028
8027.000000;1.614339
8026.000000;1.614991
8025.000000;1.614827
8024.000000;1.613537
8023.000000;1.611957
8022.000000;1.611325
8021.000000;1.612214
8020.000000;1.614062
8019.000000;1.615695
8018.000000;1.616341
8017.000000;1.616082
8016.000000;1.615457
8015.000000;1.614883
8014.000000;1.614515
8013.000000;1.614300
8012.000000;1.613937
8011.000000;1.613134
8010.000000;1.612124
8009.000000;1.611604
8008.000000;1.611944
8007.000000;1.612926
8006.000000;1.614552
8005.000000;1.617419
8004.000000;1.621449
8003.000000;1.624725
8002.000000;1.624938
8001.000000;1.622321
8000.000000;1.619839
7999.000000;1.619918
7998.000000;1.621957
7997.000000;1.623501
7996.000000;1.623187
7995.000000;1.621800
7994.000000;1.620636
7993.000000;1.619794
7992.000000;1.618337
7991.000000;1.615667
7990.000000;1.612416
7989.000000;1.610049
7988.000000;1.609684
7987.000000;1.611160
7986.000000;1.613146
7985.000000;1.614230
7984.000000;1.613970
7983.000000;1.612959
7982.000000;1.612103
7981.000000;1.611963
7980.000000;1.612517
7979.000000;1.613309
7978.000000;1.613889
7977.000000;1.614209
7976.000000;1.614505
7975.000000;1.614767
7974.000000;1.614585
7973.000000;1.613694
7972.000000;1.612461
7971.000000;1.611568
7970.000000;1.611379
7969.000000;1.611806
7968.000000;1.612570
7967.000000;1.613291
7966.000000;1.613446
7965.000000;1.612704
7964.000000;1.611444
7963.000000;1.610622
7962.000000;1.610942
7961.000000;1.612221
7960.000000;1.613629
7959.000000;1.614443
7958.000000;1.614544
7957.000000;1.614331
7956.000000;1.614307
7955.000000;1.614732
7954.000000;1.615532
7953.000000;1.616388
7952.000000;1.616880
7951.000000;1.616636
7950.000000;1.615625
7949.000000;1.614358
7948.000000;1.613532
7947.000000;1.613307
7946.000000;1.613150
7945.000000;1.612575
7944.000000;1.611837
7943.000000;1.611652
7942.000000;1.612360
7941.000000;1.613601
7940.000000;1.614738
7939.000000;1.615295
7938.000000;1.615069
7937.000000;1.614208
7936.000000;1.613328
7935.000000;1.613242
7934.000000;1.614277
7933.000000;1.615904
7932.000000;1.617234
7931.000000;1.617812
7930.000000;1.617807
7929.000000;1.617577
7928.000000;1.617305
7927.000000;1.617013
7926.000000;1.616682
7925.000000;1.616314
7924.000000;1.616034
7923.000000;1.616120
7922.000000;1.616698
7921.000000;1.617348
7920.000000;1.617295
7919.000000;1.616212
7918.000000;1.614687
7917.000000;1.613654
7916.000000;1.613438
7915.000000;1.613610
7914.000000;1.613773
7913.000000;1.614104
7912.000000;1.614891
7911.000000;1.615824
7910.000000;1.616140
7909.000000;1.615443
7908.000000;1.614095
7907.000000;1.612777
7906.000000;1.611973
7905.000000;1.611979
7904.000000;1.612998
7903.000000;1.614808
7902.000000;1.616500
7901.000000;1.617072
7900.000000;1.616449
7899.000000;1.615661
7898.000000;1.615752
7897.000000;1.616576
7896.000000;1.616839
7895.000000;1.615414
7894.000000;1.612570
7893.000000;1.609883
7892.000000;1.608977
7891.000000;1.610321
7890.000000;1.613077
7889.000000;1.615871
7888.000000;1.617705
7887.000000;1.618386
7886.000000;1.618382
7885.000000;1.618316
7884.000000;1.618410
7883.000000;1.618310
7882.000000;1.617560
7881.000000;1.616226
7880.000000;1.614838
7879.000000;1.613742
7878.000000;1.612825
7877.000000;1.612045
7876.000000;1.611819
7875.000000;1.612526
7874.000000;1.613858
7873.000000;1.615116
7872.000000;1.616019
7871.000000;1.616774
7870.000000;1.617416
7869.000000;1.617605
7868.000000;1.617172
7867.000000;1.616356
7866.000000;1.615361
7865.000000;1.614174
7864.000000;1.613075
7863.000000;1.612794
7862.000000;1.613728
7861.000000;1.615336
7860.000000;1.616742
7859.000000;1.617664
7858.000000;1.618303
7857.000000;1.618589
7856.000000;1.618227
7855.000000;1.617447
7854.000000;1.616977
7853.000000;1.617112
7852.000000;1.617342
7851.000000;1.617184
7850.000000;1.616902
7849.000000;1.617030
7848.000000;1.617540
7847.000000;1.617956
7846.000000;1.618078
7845.000000;1.618144
7844.000000;1.618270
7843.000000;1.618154
7842.000000;1.617534
7841.000000;1.616686
7840.000000;1.616205
7839.000000;1.616353
7838.000000;1.616838
7837.000000;1.617245
7836.000000;1.617559
7835.000000;1.618119
7834.000000;1.619114
7833.000000;1.620280
7832.000000;1.621183
7831.000000;1.621638
7830.000000;1.621668
7829.000000;1.621126
7828.000000;1.619756
7827.000000;1.617782
7826.000000;1.616137
7825.000000;1.615791
7824.000000;1.616867
7823.000000;1.618569
7822.000000;1.619949
7821.000000;1.620632
7820.000000;1.620850
7819.000000;1.621025
7818.000000;1.621424
7817.000000;1.621989
7816.000000;1.622368
7815.000000;1.622255
7814.000000;1.621817
7813.000000;1.621567
7812.000000;1.621713
7811.000000;1.621838
7810.000000;1.621397
7809.000000;1.620335
7808.000000;1.619008
7807.000000;1.617701
7806.000000;1.616590
7805.000000;1.616091
7804.000000;1.616659
7803.000000;1.618009
7802.000000;1.618946
7801.000000;1.618477
7800.000000;1.616958
7799.000000;1.615692
7798.000000;1.615486
7797.000000;1.616035
7796.000000;1.616705
7795.000000;1.617345
7794.000000;1.618093
7793.000000;1.618806
7792.000000;1.619185
7791.000000;1.619319
7790.000000;1.619676
7789.000000;1.620532
7788.000000;1.621655
7787.000000;1.622526
7786.000000;1.622685
7785.000000;1.621902
7784.000000;1.620329
7783.000000;1.618560
7782.000000;1.617358
7781.000000;1.617187
7780.000000;1.618054
7779.000000;1.619659
7778.000000;1.621504
7777.000000;1.622924
7776.000000;1.623394
7775.000000;1.622942
7774.000000;1.622025
7773.000000;1.620923
7772.000000;1.619580
7771.000000;1.618124
7770.000000;1.617080
7769.000000;1.616766
7768.000000;1.616811
7767.000000;1.616721
7766.000000;1.616640
7765.000000;1.617040
7764.000000;1.617766
7763.000000;1.618031
7762.000000;1.617573
7761.000000;1.617255
7760.000000;1.618104
7759.000000;1.620058
7758.000000;1.622076
7757.000000;1.623280
7756.000000;1.623575
7755.000000;1.623237
7754.000000;1.622463
7753.000000;1.621492
7752.000000;1.620736
7751.000000;1.620452
7750.000000;1.620506
7749.000000;1.620730
7748.000000;1.621383
7747.000000;1.622865
7746.000000;1.624980
7745.000000;1.626793
7744.000000;1.627424
7743.000000;1.626827
7742.000000;1.625669
7741.000000;1.624630
7740.000000;1.624062
7739.000000;1.624153
7738.000000;1.625018
7737.000000;1.626462
7736.000000;1.627872
7735.000000;1.628575
7734.000000;1.628334
7733.000000;1.627466
7732.000000;1.626560
7731.000000;1.626098
7730.000000;1.626207
7729.000000;1.626639
7728.000000;1.627057
7727.000000;1.627431
7726.000000;1.628040
7725.000000;1.628930
7724.000000;1.629509
7723.000000;1.628951
7722.000000;1.627094
7721.000000;1.624831
7720.000000;1.623459
7719.000000;1.623596
7718.000000;1.624680
7717.000000;1.625478
7716.000000;1.625153
7715.000000;1.623940
7714.000000;1.622819
7713.000000;1.622581
7712.000000;1.623274
7711.000000;1.624475
7710.000000;1.625824
7709.000000;1.627079
7708.000000;1.627845
7707.000000;1.627679
7706.000000;1.626628
7705.000000;1.625364
7704.000000;1.624552
7703.000000;1.624214
7702.000000;1.623909
7701.000000;1.623376
7700.000000;1.622748
7699.000000;1.622241
7698.000000;1.621945
7697.000000;1.621985
7696.000000;1.622541
7695.000000;1.623490
7694.000000;1.624233
7693.000000;1.624197
7692.000000;1.623536
7691.000000;1.623079
7690.000000;1.623552
7689.000000;1.624974
7688.000000;1.626775
7687.000000;1.628236
7686.000000;1.628785
7685.000000;1.628222
7684.000000;1.626985
7683.000000;1.626002
7682.000000;1.625922
7681.000000;1.626486
7680.000000;1.626918
7679.000000;1.626961
7678.000000;1.627191
7677.000000;1.628172
7676.000000;1.629589
7675.000000;1.630545
7674.000000;1.630579
7673.000000;1.630076
7672.000000;1.629734
7671.000000;1.629894
7670.000000;1.630382
7669.000000;1.630767
7668.000000;1.630774
7667.000000;1.630602
7666.000000;1.630830
7665.000000;1.631790
7664.000000;1.632968
7663.000000;1.633280
7662.000000;1.632106
7661.000000;1.629976
7660.000000;1.628139
7659.000000;1.627567
7658.000000;1.628408
7657.000000;1.630100
7656.000000;1.631777
7655.000000;1.632709
7654.000000;1.632734
7653.000000;1.632393
7652.000000;1.632447
7651.000000;1.633129
7650.000000;1.633941
7649.000000;1.634280
7648.000000;1.634123
7647.000000;1.633912
7646.000000;1.633835
7645.000000;1.633591
7644.000000;1.633015
7643.000000;1.632631
7642.000000;1.633142
7641.000000;1.634430
7640.000000;1.635488
7639.000000;1.635487
7638.000000;1.634626
7637.000000;1.633812
7636.000000;1.633821
7635.000000;1.634937
7634.000000;1.637011
7633.000000;1.639342
7632.000000;1.640720
7631.000000;1.640223
7630.000000;1.638188
7629.000000;1.636026
7628.000000;1.634908
7627.000000;1.634894
7626.000000;1.635378
7625.000000;1.635942
7624.000000;1.636534
7623.000000;1.637072
7622.000000;1.637312
7621.000000;1.637135
7620.000000;1.636730
7619.000000;1.636468
7618.000000;1.636701
7617.000000;1.637588
7616.000000;1.638928
7615.000000;1.640189
7614.000000;1.640888
7613.000000;1.640984
7612.000000;1.640781
7611.000000;1.640509
7610.000000;1.640166
7609.000000;1.639747
7608.000000;1.639412
7607.000000;1.639301
7606.000000;1.639277
7605.000000;1.639017
7604.000000;1.638412
7603.000000;1.637822
7602.000000;1.637844
7601.000000;1.638715
7600.000000;1.639951
7599.000000;1.640750
7598.000000;1.640857
7597.000000;1.640866
7596.000000;1.641519
7595.000000;1.642794
7594.000000;1.643918
7593.000000;1.644206
7592.000000;1.643670
7591.000000;1.642783
7590.000000;1.642003
7589.000000;1.641697
7588.000000;1.642236
7587.000000;1.643713
7586.000000;1.645487
7585.000000;1.646388
7584.000000;1.645744
7583.000000;1.644225
7582.000000;1.643415
7581.000000;1.644381
7580.000000;1.646687
7579.000000;1.648860
7578.000000;1.649765
7577.000000;1.649357
7576.000000;1.648231
7575.000000;1.646887
7574.000000;1.645609
7573.000000;1.644667
7572.000000;1.644268
7571.000000;1.644415
7570.000000;1.645066
7569.000000;1.646323
7568.000000;1.648122
7567.000000;1.649818
7566.000000;1.650524
7565.000000;1.650079
7564.000000;1.649369
7563.000000;1.649427
7562.000000;1.650421
7561.000000;1.651693
7560.000000;1.652575
7559.000000;1.652881
7558.000000;1.652717
7557.000000;1.652173
7556.000000;1.651324
7555.000000;1.650345
7554.000000;1.649498
7553.000000;1.649016
7552.000000;1.649014
7551.000000;1.649492
7550.000000;1.650355
7549.000000;1.651433
7548.000000;1.652435
7547.000000;1.653018
7546.000000;1.653086
7545.000000;1.653066
7544.000000;1.653579
7543.000000;1.654670
7542.000000;1.655589
7541.000000;1.655642
7540.000000;1.655129
7539.000000;1.655062
7538.000000;1.656023
7537.000000;1.657600
7536.000000;1.658908
7535.000000;1.659327
7534.000000;1.658730
7533.000000;1.657439
7532.000000;1.656152
7531.000000;1.655590
7530.000000;1.655927
7529.000000;1.656725
7528.000000;1.657548
7527.000000;1.658426
7526.000000;1.659565
7525.000000;1.660896
7524.000000;1.662107
7523.000000;1.662882
7522.000000;1.662925
7521.000000;1.662074
7520.000000;1.660751
7519.000000;1.659945
7518.000000;1.660294
7517.000000;1.661358
7516.000000;1.662219
7515.000000;1.662657
7514.000000;1.663207
7513.000000;1.664154
7512.000000;1.665127
7511.000000;1.665810
7510.000000;1.666435
7509.000000;1.667285
7508.000000;1.668164
7507.000000;1.668666
7506.000000;1.668645
7505.000000;1.668182
7504.000000;1.667455
7503.000000;1.666802
7502.000000;1.666799
7501.000000;1.667450
7500.000000;1.667918
7499.000000;1.667378
7498.000000;1.666040
7497.000000;1.664899
7496.000000;1.664634
7495.000000;1.665183
7494.000000;1.666246
7493.000000;1.667666
7492.000000;1.669228
7491.000000;1.670564
7490.000000;1.671511
7489.000000;1.672305
7488.000000;1.673203
7487.000000;1.674066
7486.000000;1.674507
7485.000000;1.674372
7484.000000;1.673950
7483.000000;1.673711
7482.000000;1.673845
7481.000000;1.674063
7480.000000;1.673864
7479.000000;1.673046
7478.000000;1.671934
7477.000000;1.671175
7476.000000;1.671354
7475.000000;1.672710
7474.000000;1.674913
7473.000000;1.677055
7472.000000;1.678199
7471.000000;1.678178
7470.000000;1.677696
7469.000000;1.677521
7468.000000;1.677868
7467.000000;1.678682
7466.000000;1.680033
7465.000000;1.681768
7464.000000;1.683129
7463.000000;1.683324
7462.000000;1.682401
7461.000000;1.681075
7460.000000;1.679869
7459.000000;1.679000
7458.000000;1.678918
7457.000000;1.680146
7456.000000;1.682398
7455.000000;1.684472
7454.000000;1.685383
7453.000000;1.685249
7452.000000;1.684824
7451.000000;1.684623
7450.000000;1.684774
7449.000000;1.685255
7448.000000;1.685840
7447.000000;1.686107
7446.000000;1.685911
7445.000000;1.685700
7444.000000;1.685985
7443.000000;1.686690
7442.000000;1.687322
7441.000000;1.687601
7440.000000;1.687583
7439.000000;1.687360
7438.000000;1.686974
7437.000000;1.686550
7436.000000;1.686252
7435.000000;1.686221
7434.000000;1.686664
7433.000000;1.687758
7432.000000;1.689248
7431.000000;1.690512
7430.000000;1.691331
7429.000000;1.692235
7428.000000;1.693578
7427.000000;1.694596
7426.000000;1.694088
7425.000000;1.692033
7424.000000;1.689809
7423.000000;1.688676
7422.000000;1.688608
7421.000000;1.688797
7420.000000;1.688833
7419.000000;1.689010
7418.000000;1.689746
7417.000000;1.691087
7416.000000;1.692663
7415.000000;1.693897
7414.000000;1.694341
7413.000000;1.694071
7412.000000;1.693704
7411.000000;1.693793
7410.000000;1.694231
7409.000000;1.694479
7408.000000;1.694391
7407.000000;1.694521
7406.000000;1.695435
7405.000000;1.696895
7404.000000;1.698021
7403.000000;1.698253
7402.000000;1.697888
7401.000000;1.697583
7400.000000;1.697610
7399.000000;1.697812
7398.000000;1.698041
7397.000000;1.698316
7396.000000;1.698642
7395.000000;1.698966
7394.000000;1.699325
7393.000000;1.699789
7392.000000;1.700300
7391.000000;1.700834
7390.000000;1.701681
7389.000000;1.703121
7388.000000;1.704776
7387.000000;1.705737
7386.000000;1.705564
7385.000000;1.704773
7384.000000;1.704103
7383.000000;1.703739
7382.000000;1.703542
7381.000000;1.703586
7380.000000;1.703983
7379.000000;1.704492
7378.000000;1.704822
7377.000000;1.705117
7376.000000;1.705625
7375.000000;1.706122
7374.000000;1.706255
7373.000000;1.706329
7372.000000;1.707007
7371.000000;1.708220
7370.000000;1.709098
7369.000000;1.709214
7368.000000;1.709274
7367.000000;1.710152
7366.000000;1.711669
7365.000000;1.712760
7364.000000;1.712645
7363.000000;1.711525
7362.000000;1.710255
7361.000000;1.709622
7360.000000;1.709838
7359.000000;1.710508
7358.000000;1.711076
7357.000000;1.711329
7356.000000;1.711436
7355.000000;1.711635
7354.000000;1.712098
7353.000000;1.712973
7352.000000;1.714248
7351.000000;1.715558
7350.000000;1.716462
7349.000000;1.716919
7348.000000;1.717207
7347.000000;1.717383
7346.000000;1.717168
7345.000000;1.716486
7344.000000;1.715749
7343.000000;1.715415
7342.000000;1.715605
7341.000000;1.716280
7340.000000;1.717358
7339.000000;1.718463
7338.000000;1.719069
7337.000000;1.719190
7336.000000;1.719482
7335.000000;1.720356
7334.000000;1.721363
7333.000000;1.721843
7332.000000;1.721887
7331.000000;1.722189
7330.000000;1.723110
7329.000000;1.724281
7328.000000;1.725060
7327.000000;1.725010
7326.000000;1.724053
7325.000000;1.722662
7324.000000;1.721801
7323.000000;1.722177
7322.000000;1.723571
7321.000000;1.725241
7320.000000;1.726858
7319.000000;1.728533
7318.000000;1.730059
7317.000000;1.730843
7316.000000;1.730775
7315.000000;1.730554
7314.000000;1.730886
7313.000000;1.731737
7312.000000;1.732659
7311.000000;1.733440
7310.000000;1.734015
7309.000000;1.734090
7308.000000;1.733472
7307.000000;1.732670
7306.000000;1.732664
7305.000000;1.733903
7304.000000;1.735777
7303.000000;1.737175
7302.000000;1.737462
7301.000000;1.736926
7300.000000;1.736423
7299.000000;1.736631
7298.000000;1.737491
7297.000000;1.738388
7296.000000;1.738949
7295.000000;1.739561
7294.000000;1.740948
7293.000000;1.743164
7292.000000;1.745150
7291.000000;1.745662
7290.000000;1.744615
7289.000000;1.743250
7288.000000;1.742921
7287.000000;1.743826
7286.000000;1.745074
7285.000000;1.745910
7284.000000;1.746559
7283.000000;1.747677
7282.000000;1.749287
7281.000000;1.750616
7280.000000;1.750990
7279.000000;1.750645
7278.000000;1.750553
7277.000000;1.751531
7276.000000;1.753521
7275.000000;1.755629
7274.000000;1.756893
7273.000000;1.757180
7272.000000;1.757250
7271.000000;1.757800
7270.000000;1.758652
7269.000000;1.759169
7268.000000;1.759264
7267.000000;1.759571
7266.000000;1.760632
7265.000000;1.762310
7264.000000;1.764129
7263.000000;1.765769
7262.000000;1.767035
7261.000000;1.767767
7260.000000;1.768186
7259.000000;1.769051
7258.000000;1.771056
7257.000000;1.774141
7256.000000;1.777599
7255.000000;1.780673
7254.000000;1.782861
7253.000000;1.783940
7252.000000;1.784116
7251.000000;1.784120
7250.000000;1.784826
7249.000000;1.786609
7248.000000;1.789082
7247.000000;1.791410
7246.000000;1.792759
7245.000000;1.792688
7244.000000;1.791600
7243.000000;1.790945
7242.000000;1.792356
7241.000000;1.796031
7240.000000;1.800380
7239.000000;1.803621
7238.000000;1.805296
7237.000000;1.806110
7236.000000;1.806882
7235.000000;1.808009
7234.000000;1.809555
7233.000000;1.811297
7232.000000;1.812719
7231.000000;1.813405
7230.000000;1.813562
7229.000000;1.813927
7228.000000;1.815171
7227.000000;1.817524
7226.000000;1.820720
7225.000000;1.824014
7224.000000;1.826438
7223.000000;1.827489
7222.000000;1.827662
7221.000000;1.828040
7220.000000;1.829366
7219.000000;1.831668
7218.000000;1.834664
7217.000000;1.838075
7216.000000;1.841453
7215.000000;1.844225
7214.000000;1.846324
7213.000000;1.848469
7212.000000;1.851373
7211.000000;1.854913
7210.000000;1.858467
7209.000000;1.861828
7208.000000;1.865254
7207.000000;1.868683
7206.000000;1.871511
7205.000000;1.873416
7204.000000;1.875006
7203.000000;1.877244
7202.000000;1.880448
7201.000000;1.884164
7200.000000;1.887866
7199.000000;1.891493
7198.000000;1.895288
7197.000000;1.899267
7196.000000;1.902955
7195.000000;1.905718
7194.000000;1.907436
7193.000000;1.908821
7192.000000;1.910908
7191.000000;1.914176
7190.000000;1.918220
7189.000000;1.922206
7188.000000;1.925579
7187.000000;1.928326
7186.000000;1.930734
7185.000000;1.933041
7184.000000;1.935369
7183.000000;1.937977
7182.000000;1.941488
7181.000000;1.946482
7180.000000;1.952579
7179.000000;1.958324
7178.000000;1.962583
7177.000000;1.965784
7176.000000;1.969190
7175.000000;1.973177
7174.000000;1.976960
7173.000000;1.980092
7172.000000;1.983386
7171.000000;1.987798
7170.000000;1.993025
7169.000000;1.997903
7168.000000;2.001867
7167.000000;2.005268
7166.000000;2.008366
7165.000000;2.010902
7164.000000;2.012788
7163.000000;2.014573
7162.000000;2.017057
7161.000000;2.020682
7160.000000;2.025310
7159.000000;2.030328
7158.000000;2.035046
7157.000000;2.039307
7156.000000;2.043649
7155.000000;2.048457
7154.000000;2.053103
7153.000000;2.056581
7152.000000;2.059027
7151.000000;2.061888
7150.000000;2.066220
7149.000000;2.071502
7148.000000;2.076491
7147.000000;2.080621
7146.000000;2.084239
7145.000000;2.087897
7144.000000;2.091990
7143.000000;2.096972
7142.000000;2.103238
7141.000000;2.110475
7140.000000;2.117363
7139.000000;2.122105
7138.000000;2.123559
7137.000000;2.122386
7136.000000;2.121191
7135.000000;2.122872
7134.000000;2.128241
7133.000000;2.135341
7132.000000;2.141620
7131.000000;2.146580
7130.000000;2.151595
7129.000000;2.157362
7128.000000;2.162634
7127.000000;2.165738
7126.000000;2.166609
7125.000000;2.166926
7124.000000;2.168784
7123.000000;2.173393
7122.000000;2.180223
7121.000000;2.187076
7120.000000;2.191731
7119.000000;2.193993
7118.000000;2.195707
7117.000000;2.198741
7116.000000;2.203562
7115.000000;2.209854
7114.000000;2.217341
7113.000000;2.225112
7112.000000;2.231188
7111.000000;2.234260
7110.000000;2.235378
7109.000000;2.236654
7108.000000;2.238884
7107.000000;2.241778
7106.000000;2.245627
7105.000000;2.250793
7104.000000;2.255853
7103.000000;2.258471
7102.000000;2.258674
7101.000000;2.259304
7100.000000;2.262318
7099.000000;2.266191
7098.000000;2.268106
7097.000000;2.267755
7096.000000;2.267582
7095.000000;2.269941
7094.000000;2.275354
7093.000000;2.282983
7092.000000;2.291350
7091.000000;2.298629
7090.000000;2.303383
7089.000000;2.305382
7088.000000;2.305403
7087.000000;2.304173
7086.000000;2.302302
7085.000000;2.301343
7084.000000;2.303139
7083.000000;2.307574
7082.000000;2.312368
7081.000000;2.315451
7080.000000;2.316843
7079.000000;2.318017
7078.000000;2.320232
7077.000000;2.323986
7076.000000;2.329256
7075.000000;2.335363
7074.000000;2.340963
7073.000000;2.345053
7072.000000;2.347959
7071.000000;2.350714
7070.000000;2.353592
7069.000000;2.355899
7068.000000;2.357185
7067.000000;2.358056
7066.000000;2.359499
7065.000000;2.361706
7064.000000;2.363792
7063.000000;2.364612
7062.000000;2.363814
7061.000000;2.362236
7060.000000;2.361471
7059.000000;2.362996
7058.000000;2.367373
7057.000000;2.373826
7056.000000;2.380318
7055.000000;2.384546
7054.000000;2.385565
7053.000000;2.384393
7052.000000;2.382901
7051.000000;2.382201
7050.000000;2.382103
7049.000000;2.381969
7048.000000;2.382000
7047.000000;2.383499
7046.000000;2.387625
7045.000000;2.393735
7044.000000;2.399262
7043.000000;2.401954
7042.000000;2.402297
7041.000000;2.402692
7040.000000;2.404023
7039.000000;2.404366
7038.000000;2.402101
7037.000000;2.399219
7036.000000;2.399730
7035.000000;2.405172
7034.000000;2.413057
7033.000000;2.419691
7032.000000;2.423391
7031.000000;2.424440
7030.000000;2.423449
7029.000000;2.421190
7028.000000;2.418998
7027.000000;2.417946
7026.000000;2.418090
7025.000000;2.419359
7024.000000;2.422251
7023.000000;2.426352
7022.000000;2.428826
7021.000000;2.426733
7020.000000;2.421340
7019.000000;2.417402
7018.000000;2.418168
7017.000000;2.423105
7016.000000;2.429312
7015.000000;2.434110
7014.000000;2.436406
7013.000000;2.435929
7012.000000;2.432865
7011.000000;2.428585
7010.000000;2.425206
7009.000000;2.424174
7008.000000;2.425851
7007.000000;2.429927
7006.000000;2.435124
7005.000000;2.438681
7004.000000;2.437945
7003.000000;2.433354
7002.000000;2.428585
7001.000000;2.426915
7000.000000;2.428158
6999.000000;2.429699
6998.000000;2.430121
6997.000000;2.430784
6996.000000;2.433617
6995.000000;2.438482
6994.000000;2.443310
6993.000000;2.446409
6992.000000;2.447973
6991.000000;2.449373
6990.000000;2.451690
6989.000000;2.455059
6988.000000;2.458688
6987.000000;2.461135
6986.000000;2.461037
6985.000000;2.458511
6984.000000;2.455921
6983.000000;2.456288
6982.000000;2.460423
6981.000000;2.465632
6980.000000;2.467641
6979.000000;2.464288
6978.000000;2.457290
6977.000000;2.450367
6976.000000;2.446083
6975.000000;2.444665
6974.000000;2.445078
6973.000000;2.446437
6972.000000;2.448448
6971.000000;2.450930
6970.000000;2.453225
6969.000000;2.454109
6968.000000;2.452369
6967.000000;2.447831
6966.000000;2.442263
6965.000000;2.439158
6964.000000;2.441682
6963.000000;2.449817
6962.000000;2.459160
6961.000000;2.463590
6960.000000;2.460590
6959.000000;2.453557
6958.000000;2.448075
6957.000000;2.446770
6956.000000;2.448258
6955.000000;2.449932
6954.000000;2.450726
6953.000000;2.451194
6952.000000;2.451966
6951.000000;2.452997
6950.000000;2.453963
6949.000000;2.454628
6948.000000;2.454991
6947.000000;2.455524
6946.000000;2.456779
6945.000000;2.458389
6944.000000;2.459152
6943.000000;2.458712
6942.000000;2.458552
6941.000000;2.460393
6940.000000;2.463655
6939.000000;2.465470
6938.000000;2.463768
6937.000000;2.459523
6936.000000;2.455469
6935.000000;2.453732
6934.000000;2.455003
6933.000000;2.458785
6932.000000;2.463581
6931.000000;2.467218
6930.000000;2.468236
6929.000000;2.467414
6928.000000;2.466957
6927.000000;2.467824
6926.000000;2.468425
6925.000000;2.466301
6924.000000;2.460912
6923.000000;2.454393
6922.000000;2.449626
6921.000000;2.448053
6920.000000;2.449406
6919.000000;2.452790
6918.000000;2.457237
6917.000000;2.461320
6916.000000;2.463294
6915.000000;2.462648
6914.000000;2.461045
6913.000000;2.460577
6912.000000;2.461317
6911.000000;2.461696
6910.000000;2.461186
6909.000000;2.461262
6908.000000;2.463185
6907.000000;2.466073
6906.000000;2.467937
6905.000000;2.467826
6904.000000;2.466146
6903.000000;2.463969
6902.000000;2.462853
6901.000000;2.463781
6900.000000;2.465539
6899.000000;2.465488
6898.000000;2.462922
6897.000000;2.460458
6896.000000;2.460551
6895.000000;2.461787
6894.000000;2.460613
6893.000000;2.456273
6892.000000;2.451583
6891.000000;2.448758
6890.000000;2.447195
6889.000000;2.445774
6888.000000;2.445077
6887.000000;2.446129
6886.000000;2.448206
6885.000000;2.449165
6884.000000;2.447691
6883.000000;2.444610
6882.000000;2.442445
6881.000000;2.444016
6880.000000;2.450478
6879.000000;2.459766
6878.000000;2.467463
6877.000000;2.470355
6876.000000;2.468757
6875.000000;2.464757
6874.000000;2.459825
6873.000000;2.455092
6872.000000;2.452127
6871.000000;2.451667
6870.000000;2.452284
6869.000000;2.451855
6868.000000;2.450302
6867.000000;2.449502
6866.000000;2.450366
6865.000000;2.451215
6864.000000;2.449711
6863.000000;2.445915
6862.000000;2.442569
6861.000000;2.442243
6860.000000;2.444815
6859.000000;2.448003
6858.000000;2.450139
6857.000000;2.451776
6856.000000;2.453890
6855.000000;2.455220
6854.000000;2.453128
6853.000000;2.447368
6852.000000;2.441180
6851.000000;2.437754
6850.000000;2.437188
6849.000000;2.437868
6848.000000;2.439517
6847.000000;2.443177
6846.000000;2.448591
6845.000000;2.453366
6844.000000;2.455254
6843.000000;2.454374
6842.000000;2.452652
6841.000000;2.451776
6840.000000;2.451884
6839.000000;2.451511
6838.000000;2.448771
6837.000000;2.443529
6836.000000;2.438282
6835.000000;2.435909
6834.000000;2.436810
6833.000000;2.438910
6832.000000;2.440106
6831.000000;2.439825
6830.000000;2.438229
6829.000000;2.435346
6828.000000;2.431619
6827.000000;2.428172
6826.000000;2.425787
6825.000000;2.424374
6824.000000;2.423826
6823.000000;2.424465
6822.000000;2.426064
6821.000000;2.427331
6820.000000;2.427130
6819.000000;2.425743
6818.000000;2.424370
6817.000000;2.423752
6816.000000;2.423855
6815.000000;2.424321
6814.000000;2.424437
6813.000000;2.423252
6812.000000;2.420704
6811.000000;2.418403
6810.000000;2.418305
6809.000000;2.420304
6808.000000;2.421809
6807.000000;2.420410
6806.000000;2.416679
6805.000000;2.413591
6804.000000;2.413216
6803.000000;2.414490
6802.000000;2.414484
6801.000000;2.411727
6800.000000;2.407770
6799.000000;2.405243
6798.000000;2.404861
6797.000000;2.404846
6796.000000;2.403370
6795.000000;2.400699
6794.000000;2.398455
6793.000000;2.397682
6792.000000;2.398107
6791.000000;2.398813
6790.000000;2.399055
6789.000000;2.398301
6788.000000;2.396207
6787.000000;2.392898
6786.000000;2.389009
6785.000000;2.385308
6784.000000;2.382167
6783.000000;2.379321
6782.000000;2.376234
6781.000000;2.372904
6780.000000;2.370268
6779.000000;2.369570
6778.000000;2.371068
6777.000000;2.373359
6776.000000;2.374195
6775.000000;2.372140
6774.000000;2.367611
6773.000000;2.362439
6772.000000;2.358616
6771.000000;2.357158
6770.000000;2.357676
6769.000000;2.358937
6768.000000;2.359907
6767.000000;2.360228
6766.000000;2.359800
6765.000000;2.358303
6764.000000;2.355540
6763.000000;2.352106
6762.000000;2.349230
6761.000000;2.347806
6760.000000;2.347658
6759.000000;2.347734
6758.000000;2.346964
6757.000000;2.345078
6756.000000;2.342693
6755.000000;2.340596
6754.000000;2.338988
6753.000000;2.337573
6752.000000;2.336271
6751.000000;2.335280
6750.000000;2.334212
6749.000000;2.331881
6748.000000;2.327898
6747.000000;2.323979
6746.000000;2.322470
6745.000000;2.323568
6744.000000;2.324768
6743.000000;2.323556
6742.000000;2.320200
6741.000000;2.316951
6740.000000;2.315076
6739.000000;2.313884
6738.000000;2.312391
6737.000000;2.310754
6736.000000;2.309685
6735.000000;2.309283
6734.000000;2.309113
6733.000000;2.308956
6732.000000;2.308757
6731.000000;2.308077
6730.000000;2.306343
6729.000000;2.303687
6728.000000;2.301019
6727.000000;2.299036
6726.000000;2.297454
6725.000000;2.295466
6724.000000;2.292797
6723.000000;2.290079
6722.000000;2.288202
6721.000000;2.287372
6720.000000;2.286884
6719.000000;2.285833
6718.000000;2.284112
6717.000000;2.282645
6716.000000;2.282410
6715.000000;2.283187
6714.000000;2.283461
6713.000000;2.281775
6712.000000;2.278120
6711.000000;2.273715
6710.000000;2.269732
6709.000000;2.266497
6708.000000;2.263891
6707.000000;2.262094
6706.000000;2.261380
6705.000000;2.261654
6704.000000;2.262201
6703.000000;2.261965
6702.000000;2.260064
6701.000000;2.256380
6700.000000;2.251898
6699.000000;2.248291
6698.000000;2.246852
6697.000000;2.247656
6696.000000;2.249625
6695.000000;2.251154
6694.000000;2.250759
6693.000000;2.247822
6692.000000;2.243204
6691.000000;2.238862
6690.000000;2.236411
6689.000000;2.235929
6688.000000;2.236314
6687.000000;2.236634
6686.000000;2.236676
6685.000000;2.236353
6684.000000;2.235115
6683.000000;2.232162
6682.000000;2.227294
6681.000000;2.221621
6680.000000;2.217222
6679.000000;2.215763
6678.000000;2.217218
6677.000000;2.219864
6676.000000;2.221736
6675.000000;2.222135
6674.000000;2.221459
6673.000000;2.219994
6672.000000;2.217710
6671.000000;2.215061
6670.000000;2.212874
6669.000000;2.211073
6668.000000;2.208367
6667.000000;2.203847
6666.000000;2.198427
6665.000000;2.194089
6664.000000;2.192025
6663.000000;2.191966
6662.000000;2.192838
6661.000000;2.193422
6660.000000;2.192723
6659.000000;2.190671
6658.000000;2.188513
6657.000000;2.187737
6656.000000;2.188447
6655.000000;2.189279
6654.000000;2.188988
6653.000000;2.187545
6652.000000;2.185549
6651.000000;2.183453
6650.000000;2.181727
6649.000000;2.180950
6648.000000;2.181008
6647.000000;2.180625
6646.000000;2.178484
6645.000000;2.174801
6644.000000;2.171214
6643.000000;2.169181
6642.000000;2.168800
6641.000000;2.169037
6640.000000;2.168709
6639.000000;2.167289
6638.000000;2.165101
6637.000000;2.162859
6636.000000;2.160969
6635.000000;2.159322
6634.000000;2.157666
6633.000000;2.155903
6632.000000;2.153977
6631.000000;2.151960
6630.000000;2.150484
6629.000000;2.150450
6628.000000;2.151716
6627.000000;2.152463
6626.000000;2.150714
6625.000000;2.146594
6624.000000;2.142324
6623.000000;2.139811
6622.000000;2.138958
6621.000000;2.138432
6620.000000;2.137356
6619.000000;2.135795
6618.000000;2.134067
6617.000000;2.132368
6616.000000;2.131045
6615.000000;2.130596
6614.000000;2.131106
6613.000000;2.131925
6612.000000;2.132074
6611.000000;2.130808
6610.000000;2.127798
6609.000000;2.123228
6608.000000;2.118051
6607.000000;2.113820
6606.000000;2.111771
6605.000000;2.111906
6604.000000;2.113075
6603.000000;2.113959
6602.000000;2.113885
6601.000000;2.112882
6600.000000;2.111400
6599.000000;2.110089
6598.000000;2.109390
6597.000000;2.108960
6596.000000;2.107770
6595.000000;2.105214
6594.000000;2.102008
6593.000000;2.099617
6592.000000;2.098866
6591.000000;2.099408
6590.000000;2.100412
6589.000000;2.101290
6588.000000;2.101676
6587.000000;2.101179
6586.000000;2.099591
6585.000000;2.097190
6584.000000;2.094612
6583.000000;2.092455
6582.000000;2.091026
6581.000000;2.090189
6580.000000;2.089339
6579.000000;2.087847
6578.000000;2.085838
6577.000000;2.084309
6576.000000;2.084099
6575.000000;2.084787
6574.000000;2.084901
6573.000000;2.083394
6572.000000;2.080745
6571.000000;2.078422
6570.000000;2.077347
6569.000000;2.077092
6568.000000;2.076595
6567.000000;2.075466
6566.000000;2.074233
6565.000000;2.073339
6564.000000;2.072316
6563.000000;2.070340
6562.000000;2.067453
6561.000000;2.064630
6560.000000;2.062629
6559.000000;2.061298
6558.000000;2.060144
6557.000000;2.059075
6556.000000;2.058270
6555.000000;2.057724
6554.000000;2.057281
6553.000000;2.056847
6552.000000;2.056240
6551.000000;2.055124
6550.000000;2.053487
6549.000000;2.051915
6548.000000;2.050949
6547.000000;2.050309
6546.000000;2.049281
6545.000000;2.047798
6544.000000;2.046624
6543.000000;2.046365
6542.000000;2.046741
6541.000000;2.046955
6540.000000;2.046407
6539.000000;2.044891
6538.000000;2.042473
6537.000000;2.039532
6536.000000;2.036765
6535.000000;2.034840
6534.000000;2.033995
6533.000000;2.033990
6532.000000;2.034316
6531.000000;2.034402
6530.000000;2.033848
6529.000000;2.032717
6528.000000;2.031557
6527.000000;2.030914
6526.000000;2.030728
6525.000000;2.030319
6524.000000;2.029077
6523.000000;2.027124
6522.000000;2.025177
6521.000000;2.023727
6520.000000;2.022544
6519.000000;2.021116
6518.000000;2.019443
6517.000000;2.018058
6516.000000;2.017284
6515.000000;2.016777
6514.000000;2.015983
6513.000000;2.014801
6512.000000;2.013597
6511.000000;2.012719
6510.000000;2.012241
6509.000000;2.012075
6508.000000;2.012058
6507.000000;2.011943
6506.000000;2.011481
6505.000000;2.010515
6504.000000;2.008930
6503.000000;2.006706
6502.000000;2.004170
6501.000000;2.002050
6500.000000;2.000996
6499.000000;2.001041
6498.000000;2.001620
6497.000000;2.002007
6496.000000;2.001686
6495.000000;2.000524
6494.000000;1.998885
6493.000000;1.997464
6492.000000;1.996697
6491.000000;1.996346
6490.000000;1.995836
6489.000000;1.994904
6488.000000;1.993729
6487.000000;1.992528
6486.000000;1.991336
6485.000000;1.990154
6484.000000;1.988989
6483.000000;1.987778
6482.000000;1.986531
6481.000000;1.985576
6480.000000;1.985313
6479.000000;1.985681
6478.000000;1.986098
6477.000000;1.986050
6476.000000;1.985558
6475.000000;1.984988
6474.000000;1.984565
6473.000000;1.984162
6472.000000;1.983456
6471.000000;1.982268
6470.000000;1.980840
6469.000000;1.979714
6468.000000;1.979235
6467.000000;1.979206
6466.000000;1.979124
6465.000000;1.978569
6464.000000;1.977291
6463.000000;1.975213
6462.000000;1.972721
6461.000000;1.970666
6460.000000;1.969605
6459.000000;1.969089
6458.000000;1.968180
6457.000000;1.966656
6456.000000;1.965195
6455.000000;1.964345
6454.000000;1.963893
6453.000000;1.963413
6452.000000;1.962876
6451.000000;1.962383
6450.000000;1.961734
6449.000000;1.960737
6448.000000;1.959724
6447.000000;1.959326
6446.000000;1.959754
6445.000000;1.960545
6444.000000;1.960965
6443.000000;1.960525
6442.000000;1.959248
6441.000000;1.957652
6440.000000;1.956393
6439.000000;1.955734
6438.000000;1.955374
6437.000000;1.954806
6436.000000;1.953776
6435.000000;1.952379
6434.000000;1.950909
6433.000000;1.949668
6432.000000;1.948747
6431.000000;1.947934
6430.000000;1.947019
6429.000000;1.946205
6428.000000;1.945899
6427.000000;1.946008
6426.000000;1.945812
6425.000000;1.944779
6424.000000;1.943253
6423.000000;1.942070
6422.000000;1.941686
6421.000000;1.941903
6420.000000;1.942209
6419.000000;1.942128
6418.000000;1.941403
6417.000000;1.940145
6416.000000;1.938756
6415.000000;1.937572
6414.000000;1.936668
6413.000000;1.936081
6412.000000;1.935935
6411.000000;1.936116
6410.000000;1.936072
6409.000000;1.935296
6408.000000;1.933888
6407.000000;1.932394
6406.000000;1.931194
6405.000000;1.930312
6404.000000;1.929643
6403.000000;1.929097
6402.000000;1.928626
6401.000000;1.928392
6400.000000;1.928713
6399.000000;1.929501
6398.000000;1.929925
6397.000000;1.929075
6396.000000;1.926999
6395.000000;1.924689
6394.000000;1.923031
6393.000000;1.922106
6392.000000;1.921516
6391.000000;1.920998
6390.000000;1.920578
6389.000000;1.920388
6388.000000;1.920483
6387.000000;1.920678
6386.000000;1.920516
6385.000000;1.919639
6384.000000;1.918260
6383.000000;1.917057
6382.000000;1.916509
6381.000000;1.916485
6380.000000;1.916500
6379.000000;1.916197
6378.000000;1.915545
6377.000000;1.914758
6376.000000;1.914067
6375.000000;1.913431
6374.000000;1.912458
6373.000000;1.910867
6372.000000;1.909065
6371.000000;1.907983
6370.000000;1.908162
6369.000000;1.909187
6368.000000;1.910133
6367.000000;1.910392
6366.000000;1.909925
6365.000000;1.908926
6364.000000;1.907590
6363.000000;1.906222
6362.000000;1.905241
6361.000000;1.904889
6360.000000;1.904948
6359.000000;1.904870
6358.000000;1.904267
6357.000000;1.903309
6356.000000;1.902527
6355.000000;1.902232
6354.000000;1.902211
6353.000000;1.902020
6352.000000;1.901466
6351.000000;1.900661
6350.000000;1.899747
6349.000000;1.898784
6348.000000;1.897870
6347.000000;1.897148
6346.000000;1.896623
6345.000000;1.896156
6344.000000;1.895686
6343.000000;1.895317
6342.000000;1.895093
6341.000000;1.894852
6340.000000;1.894358
6339.000000;1.893534
6338.000000;1.892547
6337.000000;1.891788
6336.000000;1.891712
6335.000000;1.892449
6334.000000;1.893505
6333.000000;1.894021
6332.000000;1.893484
6331.000000;1.892105
6330.000000;1.890485
6329.000000;1.889090
6328.000000;1.888115
6327.000000;1.887573
6326.000000;1.887318
6325.000000;1.887074
6324.000000;1.886629
6323.000000;1.885957
6322.000000;1.885109
6321.000000;1.884110
6320.000000;1.883099
6319.000000;1.882392
6318.000000;1.882183
6317.000000;1.882218
6316.000000;1.881949
6315.000000;1.881075
6314.000000;1.879877
6313.000000;1.878997
6312.000000;1.878897
6311.000000;1.879491
6310.000000;1.880217
6309.000000;1.880460
6308.000000;1.879992
6307.000000;1.879035
6306.000000;1.877945
6305.000000;1.876956
6304.000000;1.876203
6303.000000;1.875774
6302.000000;1.875567
6301.000000;1.875259
6300.000000;1.874620
6299.000000;1.873860
6298.000000;1.873467
6297.000000;1.873654
6296.000000;1.874096
6295.000000;1.874230
6294.000000;1.873754
6293.000000;1.872796
6292.000000;1.871696
6291.000000;1.870734
6290.000000;1.870021
6289.000000;1.869570
6288.000000;1.869388
6287.000000;1.869465
6286.000000;1.869680
6285.000000;1.869774
6284.000000;1.869487
6283.000000;1.868742
6282.000000;1.867702
6281.000000;1.866673
6280.000000;1.865933
6279.000000;1.865565
6278.000000;1.865353
6277.000000;1.864883
6276.000000;1.863881
6275.000000;1.862541
6274.000000;1.861460
6273.000000;1.861156
6272.000000;1.861622
6271.000000;1.862357
6270.000000;1.862856
6269.000000;1.863015
6268.000000;1.862979
6267.000000;1.862728
6266.000000;1.862066
6265.000000;1.861066
6264.000000;1.860241
6263.000000;1.860049
6262.000000;1.860356
6261.000000;1.860639
6260.000000;1.860636
6259.000000;1.860516
6258.000000;1.860427
6257.000000;1.860221
6256.000000;1.859744
6255.000000;1.859117
6254.000000;1.858545
6253.000000;1.858033
6252.000000;1.857425
6251.000000;1.856580
6250.000000;1.855425
6249.000000;1.854049
6248.000000;1.852882
6247.000000;1.852497
6246.000000;1.853006
6245.000000;1.853822
6244.000000;1.854285
6243.000000;1.854329
6242.000000;1.854259
6241.000000;1.854076
6240.000000;1.853456
6239.000000;1.852375
6238.000000;1.851328
6237.000000;1.850816
6236.000000;1.850924
6235.000000;1.851433
6234.000000;1.852066
6233.000000;1.852477
6232.000000;1.852319
6231.000000;1.851529
6230.000000;1.850396
6229.000000;1.849245
6228.000000;1.848220
6227.000000;1.847454
6226.000000;1.847170
6225.000000;1.847392
6224.000000;1.847768
6223.000000;1.847905
6222.000000;1.847747
6221.000000;1.847430
6220.000000;1.846950
6219.000000;1.846255
6218.000000;1.845546
6217.000000;1.845145
6216.000000;1.845056
6215.000000;1.844958
6214.000000;1.844699
6213.000000;1.844558
6212.000000;1.844849
6211.000000;1.845433
6210.000000;1.845813
6209.000000;1.845625
6208.000000;1.844880
6207.000000;1.843779
6206.000000;1.842480
6205.000000;1.841139
6204.000000;1.840033
6203.000000;1.839465
6202.000000;1.839490
6201.000000;1.839792
6200.000000;1.839927
6199.000000;1.839666
6198.000000;1.839103
6197.000000;1.838496
6196.000000;1.838111
6195.000000;1.838143
6194.000000;1.838585
6193.000000;1.839106
6192.000000;1.839214
6191.000000;1.838719
6190.000000;1.837940
6189.000000;1.837338
6188.000000;1.836983
6187.000000;1.836541
6186.000000;1.835748
6185.000000;1.834746
6184.000000;1.833931
6183.000000;1.833585
6182.000000;1.833675
6181.000000;1.833912
6180.000000;1.833963
6179.000000;1.833741
6178.000000;1.833522
6177.000000;1.833720
6176.000000;1.834417
6175.000000;1.835146
6174.000000;1.835219
6173.000000;1.834314
6172.000000;1.832762
6171.000000;1.831250
6170.000000;1.830272
6169.000000;1.829870
6168.000000;1.829848
6167.000000;1.830102
6166.000000;1.830621
6165.000000;1.831241
6164.000000;1.831613
6163.000000;1.831536
6162.000000;1.831169
6161.000000;1.830790
6160.000000;1.830460
6159.000000;1.830080
6158.000000;1.829703
6157.000000;1.829523
6156.000000;1.829544
6155.000000;1.829500
6154.000000;1.829177
6153.000000;1.828682
6152.000000;1.828283
6151.000000;1.828102
6150.000000;1.828077
6149.000000;1.828108
6148.000000;1.828134
6147.000000;1.828109
6146.000000;1.828038
6145.000000;1.827974
6144.000000;1.827905
6143.000000;1.827684
6142.000000;1.827193
6141.000000;1.826542
6140.000000;1.826012
6139.000000;1.825802
6138.000000;1.825901
6137.000000;1.826180
6136.000000;1.826492
6135.000000;1.826667
6134.000000;1.826515
6133.000000;1.825923
6132.000000;1.824993
6131.000000;1.824066
6130.000000;1.823592
6129.000000;1.823826
6128.000000;1.824555
6127.000000;1.825170
6126.000000;1.825169
6125.000000;1.824626
6124.000000;1.824064
6123.000000;1.823832
6122.000000;1.823751
6121.000000;1.823456
6120.000000;1.822908
6119.000000;1.822406
6118.000000;1.822147
6117.000000;1.821987
6116.000000;1.821728
6115.000000;1.821445
6114.000000;1.821363
6113.000000;1.821468
6112.000000;1.821411
6111.000000;1.820904
6110.000000;1.820103
6109.000000;1.819526
6108.000000;1.819596
6107.000000;1.820308
6106.000000;1.821265
6105.000000;1.821955
6104.000000;1.822091
6103.000000;1.821803
6102.000000;1.821523
6101.000000;1.821546
6100.000000;1.821641
6099.000000;1.821244
6098.000000;1.820109
6097.000000;1.818683
6096.000000;1.817674
6095.000000;1.817336
6094.000000;1.817355
6093.000000;1.817368
6092.000000;1.817355
6091.000000;1.817441
6090.000000;1.817545
6089.000000;1.817453
6088.000000;1.817156
6087.000000;1.816865
6086.000000;1.816683
6085.000000;1.816464
6084.000000;1.816056
6083.000000;1.815547
6082.000000;1.815158
6081.000000;1.814980
6080.000000;1.814958
6079.000000;1.815046
6078.000000;1.815243
6077.000000;1.815449
6076.000000;1.815454
6075.000000;1.815155
6074.000000;1.814731
6073.000000;1.814505
6072.000000;1.814623
6071.000000;1.814920
6070.000000;1.815103
6069.000000;1.815020
6068.000000;1.814741
6067.000000;1.814408
6066.000000;1.814124
6065.000000;1.813998
6064.000000;1.814176
6063.000000;1.814701
6062.000000;1.815337
6061.000000;1.815705
6060.000000;1.815673
6059.000000;1.815494
6058.000000;1.815445
6057.000000;1.815455
6056.000000;1.815207
6055.000000;1.814539
6054.000000;1.813615
6053.000000;1.812737
6052.000000;1.812152
6051.000000;1.812020
6050.000000;1.812339
6049.000000;1.812877
6048.000000;1.813320
6047.000000;1.813585
6046.000000;1.813824
6045.000000;1.814104
6044.000000;1.814248
6043.000000;1.814099
6042.000000;1.813749
6041.000000;1.813362
6040.000000;1.812942
6039.000000;1.812472
6038.000000;1.812183
6037.000000;1.812416
6036.000000;1.813193
6035.000000;1.814052
6034.000000;1.814374
6033.000000;1.813843
6032.000000;1.812694
6031.000000;1.811595
6030.000000;1.811181
6029.000000;1.811480
6028.000000;1.811806
6027.000000;1.811437
6026.000000;1.810445
6025.000000;1.809647
6024.000000;1.809725
6023.000000;1.810539
6022.000000;1.811387
6021.000000;1.811745
6020.000000;1.811625
6019.000000;1.811314
6018.000000;1.810990
6017.000000;1.810653
6016.000000;1.810310
6015.000000;1.810105
6014.000000;1.810219
6013.000000;1.810646
6012.000000;1.811151
6011.000000;1.811498
6010.000000;1.811657
6009.000000;1.811728
6008.000000;1.811745
6007.000000;1.811678
6006.000000;1.811566
6005.000000;1.811450
6004.000000;1.811241
6003.000000;1.810831
6002.000000;1.810349
6001.000000;1.810104
6000.000000;1.810213
5999.000000;1.810430
5998.000000;1.810456
5997.000000;1.810294
5996.000000;1.810186
5995.000000;1.810295
5994.000000;1.810578
5993.000000;1.810902
5992.000000;1.811193
5991.000000;1.811468
5990.000000;1.811758
5989.000000;1.812000
5988.000000;1.812029
5987.000000;1.811767
5986.000000;1.811397
5985.000000;1.811249
5984.000000;1.811494
5983.000000;1.812044
5982.000000;1.812720
5981.000000;1.813367
5980.000000;1.813802
5979.000000;1.813855
5978.000000;1.813559
5977.000000;1.813155
5976.000000;1.812823
5975.000000;1.812537
5974.000000;1.812269
5973.000000;1.812135
5972.000000;1.812213
5971.000000;1.812422
5970.000000;1.812725
5969.000000;1.813278
5968.000000;1.814158
5967.000000;1.815039
5966.000000;1.815417
5965.000000;1.815153
5964.000000;1.814616
5963.000000;1.814314
5962.000000;1.814486
5961.000000;1.815006
5960.000000;1.815500
5959.000000;1.815626
5958.000000;1.815412
5957.000000;1.815292
5956.000000;1.815640
5955.000000;1.816312
5954.000000;1.816840
5953.000000;1.817037
5952.000000;1.817171
5951.000000;1.817517
5950.000000;1.817984
5949.000000;1.818260
5948.000000;1.818182
5947.000000;1.817854
5946.000000;1.817551
5945.000000;1.817589
5944.000000;1.818126
5943.000000;1.818941
5942.000000;1.819520
5941.000000;1.819533
5940.000000;1.819214
5939.000000;1.819153
5938.000000;1.819688
5937.000000;1.820551
5936.000000;1.821134
5935.000000;1.821102
5934.000000;1.820736
5933.000000;1.820649
5932.000000;1.821172
5931.000000;1.822031
5930.000000;1.822627
5929.000000;1.822614
5928.000000;1.822185
5927.000000;1.821835
5926.000000;1.821905
5925.000000;1.822309
5924.000000;1.822638
5923.000000;1.822567
5922.000000;1.822224
5921.000000;1.822088
5920.000000;1.822497
5919.000000;1.823346
5918.000000;1.824289
5917.000000;1.825094
5916.000000;1.825661
5915.000000;1.825852
5914.000000;1.825579
5913.000000;1.825003
5912.000000;1.824438
5911.000000;1.824040
5910.000000;1.823742
5909.000000;1.823491
5908.000000;1.823331
5907.000000;1.823249
5906.000000;1.823165
5905.000000;1.823137
5904.000000;1.823340
5903.000000;1.823743
5902.000000;1.824036
5901.000000;1.824031
5900.000000;1.823963
5899.000000;1.824194
5898.000000;1.824732
5897.000000;1.825222
5896.000000;1.825344
5895.000000;1.825050
5894.000000;1.824474
5893.000000;1.823806
5892.000000;1.823255
5891.000000;1.822980
5890.000000;1.822982
5889.000000;1.823134
5888.000000;1.823323
5887.000000;1.823502
5886.000000;1.823611
5885.000000;1.823594
5884.000000;1.823517
5883.000000;1.823575
5882.000000;1.823885
5881.000000;1.824329
5880.000000;1.824672
5879.000000;1.824816
5878.000000;1.824870
5877.000000;1.824968
5876.000000;1.825102
5875.000000;1.825155
5874.000000;1.825048
5873.000000;1.824811
5872.000000;1.824558
5871.000000;1.824493
5870.000000;1.824864
5869.000000;1.825758
5868.000000;1.826893
5867.000000;1.827767
5866.000000;1.828079
5865.000000;1.827944
5864.000000;1.827644
5863.000000;1.827332
5862.000000;1.827049
5861.000000;1.826891
5860.000000;1.826947
5859.000000;1.827187
5858.000000;1.827542
5857.000000;1.828022
5856.000000;1.828555
5855.000000;1.828827
5854.000000;1.828576
5853.000000;1.828057
5852.000000;1.827958
5851.000000;1.828722
5850.000000;1.830105
5849.000000;1.831438
5848.000000;1.832184
5847.000000;1.832239
5846.000000;1.831905
5845.000000;1.831676
5844.000000;1.831886
5843.000000;1.832420
5842.000000;1.832880
5841.000000;1.833089
5840.000000;1.833284
5839.000000;1.833710
5838.000000;1.834273
5837.000000;1.834747
5836.000000;1.835162
5835.000000;1.835729
5834.000000;1.836457
5833.000000;1.837080
5832.000000;1.837399
5831.000000;1.837483
5830.000000;1.837524
5829.000000;1.837629
5828.000000;1.837813
5827.000000;1.838072
5826.000000;1.838379
5825.000000;1.838665
5824.000000;1.838863
5823.000000;1.838969
5822.000000;1.839046
5821.000000;1.839192
5820.000000;1.839514
5819.000000;1.840084
5818.000000;1.840901
5817.000000;1.841871
5816.000000;1.842834
5815.000000;1.843661
5814.000000;1.844366
5813.000000;1.845061
5812.000000;1.845761
5811.000000;1.846305
5810.000000;1.846567
5809.000000;1.846682
5808.000000;1.846903
5807.000000;1.847286
5806.000000;1.847677
5805.000000;1.847997
5804.000000;1.848335
5803.000000;1.848706
5802.000000;1.848977
5801.000000;1.849168
5800.000000;1.849616
5799.000000;1.850593
5798.000000;1.851851
5797.000000;1.852770
5796.000000;1.852988
5795.000000;1.852741
5794.000000;1.852601
5793.000000;1.852976
5792.000000;1.853864
5791.000000;1.854924
5790.000000;1.855774
5789.000000;1.856266
5788.000000;1.856542
5787.000000;1.856810
5786.000000;1.857140
5785.000000;1.857485
5784.000000;1.857800
5783.000000;1.858070
5782.000000;1.858309
5781.000000;1.858592
5780.000000;1.859034
5779.000000;1.859631
5778.000000;1.860212
5777.000000;1.860639
5776.000000;1.860988
5775.000000;1.861417
5774.000000;1.861928
5773.000000;1.862389
5772.000000;1.862788
5771.000000;1.863303
5770.000000;1.864085
5769.000000;1.865041
5768.000000;1.865870
5767.000000;1.866308
5766.000000;1.866389
5765.000000;1.866445
5764.000000;1.866796
5763.000000;1.867433
5762.000000;1.868063
5761.000000;1.868493
5760.000000;1.868827
5759.000000;1.869261
5758.000000;1.869834
5757.000000;1.870462
5756.000000;1.871075
5755.000000;1.871611
5754.000000;1.872011
5753.000000;1.872345
5752.000000;1.872830
5751.000000;1.873549
5750.000000;1.874282
5749.000000;1.874776
5748.000000;1.875100
5747.000000;1.875502
5746.000000;1.876008
5745.000000;1.876385
5744.000000;1.876501
5743.000000;1.876518
5742.000000;1.876717
5741.000000;1.877269
5740.000000;1.878156
5739.000000;1.879155
5738.000000;1.879901
5737.000000;1.880152
5736.000000;1.880000
5735.000000;1.879739
5734.000000;1.879567
5733.000000;1.879608
5732.000000;1.880087
5731.000000;1.881175
5730.000000;1.882639
5729.000000;1.883942
5728.000000;1.884796
5727.000000;1.885391
5726.000000;1.885962
5725.000000;1.886423
5724.000000;1.886639
5723.000000;1.886789
5722.000000;1.887171
5721.000000;1.887746
5720.000000;1.888153
5719.000000;1.888203
5718.000000;1.888150
5717.000000;1.888412
5716.000000;1.889149
5715.000000;1.890131
5714.000000;1.890946
5713.000000;1.891327
5712.000000;1.891366
5711.000000;1.891441
5710.000000;1.891915
5709.000000;1.892857
5708.000000;1.894045
5707.000000;1.895172
5706.000000;1.896016
5705.000000;1.896555
5704.000000;1.896946
5703.000000;1.897416
5702.000000;1.898015
5701.000000;1.898508
5700.000000;1.898665
5699.000000;1.898558
5698.000000;1.898522
5697.000000;1.898788
5696.000000;1.899290
5695.000000;1.899864
5694.000000;1.900498
5693.000000;1.901255
5692.000000;1.902035
5691.000000;1.902598
5690.000000;1.902889
5689.000000;1.903164
5688.000000;1.903678
5687.000000;1.904344
5686.000000;1.904872
5685.000000;1.905188
5684.000000;1.905524
5683.000000;1.906065
5682.000000;1.906690
5681.000000;1.907177
5680.000000;1.907499
5679.000000;1.907810
5678.000000;1.908224
5677.000000;1.908757
5676.000000;1.909403
5675.000000;1.910116
5674.000000;1.910753
5673.000000;1.911188
5672.000000;1.911454
5671.000000;1.911635
5670.000000;1.911687
5669.000000;1.911586
5668.000000;1.911625
5667.000000;1.912291
5666.000000;1.913715
5665.000000;1.915402
5664.000000;1.916653
5663.000000;1.917199
5662.000000;1.917276
5661.000000;1.917205
5660.000000;1.917093
5659.000000;1.916956
5658.000000;1.916925
5657.000000;1.917180
5656.000000;1.917730
5655.000000;1.918359
5654.000000;1.918841
5653.000000;1.919145
5652.000000;1.919402
5651.000000;1.919703
5650.000000;1.920071
5649.000000;1.920618
5648.000000;1.921543
5647.000000;1.922829
5646.000000;1.924015
5645.000000;1.924516
5644.000000;1.924202
5643.000000;1.923527
5642.000000;1.923054
5641.000000;1.923017
5640.000000;1.923401
5639.000000;1.924212
5638.000000;1.925425
5637.000000;1.926745
5636.000000;1.927700
5635.000000;1.928065
5634.000000;1.928107
5633.000000;1.928310
5632.000000;1.928898
5631.000000;1.929687
5630.000000;1.930322
5629.000000;1.930580
5628.000000;1.930485
5627.000000;1.930230
5626.000000;1.930023
5625.000000;1.929945
5624.000000;1.929915
5623.000000;1.929821
5622.000000;1.929697
5621.000000;1.929727
5620.000000;1.930033
5619.000000;1.930545
5618.000000;1.931141
5617.000000;1.931818
5616.000000;1.932604
5615.000000;1.933329
5614.000000;1.933681
5613.000000;1.933573
5612.000000;1.933343
5611.000000;1.933469
5610.000000;1.934116
5609.000000;1.934996
5608.000000;1.935652
5607.000000;1.935867
5606.000000;1.935852
5605.000000;1.935997
5604.000000;1.936398
5603.000000;1.936703
5602.000000;1.936555
5601.000000;1.936085
5600.000000;1.935752
5599.000000;1.935721
5598.000000;1.935720
5597.000000;1.935605
5596.000000;1.935743
5595.000000;1.936578
5594.000000;1.937985
5593.000000;1.939319
5592.000000;1.940000
5591.000000;1.939895
5590.000000;1.939233
5589.000000;1.938413
5588.000000;1.937827
5587.000000;1.937630
5586.000000;1.937718
5585.000000;1.938014
5584.000000;1.938636
5583.000000;1.939569
5582.000000;1.940339
5581.000000;1.940368
5580.000000;1.939664
5579.000000;1.938842
5578.000000;1.938444
5577.000000;1.938519
5576.000000;1.938834
5575.000000;1.939198
5574.000000;1.939456
5573.000000;1.939473
5572.000000;1.939286
5571.000000;1.939118
5570.000000;1.939098
5569.000000;1.939091
5568.000000;1.938883
5567.000000;1.938408
5566.000000;1.937791
5565.000000;1.937333
5564.000000;1.937420
5563.000000;1.938186
5562.000000;1.939195
5561.000000;1.939730
5560.000000;1.939541
5559.000000;1.939059
5558.000000;1.938764
5557.000000;1.938636
5556.000000;1.938423
5555.000000;1.938169
5554.000000;1.938131
5553.000000;1.938333
5552.000000;1.938496
5551.000000;1.938383
5550.000000;1.938010
5549.000000;1.937521
5548.000000;1.937059
5547.000000;1.936736
5546.000000;1.936613
5545.000000;1.936706
5544.000000;1.937058
5543.000000;1.937691
5542.000000;1.938420
5541.000000;1.938889
5540.000000;1.938940
5539.000000;1.938798
5538.000000;1.938722
5537.000000;1.938617
5536.000000;1.938244
5535.000000;1.937656
5534.000000;1.937173
5533.000000;1.936982
5532.000000;1.937017
5531.000000;1.937206
5530.000000;1.937537
5529.000000;1.937858
5528.000000;1.937899
5527.000000;1.937630
5526.000000;1.937376
5525.000000;1.937426
5524.000000;1.937676
5523.000000;1.937813
5522.000000;1.937761
5521.000000;1.937764
5520.000000;1.938031
5519.000000;1.938414
5518.000000;1.938503
5517.000000;1.938038
5516.000000;1.937236
5515.000000;1.936669
5514.000000;1.936730
5513.000000;1.937252
5512.000000;1.937702
5511.000000;1.937759
5510.000000;1.937609
5509.000000;1.937640
5508.000000;1.937963
5507.000000;1.938293
5506.000000;1.938279
5505.000000;1.937907
5504.000000;1.937579
5503.000000;1.937768
5502.000000;1.938569
5501.000000;1.939559
5500.000000;1.940137
5499.000000;1.940031
5498.000000;1.939471
5497.000000;1.938909
5496.000000;1.938642
5495.000000;1.938698
5494.000000;1.938970
5493.000000;1.939340
5492.000000;1.939704
5491.000000;1.939968
5490.000000;1.940082
5489.000000;1.940076
5488.000000;1.940053
5487.000000;1.940092
5486.000000;1.940142
5485.000000;1.940087
5484.000000;1.939934
5483.000000;1.939832
5482.000000;1.939858
5481.000000;1.939957
5480.000000;1.940139
5479.000000;1.940551
5478.000000;1.941240
5477.000000;1.941981
5476.000000;1.942518
5475.000000;1.942907
5474.000000;1.943380
5473.000000;1.943922
5472.000000;1.944267
5471.000000;1.944305
5470.000000;1.944240
5469.000000;1.944276
5468.000000;1.944391
5467.000000;1.944528
5466.000000;1.944749
5465.000000;1.945064
5464.000000;1.945295
5463.000000;1.945355
5462.000000;1.945499
5461.000000;1.946075
5460.000000;1.947044
5459.000000;1.947955
5458.000000;1.948480
5457.000000;1.948791
5456.000000;1.949345
5455.000000;1.950350
5454.000000;1.951493
5453.000000;1.952217
5452.000000;1.952305
5451.000000;1.952135
5450.000000;1.952276
5449.000000;1.952863
5448.000000;1.953507
5447.000000;1.953869
5446.000000;1.954110
5445.000000;1.954607
5444.000000;1.955421
5443.000000;1.956222
5442.000000;1.956676
5441.000000;1.956819
5440.000000;1.957042
5439.000000;1.957698
5438.000000;1.958731
5437.000000;1.959745
5436.000000;1.960476
5435.000000;1.961095
5434.000000;1.961909
5433.000000;1.962881
5432.000000;1.963682
5431.000000;1.964155
5430.000000;1.964503
5429.000000;1.965083
5428.000000;1.966060
5427.000000;1.967262
5426.000000;1.968427
5425.000000;1.969572
5424.000000;1.970980
5423.000000;1.972793
5422.000000;1.974788
5421.000000;1.976672
5420.000000;1.978486
5419.000000;1.980494
5418.000000;1.982682
5417.000000;1.984616
5416.000000;1.986001
5415.000000;1.987106
5414.000000;1.988365
5413.000000;1.989773
5412.000000;1.991007
5411.000000;1.992019
5410.000000;1.993107
5409.000000;1.994508
5408.000000;1.996202
5407.000000;1.998091
5406.000000;2.000200
5405.000000;2.002580
5404.000000;2.005084
5403.000000;2.007435
5402.000000;2.009444
5401.000000;2.011043
5400.000000;2.012208
5399.000000;2.013053
5398.000000;2.013971
5397.000000;2.015506
5396.000000;2.018037
5395.000000;2.021540
5394.000000;2.025598
5393.000000;2.029658
5392.000000;2.033318
5391.000000;2.036435
5390.000000;2.039038
5389.000000;2.041182
5388.000000;2.042959
5387.000000;2.044602
5386.000000;2.046409
5385.000000;2.048635
5384.000000;2.051505
5383.000000;2.055176
5382.000000;2.059632
5381.000000;2.064586
5380.000000;2.069544
5379.000000;2.074122
5378.000000;2.078203
5377.000000;2.081788
5376.000000;2.084991
5375.000000;2.088239
5374.000000;2.092110
5373.000000;2.096765
5372.000000;2.101716
5371.000000;2.106310
5370.000000;2.110448
5369.000000;2.114760
5368.000000;2.120012
5367.000000;2.126303
5366.000000;2.132864
5365.000000;2.138710
5364.000000;2.143556
5363.000000;2.148125
5362.000000;2.153460
5361.000000;2.159907
5360.000000;2.166875
5359.000000;2.173577
5358.000000;2.179809
5357.000000;2.185958
5356.000000;2.192556
5355.000000;2.199911
5354.000000;2.207887
5353.000000;2.215950
5352.000000;2.223660
5351.000000;2.231185
5350.000000;2.239240
5349.000000;2.248388
5348.000000;2.258286
5347.000000;2.267863
5346.000000;2.276448
5345.000000;2.284539
5344.000000;2.293370
5343.000000;2.303769
5342.000000;2.315494
5341.000000;2.327512
5340.000000;2.338725
5339.000000;2.348720
5338.000000;2.358069
5337.000000;2.367696
5336.000000;2.377983
5335.000000;2.388730
5334.000000;2.399727
5333.000000;2.411007
5332.000000;2.422723
5331.000000;2.435098
5330.000000;2.448332
5329.000000;2.462172
5328.000000;2.475700
5327.000000;2.488059
5326.000000;2.499402
5325.000000;2.510635
5324.000000;2.522403
5323.000000;2.534875
5322.000000;2.548178
5321.000000;2.562296
5320.000000;2.576778
5319.000000;2.591298
5318.000000;2.606327
5317.000000;2.622398
5316.000000;2.638805
5315.000000;2.653990
5314.000000;2.667370
5313.000000;2.679790
5312.000000;2.692067
5311.000000;2.704088
5310.000000;2.715552
5309.000000;2.726639
5308.000000;2.737441
5307.000000;2.747612
5306.000000;2.757164
5305.000000;2.766907
5304.000000;2.777647
5303.000000;2.789702
5302.000000;2.803539
5301.000000;2.819948
5300.000000;2.838493
5299.000000;2.856062
5298.000000;2.868347
5297.000000;2.873658
5296.000000;2.874653
5295.000000;2.875890
5294.000000;2.880068
5293.000000;2.886566
5292.000000;2.893243
5291.000000;2.899088
5290.000000;2.904642
5289.000000;2.910352
5288.000000;2.915834
5287.000000;2.920887
5286.000000;2.926128
5285.000000;2.932135
5284.000000;2.938386
5283.000000;2.943351
5282.000000;2.945480
5281.000000;2.944436
5280.000000;2.942115
5279.000000;2.942202
5278.000000;2.947255
5277.000000;2.955408
5276.000000;2.960816
5275.000000;2.958973
5274.000000;2.951541
5273.000000;2.944624
5272.000000;2.943073
5271.000000;2.947387
5270.000000;2.954754
5269.000000;2.961782
5268.000000;2.966426
5267.000000;2.967988
5266.000000;2.966042
5265.000000;2.960498
5264.000000;2.953154
5263.000000;2.947790
5262.000000;2.947220
5261.000000;2.950713
5260.000000;2.955094
5259.000000;2.958184
5258.000000;2.960137
5257.000000;2.961676
5256.000000;2.963131
5255.000000;2.965438
5254.000000;2.969627
5253.000000;2.974077
5252.000000;2.974980
5251.000000;2.971546
5250.000000;2.968426
5249.000000;2.971156
5248.000000;2.980300
5247.000000;2.990661
5246.000000;2.995737
5245.000000;2.992552
5244.000000;2.983019
5243.000000;2.972015
5242.000000;2.963903
5241.000000;2.959745
5240.000000;2.957557
5239.000000;2.955663
5238.000000;2.955034
5237.000000;2.957186
5236.000000;2.961000
5235.000000;2.963488
5234.000000;2.963177
5233.000000;2.961069
5232.000000;2.958841
5231.000000;2.957946
5230.000000;2.959613
5229.000000;2.963454
5228.000000;2.966452
5227.000000;2.965575
5226.000000;2.961602
5225.000000;2.958520
5224.000000;2.959019
5223.000000;2.962314
5222.000000;2.966017
5221.000000;2.968012
5220.000000;2.966630
5219.000000;2.961478
5218.000000;2.954770
5217.000000;2.950157
5216.000000;2.949517
5215.000000;2.951671
5214.000000;2.954614
5213.000000;2.957895
5212.000000;2.961527
5211.000000;2.964294
5210.000000;2.965261
5209.000000;2.965633
5208.000000;2.967187
5207.000000;2.969407
5206.000000;2.969733
5205.000000;2.966655
5204.000000;2.961601
5203.000000;2.958046
5202.000000;2.959218
5201.000000;2.965395
5200.000000;2.972315
5199.000000;2.973663
5198.000000;2.967031
5197.000000;2.956593
5196.000000;2.948899
5195.000000;2.947575
5194.000000;2.952458
5193.000000;2.961155
5192.000000;2.969316
5191.000000;2.971312
5190.000000;2.964410
5189.000000;2.952415
5188.000000;2.942574
5187.000000;2.939043
5186.000000;2.940514
5185.000000;2.943248
5184.000000;2.945284
5183.000000;2.947752
5182.000000;2.953028
5181.000000;2.961973
5180.000000;2.972080
5179.000000;2.978487
5178.000000;2.978252
5177.000000;2.973364
5176.000000;2.968384
5175.000000;2.965709
5174.000000;2.964344
5173.000000;2.962955
5172.000000;2.961995
5171.000000;2.962152
5170.000000;2.962637
5169.000000;2.962191
5168.000000;2.961018
5167.000000;2.960454
5166.000000;2.960906
5165.000000;2.961312
5164.000000;2.960642
5163.000000;2.959133
5162.000000;2.957884
5161.000000;2.957686
5160.000000;2.958277
5159.000000;2.958396
5158.000000;2.956916
5157.000000;2.954363
5156.000000;2.952658
5155.000000;2.953327
5154.000000;2.956679
5153.000000;2.962411
5152.000000;2.969955
5151.000000;2.977573
5150.000000;2.982010
5149.000000;2.980854
5148.000000;2.974808
5147.000000;2.966765
5146.000000;2.959903
5145.000000;2.956406
5144.000000;2.956529
5143.000000;2.958279
5142.000000;2.958604
5141.000000;2.956056
5140.000000;2.952451
5139.000000;2.951236
5138.000000;2.954138
5137.000000;2.959668
5136.000000;2.964332
5135.000000;2.965032
5134.000000;2.961509
5133.000000;2.956927
5132.000000;2.955007
5131.000000;2.956395
5130.000000;2.958465
5129.000000;2.958795
5128.000000;2.958044
5127.000000;2.958541
5126.000000;2.961109
5125.000000;2.964583
5124.000000;2.967310
5123.000000;2.967460
5122.000000;2.963041
5121.000000;2.954234
5120.000000;2.945347
5119.000000;2.941856
5118.000000;2.945383
5117.000000;2.952601
5116.000000;2.958808
5115.000000;2.961545
5114.000000;2.960407
5113.000000;2.955607
5112.000000;2.948863
5111.000000;2.943854
5110.000000;2.943259
5109.000000;2.945794
5108.000000;2.947664
5107.000000;2.947107
5106.000000;2.946332
5105.000000;2.948527
5104.000000;2.954156
5103.000000;2.960693
5102.000000;2.965020
5101.000000;2.965470
5100.000000;2.962170
5099.000000;2.956584
5098.000000;2.950930
5097.000000;2.947422
5096.000000;2.947507
5095.000000;2.951047
5094.000000;2.955986
5093.000000;2.959657
5092.000000;2.961223
5091.000000;2.962435
5090.000000;2.965338
5089.000000;2.969820
5088.000000;2.973530
5087.000000;2.973874
5086.000000;2.970667
5085.000000;2.966188
5084.000000;2.962105
5083.000000;2.957864
5082.000000;2.952562
5081.000000;2.947246
5080.000000;2.944236
5079.000000;2.944438
5078.000000;2.946560
5077.000000;2.949106
5076.000000;2.951817
5075.000000;2.954410
5074.000000;2.955417
5073.000000;2.953997
5072.000000;2.951759
5071.000000;2.950650
5070.000000;2.949919
5069.000000;2.947453
5068.000000;2.943656
5067.000000;2.941430
5066.000000;2.942127
5065.000000;2.944102
5064.000000;2.945942
5063.000000;2.948719
5062.000000;2.953217
5061.000000;2.956671
5060.000000;2.955049
5059.000000;2.948426
5058.000000;2.941431
5057.000000;2.938255
5056.000000;2.938985
5055.000000;2.940591
5054.000000;2.940693
5053.000000;2.940205
5052.000000;2.941924
5051.000000;2.946639
5050.000000;2.951466
5049.000000;2.952783
5048.000000;2.950490
5047.000000;2.947948
5046.000000;2.947955
5045.000000;2.950406
5044.000000;2.953460
5043.000000;2.955040
5042.000000;2.953060
5041.000000;2.946888
5040.000000;2.939776
5039.000000;2.937292
5038.000000;2.941602
5037.000000;2.948498
5036.000000;2.951830
5035.000000;2.950441
5034.000000;2.948373
5033.000000;2.949153
5032.000000;2.952734
5031.000000;2.957280
5030.000000;2.961176
5029.000000;2.962824
5028.000000;2.960541
5027.000000;2.953928
5026.000000;2.944822
5025.000000;2.936235
5024.000000;2.930657
5023.000000;2.928811
5022.000000;2.929002
5021.000000;2.928698
5020.000000;2.927764
5019.000000;2.929096
5018.000000;2.934824
5017.000000;2.942052
5016.000000;2.943997
5015.000000;2.937083
5014.000000;2.925722
5013.000000;2.917967
5012.000000;2.917962
5011.000000;2.923598
5010.000000;2.929923
5009.000000;2.933649
5008.000000;2.934092
5007.000000;2.931302
5006.000000;2.925557
5005.000000;2.918785
5004.000000;2.914210
5003.000000;2.913265
5002.000000;2.914261
5001.000000;2.915082
5000.000000;2.915663
4999.000000;2.916816
4998.000000;2.917844
4997.000000;2.916848
4996.000000;2.913885
4995.000000;2.912118
4994.000000;2.914123
4993.000000;2.918562
4992.000000;2.921931
4991.000000;2.922093
4990.000000;2.918863
4989.000000;2.912852
4988.000000;2.905597
4987.000000;2.899852
4986.000000;2.897951
4985.000000;2.899910
4984.000000;2.903755
4983.000000;2.907283
4982.000000;2.909056
4981.000000;2.908392
4980.000000;2.905826
4979.000000;2.903487
4978.000000;2.903279
4977.000000;2.904722
4976.000000;2.905868
4975.000000;2.905763
4974.000000;2.904560
4973.000000;2.901883
4972.000000;2.897366
4971.000000;2.892143
4970.000000;2.887857
4969.000000;2.884988
4968.000000;2.883346
4967.000000;2.883451
4966.000000;2.885949
4965.000000;2.889503
4964.000000;2.890970
4963.000000;2.888595
4962.000000;2.884075
4961.000000;2.880814
4960.000000;2.880726
4959.000000;2.882650
4958.000000;2.883214
4957.000000;2.879870
4956.000000;2.873915
4955.000000;2.869725
4954.000000;2.870401
4953.000000;2.874460
4952.000000;2.877415
4951.000000;2.876732
4950.000000;2.874074
4949.000000;2.872613
4948.000000;2.873897
4947.000000;2.877421
4946.000000;2.881375
4945.000000;2.883394
4944.000000;2.882189
4943.000000;2.878541
4942.000000;2.874059
4941.000000;2.869763
4940.000000;2.866384
4939.000000;2.864872
4938.000000;2.865070
4937.000000;2.864577
4936.000000;2.861154
4935.000000;2.856097
4934.000000;2.852844
4933.000000;2.852491
4932.000000;2.853076
4931.000000;2.853102
4930.000000;2.853186
4929.000000;2.853520
4928.000000;2.852270
4927.000000;2.848352
4926.000000;2.844020
4925.000000;2.842428
4924.000000;2.843695
4923.000000;2.845033
4922.000000;2.844149
4921.000000;2.841279
4920.000000;2.838102
4919.000000;2.835814
4918.000000;2.834391
4917.000000;2.833229
4916.000000;2.832560
4915.000000;2.833910
4914.000000;2.837995
4913.000000;2.842209
4912.000000;2.841986
4911.000000;2.835780
4910.000000;2.827016
4909.000000;2.820033
4908.000000;2.816206
4907.000000;2.815016
4906.000000;2.816603
4905.000000;2.821055
4904.000000;2.826094
4903.000000;2.828053
4902.000000;2.825793
4901.000000;2.821911
4900.000000;2.819311
4899.000000;2.818143
4898.000000;2.816804
4897.000000;2.814669
4896.000000;2.812654
4895.000000;2.811466
4894.000000;2.810267
4893.000000;2.807478
4892.000000;2.802722
4891.000000;2.797430
4890.000000;2.793418
4889.000000;2.791388
4888.000000;2.790842
4887.000000;2.790746
4886.000000;2.789659
4885.000000;2.786009
4884.000000;2.779522
4883.000000;2.772181
4882.000000;2.766818
4881.000000;2.764866
4880.000000;2.765933
4879.000000;2.769074
4878.000000;2.773224
4877.000000;2.776369
4876.000000;2.776195
4875.000000;2.772606
4874.000000;2.768054
4873.000000;2.764412
4872.000000;2.761123
4871.000000;2.757228
4870.000000;2.753635
4869.000000;2.752053
4868.000000;2.752510
4867.000000;2.753363
4866.000000;2.753382
4865.000000;2.752639
4864.000000;2.751585
4863.000000;2.750525
4862.000000;2.749828
4861.000000;2.749361
4860.000000;2.748148
4859.000000;2.745653
4858.000000;2.742726
4857.000000;2.740365
4856.000000;2.738299
4855.000000;2.736031
4854.000000;2.734700
4853.000000;2.736031
4852.000000;2.739347
4851.000000;2.741331
4850.000000;2.739573
4849.000000;2.735263
4848.000000;2.731518
4847.000000;2.730078
4846.000000;2.730155
4845.000000;2.729695
4844.000000;2.727261
4843.000000;2.723045
4842.000000;2.718550
4841.000000;2.715139
4840.000000;2.712990
4839.000000;2.711668
4838.000000;2.711082
4837.000000;2.711273
4836.000000;2.711745
4835.000000;2.711922
4834.000000;2.712043
4833.000000;2.712404
4832.000000;2.711987
4831.000000;2.709381
4830.000000;2.705172
4829.000000;2.701770
4828.000000;2.700454
4827.000000;2.699993
4826.000000;2.698631
4825.000000;2.696137
4824.000000;2.693052
4823.000000;2.689256
4822.000000;2.684593
4821.000000;2.680143
4820.000000;2.677587
4819.000000;2.677439
4818.000000;2.678509
4817.000000;2.678900
4816.000000;2.677282
4815.000000;2.673751
4814.000000;2.670052
4813.000000;2.668346
4812.000000;2.668909
4811.000000;2.669344
4810.000000;2.666799
4809.000000;2.660885
4808.000000;2.653724
4807.000000;2.647717
4806.000000;2.644158
4805.000000;2.643254
4804.000000;2.644189
4803.000000;2.645303
4802.000000;2.645336
4801.000000;2.644675
4800.000000;2.644479
4799.000000;2.644579
4798.000000;2.643423
4797.000000;2.640359
4796.000000;2.636771
4795.000000;2.634381
4794.000000;2.633415
4793.000000;2.633148
4792.000000;2.633382
4791.000000;2.634368
4790.000000;2.635655
4789.000000;2.635995
4788.000000;2.634645
4787.000000;2.632081
4786.000000;2.629211
4785.000000;2.626662
4784.000000;2.624882
4783.000000;2.624229
4782.000000;2.624595
4781.000000;2.625089
4780.000000;2.624515
4779.000000;2.622427
4778.000000;2.619477
4777.000000;2.616646
4776.000000;2.614396
4775.000000;2.612432
4774.000000;2.609844
4773.000000;2.605734
4772.000000;2.600397
4771.000000;2.595886
4770.000000;2.594615
4769.000000;2.596814
4768.000000;2.599685
4767.000000;2.599892
4766.000000;2.597032
4765.000000;2.593539
4764.000000;2.591111
4763.000000;2.588732
4762.000000;2.584782
4761.000000;2.579884
4760.000000;2.576289
4759.000000;2.574945
4758.000000;2.574473
4757.000000;2.573096
4756.000000;2.570652
4755.000000;2.568253
4754.000000;2.566737
4753.000000;2.566179
4752.000000;2.566405
4751.000000;2.567143
4750.000000;2.567675
4749.000000;2.566890
4748.000000;2.563825
4747.000000;2.558394
4746.000000;2.551827
4745.000000;2.546153
4744.000000;2.542800
4743.000000;2.541625
4742.000000;2.541502
4741.000000;2.541736
4740.000000;2.542357
4739.000000;2.542942
4738.000000;2.542195
4737.000000;2.539507
4736.000000;2.536233
4735.000000;2.534397
4734.000000;2.534404
4733.000000;2.534808
4732.000000;2.534224
4731.000000;2.532519
4730.000000;2.529992
4729.000000;2.526516
4728.000000;2.522223
4727.000000;2.518355
4726.000000;2.516538
4725.000000;2.517171
4724.000000;2.518869
4723.000000;2.519502
4722.000000;2.517708
4721.000000;2.513691
4720.000000;2.508965
4719.000000;2.505323
4718.000000;2.503621
4717.000000;2.503264
4716.000000;2.502974
4715.000000;2.502057
4714.000000;2.500696
4713.000000;2.499034
4712.000000;2.496620
4711.000000;2.493276
4710.000000;2.489994
4709.000000;2.488067
4708.000000;2.487352
4707.000000;2.486249
4706.000000;2.483819
4705.000000;2.481370
4704.000000;2.481117
4703.000000;2.483435
4702.000000;2.486237
4701.000000;2.487134
4700.000000;2.485556
4699.000000;2.482679
4698.000000;2.479987
4697.000000;2.478261
4696.000000;2.477381
4695.000000;2.476435
4694.000000;2.474311
4693.000000;2.470779
4692.000000;2.466847
4691.000000;2.463786
4690.000000;2.462049
4689.000000;2.461337
4688.000000;2.461258
4687.000000;2.461241
4686.000000;2.460083
4685.000000;2.456646
4684.000000;2.451425
4683.000000;2.446800
4682.000000;2.445135
4681.000000;2.446670
4680.000000;2.449267
4679.000000;2.450121
4678.000000;2.447948
4677.000000;2.443904
4676.000000;2.440452
4675.000000;2.439175
4674.000000;2.439636
4673.000000;2.440333
4672.000000;2.440427
4671.000000;2.440025
4670.000000;2.438992
4669.000000;2.436613
4668.000000;2.432952
4667.000000;2.429619
4666.000000;2.428161
4665.000000;2.428031
4664.000000;2.427101
4663.000000;2.424334
4662.000000;2.421088
4661.000000;2.419366
4660.000000;2.419557
4659.000000;2.420459
4658.000000;2.420904
4657.000000;2.420695
4656.000000;2.420093
4655.000000;2.419133
4654.000000;2.417825
4653.000000;2.416556
4652.000000;2.415645
4651.000000;2.414593
4650.000000;2.412397
4649.000000;2.408900
4648.000000;2.405369
4647.000000;2.403286
4646.000000;2.402728
4645.000000;2.402396
4644.000000;2.401341
4643.000000;2.400106
4642.000000;2.399771
4641.000000;2.400276
4640.000000;2.400358
4639.000000;2.399019
4638.000000;2.396504
4637.000000;2.393771
4636.000000;2.391499
4635.000000;2.389902
4634.000000;2.389096
4633.000000;2.389136
4632.000000;2.389699
4631.000000;2.390055
4630.000000;2.389488
4629.000000;2.387734
4628.000000;2.385050
4627.000000;2.382023
4626.000000;2.379330
4625.000000;2.377500
4624.000000;2.376671
4623.000000;2.376467
4622.000000;2.376202
4621.000000;2.375438
4620.000000;2.374496
4619.000000;2.374257
4618.000000;2.375226
4617.000000;2.376720
4616.000000;2.377130
4615.000000;2.375198
4614.000000;2.371137
4613.000000;2.366528
4612.000000;2.363184
4611.000000;2.362009
4610.000000;2.362529
4609.000000;2.363251
4608.000000;2.362681
4607.000000;2.360457
4606.000000;2.357581
4605.000000;2.355406
4604.000000;2.354399
4603.000000;2.353941
4602.000000;2.353232
4601.000000;2.352126
4600.000000;2.350998
4599.000000;2.350189
4598.000000;2.349933
4597.000000;2.350554
4596.000000;2.352151
4595.000000;2.353955
4594.000000;2.354581
4593.000000;2.353389
4592.000000;2.351273
4591.000000;2.349573
4590.000000;2.348452
4589.000000;2.346968
4588.000000;2.344727
4587.000000;2.342703
4586.000000;2.342002
4585.000000;2.342290
4584.000000;2.342060
4583.000000;2.340429
4582.000000;2.338139
4581.000000;2.336602
4580.000000;2.336391
4579.000000;2.336941
4578.000000;2.337468
4577.000000;2.337801
4576.000000;2.338218
4575.000000;2.338758
4574.000000;2.339000
4573.000000;2.338557
4572.000000;2.337665
4571.000000;2.337061
4570.000000;2.337172
4569.000000;2.337572
4568.000000;2.337299
4567.000000;2.335754
4566.000000;2.333334
4565.000000;2.331204
4564.000000;2.330375
4563.000000;2.330844
4562.000000;2.331585
4561.000000;2.331534
4560.000000;2.330676
4559.000000;2.329993
4558.000000;2.330119
4557.000000;2.330270
4556.000000;2.329033
4555.000000;2.326198
4554.000000;2.323153
4553.000000;2.321336
4552.000000;2.320870
4551.000000;2.320841
4550.000000;2.320611
4549.000000;2.320400
4548.000000;2.320657
4547.000000;2.321453
4546.000000;2.322547
4545.000000;2.323608
4544.000000;2.324121
4543.000000;2.323428
4542.000000;2.321330
4541.000000;2.318556
4540.000000;2.316337
4539.000000;2.315509
4538.000000;2.315993
4537.000000;2.316835
4536.000000;2.316640
4535.000000;2.314375
4534.000000;2.310324
4533.000000;2.306223
4532.000000;2.303903
4531.000000;2.303705
4530.000000;2.304544
4529.000000;2.305440
4528.000000;2.306405
4527.000000;2.307610
4526.000000;2.308429
4525.000000;2.308044
4524.000000;2.306703
4523.000000;2.305699
4522.000000;2.306062
4521.000000;2.307727
4520.000000;2.309912
4519.000000;2.311732
4518.000000;2.312367
4517.000000;2.311317
4516.000000;2.308975
4515.000000;2.306759
4514.000000;2.306249
4513.000000;2.307952
4512.000000;2.310782
4511.000000;2.312764
4510.000000;2.312420
4509.000000;2.309817
4508.000000;2.306445
4507.000000;2.303961
4506.000000;2.302953
4505.000000;2.302859
4504.000000;2.302778
4503.000000;2.302117
4502.000000;2.300691
4501.000000;2.298766
4500.000000;2.297121
4499.000000;2.296548
4498.000000;2.297057
4497.000000;2.297874
4496.000000;2.298426
4495.000000;2.298870
4494.000000;2.299296
4493.000000;2.298971
4492.000000;2.297223
4491.000000;2.294917
4490.000000;2.294092
4489.000000;2.295891
4488.000000;2.299384
4487.000000;2.302609
4486.000000;2.304328
4485.000000;2.304350
4484.000000;2.302615
4483.000000;2.299078
4482.000000;2.294734
4481.000000;2.291780
4480.000000;2.291958
4479.000000;2.294837
4478.000000;2.298211
4477.000000;2.300321
4476.000000;2.301344
4475.000000;2.302508
4474.000000;2.304265
4473.000000;2.305833
4472.000000;2.306214
4471.000000;2.305187
4470.000000;2.303409
4469.000000;2.301969
4468.000000;2.301752
4467.000000;2.302683
4466.000000;2.303495
4465.000000;2.302755
4464.000000;2.300369
4463.000000;2.297807
4462.000000;2.296682
4461.000000;2.297390
4460.000000;2.299179
4459.000000;2.301238
4458.000000;2.303500
4457.000000;2.306494
4456.000000;2.310507
4455.000000;2.314727
4454.000000;2.317301
4453.000000;2.316778
4452.000000;2.313686
4451.000000;2.310280
4450.000000;2.308666
4449.000000;2.309465
4448.000000;2.312100
4447.000000;2.315675
4446.000000;2.319371
4445.000000;2.322635
4444.000000;2.325542
4443.000000;2.328593
4442.000000;2.331564
4441.000000;2.332963
4440.000000;2.331484
4439.000000;2.327985
4438.000000;2.325107
4437.000000;2.324716
4436.000000;2.326260
4435.000000;2.327776
4434.000000;2.328109
4433.000000;2.327827
4432.000000;2.328223
4431.000000;2.329920
4430.000000;2.332606
4429.000000;2.335727
4428.000000;2.338893
4427.000000;2.341507
4426.000000;2.342571
4425.000000;2.341627
4424.000000;2.339894
4423.000000;2.339785
4422.000000;2.342948
4421.000000;2.348994
4420.000000;2.356070
4419.000000;2.362124
4418.000000;2.365494
4417.000000;2.365301
4416.000000;2.362337
4415.000000;2.359111
4414.000000;2.357883
4413.000000;2.358706
4412.000000;2.360089
4411.000000;2.361386
4410.000000;2.363544
4409.000000;2.367261
4408.000000;2.371569
4407.000000;2.375089
4406.000000;2.377996
4405.000000;2.381545
4404.000000;2.385971
4403.000000;2.390037
4402.000000;2.392791
4401.000000;2.394672
4400.000000;2.396118
4399.000000;2.396286
4398.000000;2.394276
4397.000000;2.390729
4396.000000;2.387623
4395.000000;2.386946
4394.000000;2.389444
4393.000000;2.394370
4392.000000;2.400043
4391.000000;2.404543
4390.000000;2.406731
4389.000000;2.407081
4388.000000;2.407088
4387.000000;2.407844
4386.000000;2.409753
4385.000000;2.413391
4384.000000;2.419377
4383.000000;2.426842
4382.000000;2.433170
4381.000000;2.436583
4380.000000;2.438198
4379.000000;2.439834
4378.000000;2.440584
4377.000000;2.438053
4376.000000;2.432849
4375.000000;2.429179
4374.000000;2.430153
4373.000000;2.434183
4372.000000;2.436950
4371.000000;2.436293
4370.000000;2.434025
4369.000000;2.433418
4368.000000;2.436472
4367.000000;2.442909
4366.000000;2.450199
4365.000000;2.454958
4364.000000;2.456062
4363.000000;2.456050
4362.000000;2.458118
4361.000000;2.462252
4360.000000;2.465105
4359.000000;2.463801
4358.000000;2.459246
4357.000000;2.455362
4356.000000;2.455717
4355.000000;2.460678
4354.000000;2.466860
4353.000000;2.469804
4352.000000;2.468343
4351.000000;2.465687
4350.000000;2.465203
4349.000000;2.466407
4348.000000;2.466581
4347.000000;2.465546
4346.000000;2.466372
4345.000000;2.470847
4344.000000;2.476438
4343.000000;2.479008
4342.000000;2.477589
4341.000000;2.474947
4340.000000;2.474085
4339.000000;2.475802
4338.000000;2.479266
4337.000000;2.483592
4336.000000;2.488377
4335.000000;2.493229
4334.000000;2.497350
4333.000000;2.499521
4332.000000;2.498712
4331.000000;2.495099
4330.000000;2.490118
4329.000000;2.485458
4328.000000;2.482681
4327.000000;2.483414
4326.000000;2.488504
4325.000000;2.496085
4324.000000;2.500920
4323.000000;2.497627
4322.000000;2.486067
4321.000000;2.472438
4320.000000;2.464365
4319.000000;2.465659
4318.000000;2.474469
4317.000000;2.484999
4316.000000;2.492038
4315.000000;2.495208
4314.000000;2.498581
4313.000000;2.505924
4312.000000;2.517026
4311.000000;2.528435
4310.000000;2.536371
4309.000000;2.539019
4308.000000;2.537119
4307.000000;2.532416
4306.000000;2.526028
4305.000000;2.518902
4304.000000;2.513328
4303.000000;2.512516
4302.000000;2.517605
4301.000000;2.525522
4300.000000;2.530749
4299.000000;2.529882
4298.000000;2.524422
4297.000000;2.518675
4296.000000;2.516134
4295.000000;2.518053
4294.000000;2.522710
4293.000000;2.525694
4292.000000;2.523813
4291.000000;2.519146
4290.000000;2.516859
4289.000000;2.519086
4288.000000;2.522866
4287.000000;2.524244
4286.000000;2.522600
4285.000000;2.520082
4284.000000;2.519095
4283.000000;2.521855
4282.000000;2.530002
4281.000000;2.541752
4280.000000;2.550496
4279.000000;2.549975
4278.000000;2.541370
4277.000000;2.531958
4276.000000;2.527525
4275.000000;2.528751
4274.000000;2.533181
4273.000000;2.538134
4272.000000;2.542039
4271.000000;2.545184
4270.000000;2.549421
4269.000000;2.555191
4268.000000;2.559385
4267.000000;2.558855
4266.000000;2.556130
4265.000000;2.558189
4264.000000;2.567726
4263.000000;2.578551
4262.000000;2.582433
4261.000000;2.578875
4260.000000;2.573847
4259.000000;2.570864
4258.000000;2.568907
4257.000000;2.567623
4256.000000;2.569086
4255.000000;2.574004
4254.000000;2.580000
4253.000000;2.585385
4252.000000;2.592046
4251.000000;2.601689
4250.000000;2.610580
4249.000000;2.612972
4248.000000;2.609061
4247.000000;2.604651
4246.000000;2.602668
4245.000000;2.600068
4244.000000;2.594131
4243.000000;2.588527
4242.000000;2.590684
4241.000000;2.604493
4240.000000;2.627161
4239.000000;2.651457
4238.000000;2.668350
4237.000000;2.670664
4236.000000;2.659868
4235.000000;2.646526
4234.000000;2.640686
4233.000000;2.643404
4232.000000;2.647900
4231.000000;2.649941
4230.000000;2.651784
4229.000000;2.652193
4228.000000;2.644485
4227.000000;2.627563
4226.000000;2.611050
4225.000000;2.606894
4224.000000;2.618270
4223.000000;2.637029
4222.000000;2.649521
4221.000000;2.648783
4220.000000;2.640443
4219.000000;2.632928
4218.000000;2.629626
4217.000000;2.629511
4216.000000;2.629859
4215.000000;2.628887
4214.000000;2.627503
4213.000000;2.628093
4212.000000;2.631165
4211.000000;2.634557
4210.000000;2.637252
4209.000000;2.641823
4208.000000;2.650125
4207.000000;2.657641
4206.000000;2.656787
4205.000000;2.649156
4204.000000;2.645896
4203.000000;2.654068
4202.000000;2.669875
4201.000000;2.680325
4200.000000;2.673505
4199.000000;2.653594
4198.000000;2.635546
4197.000000;2.629375
4196.000000;2.635438
4195.000000;2.646816
4194.000000;2.654406
4193.000000;2.652984
4192.000000;2.644332
4191.000000;2.634663
4190.000000;2.629735
4189.000000;2.633557
4188.000000;2.648085
4187.000000;2.669675
4186.000000;2.686541
4185.000000;2.685501
4184.000000;2.665426
4183.000000;2.639785
4182.000000;2.623966
4181.000000;2.624327
4180.000000;2.637183
4179.000000;2.652173
4178.000000;2.657701
4177.000000;2.650235
4176.000000;2.638553
4175.000000;2.634623
4174.000000;2.642365
4173.000000;2.655185
4172.000000;2.662093
4171.000000;2.656821
4170.000000;2.643743
4169.000000;2.633899
4168.000000;2.636104
4167.000000;2.656842
4166.000000;2.695781
4165.000000;2.733042
4164.000000;2.739037
4163.000000;2.715095
4162.000000;2.690957
4161.000000;2.680233
4160.000000;2.673085
4159.000000;2.662745
4158.000000;2.657577
4157.000000;2.661197
4156.000000;2.666156
4155.000000;2.666841
4154.000000;2.658994
4153.000000;2.636652
4152.000000;2.607001
4151.000000;2.591179
4150.000000;2.603516
4149.000000;2.635070
4148.000000;2.653947
4147.000000;2.638263
4146.000000;2.606676
4145.000000;2.591893
4144.000000;2.606862
4143.000000;2.640246
4142.000000;2.665821
4141.000000;2.665737
4140.000000;2.646908
4139.000000;2.612730
4138.000000;2.562018
4137.000000;2.518109
4136.000000;2.506240
4135.000000;2.531563
4134.000000;2.581857
4133.000000;2.631274
4132.000000;2.652516
4131.000000;2.640896
4130.000000;2.621495
4129.000000;2.618105
4128.000000;2.628974
4127.000000;2.642635
4126.000000;2.662712
4125.000000;2.701112
4124.000000;2.751484
4123.000000;2.784737
4122.000000;2.769136
4121.000000;2.709682
4120.000000;2.649861
4119.000000;2.619277
4118.000000;2.620797
4117.000000;2.639893
4116.000000;2.655523
4115.000000;2.655100
4114.000000;2.640743
4113.000000;2.626102
4112.000000;2.616288
4111.000000;2.598483
4110.000000;2.568455
4109.000000;2.544700
4108.000000;2.542892
4107.000000;2.559437
4106.000000;2.582660
4105.000000;2.609130
4104.000000;2.637326
4103.000000;2.654763
4102.000000;2.657809
4101.000000;2.651417
4100.000000;2.632509
4099.000000;2.617950
4098.000000;2.622470
4097.000000;2.629369
4096.000000;2.619944
4095.000000;2.589913
4094.000000;2.552446
4093.000000;2.536453
4092.000000;2.552057
4091.000000;2.567683
4090.000000;2.551261
4089.000000;2.515319
4088.000000;2.488237
4087.000000;2.486179
4086.000000;2.507228
4085.000000;2.545157
4084.000000;2.602759
4083.000000;2.676782
4082.000000;2.736197
4081.000000;2.752635
4080.000000;2.734965
4079.000000;2.701243
4078.000000;2.659400
4077.000000;2.608430
4076.000000;2.557617
4075.000000;2.522585
4074.000000;2.501162
4073.000000;2.473692
4072.000000;2.437540
4071.000000;2.419011
4070.000000;2.437304
4069.000000;2.478201
4068.000000;2.513004
4067.000000;2.543247
4066.000000;2.557734
4065.000000;2.528076
4064.000000;2.496427
4063.000000;2.503012
4062.000000;2.538317
4061.000000;2.577132
4060.000000;2.610848
4059.000000;2.647005
4058.000000;2.691170
4057.000000;2.732814
4056.000000;2.721591
4055.000000;2.657165
4054.000000;2.606850
4053.000000;2.561353
4052.000000;2.483001
4051.000000;2.400342
4050.000000;2.355039
4049.000000;2.359124
4048.000000;2.407860
4047.000000;2.483070
4046.000000;2.554256
4045.000000;2.609927
4044.000000;2.659680
4043.000000;2.683730
4042.000000;2.678373
4041.000000;2.668580
4040.000000;2.640450
4039.000000;2.586727
4038.000000;2.523139
4037.000000;2.462109
4036.000000;2.419706
4035.000000;2.407002
4034.000000;2.418622
4033.000000;2.433975
4032.000000;2.433865
4031.000000;2.418065
4030.000000;2.404016
4029.000000;2.412568
4028.000000;2.451410
4027.000000;2.505175
4026.000000;2.558196
4025.000000;2.617089
4024.000000;2.705305
4023.000000;2.830429
4022.000000;2.845412
4021.000000;2.742202
4020.000000;2.666829
4019.000000;2.629939
4018.000000;2.640123
4017.000000;2.684068
4016.000000;2.723187
4015.000000;2.688274
4014.000000;2.571956
4013.000000;2.488083
4012.000000;2.489483
4011.000000;2.557379
4010.000000;2.640338
4009.000000;2.658580
4008.000000;2.595429
4007.000000;2.545171
4006.000000;2.552294
4005.000000;2.606189
4004.000000;2.657654
4003.000000;2.628813
4002.000000;2.550867
4001.000000;2.505191
4000.000000;2.500688
3999.000000;2.534965
3998.000000;2.621457
3997.000000;2.676161
3996.000000;2.607807
3995.000000;2.522144
3994.000000;2.494547
3993.000000;2.550492
3992.000000;2.660938
3991.000000;2.666307
3990.000000;2.597077
3989.000000;2.601146
3988.000000;2.733675
3987.000000;2.964185
3986.000000;2.888342
3985.000000;2.756111
3984.000000;2.717134
3983.000000;2.637956
3982.000000;2.553236
3981.000000;2.535700
3980.000000;2.591004
3979.000000;2.692430
3978.000000;2.823446
3977.000000;3.020281
3976.000000;3.270222
3975.000000;3.307438
3974.000000;3.058147
3973.000000;2.849397
3972.000000;2.810981
3971.000000;2.900690
3970.000000;2.991596
3969.000000;3.124178
3968.000000;3.540838
3967.000000;3.355127
3966.000000;3.012566
3965.000000;2.840118
3964.000000;2.653864
3963.000000;2.519141
3962.000000;2.472158
3961.000000;2.520842
3960.000000;2.643317
3959.000000;2.782879
3958.000000;2.908382
3957.000000;2.972792
3956.000000;2.875975
3955.000000;2.744567
3954.000000;2.698778
3953.000000;2.748298
3952.000000;2.857244
3951.000000;2.873909
3950.000000;2.713497
3949.000000;2.589217
3948.000000;2.587463
3947.000000;2.688925
3946.000000;2.769471
3945.000000;2.689343
3944.000000;2.594335
3943.000000;2.597769
3942.000000;2.701355
3941.000000;2.877872
3940.000000;3.071503
3939.000000;3.248222
3938.000000;3.380317
3937.000000;3.556324
3936.000000;3.745622
3935.000000;3.623065
3934.000000;3.239137
3933.000000;3.117543
3932.000000;3.577233
3931.000000;3.100656
3930.000000;2.736668
3929.000000;2.685306
3928.000000;2.748255
3927.000000;2.712625
3926.000000;2.624751
3925.000000;2.632786
3924.000000;2.689411
3923.000000;2.747652
3922.000000;2.804518
3921.000000;2.889630
3920.000000;3.067553
3919.000000;3.557552
3918.000000;3.547514
3917.000000;3.011570
3916.000000;2.856333
3915.000000;2.854779
3914.000000;2.905151
3913.000000;2.883749
3912.000000;2.821733
3911.000000;2.857291
3910.000000;2.983087
3909.000000;3.007505
3908.000000;2.973055
3907.000000;3.018181
3906.000000;3.129179
3905.000000;3.236305
3904.000000;3.325224
3903.000000;3.501640
3902.000000;3.547964
3901.000000;3.337767
3900.000000;3.281757
3899.000000;3.229164
3898.000000;3.231075
3897.000000;3.505670
3896.000000;3.259788
3895.000000;2.994696
3894.000000;2.951356
3893.000000;2.979452
3892.000000;2.973871
3891.000000;2.924651
3890.000000;2.969175
3889.000000;2.988877
3888.000000;2.828287
3887.000000;2.719195
3886.000000;2.760922
3885.000000;2.882994
3884.000000;3.044053
3883.000000;3.261158
3882.000000;3.269934
3881.000000;2.996190
3880.000000;2.900319
3879.000000;3.007878
3878.000000;2.984213
3877.000000;2.777065
3876.000000;2.678311
3875.000000;2.913033
3874.000000;3.528889
3873.000000;3.446019
3872.000000;3.309015
3871.000000;2.977505
3870.000000;2.837258
3869.000000;2.891558
3868.000000;3.019266
3867.000000;3.023879
3866.000000;2.894899
3865.000000;2.840402
3864.000000;2.801259
3863.000000;2.761480
3862.000000;2.696948
3861.000000;2.629747
3860.000000;2.519127
3859.000000;2.492657
3858.000000;2.462661
3857.000000;2.863671
3856.000000;3.680514
3855.000000;3.234380
3854.000000;3.449103
3853.000000;3.343816
3852.000000;3.320883
3851.000000;3.242141
3850.000000;3.222079
3849.000000;3.333842
3848.000000;3.593922
3847.000000;3.222951
3846.000000;2.961263
3845.000000;2.892979
3844.000000;2.928906
3843.000000;3.215088
3842.000000;3.479908
3841.000000;3.051502
3840.000000;2.899476
3839.000000;2.899418
3838.000000;2.989500
3837.000000;3.199559
3836.000000;3.489066
3835.000000;3.701316
3834.000000;3.203219
3833.000000;3.004071
3832.000000;2.678934
3831.000000;2.532733
3830.000000;2.518920
3829.000000;2.487131
3828.000000;2.580097
3827.000000;2.833949
3826.000000;2.832441
3825.000000;2.767431
3824.000000;2.695186
3823.000000;2.961518
3822.000000;3.481749
3821.000000;3.096058
3820.000000;2.985155
3819.000000;2.922794
3818.000000;2.979854
3817.000000;2.987177
3816.000000;2.934057
3815.000000;2.931130
3814.000000;2.990558
3813.000000;3.067076
3812.000000;3.159522
3811.000000;3.276219
3810.000000;3.259043
3809.000000;3.110888
3808.000000;3.033598
3807.000000;3.165935
3806.000000;3.572330
3805.000000;3.396632
3804.000000;3.140109
3803.000000;3.075856
3802.000000;3.162737
3801.000000;3.465016
3800.000000;3.308066
3799.000000;3.119063
3798.000000;3.150099
3797.000000;3.053831
3796.000000;2.939711
3795.000000;2.918440
3794.000000;2.920761
3793.000000;2.881601
3792.000000;2.788123
3791.000000;2.730872
3790.000000;2.771725
3789.000000;3.016009
3788.000000;3.564620
3787.000000;3.691729
3786.000000;3.771768
3785.000000;3.683009
3784.000000;3.244580
3783.000000;3.049612
3782.000000;3.028540
3781.000000;3.228394
3780.000000;3.549375
3779.000000;3.589973
3778.000000;3.472951
3777.000000;3.468220
3776.000000;3.476131
3775.000000;3.541502
3774.000000;3.655206
3773.000000;3.250830
3772.000000;2.972714
3771.000000;2.874740
3770.000000;2.877293
3769.000000;3.002471
3768.000000;3.144200
3767.000000;3.277232
3766.000000;3.262661
3765.000000;3.031732
3764.000000;2.891059
3763.000000;2.871813
3762.000000;2.961900
3761.000000;3.091830
3760.000000;3.117359
3759.000000;3.100985
3758.000000;3.210990
3757.000000;3.236554
3756.000000;3.077790
3755.000000;3.058277
3754.000000;3.129149
3753.000000;3.322271
3752.000000;3.484693
3751.000000;3.340666
3750.000000;3.704807
3749.000000;3.377732
3748.000000;2.939656
3747.000000;2.881580
3746.000000;2.968058
3745.000000;3.690233
3744.000000;3.069784
3743.000000;2.672658
3742.000000;2.719040
3741.000000;2.891622
3740.000000;3.079141
3739.000000;3.037357
3738.000000;2.939629
3737.000000;2.889072
3736.000000;2.895838
3735.000000;2.933085
3734.000000;2.943099
3733.000000;3.126541
3732.000000;3.243608
3731.000000;2.968686
3730.000000;2.856206
3729.000000;2.875444
3728.000000;3.294305
3727.000000;3.487652
3726.000000;3.048138
3725.000000;3.102011
3724.000000;3.416183
3723.000000;3.574876
3722.000000;3.366114
3721.000000;3.361352
3720.000000;3.000457
3719.000000;2.669950
3718.000000;2.566757
3717.000000;2.611091
3716.000000;2.853890
3715.000000;3.367333
3714.000000;3.139930
3713.000000;2.929908
3712.000000;2.954325
3711.000000;3.009791
3710.000000;3.077385
3709.000000;3.048578
3708.000000;3.002374
3707.000000;2.983119
3706.000000;2.970732
3705.000000;2.923054
3704.000000;2.882960
3703.000000;2.888094
3702.000000;2.986817
3701.000000;3.318364
3700.000000;3.350468
3699.000000;2.976886
3698.000000;2.945471
3697.000000;3.135746
3696.000000;3.381864
3695.000000;3.018008
3694.000000;2.949033
3693.000000;3.464026
3692.000000;3.430969
3691.000000;3.377672
3690.000000;2.907455
3689.000000;2.665727
3688.000000;2.686753
3687.000000;2.669277
3686.000000;2.636176
3685.000000;2.647034
3684.000000;2.760454
3683.000000;2.897195
3682.000000;2.781620
3681.000000;2.607875
3680.000000;2.519838
3679.000000;2.503398
3678.000000;2.512845
3677.000000;2.523036
3676.000000;2.504589
3675.000000;2.620217
3674.000000;3.175072
3673.000000;3.188707
3672.000000;2.942224
3671.000000;3.096645
3670.000000;3.219906
3669.000000;3.238564
3668.000000;3.142177
3667.000000;3.101244
3666.000000;3.045917
3665.000000;3.105123
3664.000000;3.417872
3663.000000;3.693119
3662.000000;4.103241
3661.000000;3.456649
3660.000000;3.042607
3659.000000;2.869710
3658.000000;2.783662
3657.000000;2.842114
3656.000000;3.113081
3655.000000;3.229724
3654.000000;2.935036
3653.000000;2.718926
3652.000000;2.967696
3651.000000;3.575484
3650.000000;2.976288
3649.000000;2.892622
3648.000000;2.895558
3647.000000;2.963621
3646.000000;3.145751
3645.000000;3.306912
3644.000000;3.204590
3643.000000;3.068934
3642.000000;3.146558
3641.000000;3.273348
3640.000000;3.223144
3639.000000;3.109995
3638.000000;3.184095
3637.000000;3.362317
3636.000000;3.445440
3635.000000;3.416250
3634.000000;3.158969
3633.000000;3.053187
3632.000000;3.033145
3631.000000;2.960496
3630.000000;2.893405
3629.000000;2.844128
3628.000000;2.789656
3627.000000;2.732250
3626.000000;2.691561
3625.000000;2.714580
3624.000000;2.832407
3623.000000;2.991537
3622.000000;3.093209
3621.000000;3.067929
3620.000000;3.051063
3619.000000;2.884999
3618.000000;2.727964
3617.000000;2.764016
3616.000000;2.983431
3615.000000;3.552370
3614.000000;3.623607
3613.000000;3.226727
3612.000000;3.126462
3611.000000;3.091162
3610.000000;3.010071
3609.000000;2.835514
3608.000000;2.701565
3607.000000;2.683576
3606.000000;2.808851
3605.000000;3.058018
3604.000000;3.466152
3603.000000;3.534497
3602.000000;3.082191
3601.000000;2.967264
3600.000000;3.006647
3599.000000;3.021307
3598.000000;3.027254
3597.000000;3.090602
3596.000000;3.177802
3595.000000;3.130506
3594.000000;2.989653
3593.000000;2.921119
3592.000000;2.933114
3591.000000;2.970111
3590.000000;3.000476
3589.000000;3.041404
3588.000000;3.080564
3587.000000;2.966812
3586.000000;2.869633
3585.000000;2.946286
3584.000000;3.262855
3583.000000;3.880424
3582.000000;3.825603
3581.000000;3.589266
3580.000000;3.394808
3579.000000;3.206675
3578.000000;3.060379
3577.000000;3.002493
3576.000000;3.001831
3575.000000;2.946429
3574.000000;2.891090
3573.000000;2.909716
3572.000000;2.978607
3571.000000;3.001897
3570.000000;3.067636
3569.000000;3.295013
3568.000000;3.044618
3567.000000;2.741782
3566.000000;2.672082
3565.000000;2.732091
3564.000000;2.899219
3563.000000;3.258615
3562.000000;3.759615
3561.000000;3.385190
3560.000000;3.146451
3559.000000;3.043392
3558.000000;2.953028
3557.000000;2.893009
3556.000000;2.816967
3555.000000;2.736224
3554.000000;2.723134
3553.000000;2.853032
3552.000000;3.209116
3551.000000;3.321542
3550.000000;3.025536
3549.000000;2.951552
3548.000000;2.976074
3547.000000;3.118612
3546.000000;3.570834
3545.000000;3.435327
3544.000000;3.131473
3543.000000;3.113955
3542.000000;3.335404
3541.000000;3.609518
3540.000000;3.100139
3539.000000;2.905940
3538.000000;2.935670
3537.000000;3.088169
3536.000000;3.749764
3535.000000;3.233020
3534.000000;2.691137
3533.000000;2.525694
3532.000000;2.526301
3531.000000;2.712520
3530.000000;3.226816
3529.000000;3.188795
3528.000000;2.915560
3527.000000;2.909012
3526.000000;3.156093
3525.000000;3.586065
3524.000000;3.018219
3523.000000;2.794217
3522.000000;2.762863
3521.000000;2.861149
3520.000000;3.060349
3519.000000;3.076809
3518.000000;2.947398
3517.000000;2.883477
3516.000000;2.893052
3515.000000;2.889184
3514.000000;2.847707
3513.000000;2.854784
3512.000000;2.908547
3511.000000;2.985261
3510.000000;3.092537
3509.000000;3.221668
3508.000000;3.209349
3507.000000;3.202701
3506.000000;3.625984
3505.000000;3.496484
3504.000000;3.198778
3503.000000;3.253902
3502.000000;3.350546
3501.000000;3.278270
3500.000000;3.118484
3499.000000;3.130464
3498.000000;3.215960
3497.000000;3.042670
3496.000000;3.024895
3495.000000;3.397267
3494.000000;3.448135
3493.000000;3.076350
3492.000000;3.065457
3491.000000;3.078781
3490.000000;3.041481
3489.000000;3.120692
3488.000000;3.374084
3487.000000;3.756726
3486.000000;3.463020
3485.000000;3.170117
3484.000000;3.096880
3483.000000;3.069627
3482.000000;3.068753
3481.000000;3.132320
3480.000000;3.229742
3479.000000;3.400202
3478.000000;3.426040
3477.000000;3.145021
3476.000000;3.070264
3475.000000;3.387033
3474.000000;3.415635
3473.000000;3.064528
3472.000000;2.994073
3471.000000;3.047527
3470.000000;3.133165
3469.000000;3.257387
3468.000000;3.618043
3467.000000;3.725955
3466.000000;3.241448
3465.000000;3.236375
3464.000000;3.507744
3463.000000;3.477684
3462.000000;3.248282
3461.000000;3.068264
3460.000000;2.905283
3459.000000;2.841232
3458.000000;2.861227
3457.000000;2.946361
3456.000000;3.124204
3455.000000;3.346485
3454.000000;3.275709
3453.000000;3.145376
3452.000000;3.222944
3451.000000;3.620827
3450.000000;3.952867
3449.000000;3.616679
3448.000000;3.434979
3447.000000;3.257673
3446.000000;3.145089
3445.000000;3.191786
3444.000000;3.225845
3443.000000;3.087050
3442.000000;3.053987
3441.000000;3.193400
3440.000000;3.317955
3439.000000;3.083710
3438.000000;2.915228
3437.000000;2.917659
3436.000000;3.096211
3435.000000;3.521879
3434.000000;4.301298
3433.000000;4.158831
3432.000000;3.629306
3431.000000;3.310779
3430.000000;3.107208
3429.000000;2.988209
3428.000000;2.952817
3427.000000;2.970450
3426.000000;2.998682
3425.000000;3.060701
3424.000000;3.229331
3423.000000;3.688128
3422.000000;3.786387
3421.000000;3.324725
3420.000000;3.144168
3419.000000;3.100649
3418.000000;3.135700
3417.000000;3.263675
3416.000000;3.548262
3415.000000;3.568532
3414.000000;3.392602
3413.000000;3.306985
3412.000000;3.119383
3411.000000;2.945987
3410.000000;2.871923
3409.000000;2.913670
3408.000000;3.107664
3407.000000;3.355840
3406.000000;3.245440
3405.000000;3.075045
3404.000000;3.000720
3403.000000;2.995789
3402.000000;3.002320
3401.000000;2.947613
3400.000000;2.840374
3399.000000;2.768201
3398.000000;2.790224
3397.000000;2.992005
3396.000000;3.589250
3395.000000;3.131209
3394.000000;2.909390
3393.000000;2.916920
3392.000000;2.970534
3391.000000;3.086829
3390.000000;3.279794
3389.000000;3.298047
3388.000000;3.126770
3387.000000;3.066247
3386.000000;3.129654
3385.000000;3.308017
3384.000000;3.582280
3383.000000;3.895126
3382.000000;3.826243
3381.000000;3.507283
3380.000000;3.300083
3379.000000;3.216094
3378.000000;3.195934
3377.000000;3.162284
3376.000000;3.095529
3375.000000;3.033488
3374.000000;3.026937
3373.000000;3.096662
3372.000000;3.228446
3371.000000;3.600709
3370.000000;3.602965
3369.000000;3.330654
3368.000000;3.258004
3367.000000;3.140732
3366.000000;3.015920
3365.000000;2.923373
3364.000000;2.877971
3363.000000;2.889880
3362.000000;2.919974
3361.000000;2.950121
3360.000000;3.018009
3359.000000;3.272288
3358.000000;3.711908
3357.000000;3.280202
3356.000000;3.215546
3355.000000;3.428201
3354.000000;4.003147
3353.000000;4.024552
3352.000000;3.654141
3351.000000;3.351323
3350.000000;3.176672
3349.000000;3.177817
3348.000000;3.289810
3347.000000;3.411167
3346.000000;3.353013
3345.000000;3.211715
3344.000000;3.165636
3343.000000;3.388945
3342.000000;3.511540
3341.000000;3.158616
3340.000000;3.067423
3339.000000;3.217847
3338.000000;3.734518
3337.000000;3.263808
3336.000000;3.044338
3335.000000;3.000337
3334.000000;2.971724
3333.000000;2.896079
3332.000000;2.819545
3331.000000;2.804645
3330.000000;2.868403
3329.000000;2.990918
3328.000000;3.172713
3327.000000;3.418630
3326.000000;3.238460
3325.000000;2.957379
3324.000000;2.854935
3323.000000;2.865110
3322.000000;2.964007
3321.000000;3.350871
3320.000000;3.573655
3319.000000;3.162031
3318.000000;3.121147
3317.000000;3.527195
3316.000000;3.579077
3315.000000;3.294458
3314.000000;3.165525
3313.000000;2.998894
3312.000000;2.900829
3311.000000;2.875776
3310.000000;2.909701
3309.000000;3.012706
3308.000000;3.200302
3307.000000;3.345205
3306.000000;3.242679
3305.000000;3.119662
3304.000000;3.043174
3303.000000;3.030034
3302.000000;3.105948
3301.000000;3.346862
3300.000000;3.614265
3299.000000;3.373650
3298.000000;3.224591
3297.000000;3.242446
3296.000000;3.432357
3295.000000;3.435885
3294.000000;3.323584
3293.000000;3.508613
3292.000000;3.349363
3291.000000;3.131786
3290.000000;3.123259
3289.000000;3.203226
3288.000000;3.250182
3287.000000;3.161340
3286.000000;3.005591
3285.000000;2.862918
3284.000000;2.777803
3283.000000;2.769990
3282.000000;2.824818
3281.000000;2.888025
3280.000000;2.965368
3279.000000;3.093260
3278.000000;3.061830
3277.000000;2.952455
3276.000000;2.985774
3275.000000;3.169089
3274.000000;3.361726
3273.000000;3.549415
3272.000000;3.931408
3271.000000;3.571057
3270.000000;3.395520
3269.000000;3.370280
3268.000000;3.312689
3267.000000;3.210513
3266.000000;3.035555
3265.000000;2.889769
3264.000000;2.853997
3263.000000;2.938555
3262.000000;3.268071
3261.000000;3.267763
3260.000000;2.937922
3259.000000;2.787275
3258.000000;2.786344
3257.000000;2.974377
3256.000000;3.797719
3255.000000;3.007155
3254.000000;2.858722
3253.000000;2.899092
3252.000000;3.017316
3251.000000;3.072504
3250.000000;3.059360
3249.000000;3.113753
3248.000000;3.336657
3247.000000;3.383659
3246.000000;3.161599
3245.000000;3.108802
3244.000000;3.143708
3243.000000;3.159665
3242.000000;3.058496
3241.000000;2.973104
3240.000000;2.950275
3239.000000;2.922882
3238.000000;2.886424
3237.000000;2.902555
3236.000000;3.087661
3235.000000;3.104485
3234.000000;2.887181
3233.000000;2.839693
3232.000000;2.937824
3231.000000;3.097372
3230.000000;3.164958
3229.000000;3.070689
3228.000000;2.961285
3227.000000;2.920050
3226.000000;2.956749
3225.000000;3.052677
3224.000000;3.142627
3223.000000;3.088226
3222.000000;2.990596
3221.000000;2.999929
3220.000000;3.059784
3219.000000;3.099258
3218.000000;3.391038
3217.000000;3.534130
3216.000000;3.151630
3215.000000;3.065049
3214.000000;3.094158
3213.000000;3.203682
3212.000000;3.285687
3211.000000;3.165051
3210.000000;2.950839
3209.000000;2.899742
3208.000000;3.059589
3207.000000;3.632350
3206.000000;3.023387
3205.000000;2.801104
3204.000000;2.814403
3203.000000;2.980955
3202.000000;3.313621
3201.000000;3.499209
3200.000000;3.576558
3199.000000;3.764782
3198.000000;3.662028
3197.000000;3.446951
3196.000000;3.452084
3195.000000;3.653624
3194.000000;3.656369
3193.000000;3.430235
3192.000000;3.211160
3191.000000;3.013600
3190.000000;2.896129
3189.000000;2.877174
3188.000000;2.952624
3187.000000;3.069561
3186.000000;3.129352
3185.000000;3.103413
3184.000000;3.090903
3183.000000;3.167026
3182.000000;3.461451
3181.000000;3.790240
3180.000000;3.353286
3179.000000;3.208841
3178.000000;3.270334
3177.000000;3.447583
3176.000000;3.608258
3175.000000;3.545093
3174.000000;3.424478
3173.000000;3.390877
3172.000000;3.396830
3171.000000;3.457395
3170.000000;3.500535
3169.000000;3.259302
3168.000000;3.093242
3167.000000;3.078891
3166.000000;3.186174
3165.000000;3.257590
3164.000000;3.250941
3163.000000;3.358997
3162.000000;3.659809
3161.000000;3.567408
3160.000000;3.263593
3159.000000;3.178806
3158.000000;3.245705
3157.000000;3.326633
3156.000000;3.308506
3155.000000;3.447376
3154.000000;3.949322
3153.000000;3.395117
3152.000000;3.224311
3151.000000;3.207843
3150.000000;3.086686
3149.000000;3.010104
3148.000000;2.980787
3147.000000;2.883042
3146.000000;2.773579
3145.000000;2.728085
3144.000000;2.759769
3143.000000;2.887300
3142.000000;3.229220
3141.000000;3.780198
3140.000000;3.444789
3139.000000;3.470499
3138.000000;3.408960
3137.000000;3.404731
3136.000000;3.266842
3135.000000;3.049399
3134.000000;2.967658
3133.000000;3.016106
3132.000000;3.261921
3131.000000;3.415231
3130.000000;3.174236
3129.000000;3.022954
3128.000000;2.933738
3127.000000;2.878768
3126.000000;2.879885
3125.000000;2.947260
3124.000000;3.025191
3123.000000;3.038442
3122.000000;3.082919
3121.000000;3.265255
3120.000000;3.916782
3119.000000;3.157938
3118.000000;2.920041
3117.000000;2.869413
3116.000000;2.929288
3115.000000;2.972081
3114.000000;2.947328
3113.000000;2.969323
3112.000000;3.087065
3111.000000;3.344560
3110.000000;3.598833
3109.000000;3.433187
3108.000000;3.240497
3107.000000;3.049253
3106.000000;2.880679
3105.000000;2.791349
3104.000000;2.801353
3103.000000;2.928586
3102.000000;3.224783
3101.000000;4.049451
3100.000000;3.992031
3099.000000;3.498831
3098.000000;3.165526
3097.000000;3.021638
3096.000000;2.995731
3095.000000;3.015742
3094.000000;3.085927
3093.000000;3.296116
3092.000000;3.588221
3091.000000;3.090020
3090.000000;2.903890
3089.000000;2.873301
3088.000000;2.945132
3087.000000;3.080492
3086.000000;3.283849
3085.000000;3.248199
3084.000000;3.024920
3083.000000;2.952639
3082.000000;2.978312
3081.000000;3.056827
3080.000000;3.160808
3079.000000;3.356988
3078.000000;3.740109
3077.000000;3.885780
3076.000000;3.865655
3075.000000;3.424629
3074.000000;3.125723
3073.000000;3.005652
3072.000000;2.979019
3071.000000;3.044248
3070.000000;3.204185
3069.000000;3.372578
3068.000000;3.355673
3067.000000;3.287241
3066.000000;3.253324
3065.000000;3.261652
3064.000000;3.319287
3063.000000;3.344774
3062.000000;3.276511
3061.000000;3.220890
3060.000000;3.157201
3059.000000;3.155656
3058.000000;3.253604
3057.000000;3.180280
3056.000000;3.073774
3055.000000;3.133047
3054.000000;3.171015
3053.000000;3.173228
3052.000000;3.405523
3051.000000;3.764127
3050.000000;4.085365
3049.000000;3.629110
3048.000000;3.184187
3047.000000;3.001458
3046.000000;2.957367
3045.000000;3.020213
3044.000000;3.173669
3043.000000;3.413777
3042.000000;3.761468
3041.000000;3.568493
3040.000000;3.348137
3039.000000;3.286288
3038.000000;3.302188
3037.000000;3.280908
3036.000000;3.088379
3035.000000;2.920748
3034.000000;2.841994
3033.000000;2.815993
3032.000000;2.802765
3031.000000;2.778821
3030.000000;2.757172
3029.000000;2.777753
3028.000000;2.880111
3027.000000;3.075010
3026.000000;3.289722
3025.000000;3.510476
3024.000000;3.438607
3023.000000;3.313654
3022.000000;3.703180
3021.000000;3.355711
3020.000000;3.007143
3019.000000;2.896461
3018.000000;2.842302
3017.000000;2.810087
3016.000000;2.804362
3015.000000;2.870557
3014.000000;3.053193
3013.000000;3.224308
3012.000000;3.098304
3011.000000;2.992975
3010.000000;2.975708
3009.000000;3.026836
3008.000000;3.073354
3007.000000;3.031098
3006.000000;2.960367
3005.000000;2.931003
3004.000000;2.985917
3003.000000;3.225072
3002.000000;3.429302
3001.000000;3.236694
3000.000000;3.213669
2999.000000;3.268318
2998.000000;3.405145
2997.000000;3.586412
2996.000000;3.288401
2995.000000;3.120788
2994.000000;3.178495
2993.000000;3.314995
2992.000000;3.256848
2991.000000;3.106150
2990.000000;3.055464
2989.000000;3.092779
2988.000000;3.104128
2987.000000;3.065895
2986.000000;3.084952
2985.000000;3.338868
2984.000000;3.897512
2983.000000;3.267041
2982.000000;3.090087
2981.000000;3.043937
2980.000000;3.126306
2979.000000;3.332969
2978.000000;3.333086
2977.000000;3.185164
2976.000000;3.176562
2975.000000;3.295883
2974.000000;3.563446
2973.000000;3.929267
2972.000000;3.643364
2971.000000;3.370048
2970.000000;3.290088
2969.000000;3.327222
2968.000000;3.665656
2967.000000;3.467006
2966.000000;3.132909
2965.000000;3.044214
2964.000000;3.084797
2963.000000;3.225633
2962.000000;3.405009
2961.000000;3.438251
2960.000000;3.247602
2959.000000;3.056222
2958.000000;2.932220
2957.000000;2.887013
2956.000000;2.915324
2955.000000;2.993234
2954.000000;3.107244
2953.000000;3.223437
2952.000000;3.454509
2951.000000;3.862531
2950.000000;3.389438
2949.000000;3.101714
2948.000000;3.040356
2947.000000;3.077512
2946.000000;3.142983
2945.000000;3.204247
2944.000000;3.396649
2943.000000;3.578844
2942.000000;3.303960
2941.000000;3.100457
2940.000000;3.001975
2939.000000;2.938670
2938.000000;2.951682
2937.000000;3.069088
2936.000000;3.123479
2935.000000;3.065554
2934.000000;3.063233
2933.000000;3.040127
2932.000000;2.993521
2931.000000;3.029493
2930.000000;3.230392
2929.000000;3.335390
2928.000000;3.016190
2927.000000;2.822440
2926.000000;2.741924
2925.000000;2.761360
2924.000000;2.880941
2923.000000;3.129111
2922.000000;3.619818
2921.000000;3.493599
2920.000000;3.288179
2919.000000;3.441131
2918.000000;3.166009
2917.000000;2.920253
2916.000000;2.904316
2915.000000;2.983622
2914.000000;3.008429
2913.000000;3.061146
2912.000000;3.494613
2911.000000;3.572958
2910.000000;3.232587
2909.000000;3.214951
2908.000000;3.388920
2907.000000;3.734179
2906.000000;3.397848
2905.000000;3.160736
2904.000000;3.150139
2903.000000;3.372505
2902.000000;3.265545
2901.000000;2.903036
2900.000000;2.777867
2899.000000;2.750354
2898.000000;2.740190
2897.000000;2.761284
2896.000000;2.888556
2895.000000;3.209226
2894.000000;3.318789
2893.000000;3.173157
2892.000000;3.238358
2891.000000;3.127128
2890.000000;2.940825
2889.000000;2.857337
2888.000000;2.834894
2887.000000;2.859477
2886.000000;2.958237
2885.000000;3.172671
2884.000000;3.299925
2883.000000;3.217371
2882.000000;3.137653
2881.000000;3.060582
2880.000000;2.980010
2879.000000;2.894392
2878.000000;2.812713
2877.000000;2.758501
2876.000000;2.736999
2875.000000;2.754292
2874.000000;2.806496
2873.000000;2.835367
2872.000000;2.829947
2871.000000;2.879601
2870.000000;2.979361
2869.000000;2.994884
2868.000000;2.974411
2867.000000;3.010458
2866.000000;3.033765
2865.000000;3.026922
2864.000000;3.039218
2863.000000;3.109644
2862.000000;3.244209
2861.000000;3.388803
2860.000000;3.362251
2859.000000;3.172267
2858.000000;3.077724
2857.000000;3.111873
2856.000000;3.180987
2855.000000;3.227549
2854.000000;3.293330
2853.000000;3.364840
2852.000000;3.334884
2851.000000;3.141543
2850.000000;3.015585
2849.000000;3.078441
2848.000000;3.434749
2847.000000;3.872781
2846.000000;3.151252
2845.000000;2.772132
2844.000000;2.643114
2843.000000;2.693913
2842.000000;2.948857
2841.000000;3.415837
2840.000000;3.465911
2839.000000;3.330843
2838.000000;3.434352
2837.000000;3.871823
2836.000000;3.759082
2835.000000;3.370901
2834.000000;3.309244
2833.000000;3.231629
2832.000000;3.103093
2831.000000;3.001674
2830.000000;3.008691
2829.000000;3.186214
2828.000000;3.169957
2827.000000;2.908081
2826.000000;2.758844
2825.000000;2.722437
2824.000000;2.780501
2823.000000;2.937451
2822.000000;3.098223
2821.000000;3.059943
2820.000000;3.016951
2819.000000;3.118850
2818.000000;3.460916
2817.000000;3.549240
2816.000000;3.381334
2815.000000;3.587689
2814.000000;3.251098
2813.000000;2.930938
2812.000000;2.900179
2811.000000;3.239221
2810.000000;3.580128
2809.000000;3.164362
2808.000000;3.126003
2807.000000;3.119329
2806.000000;2.948367
2805.000000;2.809224
2804.000000;2.760425
2803.000000;2.788470
2802.000000;2.872339
2801.000000;3.019862
2800.000000;3.133906
2799.000000;3.117815
2798.000000;3.101207
2797.000000;3.076701
2796.000000;3.014815
2795.000000;3.040926
2794.000000;3.134619
2793.000000;3.140808
2792.000000;3.068335
2791.000000;3.103714
2790.000000;3.386980
2789.000000;3.415634
2788.000000;3.455185
2787.000000;3.571666
2786.000000;3.105686
2785.000000;2.950428
2784.000000;2.977137
2783.000000;3.056554
2782.000000;3.136549
2781.000000;3.315726
2780.000000;3.577584
2779.000000;3.319066
2778.000000;3.086268
2777.000000;2.985474
2776.000000;2.942700
2775.000000;2.946213
2774.000000;3.015400
2773.000000;3.082645
2772.000000;3.053542
2771.000000;3.022321
2770.000000;3.050068
2769.000000;3.118607
2768.000000;3.245515
2767.000000;3.292862
2766.000000;3.432775
2765.000000;3.725132
2764.000000;3.214837
2763.000000;2.927729
2762.000000;2.868697
2761.000000;2.880246
2760.000000;2.899815
2759.000000;2.889981
2758.000000;2.928101
2757.000000;3.328963
2756.000000;3.364947
2755.000000;2.920765
2754.000000;2.848076
2753.000000;2.917786
2752.000000;3.006426
2751.000000;2.915230
2750.000000;2.795264
2749.000000;2.783909
2748.000000;2.847903
2747.000000;2.967183
2746.000000;3.111652
2745.000000;3.249049
2744.000000;3.305383
2743.000000;3.184197
2742.000000;3.069908
2741.000000;3.058691
2740.000000;3.256171
2739.000000;3.693174
2738.000000;3.367218
2737.000000;3.170944
2736.000000;3.200475
2735.000000;3.214490
2734.000000;3.193982
2733.000000;3.242899
2732.000000;3.432695
2731.000000;3.451691
2730.000000;3.227357
2729.000000;3.162400
2728.000000;3.284754
2727.000000;3.483040
2726.000000;3.873914
2725.000000;3.831147
2724.000000;3.393100
2723.000000;3.270940
2722.000000;3.343644
2721.000000;3.407853
2720.000000;3.223841
2719.000000;3.042098
2718.000000;2.991181
2717.000000;3.051354
2716.000000;3.263284
2715.000000;3.669282
2714.000000;3.450143
2713.000000;3.090104
2712.000000;2.943112
2711.000000;2.918273
2710.000000;2.947838
2709.000000;2.952923
2708.000000;2.960339
2707.000000;3.004254
2706.000000;3.018533
2705.000000;2.938083
2704.000000;2.845606
2703.000000;2.818924
2702.000000;2.865688
2701.000000;2.929358
2700.000000;2.964316
2699.000000;3.027707
2698.000000;3.238105
2697.000000;3.573385
2696.000000;3.546890
2695.000000;3.497800
2694.000000;3.678611
2693.000000;3.735212
2692.000000;3.394621
2691.000000;3.155239
2690.000000;3.056201
2689.000000;3.014835
2688.000000;2.956458
2687.000000;2.866485
2686.000000;2.823888
2685.000000;2.883851
2684.000000;3.107305
2683.000000;3.644424
2682.000000;3.882536
2681.000000;3.507100
2680.000000;3.930388
2679.000000;3.805789
2678.000000;3.296445
2677.000000;3.683686
2676.000000;3.571776
2675.000000;2.994271
2674.000000;2.849595
2673.000000;2.847083
2672.000000;2.922364
2671.000000;2.996305
2670.000000;3.050596
2669.000000;3.163879
2668.000000;3.287272
2667.000000;3.338350
2666.000000;3.337205
2665.000000;3.226267
2664.000000;3.097363
2663.000000;3.096266
2662.000000;3.212370
2661.000000;3.406538
2660.000000;3.610349
2659.000000;3.979084
2658.000000;3.981408
2657.000000;3.431855
2656.000000;3.242221
2655.000000;3.174799
2654.000000;3.125897
2653.000000;3.091940
2652.000000;3.085907
2651.000000;3.128233
2650.000000;3.239405
2649.000000;3.427227
2648.000000;3.437818
2647.000000;3.383307
2646.000000;3.508285
2645.000000;3.600389
2644.000000;3.390396
2643.000000;3.171183
2642.000000;3.098775
2641.000000;3.191000
2640.000000;3.354047
2639.000000;3.369380
2638.000000;3.287606
2637.000000;3.237676
2636.000000;3.316200
2635.000000;3.562862
2634.000000;3.515867
2633.000000;3.288284
2632.000000;3.220971
2631.000000;3.167851
2630.000000;3.093375
2629.000000;3.039873
2628.000000;2.971392
2627.000000;2.910877
2626.000000;2.922168
2625.000000;3.055801
2624.000000;3.354716
2623.000000;3.847725
2622.000000;4.056138
2621.000000;3.551387
2620.000000;3.287700
2619.000000;3.228617
2618.000000;3.331935
2617.000000;3.635390
2616.000000;3.668895
2615.000000;3.478675
2614.000000;3.583836
2613.000000;3.957569
2612.000000;3.953609
2611.000000;3.518575
2610.000000;3.248643
2609.000000;3.113104
2608.000000;3.119986
2607.000000;3.237915
2606.000000;3.144396
2605.000000;3.225881
2604.000000;3.669903
2603.000000;3.265840
2602.000000;3.072491
2601.000000;3.155445
2600.000000;3.275597
2599.000000;3.580785
2598.000000;3.780013
2597.000000;3.203448
2596.000000;2.949874
2595.000000;2.907635
2594.000000;2.975449
2593.000000;3.104284
2592.000000;3.232535
2591.000000;3.359670
2590.000000;3.373250
2589.000000;3.205584
2588.000000;3.049673
2587.000000;2.994051
2586.000000;3.040152
2585.000000;3.110561
2584.000000;3.052087
2583.000000;2.933526
2582.000000;2.902930
2581.000000;2.960231
2580.000000;3.271015
2579.000000;3.425786
2578.000000;2.942817
2577.000000;2.819263
2576.000000;2.888270
2575.000000;3.051699
2574.000000;3.173443
2573.000000;3.172861
2572.000000;3.269675
2571.000000;3.434908
2570.000000;3.597806
2569.000000;3.770910
2568.000000;3.507365
2567.000000;3.144313
2566.000000;3.017688
2565.000000;2.920607
2564.000000;2.873596
2563.000000;2.874900
2562.000000;3.032974
2561.000000;3.544432
2560.000000;3.282403
2559.000000;3.033826
2558.000000;3.252918
2557.000000;3.873178
2556.000000;3.323305
2555.000000;3.210805
2554.000000;3.256723
2553.000000;3.081224
2552.000000;2.956948
2551.000000;2.894833
2550.000000;2.906126
2549.000000;2.972687
2548.000000;3.131470
2547.000000;3.445617
2546.000000;3.533481
2545.000000;3.219670
2544.000000;3.022750
2543.000000;2.930345
2542.000000;2.954324
2541.000000;3.088803
2540.000000;3.148341
2539.000000;3.076462
2538.000000;3.018245
2537.000000;2.985798
2536.000000;2.997125
2535.000000;3.099912
2534.000000;3.233298
2533.000000;3.109906
2532.000000;2.904520
2531.000000;2.800196
2530.000000;2.780832
2529.000000;2.838310
2528.000000;2.966698
2527.000000;3.187779
2526.000000;3.511352
2525.000000;3.482430
2524.000000;3.252876
2523.000000;3.178422
2522.000000;3.173457
2521.000000;3.247984
2520.000000;3.510552
2519.000000;3.363562
2518.000000;3.070392
2517.000000;3.038481
2516.000000;3.168780
2515.000000;3.252419
2514.000000;3.233985
2513.000000;3.543659
2512.000000;3.629071
2511.000000;3.215762
2510.000000;3.142313
2509.000000;3.308873
2508.000000;3.392949
2507.000000;3.084470
2506.000000;2.905398
2505.000000;2.889200
2504.000000;3.003743
2503.000000;3.232780
2502.000000;3.301627
2501.000000;3.110793
2500.000000;2.936551
2499.000000;2.846253
2498.000000;2.846149
2497.000000;2.944461
2496.000000;3.200394
2495.000000;3.354345
2494.000000;3.175674
2493.000000;3.211820
2492.000000;3.421392
2491.000000;3.380655
2490.000000;3.178616
2489.000000;3.113737
2488.000000;3.142738
2487.000000;3.211937
2486.000000;3.241266
2485.000000;3.367359
2484.000000;3.659375
2483.000000;3.232638
2482.000000;2.943976
2481.000000;2.853386
2480.000000;2.845580
2479.000000;2.913613
2478.000000;3.029928
2477.000000;3.119651
2476.000000;3.141979
2475.000000;3.230354
2474.000000;3.308347
2473.000000;3.225463
2472.000000;3.234711
2471.000000;3.257519
2470.000000;3.080828
2469.000000;2.907867
2468.000000;2.848993
2467.000000;2.888011
2466.000000;2.922716
2465.000000;2.882051
2464.000000;2.850865
2463.000000;2.887811
2462.000000;3.025897
2461.000000;3.323614
2460.000000;3.579484
2459.000000;3.586555
2458.000000;3.655563
2457.000000;3.496626
2456.000000;3.333459
2455.000000;3.308425
2454.000000;3.273466
2453.000000;3.127265
2452.000000;2.983664
2451.000000;2.923223
2450.000000;2.923200
2449.000000;2.996366
2448.000000;3.112742
2447.000000;3.015064
2446.000000;2.893994
2445.000000;2.881641
2444.000000;3.043203
2443.000000;3.306939
2442.000000;2.972835
2441.000000;2.762942
2440.000000;2.770608
2439.000000;2.933262
2438.000000;3.226473
2437.000000;3.454029
2436.000000;3.471926
2435.000000;3.395360
2434.000000;3.267612
2433.000000;3.142563
2432.000000;3.080685
2431.000000;3.210113
2430.000000;3.454446
2429.000000;3.179786
2428.000000;2.983128
2427.000000;2.961575
2426.000000;3.004578
2425.000000;3.029349
2424.000000;3.027810
2423.000000;3.099019
2422.000000;3.264880
2421.000000;3.466062
2420.000000;3.334678
2419.000000;3.067531
2418.000000;2.928368
2417.000000;2.899512
2416.000000;2.942756
2415.000000;2.988665
2414.000000;2.970033
2413.000000;2.935423
2412.000000;2.953685
2411.000000;3.023245
2410.000000;3.104300
2409.000000;3.206804
2408.000000;3.599685
2407.000000;3.720002
2406.000000;3.270789
2405.000000;3.198403
2404.000000;3.383599
2403.000000;3.638360
2402.000000;3.361391
2401.000000;3.164976
2400.000000;3.163194
2399.000000;3.233314
2398.000000;3.269758
2397.000000;3.203667
2396.000000;3.250149
2395.000000;3.611128
2394.000000;3.260375
2393.000000;2.998789
2392.000000;3.012917
2391.000000;3.191708
2390.000000;3.422042
2389.000000;3.824357
2388.000000;4.177401
2387.000000;3.472509
2386.000000;3.253286
2385.000000;3.103096
2384.000000;2.969396
2383.000000;2.870133
2382.000000;2.836890
2381.000000;2.957015
2380.000000;3.465812
2379.000000;3.282177
2378.000000;3.060235
2377.000000;3.437741
2376.000000;3.428292
2375.000000;3.187056
2374.000000;3.104948
2373.000000;2.998861
2372.000000;2.889338
2371.000000;2.833784
2370.000000;2.852450
2369.000000;2.879302
2368.000000;2.882153
2367.000000;2.960227
2366.000000;3.154882
2365.000000;3.297657
2364.000000;3.340403
2363.000000;3.276595
2362.000000;3.028903
2361.000000;2.888332
2360.000000;2.860036
2359.000000;2.886846
2358.000000;2.920977
2357.000000;2.983190
2356.000000;3.203501
2355.000000;3.255004
2354.000000;2.941840
2353.000000;2.797235
2352.000000;2.877365
2351.000000;2.906189
2350.000000;2.698829
2349.000000;2.642405
2348.000000;2.692270
2347.000000;2.788520
2346.000000;2.873150
2345.000000;2.935478
2344.000000;3.082373
2343.000000;3.468498
2342.000000;4.084425
2341.000000;3.536055
2340.000000;3.199990
2339.000000;3.171710
2338.000000;3.192685
2337.000000;2.963152
2336.000000;2.829396
2335.000000;2.823059
2334.000000;2.859171
2333.000000;2.813810
2332.000000;2.760783
2331.000000;2.810755
2330.000000;2.994056
2329.000000;3.163968
2328.000000;3.243467
2327.000000;3.505523
2326.000000;3.568219
2325.000000;3.286088
2324.000000;3.151264
2323.000000;3.147835
2322.000000;3.245456
2321.000000;3.314535
2320.000000;3.195058
2319.000000;3.035187
2318.000000;2.966519
2317.000000;3.006352
2316.000000;3.071257
2315.000000;2.988451
2314.000000;2.923712
2313.000000;2.986322
2312.000000;3.212608
2311.000000;3.464144
2310.000000;3.323497
2309.000000;3.230071
2308.000000;3.204628
2307.000000;3.140246
2306.000000;3.015844
2305.000000;2.938036
2304.000000;2.966628
2303.000000;3.184837
2302.000000;3.274893
2301.000000;3.028070
2300.000000;2.999491
2299.000000;3.132740
2298.000000;3.083887
2297.000000;2.956342
2296.000000;2.917867
2295.000000;2.842906
2294.000000;2.810015
2293.000000;2.895334
2292.000000;3.068918
2291.000000;3.271801
2290.000000;3.788418
2289.000000;3.545185
2288.000000;3.320649
2287.000000;3.601185
2286.000000;3.307106
2285.000000;2.969443
2284.000000;2.920684
2283.000000;3.068176
2282.000000;3.420365
2281.000000;3.859883
2280.000000;3.722770
2279.000000;3.557751
2278.000000;3.567818
2277.000000;3.595595
2276.000000;3.610694
2275.000000;3.916303
2274.000000;3.387774
2273.000000;2.960589
2272.000000;2.812047
2271.000000;2.797625
2270.000000;2.891889
2269.000000;3.015590
2268.000000;3.086118
2267.000000;3.163068
2266.000000;3.246659
2265.000000;3.267518
2264.000000;3.286079
2263.000000;3.102089
2262.000000;2.933880
2261.000000;2.905003
2260.000000;2.980735
2259.000000;3.123330
2258.000000;3.336711
2257.000000;3.591013
2256.000000;3.693750
2255.000000;3.703629
2254.000000;3.692530
2253.000000;3.993911
2252.000000;3.987982
2251.000000;3.411702
2250.000000;3.252888
2249.000000;3.207377
2248.000000;3.224959
2247.000000;3.240328
2246.000000;3.248986
2245.000000;3.243570
2244.000000;3.170005
2243.000000;3.060385
2242.000000;3.000688
2241.000000;3.006869
2240.000000;3.052389
2239.000000;3.137181
2238.000000;3.337592
2237.000000;3.777767
2236.000000;3.777955
2235.000000;3.404573
2234.000000;3.047647
2233.000000;2.867647
2232.000000;2.839823
2231.000000;2.933211
2230.000000;3.097348
2229.000000;3.221062
2228.000000;3.251184
2227.000000;3.283770
2226.000000;3.299303
2225.000000;3.191695
2224.000000;3.067916
2223.000000;2.990887
2222.000000;2.975627
2221.000000;3.044394
2220.000000;3.231457
2219.000000;3.557366
2218.000000;3.411265
2217.000000;3.189746
2216.000000;3.196310
2215.000000;3.356523
2214.000000;3.565038
2213.000000;3.441775
2212.000000;3.277097
2211.000000;3.210844
2210.000000;3.194175
2209.000000;3.213319
2208.000000;3.317192
2207.000000;3.537732
2206.000000;3.144528
2205.000000;2.897486
2204.000000;2.833134
2203.000000;2.914087
2202.000000;3.153089
2201.000000;3.515038
2200.000000;3.457852
2199.000000;3.246260
2198.000000;3.112867
2197.000000;3.098933
2196.000000;3.244516
2195.000000;3.755945
2194.000000;4.078094
2193.000000;3.461178
2192.000000;3.285821
2191.000000;3.334751
2190.000000;3.637421
2189.000000;4.162908
2188.000000;3.584215
2187.000000;3.249132
2186.000000;3.184187
2185.000000;3.243804
2184.000000;3.274890
2183.000000;3.202325
2182.000000;3.204280
2181.000000;3.409800
2180.000000;3.646068
2179.000000;3.386821
2178.000000;3.237091
2177.000000;3.036722
2176.000000;2.925623
2175.000000;2.935799
2174.000000;3.033316
2173.000000;3.162549
2172.000000;3.288516
2171.000000;3.396839
2170.000000;3.355594
2169.000000;3.123676
2168.000000;2.899538
2167.000000;2.780812
2166.000000;2.775456
2165.000000;2.858471
2164.000000;2.986900
2163.000000;3.149903
2162.000000;3.386486
2161.000000;3.659140
2160.000000;3.224822
2159.000000;2.915479
2158.000000;2.799787
2157.000000;2.812770
2156.000000;2.941869
2155.000000;3.139335
2154.000000;3.265589
2153.000000;3.299966
2152.000000;3.467909
2151.000000;3.754866
2150.000000;3.231426
2149.000000;3.073927
2148.000000;3.054675
2147.000000;3.105053
2146.000000;3.121029
2145.000000;3.071177
2144.000000;3.069845
2143.000000;3.120175
2142.000000;3.147287
2141.000000;3.242868
2140.000000;3.346109
2139.000000;3.273668
2138.000000;3.453391
2137.000000;3.526328
2136.000000;3.257602
2135.000000;3.312233
2134.000000;3.625095
2133.000000;3.315939
2132.000000;3.151984
2131.000000;3.242190
2130.000000;3.511526
2129.000000;3.759585
2128.000000;3.535167
2127.000000;3.345923
2126.000000;3.215177
2125.000000;3.125170
2124.000000;3.073226
2123.000000;3.059347
2122.000000;3.107956
2121.000000;3.254687
2120.000000;3.407999
2119.000000;3.337929
2118.000000;3.370091
2117.000000;3.679030
2116.000000;3.680060
2115.000000;3.385234
2114.000000;3.244793
2113.000000;3.158758
2112.000000;3.136024
2111.000000;3.092117
2110.000000;3.023548
2109.000000;2.991923
2108.000000;3.019024
2107.000000;3.077890
2106.000000;3.158704
2105.000000;3.270417
2104.000000;3.394837
2103.000000;3.643064
2102.000000;3.759726
2101.000000;3.429277
2100.000000;3.159986
2099.000000;3.006219
2098.000000;2.991369
2097.000000;3.078713
2096.000000;3.186938
2095.000000;3.274244
2094.000000;3.396483
2093.000000;3.754735
2092.000000;3.648157
2091.000000;3.219056
2090.000000;3.102417
2089.000000;3.078436
2088.000000;3.128355
2087.000000;3.157648
2086.000000;3.090363
2085.000000;3.027266
2084.000000;3.047689
2083.000000;3.113758
2082.000000;3.197456
2081.000000;3.321652
2080.000000;3.683717
2079.000000;3.397253
2078.000000;3.068421
2077.000000;2.946870
2076.000000;2.897076
2075.000000;2.862645
2074.000000;2.872284
2073.000000;2.975749
2072.000000;3.169190
2071.000000;3.376047
2070.000000;3.418547
2069.000000;3.326646
2068.000000;3.274421
2067.000000;3.246835
2066.000000;3.242353
2065.000000;3.276079
2064.000000;3.276188
2063.000000;3.192007
2062.000000;3.085034
2061.000000;3.070581
2060.000000;3.160422
2059.000000;3.723476
2058.000000;3.679035
2057.000000;3.177996
2056.000000;3.155223
2055.000000;3.193010
2054.000000;3.391036
2053.000000;3.399121
2052.000000;3.201637
2051.000000;3.178599
2050.000000;3.380312
2049.000000;3.797422
2048.000000;3.428844
2047.000000;3.187730
2046.000000;3.069727
2045.000000;3.012277
2044.000000;3.001661
2043.000000;3.020157
2042.000000;3.025593
2041.000000;3.033657
2040.000000;3.107700
2039.000000;3.306490
2038.000000;3.554074
2037.000000;3.395647
2036.000000;3.290142
2035.000000;3.508714
2034.000000;3.992169
2033.000000;3.780430
2032.000000;3.635847
2031.000000;3.389578
2030.000000;3.281920
2029.000000;3.340819
2028.000000;3.788332
2027.000000;3.871220
2026.000000;3.384428
2025.000000;3.274119
2024.000000;3.334968
2023.000000;3.419074
2022.000000;3.311346
2021.000000;3.116150
2020.000000;2.962309
2019.000000;2.858336
2018.000000;2.791992
2017.000000;2.762727
2016.000000;2.783465
2015.000000;2.883508
2014.000000;3.094642
2013.000000;3.334580
2012.000000;3.366793
2011.000000;3.418146
2010.000000;3.490745
2009.000000;3.411494
2008.000000;3.325634
2007.000000;3.359435
2006.000000;3.686185
2005.000000;3.482812
2004.000000;3.134223
2003.000000;3.238186
2002.000000;3.422606
2001.000000;3.022055
2000.000000;2.817002
1999.000000;2.830610
1998.000000;2.979042
1997.000000;3.177504
1996.000000;3.215336
1995.000000;3.214433
1994.000000;3.269469
1993.000000;3.471261
1992.000000;4.233591
1991.000000;3.490648
1990.000000;3.435599
1989.000000;3.395554
1988.000000;3.139906
1987.000000;2.992422
1986.000000;2.916362
1985.000000;2.867855
1984.000000;2.844907
1983.000000;2.872728
1982.000000;2.949458
1981.000000;3.048160
1980.000000;3.155801
1979.000000;3.435373
1978.000000;3.372848
1977.000000;2.988720
1976.000000;2.838814
1975.000000;2.835893
1974.000000;3.003036
1973.000000;3.213479
1972.000000;3.110023
1971.000000;3.027172
1970.000000;3.045609
1969.000000;2.992319
1968.000000;2.934286
1967.000000;2.989912
1966.000000;3.112737
1965.000000;3.166751
1964.000000;3.196633
1963.000000;3.140541
1962.000000;3.030139
1961.000000;2.990752
1960.000000;3.094855
1959.000000;3.432851
1958.000000;3.467894
1957.000000;3.201265
1956.000000;3.196667
1955.000000;3.331546
1954.000000;3.746879
1953.000000;3.700176
1952.000000;3.353043
1951.000000;3.338576
1950.000000;3.302421
1949.000000;3.220706
1948.000000;3.213325
1947.000000;3.303448
1946.000000;3.676456
1945.000000;3.753149
1944.000000;3.325798
1943.000000;3.189099
1942.000000;3.209317
1941.000000;3.367431
1940.000000;3.841503
1939.000000;3.510927
1938.000000;3.280519
1937.000000;3.296778
1936.000000;3.429433
1935.000000;3.634940
1934.000000;4.041861
1933.000000;4.055190
1932.000000;3.771636
1931.000000;3.721818
1930.000000;3.468697
1929.000000;3.118107
1928.000000;2.950272
1927.000000;2.963623
1926.000000;3.177459
1925.000000;3.706101
1924.000000;4.504908
1923.000000;4.170453
1922.000000;3.607527
1921.000000;3.193452
1920.000000;3.005654
1919.000000;2.952811
1918.000000;2.963245
1917.000000;2.947288
1916.000000;2.875306
1915.000000;2.839636
1914.000000;2.940038
1913.000000;3.355088
1912.000000;3.682739
1911.000000;3.617927
1910.000000;3.491411
1909.000000;3.059593
1908.000000;2.944266
1907.000000;3.005471
1906.000000;3.229720
1905.000000;3.575079
1904.000000;3.466530
1903.000000;3.355327
1902.000000;3.572201
1901.000000;3.794202
1900.000000;3.431791
1899.000000;3.255201
1898.000000;3.139892
1897.000000;3.076070
1896.000000;3.103587
1895.000000;3.244192
1894.000000;3.496818
1893.000000;4.068471
1892.000000;3.685596
1891.000000;3.265595
1890.000000;3.065343
1889.000000;2.969670
1888.000000;3.005337
1887.000000;3.260499
1886.000000;3.470124
1885.000000;3.375605
1884.000000;3.860777
1883.000000;3.332519
1882.000000;3.029160
1881.000000;2.998600
1880.000000;3.137190
1879.000000;3.339195
1878.000000;3.111753
1877.000000;2.891557
1876.000000;2.788272
1875.000000;2.756406
1874.000000;2.786001
1873.000000;2.884972
1872.000000;3.071961
1871.000000;3.250532
1870.000000;3.291123
1869.000000;3.336746
1868.000000;3.323572
1867.000000;3.177892
1866.000000;3.040370
1865.000000;2.965562
1864.000000;2.986838
1863.000000;3.090055
1862.000000;3.062165
1861.000000;2.935266
1860.000000;2.928819
1859.000000;3.217396
1858.000000;3.524313
1857.000000;3.061434
1856.000000;3.022379
1855.000000;3.263207
1854.000000;3.198379
1853.000000;2.969042
1852.000000;2.956986
1851.000000;3.113701
1850.000000;3.384145
1849.000000;3.452248
1848.000000;3.102869
1847.000000;2.917771
1846.000000;2.945613
1845.000000;3.240567
1844.000000;3.700956
1843.000000;3.388907
1842.000000;3.082728
1841.000000;2.946066
1840.000000;2.934786
1839.000000;3.117008
1838.000000;3.607039
1837.000000;3.273704
1836.000000;3.026191
1835.000000;3.105033
1834.000000;3.300768
1833.000000;3.090916
1832.000000;2.976897
1831.000000;3.102655
1830.000000;3.413587
1829.000000;3.596938
1828.000000;3.259681
1827.000000;3.111764
1826.000000;3.093122
1825.000000;3.189949
1824.000000;3.413417
1823.000000;3.415573
1822.000000;3.300752
1821.000000;3.364276
1820.000000;3.404651
1819.000000;3.311570
1818.000000;3.228360
1817.000000;3.159929
1816.000000;3.272454
1815.000000;3.681829
1814.000000;3.389537
1813.000000;3.127295
1812.000000;3.196854
1811.000000;3.447821
1810.000000;3.365791
1809.000000;3.194796
1808.000000;3.194284
1807.000000;3.166084
1806.000000;3.085189
1805.000000;3.021163
1804.000000;2.961871
1803.000000;2.944640
1802.000000;3.001327
1801.000000;3.212859
1800.000000;3.473165
1799.000000;3.242351
1798.000000;3.129367
1797.000000;3.274086
1796.000000;3.496405
1795.000000;3.293819
1794.000000;3.200645
1793.000000;3.315171
1792.000000;3.366939
1791.000000;3.200320
1790.000000;3.079757
1789.000000;3.216706
1788.000000;3.382168
1787.000000;3.071124
1786.000000;2.899821
1785.000000;2.892404
1784.000000;2.910970
1783.000000;2.871899
1782.000000;2.797763
1781.000000;2.783298
1780.000000;2.865826
1779.000000;3.041606
1778.000000;3.258549
1777.000000;3.246999
1776.000000;3.008265
1775.000000;2.868904
1774.000000;2.859274
1773.000000;2.940025
1772.000000;3.092699
1771.000000;3.284908
1770.000000;3.331149
1769.000000;3.167677
1768.000000;3.053674
1767.000000;3.036034
1766.000000;3.073753
1765.000000;3.109458
1764.000000;3.195847
1763.000000;3.684762
1762.000000;3.666085
1761.000000;3.092763
1760.000000;2.951157
1759.000000;2.981306
1758.000000;3.072957
1757.000000;3.140869
1756.000000;3.204055
1755.000000;3.381841
1754.000000;3.587748
1753.000000;3.365638
1752.000000;3.191274
1751.000000;3.216467
1750.000000;3.183778
1749.000000;2.967590
1748.000000;2.808276
1747.000000;2.783154
1746.000000;2.892885
1745.000000;3.203354
1744.000000;3.491156
1743.000000;3.254021
1742.000000;3.269273
1741.000000;3.588881
1740.000000;3.625246
1739.000000;3.350114
1738.000000;3.520398
1737.000000;3.667487
1736.000000;3.380875
1735.000000;3.305070
1734.000000;3.225108
1733.000000;3.107420
1732.000000;2.996609
1731.000000;2.931289
1730.000000;2.941901
1729.000000;3.016462
1728.000000;3.010782
1727.000000;2.925927
1726.000000;2.936763
1725.000000;3.151883
1724.000000;3.253593
1723.000000;2.900742
1722.000000;2.716443
1721.000000;2.718263
1720.000000;2.890571
1719.000000;3.199953
1718.000000;3.415869
1717.000000;3.289736
1716.000000;3.021509
1715.000000;2.879267
1714.000000;2.897724
1713.000000;3.058070
1712.000000;3.201795
1711.000000;3.247067
1710.000000;3.385317
1709.000000;3.265909
1708.000000;2.961568
1707.000000;2.771154
1706.000000;2.653733
1705.000000;2.586950
1704.000000;2.576140
1703.000000;2.651687
1702.000000;2.934712
1701.000000;3.267012
1700.000000;3.061696
1699.000000;2.980268
1698.000000;2.987272
1697.000000;2.978407
1696.000000;2.987706
1695.000000;2.967628
1694.000000;2.933157
1693.000000;2.956055
1692.000000;3.077115
1691.000000;3.432267
1690.000000;3.578547
1689.000000;3.080307
1688.000000;2.951173
1687.000000;2.988422
1686.000000;3.016890
1685.000000;3.012535
1684.000000;3.063072
1683.000000;3.273945
1682.000000;3.243968
1681.000000;3.021936
1680.000000;2.965993
1679.000000;3.028198
1678.000000;3.143507
1677.000000;3.275743
1676.000000;3.591640
1675.000000;3.417164
1674.000000;3.194609
1673.000000;3.565657
1672.000000;3.507204
1671.000000;3.215342
1670.000000;3.220106
1669.000000;3.149210
1668.000000;3.138501
1667.000000;3.158147
1666.000000;3.005788
1665.000000;2.858001
1664.000000;2.838681
1663.000000;2.928050
1662.000000;3.072809
1661.000000;3.244399
1660.000000;3.427462
1659.000000;3.379895
1658.000000;3.394232
1657.000000;3.577152
1656.000000;3.282342
1655.000000;3.157467
1654.000000;3.232027
1653.000000;3.250336
1652.000000;3.265119
1651.000000;3.295375
1650.000000;3.374296
1649.000000;3.388988
1648.000000;3.416693
1647.000000;3.777864
1646.000000;3.900821
1645.000000;3.451666
1644.000000;3.231678
1643.000000;3.120186
1642.000000;3.111429
1641.000000;3.259989
1640.000000;3.309777
1639.000000;3.064106
1638.000000;3.001785
1637.000000;3.135539
1636.000000;3.285852
1635.000000;3.301689
1634.000000;3.247743
1633.000000;3.382006
1632.000000;3.550798
1631.000000;3.190949
1630.000000;2.952001
1629.000000;2.886248
1628.000000;2.887961
1627.000000;2.848232
1626.000000;2.759992
1625.000000;2.722241
1624.000000;2.747312
1623.000000;2.805285
1622.000000;2.939553
1621.000000;3.226778
1620.000000;3.235803
1619.000000;3.031048
1618.000000;2.957930
1617.000000;2.922596
1616.000000;2.902800
1615.000000;2.898451
1614.000000;2.910860
1613.000000;2.972365
1612.000000;3.112075
1611.000000;3.464600
1610.000000;3.948320
1609.000000;3.652666
1608.000000;3.581945
1607.000000;3.399618
1606.000000;3.161665
1605.000000;3.064815
1604.000000;3.122657
1603.000000;3.239342
1602.000000;3.150082
1601.000000;2.987179
1600.000000;2.860684
1599.000000;2.777142
1598.000000;2.749165
1597.000000;2.759205
1596.000000;2.799925
1595.000000;2.895618
1594.000000;2.996753
1593.000000;3.036054
1592.000000;3.121254
1591.000000;3.278906
1590.000000;3.246313
1589.000000;3.078947
1588.000000;2.999921
1587.000000;3.060735
1586.000000;3.244737
1585.000000;3.271926
1584.000000;3.139357
1583.000000;3.122311
1582.000000;3.198870
1581.000000;3.346623
1580.000000;3.518242
1579.000000;3.585917
1578.000000;3.719139
1577.000000;3.620566
1576.000000;3.260578
1575.000000;3.033163
1574.000000;2.936735
1573.000000;2.933883
1572.000000;2.968805
1571.000000;3.046790
1570.000000;3.197946
1569.000000;3.383262
1568.000000;3.494008
1567.000000;3.337857
1566.000000;3.091305
1565.000000;2.934901
1564.000000;2.903992
1563.000000;3.011288
1562.000000;3.421779
1561.000000;3.688656
1560.000000;3.202833
1559.000000;3.014248
1558.000000;2.894423
1557.000000;2.833810
1556.000000;2.867938
1555.000000;2.926066
1554.000000;2.895734
1553.000000;2.831270
1552.000000;3.029510
1551.000000;3.276900
1550.000000;2.919543
1549.000000;2.792411
1548.000000;2.836454
1547.000000;2.905826
1546.000000;2.911158
1545.000000;3.097471
1544.000000;3.376728
1543.000000;2.982911
1542.000000;2.890534
1541.000000;3.028290
1540.000000;3.168679
1539.000000;3.303110
1538.000000;3.379742
1537.000000;3.701645
1536.000000;3.592473
1535.000000;3.088272
1534.000000;2.900866
1533.000000;2.852517
1532.000000;2.875122
1531.000000;2.907007
1530.000000;2.885546
1529.000000;2.876413
1528.000000;2.962537
1527.000000;3.148701
1526.000000;3.251859
1525.000000;3.188456
1524.000000;3.239750
1523.000000;3.465176
1522.000000;3.398497
1521.000000;3.073594
1520.000000;2.851025
1519.000000;2.729828
1518.000000;2.700627
1517.000000;2.741611
1516.000000;2.833830
1515.000000;2.954404
1514.000000;3.103742
1513.000000;3.319345
1512.000000;3.236026
1511.000000;3.019139
1510.000000;2.867561
1509.000000;2.768369
1508.000000;2.763154
1507.000000;2.795909
1506.000000;2.817981
1505.000000;2.832249
1504.000000;2.873427
1503.000000;2.981554
1502.000000;3.169927
1501.000000;3.398291
1500.000000;3.663592
1499.000000;3.868150
1498.000000;3.709116
1497.000000;3.441708
1496.000000;3.147879
1495.000000;2.950713
1494.000000;2.850466
1493.000000;2.827681
1492.000000;2.875690
1491.000000;2.933387
1490.000000;2.966609
1489.000000;3.024681
1488.000000;3.043646
1487.000000;3.000159
1486.000000;3.006311
1485.000000;3.113725
1484.000000;3.419731
1483.000000;3.479356
1482.000000;3.289489
1481.000000;3.326804
1480.000000;3.094178
1479.000000;2.838926
1478.000000;2.796015
1477.000000;2.882086
1476.000000;3.159574
1475.000000;3.725112
1474.000000;3.345826
1473.000000;3.151277
1472.000000;3.191338
1471.000000;3.273722
1470.000000;3.380896
1469.000000;3.455251
1468.000000;3.445897
1467.000000;3.370227
1466.000000;3.415570
1465.000000;3.608796
1464.000000;3.646673
1463.000000;3.477527
1462.000000;3.288803
1461.000000;3.083274
1460.000000;2.916471
1459.000000;2.823841
1458.000000;2.794274
1457.000000;2.795567
1456.000000;2.812026
1455.000000;2.855390
1454.000000;2.964457
1453.000000;3.177804
1452.000000;3.322478
1451.000000;3.212660
1450.000000;3.354566
1449.000000;3.785015
1448.000000;3.467828
1447.000000;3.305177
1446.000000;3.247999
1445.000000;3.151418
1444.000000;3.059847
1443.000000;2.960923
1442.000000;2.836530
1441.000000;2.667536
1440.000000;2.533078
1439.000000;2.500927
1438.000000;2.638789
1437.000000;3.074011
1436.000000;3.358938
1435.000000;3.170337
1434.000000;3.224222
1433.000000;3.156599
1432.000000;3.086131
1431.000000;3.126774
1430.000000;3.115387
1429.000000;3.064436
1428.000000;3.082675
1427.000000;3.194651
1426.000000;3.189359
1425.000000;3.047831
1424.000000;2.979170
1423.000000;2.993112
1422.000000;3.065616
1421.000000;3.175524
1420.000000;3.277451
1419.000000;3.313741
1418.000000;3.257057
1417.000000;3.145751
1416.000000;3.042057
1415.000000;2.986653
1414.000000;3.008429
1413.000000;3.126290
1412.000000;3.272404
1411.000000;3.301909
1410.000000;3.212767
1409.000000;3.107788
1408.000000;3.050776
1407.000000;2.997603
1406.000000;2.943465
1405.000000;2.968579
1404.000000;3.134585
1403.000000;3.424499
1402.000000;3.443947
1401.000000;3.352413
1400.000000;3.314464
1399.000000;3.091308
1398.000000;2.911059
1397.000000;2.897700
1396.000000;3.027169
1395.000000;3.328805
1394.000000;3.721791
1393.000000;3.422580
1392.000000;3.172211
1391.000000;3.039175
1390.000000;3.026941
1389.000000;3.024247
1388.000000;2.907353
1387.000000;2.873351
1386.000000;2.997536
1385.000000;3.309219
1384.000000;3.398310
1383.000000;3.129358
1382.000000;3.024900
1381.000000;3.083865
1380.000000;3.318964
1379.000000;3.457207
1378.000000;3.477940
1377.000000;3.708010
1376.000000;3.424413
1375.000000;3.236036
1374.000000;3.327151
1373.000000;3.345757
1372.000000;3.182000
1371.000000;3.165975
1370.000000;3.293927
1369.000000;3.296346
1368.000000;3.147735
1367.000000;3.008253
1366.000000;2.914594
1365.000000;2.918541
1364.000000;3.134965
1363.000000;3.656077
1362.000000;3.471461
1361.000000;3.245293
1360.000000;3.309695
1359.000000;3.496741
1358.000000;3.798217
1357.000000;4.342158
1356.000000;4.067875
1355.000000;3.417737
1354.000000;3.134191
1353.000000;3.052434
1352.000000;3.106296
1351.000000;3.169417
1350.000000;3.106497
1349.000000;3.023422
1348.000000;3.019137
1347.000000;3.124472
1346.000000;3.163838
1345.000000;3.023094
1344.000000;2.958757
1343.000000;3.011361
1342.000000;3.099101
1341.000000;3.154713
1340.000000;3.325455
1339.000000;3.408286
1338.000000;3.176302
1337.000000;3.118635
1336.000000;3.098837
1335.000000;2.997437
1334.000000;2.903844
1333.000000;2.881373
1332.000000;2.942246
1331.000000;3.051308
1330.000000;3.153962
1329.000000;3.300568
1328.000000;3.430960
1327.000000;3.345040
1326.000000;3.366562
1325.000000;3.506230
1324.000000;3.441977
1323.000000;3.301346
1322.000000;3.101337
1321.000000;2.908574
1320.000000;2.817988
1319.000000;2.846172
1318.000000;2.965753
1317.000000;3.087928
1316.000000;3.091867
1315.000000;2.971682
1314.000000;2.854558
1313.000000;2.826879
1312.000000;2.905387
1311.000000;3.046011
1310.000000;3.103648
1309.000000;3.058349
1308.000000;3.029384
1307.000000;3.006932
1306.000000;2.974796
1305.000000;2.973490
1304.000000;2.990768
1303.000000;2.937000
1302.000000;2.797799
1301.000000;2.674275
1300.000000;2.636181
1299.000000;2.702369
1298.000000;2.874776
1297.000000;3.154676
1296.000000;3.436318
1295.000000;3.487994
1294.000000;3.462434
1293.000000;3.288355
1292.000000;3.097715
1291.000000;3.008250
1290.000000;3.008524
1289.000000;3.064062
1288.000000;3.113377
1287.000000;3.148191
1286.000000;3.233114
1285.000000;3.319217
1284.000000;3.250504
1283.000000;3.130261
1282.000000;3.088034
1281.000000;3.149497
1280.000000;3.252288
1279.000000;3.254964
1278.000000;3.271445
1277.000000;3.582667
1276.000000;3.559726
1275.000000;3.261308
1274.000000;3.213696
1273.000000;3.218492
1272.000000;3.190881
1271.000000;3.159305
1270.000000;3.144045
1269.000000;3.147392
1268.000000;3.170887
1267.000000;3.299929
1266.000000;3.856547
1265.000000;3.255577
1264.000000;2.944247
1263.000000;2.858043
1262.000000;2.899178
1261.000000;3.042983
1260.000000;3.257462
1259.000000;3.678585
1258.000000;3.756139
1257.000000;3.294091
1256.000000;3.183910
1255.000000;3.258223
1254.000000;3.334689
1253.000000;3.083430
1252.000000;2.900719
1251.000000;2.867998
1250.000000;2.963143
1249.000000;3.224618
1248.000000;3.383566
1247.000000;3.235201
1246.000000;3.105777
1245.000000;2.964163
1244.000000;2.890971
1243.000000;2.953074
1242.000000;3.193743
1241.000000;3.749224
1240.000000;3.502963
1239.000000;3.302786
1238.000000;3.322425
1237.000000;3.472725
1236.000000;3.315042
1235.000000;3.062425
1234.000000;2.981653
1233.000000;3.035941
1232.000000;3.127157
1231.000000;3.181921
1230.000000;3.327772
1229.000000;3.313554
1228.000000;3.155880
1227.000000;3.191535
1226.000000;3.327878
1225.000000;3.610274
1224.000000;3.947464
1223.000000;3.468276
1222.000000;3.162668
1221.000000;3.018007
1220.000000;2.950414
1219.000000;2.950784
1218.000000;3.023481
1217.000000;3.174929
1216.000000;3.376449
1215.000000;3.477917
1214.000000;3.490790
1213.000000;3.687674
1212.000000;3.316023
1211.000000;3.104182
1210.000000;3.119563
1209.000000;3.191893
1208.000000;3.208010
1207.000000;3.387880
1206.000000;3.394378
1205.000000;3.075718
1204.000000;3.088388
1203.000000;3.476415
1202.000000;3.350112
1201.000000;2.906145
1200.000000;2.701517
