Criado como novo conjunto de dados;"e0108.spp","-4286864.9 Secs"
cm-1;Abs
10000.000000;0.941127
9999.000000;0.940536
9998.000000;0.939945
9997.000000;0.939357
9996.000000;0.938767
9995.000000;0.938182
9994.000000;0.937589
9993.000000;0.937014
9992.000000;0.936393
9991.000000;0.937020
9990.000000;0.937968
9989.000000;0.937785
9988.000000;0.935930
9987.000000;0.933256
9986.000000;0.931186
9985.000000;0.930393
9984.000000;0.930449
9983.000000;0.930563
9982.000000;0.930379
9981.000000;0.930075
9980.000000;0.929961
9979.000000;0.930107
9978.000000;0.930241
9977.000000;0.930030
9976.000000;0.929559
9975.000000;0.929431
9974.000000;0.930111
9973.000000;0.931189
9972.000000;0.931554
9971.000000;0.930440
9970.000000;0.928178
9969.000000;0.925845
9968.000000;0.924333
9967.000000;0.923859
9966.000000;0.924125
9965.000000;0.924650
9964.000000;0.924947
9963.000000;0.924640
9962.000000;0.923692
9961.000000;0.922552
9960.000000;0.921911
9959.000000;0.922100
9958.000000;0.922722
9957.000000;0.923009
9956.000000;0.922632
9955.000000;0.922072
9954.000000;0.922066
9953.000000;0.922775
9952.000000;0.923615
9951.000000;0.923797
9950.000000;0.922909
9949.000000;0.921110
9948.000000;0.919008
9947.000000;0.917401
9946.000000;0.916888
9945.000000;0.917498
9944.000000;0.918642
9943.000000;0.919483
9942.000000;0.919443
9941.000000;0.918524
9940.000000;0.917220
9939.000000;0.916078
9938.000000;0.915272
9937.000000;0.914622
9936.000000;0.913997
9935.000000;0.913562
9934.000000;0.913507
9933.000000;0.913712
9932.000000;0.913882
9931.000000;0.913915
9930.000000;0.913930
9929.000000;0.913932
9928.000000;0.913750
9927.000000;0.913316
9926.000000;0.912820
9925.000000;0.912477
9924.000000;0.912238
9923.000000;0.911817
9922.000000;0.910958
9921.000000;0.909700
9920.000000;0.908493
9919.000000;0.908008
9918.000000;0.908633
9917.000000;0.909981
9916.000000;0.911088
9915.000000;0.911301
9914.000000;0.910851
9913.000000;0.910401
9912.000000;0.910208
9911.000000;0.910021
9910.000000;0.909683
9909.000000;0.909429
9908.000000;0.909454
9907.000000;0.909484
9906.000000;0.909021
9905.000000;0.907910
9904.000000;0.906484
9903.000000;0.905178
9902.000000;0.904133
9901.000000;0.903226
9900.000000;0.902397
9899.000000;0.901866
9898.000000;0.901964
9897.000000;0.902705
9896.000000;0.903582
9895.000000;0.903942
9894.000000;0.903621
9893.000000;0.903043
9892.000000;0.902613
9891.000000;0.902210
9890.000000;0.901519
9889.000000;0.900671
9888.000000;0.900175
9887.000000;0.900231
9886.000000;0.900474
9885.000000;0.900506
9884.000000;0.900366
9883.000000;0.900262
9882.000000;0.900125
9881.000000;0.899734
9880.000000;0.899146
9879.000000;0.898698
9878.000000;0.898610
9877.000000;0.898814
9876.000000;0.899147
9875.000000;0.899473
9874.000000;0.899560
9873.000000;0.899080
9872.000000;0.897862
9871.000000;0.896111
9870.000000;0.894287
9869.000000;0.892789
9868.000000;0.891708
9867.000000;0.890882
9866.000000;0.890216
9865.000000;0.889891
9864.000000;0.890135
9863.000000;0.890752
9862.000000;0.891149
9861.000000;0.890996
9860.000000;0.890650
9859.000000;0.890659
9858.000000;0.891001
9857.000000;0.891159
9856.000000;0.890859
9855.000000;0.890347
9854.000000;0.889903
9853.000000;0.889444
9852.000000;0.888774
9851.000000;0.887968
9850.000000;0.887322
9849.000000;0.887085
9848.000000;0.887331
9847.000000;0.887935
9846.000000;0.888517
9845.000000;0.888561
9844.000000;0.887826
9843.000000;0.886583
9842.000000;0.885333
9841.000000;0.884304
9840.000000;0.883377
9839.000000;0.882464
9838.000000;0.881854
9837.000000;0.882071
9836.000000;0.883298
9835.000000;0.884934
9834.000000;0.885845
9833.000000;0.885235
9832.000000;0.883339
9831.000000;0.881245
9830.000000;0.880040
9829.000000;0.880073
9828.000000;0.880856
9827.000000;0.881500
9826.000000;0.881353
9825.000000;0.880464
9824.000000;0.879455
9823.000000;0.878867
9822.000000;0.878679
9821.000000;0.878568
9820.000000;0.878478
9819.000000;0.878645
9818.000000;0.879087
9817.000000;0.879366
9816.000000;0.878962
9815.000000;0.877748
9814.000000;0.876124
9813.000000;0.874816
9812.000000;0.874436
9811.000000;0.874962
9810.000000;0.875643
9809.000000;0.875728
9808.000000;0.875303
9807.000000;0.875072
9806.000000;0.875328
9805.000000;0.875556
9804.000000;0.875164
9803.000000;0.874176
9802.000000;0.872962
9801.000000;0.871703
9800.000000;0.870508
9799.000000;0.869730
9798.000000;0.869698
9797.000000;0.870245
9796.000000;0.870913
9795.000000;0.871567
9794.000000;0.872439
9793.000000;0.873537
9792.000000;0.874370
9791.000000;0.874377
9790.000000;0.873433
9789.000000;0.871854
9788.000000;0.870124
9787.000000;0.868702
9786.000000;0.867877
9785.000000;0.867606
9784.000000;0.867502
9783.000000;0.867145
9782.000000;0.866448
9781.000000;0.865645
9780.000000;0.864910
9779.000000;0.864103
9778.000000;0.863051
9777.000000;0.862048
9776.000000;0.861813
9775.000000;0.862696
9774.000000;0.864070
9773.000000;0.864848
9772.000000;0.864647
9771.000000;0.864073
9770.000000;0.863773
9769.000000;0.863641
9768.000000;0.863236
9767.000000;0.862606
9766.000000;0.862215
9765.000000;0.862179
9764.000000;0.862013
9763.000000;0.861188
9762.000000;0.859729
9761.000000;0.858217
9760.000000;0.857411
9759.000000;0.857748
9758.000000;0.858895
9757.000000;0.859785
9756.000000;0.859502
9755.000000;0.858292
9754.000000;0.857370
9753.000000;0.857589
9752.000000;0.858545
9751.000000;0.859102
9750.000000;0.858598
9749.000000;0.857343
9748.000000;0.856110
9747.000000;0.855487
9746.000000;0.855629
9745.000000;0.856310
9744.000000;0.857075
9743.000000;0.857509
9742.000000;0.857488
9741.000000;0.857163
9740.000000;0.856659
9739.000000;0.855871
9738.000000;0.854647
9737.000000;0.853197
9736.000000;0.852202
9735.000000;0.852350
9734.000000;0.853652
9733.000000;0.855245
9732.000000;0.856003
9731.000000;0.855383
9730.000000;0.853705
9729.000000;0.851763
9728.000000;0.850344
9727.000000;0.849912
9726.000000;0.850383
9725.000000;0.851094
9724.000000;0.851302
9723.000000;0.850859
9722.000000;0.850183
9721.000000;0.849461
9720.000000;0.848308
9719.000000;0.846571
9718.000000;0.845077
9717.000000;0.844913
9716.000000;0.845981
9715.000000;0.846911
9714.000000;0.846639
9713.000000;0.845585
9712.000000;0.844893
9711.000000;0.844955
9710.000000;0.845243
9709.000000;0.845331
9708.000000;0.845430
9707.000000;0.845801
9706.000000;0.846239
9705.000000;0.846419
9704.000000;0.846421
9703.000000;0.846544
9702.000000;0.846795
9701.000000;0.846868
9700.000000;0.846567
9699.000000;0.846014
9698.000000;0.845395
9697.000000;0.844716
9696.000000;0.843901
9695.000000;0.843060
9694.000000;0.842499
9693.000000;0.842423
9692.000000;0.842664
9691.000000;0.842788
9690.000000;0.842486
9689.000000;0.841790
9688.000000;0.840917
9687.000000;0.840053
9686.000000;0.839367
9685.000000;0.839020
9684.000000;0.838909
9683.000000;0.838585
9682.000000;0.837771
9681.000000;0.836896
9680.000000;0.836665
9679.000000;0.837065
9678.000000;0.837266
9677.000000;0.836704
9676.000000;0.835851
9675.000000;0.835542
9674.000000;0.835858
9673.000000;0.836117
9672.000000;0.835777
9671.000000;0.834965
9670.000000;0.834146
9669.000000;0.833663
9668.000000;0.833608
9667.000000;0.833831
9666.000000;0.834011
9665.000000;0.833909
9664.000000;0.833568
9663.000000;0.833129
9662.000000;0.832556
9661.000000;0.831806
9660.000000;0.831149
9659.000000;0.830934
9658.000000;0.831063
9657.000000;0.831065
9656.000000;0.830775
9655.000000;0.830520
9654.000000;0.830518
9653.000000;0.830453
9652.000000;0.829976
9651.000000;0.829322
9650.000000;0.829083
9649.000000;0.829438
9648.000000;0.829906
9647.000000;0.829868
9646.000000;0.829203
9645.000000;0.828384
9644.000000;0.828036
9643.000000;0.828380
9642.000000;0.829044
9641.000000;0.829386
9640.000000;0.829064
9639.000000;0.828214
9638.000000;0.827118
9637.000000;0.825909
9636.000000;0.824730
9635.000000;0.823957
9634.000000;0.823952
9633.000000;0.824588
9632.000000;0.825264
9631.000000;0.825483
9630.000000;0.825311
9629.000000;0.825161
9628.000000;0.825221
9627.000000;0.825255
9626.000000;0.824896
9625.000000;0.824017
9624.000000;0.822785
9623.000000;0.821492
9622.000000;0.820421
9621.000000;0.819812
9620.000000;0.819804
9619.000000;0.820331
9618.000000;0.821142
9617.000000;0.821918
9616.000000;0.822351
9615.000000;0.822198
9614.000000;0.821448
9613.000000;0.820490
9612.000000;0.819891
9611.000000;0.819819
9610.000000;0.819802
9609.000000;0.819276
9608.000000;0.818332
9607.000000;0.817697
9606.000000;0.817913
9605.000000;0.818711
9604.000000;0.819274
9603.000000;0.819014
9602.000000;0.818025
9601.000000;0.816852
9600.000000;0.815966
9599.000000;0.815492
9598.000000;0.815338
9597.000000;0.815450
9596.000000;0.815800
9595.000000;0.816171
9594.000000;0.816182
9593.000000;0.815642
9592.000000;0.814759
9591.000000;0.813874
9590.000000;0.813106
9589.000000;0.812418
9588.000000;0.811930
9587.000000;0.811883
9586.000000;0.812266
9585.000000;0.812704
9584.000000;0.812838
9583.000000;0.812660
9582.000000;0.812367
9581.000000;0.812033
9580.000000;0.811562
9579.000000;0.810902
9578.000000;0.810137
9577.000000;0.809373
9576.000000;0.808639
9575.000000;0.807959
9574.000000;0.807487
9573.000000;0.807474
9572.000000;0.808026
9571.000000;0.808896
9570.000000;0.809613
9569.000000;0.809838
9568.000000;0.809519
9567.000000;0.808715
9566.000000;0.807501
9565.000000;0.806172
9564.000000;0.805329
9563.000000;0.805464
9562.000000;0.806448
9561.000000;0.807610
9560.000000;0.808351
9559.000000;0.808501
9558.000000;0.808096
9557.000000;0.807168
9556.000000;0.805921
9555.000000;0.804879
9554.000000;0.804542
9553.000000;0.804865
9552.000000;0.805245
9551.000000;0.805050
9550.000000;0.804093
9549.000000;0.802674
9548.000000;0.801313
9547.000000;0.800459
9546.000000;0.800257
9545.000000;0.800450
9544.000000;0.800516
9543.000000;0.800052
9542.000000;0.799141
9541.000000;0.798304
9540.000000;0.798088
9539.000000;0.798690
9538.000000;0.799918
9537.000000;0.801343
9536.000000;0.802449
9535.000000;0.802822
9534.000000;0.802447
9533.000000;0.801791
9532.000000;0.801378
9531.000000;0.801223
9530.000000;0.800831
9529.000000;0.799811
9528.000000;0.798356
9527.000000;0.797068
9526.000000;0.796451
9525.000000;0.796619
9524.000000;0.797263
9523.000000;0.797788
9522.000000;0.797652
9521.000000;0.796784
9520.000000;0.795638
9519.000000;0.794776
9518.000000;0.794455
9517.000000;0.794644
9516.000000;0.795223
9515.000000;0.796011
9514.000000;0.796688
9513.000000;0.796926
9512.000000;0.796611
9511.000000;0.795893
9510.000000;0.795110
9509.000000;0.794651
9508.000000;0.794677
9507.000000;0.794838
9506.000000;0.794497
9505.000000;0.793456
9504.000000;0.792309
9503.000000;0.791837
9502.000000;0.792141
9501.000000;0.792583
9500.000000;0.792508
9499.000000;0.791823
9498.000000;0.790915
9497.000000;0.790253
9496.000000;0.790063
9495.000000;0.790229
9494.000000;0.790467
9493.000000;0.790642
9492.000000;0.790858
9491.000000;0.791137
9490.000000;0.791209
9489.000000;0.790796
9488.000000;0.789992
9487.000000;0.789137
9486.000000;0.788413
9485.000000;0.787828
9484.000000;0.787514
9483.000000;0.787709
9482.000000;0.788380
9481.000000;0.789067
9480.000000;0.789196
9479.000000;0.788481
9478.000000;0.787112
9477.000000;0.785696
9476.000000;0.784890
9475.000000;0.784884
9474.000000;0.785221
9473.000000;0.785247
9472.000000;0.784704
9471.000000;0.783798
9470.000000;0.782890
9469.000000;0.782332
9468.000000;0.782437
9467.000000;0.783267
9466.000000;0.784497
9465.000000;0.785670
9464.000000;0.786499
9463.000000;0.786790
9462.000000;0.786337
9461.000000;0.785238
9460.000000;0.784130
9459.000000;0.783670
9458.000000;0.783845
9457.000000;0.784128
9456.000000;0.784217
9455.000000;0.784185
9454.000000;0.783990
9453.000000;0.783400
9452.000000;0.782484
9451.000000;0.781716
9450.000000;0.781386
9449.000000;0.781280
9448.000000;0.781077
9447.000000;0.780726
9446.000000;0.780291
9445.000000;0.779797
9444.000000;0.779419
9443.000000;0.779473
9442.000000;0.779952
9441.000000;0.780340
9440.000000;0.780159
9439.000000;0.779505
9438.000000;0.778881
9437.000000;0.778655
9436.000000;0.778820
9435.000000;0.779060
9434.000000;0.778927
9433.000000;0.778153
9432.000000;0.776950
9431.000000;0.775850
9430.000000;0.775152
9429.000000;0.774743
9428.000000;0.774484
9427.000000;0.774461
9426.000000;0.774734
9425.000000;0.775147
9424.000000;0.775540
9423.000000;0.775849
9422.000000;0.775865
9421.000000;0.775230
9420.000000;0.773931
9419.000000;0.772552
9418.000000;0.771785
9417.000000;0.771875
9416.000000;0.772633
9415.000000;0.773644
9414.000000;0.774270
9413.000000;0.773917
9412.000000;0.772714
9411.000000;0.771634
9410.000000;0.771505
9409.000000;0.772077
9408.000000;0.772443
9407.000000;0.772191
9406.000000;0.771719
9405.000000;0.771502
9404.000000;0.771551
9403.000000;0.771644
9402.000000;0.771658
9401.000000;0.771500
9400.000000;0.771019
9399.000000;0.770189
9398.000000;0.769223
9397.000000;0.768427
9396.000000;0.768029
9395.000000;0.768145
9394.000000;0.768745
9393.000000;0.769614
9392.000000;0.770409
9391.000000;0.770831
9390.000000;0.770741
9389.000000;0.770197
9388.000000;0.769458
9387.000000;0.768811
9386.000000;0.768303
9385.000000;0.767781
9384.000000;0.767252
9383.000000;0.766961
9382.000000;0.766982
9381.000000;0.767005
9380.000000;0.766774
9379.000000;0.766481
9378.000000;0.766408
9377.000000;0.766414
9376.000000;0.766197
9375.000000;0.765879
9374.000000;0.765874
9373.000000;0.766232
9372.000000;0.766581
9371.000000;0.766741
9370.000000;0.766917
9369.000000;0.767197
9368.000000;0.767287
9367.000000;0.766916
9366.000000;0.766135
9365.000000;0.765061
9364.000000;0.763709
9363.000000;0.762328
9362.000000;0.761515
9361.000000;0.761632
9360.000000;0.762304
9359.000000;0.762802
9358.000000;0.762783
9357.000000;0.762387
9356.000000;0.761806
9355.000000;0.761137
9354.000000;0.760566
9353.000000;0.760299
9352.000000;0.760286
9351.000000;0.760271
9350.000000;0.760137
9349.000000;0.759957
9348.000000;0.759737
9347.000000;0.759406
9346.000000;0.759140
9345.000000;0.759339
9344.000000;0.760044
9343.000000;0.760620
9342.000000;0.760378
9341.000000;0.759425
9340.000000;0.758606
9339.000000;0.758585
9338.000000;0.759223
9337.000000;0.759910
9336.000000;0.760221
9335.000000;0.760091
9334.000000;0.759577
9333.000000;0.758771
9332.000000;0.757937
9331.000000;0.757448
9330.000000;0.757463
9329.000000;0.757787
9328.000000;0.758105
9327.000000;0.758257
9326.000000;0.758265
9325.000000;0.758200
9324.000000;0.758135
9323.000000;0.758113
9322.000000;0.758037
9321.000000;0.757655
9320.000000;0.756823
9319.000000;0.755755
9318.000000;0.754880
9317.000000;0.754456
9316.000000;0.754415
9315.000000;0.754546
9314.000000;0.754648
9313.000000;0.754521
9312.000000;0.754036
9311.000000;0.753351
9310.000000;0.752901
9309.000000;0.752978
9308.000000;0.753380
9307.000000;0.753645
9306.000000;0.753585
9305.000000;0.753430
9304.000000;0.753445
9303.000000;0.753607
9302.000000;0.753731
9301.000000;0.753703
9300.000000;0.753452
9299.000000;0.752851
9298.000000;0.751896
9297.000000;0.750942
9296.000000;0.750528
9295.000000;0.750861
9294.000000;0.751580
9293.000000;0.752097
9292.000000;0.752113
9291.000000;0.751766
9290.000000;0.751372
9289.000000;0.751123
9288.000000;0.750979
9287.000000;0.750761
9286.000000;0.750352
9285.000000;0.749866
9284.000000;0.749592
9283.000000;0.749754
9282.000000;0.750315
9281.000000;0.750997
9280.000000;0.751440
9279.000000;0.751373
9278.000000;0.750793
9277.000000;0.750028
9276.000000;0.749514
9275.000000;0.749372
9274.000000;0.749261
9273.000000;0.748754
9272.000000;0.747810
9271.000000;0.746789
9270.000000;0.746067
9269.000000;0.745766
9268.000000;0.745804
9267.000000;0.745999
9266.000000;0.746087
9265.000000;0.745824
9264.000000;0.745225
9263.000000;0.744642
9262.000000;0.744529
9261.000000;0.745053
9260.000000;0.745911
9259.000000;0.746523
9258.000000;0.746458
9257.000000;0.745758
9256.000000;0.744849
9255.000000;0.744133
9254.000000;0.743725
9253.000000;0.743586
9252.000000;0.743776
9251.000000;0.744359
9250.000000;0.745105
9249.000000;0.745478
9248.000000;0.745063
9247.000000;0.743951
9246.000000;0.742696
9245.000000;0.741940
9244.000000;0.742027
9243.000000;0.742851
9242.000000;0.743979
9241.000000;0.744972
9240.000000;0.745606
9239.000000;0.745823
9238.000000;0.745584
9237.000000;0.744909
9236.000000;0.743997
9235.000000;0.743154
9234.000000;0.742527
9233.000000;0.742008
9232.000000;0.741435
9231.000000;0.740832
9230.000000;0.740418
9229.000000;0.740418
9228.000000;0.740882
9227.000000;0.741631
9226.000000;0.742369
9225.000000;0.742899
9224.000000;0.743246
9223.000000;0.743541
9222.000000;0.743805
9221.000000;0.743841
9220.000000;0.743299
9219.000000;0.741920
9218.000000;0.739894
9217.000000;0.738013
9216.000000;0.737205
9215.000000;0.737738
9214.000000;0.738974
9213.000000;0.740066
9212.000000;0.740745
9211.000000;0.741191
9210.000000;0.741374
9209.000000;0.740998
9208.000000;0.740134
9207.000000;0.739422
9206.000000;0.739367
9205.000000;0.739700
9204.000000;0.739706
9203.000000;0.739071
9202.000000;0.738183
9201.000000;0.737641
9200.000000;0.737666
9199.000000;0.737968
9198.000000;0.738081
9197.000000;0.737793
9196.000000;0.737294
9195.000000;0.736940
9194.000000;0.736941
9193.000000;0.737284
9192.000000;0.737845
9191.000000;0.738375
9190.000000;0.738480
9189.000000;0.737890
9188.000000;0.736836
9187.000000;0.735936
9186.000000;0.735612
9185.000000;0.735762
9184.000000;0.736010
9183.000000;0.736078
9182.000000;0.735832
9181.000000;0.735236
9180.000000;0.734472
9179.000000;0.733914
9178.000000;0.733757
9177.000000;0.733795
9176.000000;0.733739
9175.000000;0.733649
9174.000000;0.733826
9173.000000;0.734343
9172.000000;0.734926
9171.000000;0.735248
9170.000000;0.735126
9169.000000;0.734467
9168.000000;0.733294
9167.000000;0.731937
9166.000000;0.730979
9165.000000;0.730819
9164.000000;0.731311
9163.000000;0.731931
9162.000000;0.732266
9161.000000;0.732319
9160.000000;0.732368
9159.000000;0.732588
9158.000000;0.732838
9157.000000;0.732820
9156.000000;0.732463
9155.000000;0.732083
9154.000000;0.732095
9153.000000;0.732572
9152.000000;0.733168
9151.000000;0.733469
9150.000000;0.733365
9149.000000;0.733023
9148.000000;0.732585
9147.000000;0.732009
9146.000000;0.731233
9145.000000;0.730381
9144.000000;0.729698
9143.000000;0.729265
9142.000000;0.728909
9141.000000;0.728498
9140.000000;0.728235
9139.000000;0.728473
9138.000000;0.729233
9137.000000;0.730057
9136.000000;0.730444
9135.000000;0.730358
9134.000000;0.730208
9133.000000;0.730373
9132.000000;0.730844
9131.000000;0.731270
9130.000000;0.731288
9129.000000;0.730821
9128.000000;0.730127
9127.000000;0.729578
9126.000000;0.729366
9125.000000;0.729401
9124.000000;0.729459
9123.000000;0.729366
9122.000000;0.729054
9121.000000;0.728582
9120.000000;0.728158
9119.000000;0.728037
9118.000000;0.728266
9117.000000;0.728565
9116.000000;0.728571
9115.000000;0.728176
9114.000000;0.727581
9113.000000;0.727062
9112.000000;0.726786
9111.000000;0.726826
9110.000000;0.727157
9109.000000;0.727571
9108.000000;0.727715
9107.000000;0.727383
9106.000000;0.726754
9105.000000;0.726234
9104.000000;0.726074
9103.000000;0.726211
9102.000000;0.726463
9101.000000;0.726720
9100.000000;0.726895
9099.000000;0.726848
9098.000000;0.726520
9097.000000;0.726074
9096.000000;0.725751
9095.000000;0.725601
9094.000000;0.725524
9093.000000;0.725505
9092.000000;0.725635
9091.000000;0.725852
9090.000000;0.725921
9089.000000;0.725763
9088.000000;0.725587
9087.000000;0.725560
9086.000000;0.725529
9085.000000;0.725271
9084.000000;0.724843
9083.000000;0.724445
9082.000000;0.724051
9081.000000;0.723467
9080.000000;0.722732
9079.000000;0.722209
9078.000000;0.722203
9077.000000;0.722666
9076.000000;0.723316
9075.000000;0.723900
9074.000000;0.724302
9073.000000;0.724543
9072.000000;0.724747
9071.000000;0.724994
9070.000000;0.725189
9069.000000;0.725151
9068.000000;0.724839
9067.000000;0.724376
9066.000000;0.723883
9065.000000;0.723426
9064.000000;0.723087
9063.000000;0.722932
9062.000000;0.722890
9061.000000;0.722822
9060.000000;0.722705
9059.000000;0.722626
9058.000000;0.722625
9057.000000;0.722711
9056.000000;0.722978
9055.000000;0.723443
9054.000000;0.723784
9053.000000;0.723565
9052.000000;0.722815
9051.000000;0.722070
9050.000000;0.721669
9049.000000;0.721302
9048.000000;0.720499
9047.000000;0.719365
9046.000000;0.718538
9045.000000;0.718497
9044.000000;0.719161
9043.000000;0.720104
9042.000000;0.720920
9041.000000;0.721386
9040.000000;0.721494
9039.000000;0.721429
9038.000000;0.721402
9037.000000;0.721460
9036.000000;0.721488
9035.000000;0.721390
9034.000000;0.721211
9033.000000;0.721111
9032.000000;0.721252
9031.000000;0.721660
9030.000000;0.722110
9029.000000;0.722214
9028.000000;0.721738
9027.000000;0.720836
9026.000000;0.719923
9025.000000;0.719348
9024.000000;0.719205
9023.000000;0.719369
9022.000000;0.719625
9021.000000;0.719815
9020.000000;0.719939
9019.000000;0.720083
9018.000000;0.720254
9017.000000;0.720367
9016.000000;0.720388
9015.000000;0.720358
9014.000000;0.720204
9013.000000;0.719751
9012.000000;0.719054
9011.000000;0.718518
9010.000000;0.718444
9009.000000;0.718628
9008.000000;0.718700
9007.000000;0.718770
9006.000000;0.719323
9005.000000;0.720418
9004.000000;0.721381
9003.000000;0.721505
9002.000000;0.720819
9001.000000;0.719900
9000.000000;0.719107
8999.000000;0.718335
8998.000000;0.717483
8997.000000;0.716800
8996.000000;0.716647
8995.000000;0.717048
8994.000000;0.717673
8993.000000;0.718197
8992.000000;0.718559
8991.000000;0.718863
8990.000000;0.719118
8989.000000;0.719181
8988.000000;0.718960
8987.000000;0.718569
8986.000000;0.718187
8985.000000;0.717795
8984.000000;0.717200
8983.000000;0.716406
8982.000000;0.715791
8981.000000;0.715752
8980.000000;0.716218
8979.000000;0.716705
8978.000000;0.716861
8977.000000;0.716751
8976.000000;0.716580
8975.000000;0.716378
8974.000000;0.716133
8973.000000;0.716040
8972.000000;0.716334
8971.000000;0.716926
8970.000000;0.717440
8969.000000;0.717630
8968.000000;0.717556
8967.000000;0.717338
8966.000000;0.717014
8965.000000;0.716720
8964.000000;0.716752
8963.000000;0.717222
8962.000000;0.717767
8961.000000;0.717794
8960.000000;0.717065
8959.000000;0.715930
8958.000000;0.715035
8957.000000;0.714809
8956.000000;0.715165
8955.000000;0.715568
8954.000000;0.715463
8953.000000;0.714744
8952.000000;0.713824
8951.000000;0.713235
8950.000000;0.713245
8949.000000;0.713830
8948.000000;0.714816
8947.000000;0.715914
8946.000000;0.716729
8945.000000;0.716949
8944.000000;0.716538
8943.000000;0.715721
8942.000000;0.714856
8941.000000;0.714341
8940.000000;0.714418
8939.000000;0.714908
8938.000000;0.715305
8937.000000;0.715308
8936.000000;0.715156
8935.000000;0.715274
8934.000000;0.715725
8933.000000;0.716216
8932.000000;0.716511
8931.000000;0.716574
8930.000000;0.716394
8929.000000;0.715981
8928.000000;0.715507
8927.000000;0.715201
8926.000000;0.715073
8925.000000;0.714979
8924.000000;0.714925
8923.000000;0.715068
8922.000000;0.715375
8921.000000;0.715555
8920.000000;0.715373
8919.000000;0.714862
8918.000000;0.714232
8917.000000;0.713766
8916.000000;0.713778
8915.000000;0.714315
8914.000000;0.714876
8913.000000;0.714764
8912.000000;0.713906
8911.000000;0.713056
8910.000000;0.713008
8909.000000;0.713811
8908.000000;0.714891
8907.000000;0.715689
8906.000000;0.715980
8905.000000;0.715780
8904.000000;0.715245
8903.000000;0.714621
8902.000000;0.714136
8901.000000;0.713935
8900.000000;0.714155
8899.000000;0.714857
8898.000000;0.715795
8897.000000;0.716444
8896.000000;0.716448
8895.000000;0.715914
8894.000000;0.715137
8893.000000;0.714226
8892.000000;0.713215
8891.000000;0.712367
8890.000000;0.712061
8889.000000;0.712381
8888.000000;0.713025
8887.000000;0.713604
8886.000000;0.713916
8885.000000;0.713952
8884.000000;0.713840
8883.000000;0.713753
8882.000000;0.713767
8881.000000;0.713800
8880.000000;0.713755
8879.000000;0.713667
8878.000000;0.713595
8877.000000;0.713473
8876.000000;0.713234
8875.000000;0.713033
8874.000000;0.713145
8873.000000;0.713657
8872.000000;0.714360
8871.000000;0.714943
8870.000000;0.715174
8869.000000;0.714961
8868.000000;0.714411
8867.000000;0.713834
8866.000000;0.713571
8865.000000;0.713762
8864.000000;0.714298
8863.000000;0.714924
8862.000000;0.715313
8861.000000;0.715139
8860.000000;0.714322
8859.000000;0.713232
8858.000000;0.712496
8857.000000;0.712478
8856.000000;0.713011
8855.000000;0.713606
8854.000000;0.713870
8853.000000;0.713735
8852.000000;0.713413
8851.000000;0.713172
8850.000000;0.713147
8849.000000;0.713303
8848.000000;0.713551
8847.000000;0.713844
8846.000000;0.714158
8845.000000;0.714463
8844.000000;0.714759
8843.000000;0.715097
8842.000000;0.715486
8841.000000;0.715835
8840.000000;0.716043
8839.000000;0.716083
8838.000000;0.715946
8837.000000;0.715603
8836.000000;0.715116
8835.000000;0.714689
8834.000000;0.714502
8833.000000;0.714539
8832.000000;0.714677
8831.000000;0.714894
8830.000000;0.715243
8829.000000;0.715654
8828.000000;0.715909
8827.000000;0.715823
8826.000000;0.715369
8825.000000;0.714663
8824.000000;0.713948
8823.000000;0.713561
8822.000000;0.713756
8821.000000;0.714512
8820.000000;0.715534
8819.000000;0.716471
8818.000000;0.717060
8817.000000;0.717165
8816.000000;0.716829
8815.000000;0.716321
8814.000000;0.716000
8813.000000;0.716036
8812.000000;0.716310
8811.000000;0.716588
8810.000000;0.716736
8809.000000;0.716773
8808.000000;0.716769
8807.000000;0.716760
8806.000000;0.716726
8805.000000;0.716651
8804.000000;0.716590
8803.000000;0.716646
8802.000000;0.716845
8801.000000;0.717118
8800.000000;0.717447
8799.000000;0.717951
8798.000000;0.718714
8797.000000;0.719575
8796.000000;0.720217
8795.000000;0.720442
8794.000000;0.720271
8793.000000;0.719853
8792.000000;0.719395
8791.000000;0.719155
8790.000000;0.719279
8789.000000;0.719595
8788.000000;0.719730
8787.000000;0.719521
8786.000000;0.719208
8785.000000;0.719153
8784.000000;0.719421
8783.000000;0.719736
8782.000000;0.719775
8781.000000;0.719489
8780.000000;0.719192
8779.000000;0.719349
8778.000000;0.720153
8777.000000;0.721261
8776.000000;0.722044
8775.000000;0.722177
8774.000000;0.721925
8773.000000;0.721778
8772.000000;0.721961
8771.000000;0.722396
8770.000000;0.722976
8769.000000;0.723628
8768.000000;0.724147
8767.000000;0.724233
8766.000000;0.723829
8765.000000;0.723315
8764.000000;0.723209
8763.000000;0.723683
8762.000000;0.724436
8761.000000;0.725033
8760.000000;0.725344
8759.000000;0.725640
8758.000000;0.726256
8757.000000;0.727148
8756.000000;0.727829
8755.000000;0.727814
8754.000000;0.727134
8753.000000;0.726350
8752.000000;0.726047
8751.000000;0.726374
8750.000000;0.727066
8749.000000;0.727766
8748.000000;0.728260
8747.000000;0.728505
8746.000000;0.728587
8745.000000;0.728660
8744.000000;0.728834
8743.000000;0.729078
8742.000000;0.729265
8741.000000;0.729291
8740.000000;0.729156
8739.000000;0.728952
8738.000000;0.728848
8737.000000;0.729030
8736.000000;0.729544
8735.000000;0.730210
8734.000000;0.730745
8733.000000;0.730984
8732.000000;0.730939
8731.000000;0.730701
8730.000000;0.730399
8729.000000;0.730228
8728.000000;0.730331
8727.000000;0.730655
8726.000000;0.731024
8725.000000;0.731379
8724.000000;0.731859
8723.000000;0.732609
8722.000000;0.733602
8721.000000;0.734632
8720.000000;0.735372
8719.000000;0.735501
8718.000000;0.735006
8717.000000;0.734392
8716.000000;0.734327
8715.000000;0.734929
8714.000000;0.735621
8713.000000;0.735830
8712.000000;0.735629
8711.000000;0.735486
8710.000000;0.735575
8709.000000;0.735635
8708.000000;0.735424
8707.000000;0.735017
8706.000000;0.734639
8705.000000;0.734424
8704.000000;0.734414
8703.000000;0.734627
8702.000000;0.735038
8701.000000;0.735589
8700.000000;0.736201
8699.000000;0.736752
8698.000000;0.737100
8697.000000;0.737243
8696.000000;0.737349
8695.000000;0.737517
8694.000000;0.737582
8693.000000;0.737352
8692.000000;0.736940
8691.000000;0.736636
8690.000000;0.736547
8689.000000;0.736613
8688.000000;0.736913
8687.000000;0.737615
8686.000000;0.738589
8685.000000;0.739386
8684.000000;0.739749
8683.000000;0.739925
8682.000000;0.740288
8681.000000;0.740843
8680.000000;0.741256
8679.000000;0.741287
8678.000000;0.741051
8677.000000;0.740902
8676.000000;0.741119
8675.000000;0.741650
8674.000000;0.742147
8673.000000;0.742319
8672.000000;0.742237
8671.000000;0.742166
8670.000000;0.742178
8669.000000;0.742107
8668.000000;0.741870
8667.000000;0.741595
8666.000000;0.741430
8665.000000;0.741452
8664.000000;0.741800
8663.000000;0.742579
8662.000000;0.743512
8661.000000;0.743979
8660.000000;0.743655
8659.000000;0.742955
8658.000000;0.742607
8657.000000;0.742890
8656.000000;0.743446
8655.000000;0.743738
8654.000000;0.743532
8653.000000;0.743019
8652.000000;0.742612
8651.000000;0.742565
8650.000000;0.742729
8649.000000;0.742755
8648.000000;0.742575
8647.000000;0.742501
8646.000000;0.742779
8645.000000;0.743248
8644.000000;0.743626
8643.000000;0.743923
8642.000000;0.744334
8641.000000;0.744841
8640.000000;0.745189
8639.000000;0.745223
8638.000000;0.745030
8637.000000;0.744748
8636.000000;0.744434
8635.000000;0.744159
8634.000000;0.744045
8633.000000;0.744164
8632.000000;0.744445
8631.000000;0.744716
8630.000000;0.744795
8629.000000;0.744606
8628.000000;0.744281
8627.000000;0.744108
8626.000000;0.744274
8625.000000;0.744651
8624.000000;0.744907
8623.000000;0.744812
8622.000000;0.744428
8621.000000;0.744053
8620.000000;0.744015
8619.000000;0.744419
8618.000000;0.745028
8617.000000;0.745456
8616.000000;0.745553
8615.000000;0.745523
8614.000000;0.745636
8613.000000;0.745932
8612.000000;0.746257
8611.000000;0.746469
8610.000000;0.746498
8609.000000;0.746338
8608.000000;0.746112
8607.000000;0.746062
8606.000000;0.746326
8605.000000;0.746764
8604.000000;0.747102
8603.000000;0.747185
8602.000000;0.747029
8601.000000;0.746723
8600.000000;0.746403
8599.000000;0.746233
8598.000000;0.746282
8597.000000;0.746451
8596.000000;0.746599
8595.000000;0.746682
8594.000000;0.746707
8593.000000;0.746675
8592.000000;0.746647
8591.000000;0.746762
8590.000000;0.747065
8589.000000;0.747432
8588.000000;0.747756
8587.000000;0.748063
8586.000000;0.748321
8585.000000;0.748307
8584.000000;0.747860
8583.000000;0.747161
8582.000000;0.746591
8581.000000;0.746398
8580.000000;0.746610
8579.000000;0.747148
8578.000000;0.747808
8577.000000;0.748247
8576.000000;0.748221
8575.000000;0.747826
8574.000000;0.747324
8573.000000;0.746840
8572.000000;0.746416
8571.000000;0.746239
8570.000000;0.746527
8569.000000;0.747204
8568.000000;0.747919
8567.000000;0.748409
8566.000000;0.748636
8565.000000;0.748614
8564.000000;0.748394
8563.000000;0.748229
8562.000000;0.748399
8561.000000;0.748759
8560.000000;0.748720
8559.000000;0.747888
8558.000000;0.746581
8557.000000;0.745557
8556.000000;0.745310
8555.000000;0.745747
8554.000000;0.746398
8553.000000;0.746826
8552.000000;0.746891
8551.000000;0.746769
8550.000000;0.746713
8549.000000;0.746791
8548.000000;0.746914
8547.000000;0.747045
8546.000000;0.747257
8545.000000;0.747553
8544.000000;0.747784
8543.000000;0.747827
8542.000000;0.747725
8541.000000;0.747601
8540.000000;0.747511
8539.000000;0.747441
8538.000000;0.747361
8537.000000;0.747258
8536.000000;0.747182
8535.000000;0.747271
8534.000000;0.747586
8533.000000;0.747908
8532.000000;0.747854
8531.000000;0.747323
8530.000000;0.746690
8529.000000;0.746429
8528.000000;0.746607
8527.000000;0.746903
8526.000000;0.747054
8525.000000;0.747142
8524.000000;0.747423
8523.000000;0.747992
8522.000000;0.748647
8521.000000;0.749047
8520.000000;0.748985
8519.000000;0.748565
8518.000000;0.748103
8517.000000;0.747841
8516.000000;0.747730
8515.000000;0.747542
8514.000000;0.747190
8513.000000;0.746867
8512.000000;0.746837
8511.000000;0.747106
8510.000000;0.747396
8509.000000;0.747457
8508.000000;0.747356
8507.000000;0.747378
8506.000000;0.747660
8505.000000;0.748035
8504.000000;0.748245
8503.000000;0.748214
8502.000000;0.748043
8501.000000;0.747853
8500.000000;0.747743
8499.000000;0.747838
8498.000000;0.748217
8497.000000;0.748753
8496.000000;0.749153
8495.000000;0.749235
8494.000000;0.749107
8493.000000;0.749028
8492.000000;0.749105
8491.000000;0.749173
8490.000000;0.748951
8489.000000;0.748348
8488.000000;0.747625
8487.000000;0.747246
8486.000000;0.747515
8485.000000;0.748324
8484.000000;0.749265
8483.000000;0.749940
8482.000000;0.750167
8481.000000;0.749967
8480.000000;0.749490
8479.000000;0.748954
8478.000000;0.748540
8477.000000;0.748288
8476.000000;0.748121
8475.000000;0.748004
8474.000000;0.748018
8473.000000;0.748241
8472.000000;0.748603
8471.000000;0.748918
8470.000000;0.749063
8469.000000;0.749072
8468.000000;0.749029
8467.000000;0.748893
8466.000000;0.748529
8465.000000;0.747974
8464.000000;0.747582
8463.000000;0.747749
8462.000000;0.748483
8461.000000;0.749320
8460.000000;0.749749
8459.000000;0.749634
8458.000000;0.749223
8457.000000;0.748848
8456.000000;0.748706
8455.000000;0.748825
8454.000000;0.749087
8453.000000;0.749309
8452.000000;0.749401
8451.000000;0.749456
8450.000000;0.749611
8449.000000;0.749864
8448.000000;0.750092
8447.000000;0.750217
8446.000000;0.750246
8445.000000;0.750186
8444.000000;0.750028
8443.000000;0.749815
8442.000000;0.749649
8441.000000;0.749590
8440.000000;0.749591
8439.000000;0.749558
8438.000000;0.749468
8437.000000;0.749441
8436.000000;0.749658
8435.000000;0.750137
8434.000000;0.750588
8433.000000;0.750614
8432.000000;0.750116
8431.000000;0.749427
8430.000000;0.748957
8429.000000;0.748825
8428.000000;0.748883
8427.000000;0.749009
8426.000000;0.749203
8425.000000;0.749489
8424.000000;0.749858
8423.000000;0.750285
8422.000000;0.750680
8421.000000;0.750854
8420.000000;0.750698
8419.000000;0.750359
8418.000000;0.750107
8417.000000;0.750037
8416.000000;0.750028
8415.000000;0.750010
8414.000000;0.750117
8413.000000;0.750513
8412.000000;0.751173
8411.000000;0.751876
8410.000000;0.752360
8409.000000;0.752458
8408.000000;0.752183
8407.000000;0.751724
8406.000000;0.751316
8405.000000;0.751078
8404.000000;0.750975
8403.000000;0.750891
8402.000000;0.750745
8401.000000;0.750575
8400.000000;0.750568
8399.000000;0.750894
8398.000000;0.751431
8397.000000;0.751775
8396.000000;0.751656
8395.000000;0.751294
8394.000000;0.751174
8393.000000;0.751514
8392.000000;0.752117
8391.000000;0.752701
8390.000000;0.753162
8389.000000;0.753502
8388.000000;0.753714
8387.000000;0.753810
8386.000000;0.753830
8385.000000;0.753722
8384.000000;0.753366
8383.000000;0.752769
8382.000000;0.752138
8381.000000;0.751680
8380.000000;0.751428
8379.000000;0.751341
8378.000000;0.751421
8377.000000;0.751639
8376.000000;0.751810
8375.000000;0.751695
8374.000000;0.751238
8373.000000;0.750648
8372.000000;0.750252
8371.000000;0.750234
8370.000000;0.750496
8369.000000;0.750797
8368.000000;0.751070
8367.000000;0.751511
8366.000000;0.752249
8365.000000;0.753034
8364.000000;0.753477
8363.000000;0.753560
8362.000000;0.753640
8361.000000;0.753898
8360.000000;0.754050
8359.000000;0.753776
8358.000000;0.753187
8357.000000;0.752682
8356.000000;0.752484
8355.000000;0.752537
8354.000000;0.752730
8353.000000;0.752990
8352.000000;0.753209
8351.000000;0.753312
8350.000000;0.753384
8349.000000;0.753565
8348.000000;0.753809
8347.000000;0.753921
8346.000000;0.753843
8345.000000;0.753703
8344.000000;0.753567
8343.000000;0.753343
8342.000000;0.753023
8341.000000;0.752850
8340.000000;0.753072
8339.000000;0.753638
8338.000000;0.754258
8337.000000;0.754709
8336.000000;0.754942
8335.000000;0.754935
8334.000000;0.754636
8333.000000;0.754111
8332.000000;0.753612
8331.000000;0.753363
8330.000000;0.753324
8329.000000;0.753283
8328.000000;0.753166
8327.000000;0.753161
8326.000000;0.753473
8325.000000;0.754027
8324.000000;0.754499
8323.000000;0.754600
8322.000000;0.754321
8321.000000;0.753911
8320.000000;0.753685
8319.000000;0.753801
8318.000000;0.754136
8317.000000;0.754371
8316.000000;0.754292
8315.000000;0.754053
8314.000000;0.754049
8313.000000;0.754476
8312.000000;0.755066
8311.000000;0.755333
8310.000000;0.755051
8309.000000;0.754437
8308.000000;0.753879
8307.000000;0.753607
8306.000000;0.753649
8305.000000;0.753975
8304.000000;0.754529
8303.000000;0.755122
8302.000000;0.755435
8301.000000;0.755252
8300.000000;0.754658
8299.000000;0.753971
8298.000000;0.753473
8297.000000;0.753273
8296.000000;0.753376
8295.000000;0.753727
8294.000000;0.754159
8293.000000;0.754421
8292.000000;0.754409
8291.000000;0.754304
8290.000000;0.754363
8289.000000;0.754601
8288.000000;0.754805
8287.000000;0.754865
8286.000000;0.754943
8285.000000;0.755223
8284.000000;0.755612
8283.000000;0.755819
8282.000000;0.755690
8281.000000;0.755371
8280.000000;0.755125
8279.000000;0.755070
8278.000000;0.755121
8277.000000;0.755138
8276.000000;0.755068
8275.000000;0.754944
8274.000000;0.754814
8273.000000;0.754730
8272.000000;0.754791
8271.000000;0.755091
8270.000000;0.755575
8269.000000;0.755980
8268.000000;0.756034
8267.000000;0.755748
8266.000000;0.755431
8265.000000;0.755370
8264.000000;0.755522
8263.000000;0.755589
8262.000000;0.755394
8261.000000;0.755116
8260.000000;0.755098
8259.000000;0.755457
8258.000000;0.755956
8257.000000;0.756292
8256.000000;0.756414
8255.000000;0.756482
8254.000000;0.756553
8253.000000;0.756485
8252.000000;0.756188
8251.000000;0.755817
8250.000000;0.755603
8249.000000;0.755575
8248.000000;0.755573
8247.000000;0.755496
8246.000000;0.755423
8245.000000;0.755505
8244.000000;0.755829
8243.000000;0.756359
8242.000000;0.756914
8241.000000;0.757254
8240.000000;0.757290
8239.000000;0.757212
8238.000000;0.757280
8237.000000;0.757493
8236.000000;0.757582
8235.000000;0.757338
8234.000000;0.756822
8233.000000;0.756253
8232.000000;0.755841
8231.000000;0.755770
8230.000000;0.756151
8229.000000;0.756872
8228.000000;0.757554
8227.000000;0.757817
8226.000000;0.757560
8225.000000;0.756975
8224.000000;0.756377
8223.000000;0.756082
8222.000000;0.756295
8221.000000;0.756963
8220.000000;0.757763
8219.000000;0.758357
8218.000000;0.758635
8217.000000;0.758657
8216.000000;0.758479
8215.000000;0.758173
8214.000000;0.757933
8213.000000;0.757940
8212.000000;0.758124
8211.000000;0.758226
8210.000000;0.758158
8209.000000;0.758129
8208.000000;0.758338
8207.000000;0.758676
8206.000000;0.758850
8205.000000;0.758722
8204.000000;0.758411
8203.000000;0.758120
8202.000000;0.757961
8201.000000;0.757926
8200.000000;0.757930
8199.000000;0.757867
8198.000000;0.757687
8197.000000;0.757453
8196.000000;0.757301
8195.000000;0.757351
8194.000000;0.757662
8193.000000;0.758190
8192.000000;0.758724
8191.000000;0.758965
8190.000000;0.758792
8189.000000;0.758444
8188.000000;0.758339
8187.000000;0.758643
8186.000000;0.759116
8185.000000;0.759382
8184.000000;0.759289
8183.000000;0.758969
8182.000000;0.758647
8181.000000;0.758474
8180.000000;0.758471
8179.000000;0.758535
8178.000000;0.758516
8177.000000;0.758342
8176.000000;0.758066
8175.000000;0.757786
8174.000000;0.757571
8173.000000;0.757506
8172.000000;0.757711
8171.000000;0.758209
8170.000000;0.758830
8169.000000;0.759349
8168.000000;0.759702
8167.000000;0.759973
8166.000000;0.760194
8165.000000;0.760293
8164.000000;0.760239
8163.000000;0.760084
8162.000000;0.759864
8161.000000;0.759596
8160.000000;0.759381
8159.000000;0.759364
8158.000000;0.759503
8157.000000;0.759560
8156.000000;0.759449
8155.000000;0.759428
8154.000000;0.759782
8153.000000;0.760394
8152.000000;0.760842
8151.000000;0.760889
8150.000000;0.760675
8149.000000;0.760422
8148.000000;0.760163
8147.000000;0.759846
8146.000000;0.759579
8145.000000;0.759586
8144.000000;0.759951
8143.000000;0.760480
8142.000000;0.760859
8141.000000;0.760912
8140.000000;0.760725
8139.000000;0.760524
8138.000000;0.760460
8137.000000;0.760542
8136.000000;0.760758
8135.000000;0.761134
8134.000000;0.761584
8133.000000;0.761804
8132.000000;0.761504
8131.000000;0.760786
8130.000000;0.760146
8129.000000;0.760019
8128.000000;0.760392
8127.000000;0.760900
8126.000000;0.761210
8125.000000;0.761244
8124.000000;0.761098
8123.000000;0.760913
8122.000000;0.760829
8121.000000;0.760956
8120.000000;0.761283
8119.000000;0.761640
8118.000000;0.761808
8117.000000;0.761705
8116.000000;0.761476
8115.000000;0.761380
8114.000000;0.761599
8113.000000;0.762106
8112.000000;0.762687
8111.000000;0.763069
8110.000000;0.763087
8109.000000;0.762781
8108.000000;0.762347
8107.000000;0.761968
8106.000000;0.761690
8105.000000;0.761509
8104.000000;0.761505
8103.000000;0.761780
8102.000000;0.762248
8101.000000;0.762647
8100.000000;0.762832
8099.000000;0.762927
8098.000000;0.763089
8097.000000;0.763213
8096.000000;0.763075
8095.000000;0.762707
8094.000000;0.762440
8093.000000;0.762543
8092.000000;0.762925
8091.000000;0.763259
8090.000000;0.763299
8089.000000;0.763053
8088.000000;0.762757
8087.000000;0.762708
8086.000000;0.763022
8085.000000;0.763494
8084.000000;0.763788
8083.000000;0.763775
8082.000000;0.763626
8081.000000;0.763532
8080.000000;0.763485
8079.000000;0.763400
8078.000000;0.763325
8077.000000;0.763381
8076.000000;0.763562
8075.000000;0.763744
8074.000000;0.763881
8073.000000;0.764060
8072.000000;0.764335
8071.000000;0.764615
8070.000000;0.764764
8069.000000;0.764748
8068.000000;0.764631
8067.000000;0.764472
8066.000000;0.764285
8065.000000;0.764103
8064.000000;0.764011
8063.000000;0.764082
8062.000000;0.764263
8061.000000;0.764371
8060.000000;0.764250
8059.000000;0.763933
8058.000000;0.763609
8057.000000;0.763455
8056.000000;0.763519
8055.000000;0.763765
8054.000000;0.764128
8053.000000;0.764493
8052.000000;0.764689
8051.000000;0.764614
8050.000000;0.764338
8049.000000;0.764051
8048.000000;0.763919
8047.000000;0.763993
8046.000000;0.764219
8045.000000;0.764485
8044.000000;0.764702
8043.000000;0.764917
8042.000000;0.765278
8041.000000;0.765823
8040.000000;0.766326
8039.000000;0.766476
8038.000000;0.766218
8037.000000;0.765814
8036.000000;0.765545
8035.000000;0.765454
8034.000000;0.765440
8033.000000;0.765491
8032.000000;0.765705
8031.000000;0.766088
8030.000000;0.766463
8029.000000;0.766615
8028.000000;0.766499
8027.000000;0.766265
8026.000000;0.766098
8025.000000;0.766057
8024.000000;0.766070
8023.000000;0.766062
8022.000000;0.766056
8021.000000;0.766117
8020.000000;0.766230
8019.000000;0.766296
8018.000000;0.766270
8017.000000;0.766231
8016.000000;0.766268
8015.000000;0.766359
8014.000000;0.766442
8013.000000;0.766557
8012.000000;0.766807
8011.000000;0.767170
8010.000000;0.767486
8009.000000;0.767662
8008.000000;0.767754
8007.000000;0.767789
8006.000000;0.767647
8005.000000;0.767246
8004.000000;0.766756
8003.000000;0.766457
8002.000000;0.766415
8001.000000;0.766469
8000.000000;0.766532
7999.000000;0.766731
7998.000000;0.767193
7997.000000;0.767828
7996.000000;0.768429
7995.000000;0.768886
7994.000000;0.769202
7993.000000;0.769373
7992.000000;0.769373
7991.000000;0.769226
7990.000000;0.768987
7989.000000;0.768699
7988.000000;0.768434
7987.000000;0.768340
7986.000000;0.768515
7985.000000;0.768834
7984.000000;0.769021
7983.000000;0.768925
7982.000000;0.768669
7981.000000;0.768507
7980.000000;0.768587
7979.000000;0.768874
7978.000000;0.769226
7977.000000;0.769521
7976.000000;0.769726
7975.000000;0.769877
7974.000000;0.769988
7973.000000;0.769999
7972.000000;0.769863
7971.000000;0.769658
7970.000000;0.769551
7969.000000;0.769625
7968.000000;0.769786
7967.000000;0.769866
7966.000000;0.769786
7965.000000;0.769629
7964.000000;0.769544
7963.000000;0.769601
7962.000000;0.769732
7961.000000;0.769817
7960.000000;0.769805
7959.000000;0.769723
7958.000000;0.769575
7957.000000;0.769339
7956.000000;0.769104
7955.000000;0.769111
7954.000000;0.769511
7953.000000;0.770139
7952.000000;0.770624
7951.000000;0.770747
7950.000000;0.770597
7949.000000;0.770377
7948.000000;0.770207
7947.000000;0.770118
7946.000000;0.770123
7945.000000;0.770217
7944.000000;0.770356
7943.000000;0.770501
7942.000000;0.770654
7941.000000;0.770820
7940.000000;0.770994
7939.000000;0.771177
7938.000000;0.771359
7937.000000;0.771462
7936.000000;0.771407
7935.000000;0.771253
7934.000000;0.771186
7933.000000;0.771326
7932.000000;0.771606
7931.000000;0.771887
7930.000000;0.772098
7929.000000;0.772222
7928.000000;0.772237
7927.000000;0.772173
7926.000000;0.772134
7925.000000;0.772180
7924.000000;0.772238
7923.000000;0.772241
7922.000000;0.772303
7921.000000;0.772598
7920.000000;0.773079
7919.000000;0.773457
7918.000000;0.773526
7917.000000;0.773386
7916.000000;0.773290
7915.000000;0.773327
7914.000000;0.773355
7913.000000;0.773235
7912.000000;0.773022
7911.000000;0.772898
7910.000000;0.772957
7909.000000;0.773132
7908.000000;0.773311
7907.000000;0.773483
7906.000000;0.773692
7905.000000;0.773895
7904.000000;0.773967
7903.000000;0.773852
7902.000000;0.773653
7901.000000;0.773526
7900.000000;0.773535
7899.000000;0.773653
7898.000000;0.773833
7897.000000;0.774002
7896.000000;0.774060
7895.000000;0.773975
7894.000000;0.773836
7893.000000;0.773758
7892.000000;0.773753
7891.000000;0.773781
7890.000000;0.773893
7889.000000;0.774179
7888.000000;0.774577
7887.000000;0.774871
7886.000000;0.774948
7885.000000;0.774948
7884.000000;0.775088
7883.000000;0.775380
7882.000000;0.775641
7881.000000;0.775724
7880.000000;0.775678
7879.000000;0.775654
7878.000000;0.775752
7877.000000;0.775962
7876.000000;0.776196
7875.000000;0.776352
7874.000000;0.776364
7873.000000;0.776248
7872.000000;0.776099
7871.000000;0.776050
7870.000000;0.776199
7869.000000;0.776551
7868.000000;0.776990
7867.000000;0.777337
7866.000000;0.777483
7865.000000;0.777471
7864.000000;0.777435
7863.000000;0.777432
7862.000000;0.777386
7861.000000;0.777205
7860.000000;0.776945
7859.000000;0.776819
7858.000000;0.777011
7857.000000;0.777479
7856.000000;0.777953
7855.000000;0.778157
7854.000000;0.778037
7853.000000;0.777800
7852.000000;0.777717
7851.000000;0.777895
7850.000000;0.778228
7849.000000;0.778533
7848.000000;0.778728
7847.000000;0.778857
7846.000000;0.778963
7845.000000;0.778993
7844.000000;0.778886
7843.000000;0.778720
7842.000000;0.778710
7841.000000;0.779009
7840.000000;0.779529
7839.000000;0.780014
7838.000000;0.780279
7837.000000;0.780337
7836.000000;0.780316
7835.000000;0.780305
7834.000000;0.780306
7833.000000;0.780293
7832.000000;0.780274
7831.000000;0.780315
7830.000000;0.780486
7829.000000;0.780779
7828.000000;0.781057
7827.000000;0.781149
7826.000000;0.781012
7825.000000;0.780794
7824.000000;0.780699
7823.000000;0.780816
7822.000000;0.781072
7821.000000;0.781336
7820.000000;0.781514
7819.000000;0.781599
7818.000000;0.781645
7817.000000;0.781704
7816.000000;0.781761
7815.000000;0.781769
7814.000000;0.781762
7813.000000;0.781873
7812.000000;0.782193
7811.000000;0.782644
7810.000000;0.783066
7809.000000;0.783399
7808.000000;0.783686
7807.000000;0.783908
7806.000000;0.783942
7805.000000;0.783721
7804.000000;0.783337
7803.000000;0.782938
7802.000000;0.782610
7801.000000;0.782438
7800.000000;0.782583
7799.000000;0.783142
7798.000000;0.783960
7797.000000;0.784689
7796.000000;0.785083
7795.000000;0.785152
7794.000000;0.785046
7793.000000;0.784864
7792.000000;0.784642
7791.000000;0.784422
7790.000000;0.784274
7789.000000;0.784255
7788.000000;0.784404
7787.000000;0.784742
7786.000000;0.785230
7785.000000;0.785734
7784.000000;0.786080
7783.000000;0.786162
7782.000000;0.786021
7781.000000;0.785819
7780.000000;0.785746
7779.000000;0.785896
7778.000000;0.786201
7777.000000;0.786496
7776.000000;0.786679
7775.000000;0.786795
7774.000000;0.786954
7773.000000;0.787185
7772.000000;0.787398
7771.000000;0.787495
7770.000000;0.787460
7769.000000;0.787347
7768.000000;0.787212
7767.000000;0.787087
7766.000000;0.787012
7765.000000;0.787035
7764.000000;0.787176
7763.000000;0.787392
7762.000000;0.787610
7761.000000;0.787814
7760.000000;0.788060
7759.000000;0.788377
7758.000000;0.788684
7757.000000;0.788837
7756.000000;0.788770
7755.000000;0.788566
7754.000000;0.788387
7753.000000;0.788377
7752.000000;0.788617
7751.000000;0.789105
7750.000000;0.789712
7749.000000;0.790212
7748.000000;0.790438
7747.000000;0.790418
7746.000000;0.790340
7745.000000;0.790369
7744.000000;0.790523
7743.000000;0.790719
7742.000000;0.790875
7741.000000;0.790953
7740.000000;0.790941
7739.000000;0.790874
7738.000000;0.790847
7737.000000;0.790971
7736.000000;0.791270
7735.000000;0.791658
7734.000000;0.792027
7733.000000;0.792343
7732.000000;0.792612
7731.000000;0.792783
7730.000000;0.792776
7729.000000;0.792634
7728.000000;0.792573
7727.000000;0.792787
7726.000000;0.793227
7725.000000;0.793651
7724.000000;0.793897
7723.000000;0.794038
7722.000000;0.794236
7721.000000;0.794525
7720.000000;0.794789
7719.000000;0.794918
7718.000000;0.794911
7717.000000;0.794852
7716.000000;0.794846
7715.000000;0.794980
7714.000000;0.795268
7713.000000;0.795619
7712.000000;0.795876
7711.000000;0.795946
7710.000000;0.795885
7709.000000;0.795846
7708.000000;0.795947
7707.000000;0.796207
7706.000000;0.796580
7705.000000;0.797020
7704.000000;0.797467
7703.000000;0.797790
7702.000000;0.797818
7701.000000;0.797521
7700.000000;0.797129
7699.000000;0.797006
7698.000000;0.797344
7697.000000;0.798010
7696.000000;0.798684
7695.000000;0.799128
7694.000000;0.799302
7693.000000;0.799329
7692.000000;0.799392
7691.000000;0.799633
7690.000000;0.800036
7689.000000;0.800409
7688.000000;0.800547
7687.000000;0.800437
7686.000000;0.800273
7685.000000;0.800259
7684.000000;0.800418
7683.000000;0.800596
7682.000000;0.800628
7681.000000;0.800501
7680.000000;0.800387
7679.000000;0.800520
7678.000000;0.800992
7677.000000;0.801646
7676.000000;0.802187
7675.000000;0.802445
7674.000000;0.802507
7673.000000;0.802596
7672.000000;0.802842
7671.000000;0.803186
7670.000000;0.803469
7669.000000;0.803589
7668.000000;0.803575
7667.000000;0.803536
7666.000000;0.803585
7665.000000;0.803792
7664.000000;0.804181
7663.000000;0.804710
7662.000000;0.805240
7661.000000;0.805599
7660.000000;0.805724
7659.000000;0.805738
7658.000000;0.805825
7657.000000;0.806004
7656.000000;0.806096
7655.000000;0.805951
7654.000000;0.805675
7653.000000;0.805585
7652.000000;0.805913
7651.000000;0.806584
7650.000000;0.807282
7649.000000;0.807727
7648.000000;0.807888
7647.000000;0.807934
7646.000000;0.808014
7645.000000;0.808126
7644.000000;0.808207
7643.000000;0.808293
7642.000000;0.808523
7641.000000;0.808952
7640.000000;0.809442
7639.000000;0.809765
7638.000000;0.809824
7637.000000;0.809716
7636.000000;0.809629
7635.000000;0.809695
7634.000000;0.809944
7633.000000;0.810335
7632.000000;0.810803
7631.000000;0.811298
7630.000000;0.811787
7629.000000;0.812237
7628.000000;0.812596
7627.000000;0.812822
7626.000000;0.812936
7625.000000;0.813020
7624.000000;0.813147
7623.000000;0.813331
7622.000000;0.813539
7621.000000;0.813750
7620.000000;0.813988
7619.000000;0.814311
7618.000000;0.814757
7617.000000;0.815278
7616.000000;0.815749
7615.000000;0.816049
7614.000000;0.816167
7613.000000;0.816202
7612.000000;0.816265
7611.000000;0.816405
7610.000000;0.816633
7609.000000;0.816962
7608.000000;0.817388
7607.000000;0.817873
7606.000000;0.818365
7605.000000;0.818834
7604.000000;0.819231
7603.000000;0.819472
7602.000000;0.819528
7601.000000;0.819496
7600.000000;0.819513
7599.000000;0.819603
7598.000000;0.819705
7597.000000;0.819835
7596.000000;0.820123
7595.000000;0.820630
7594.000000;0.821218
7593.000000;0.821685
7592.000000;0.821999
7591.000000;0.822315
7590.000000;0.822787
7589.000000;0.823414
7588.000000;0.824030
7587.000000;0.824420
7586.000000;0.824494
7585.000000;0.824411
7584.000000;0.824490
7583.000000;0.824908
7582.000000;0.825495
7581.000000;0.825909
7580.000000;0.826012
7579.000000;0.825986
7578.000000;0.826087
7577.000000;0.826402
7576.000000;0.826847
7575.000000;0.827325
7574.000000;0.827785
7573.000000;0.828208
7572.000000;0.828604
7571.000000;0.828996
7570.000000;0.829383
7569.000000;0.829738
7568.000000;0.830053
7567.000000;0.830343
7566.000000;0.830588
7565.000000;0.830722
7564.000000;0.830730
7563.000000;0.830720
7562.000000;0.830861
7561.000000;0.831253
7560.000000;0.831887
7559.000000;0.832652
7558.000000;0.833382
7557.000000;0.833946
7556.000000;0.834355
7555.000000;0.834735
7554.000000;0.835131
7553.000000;0.835423
7552.000000;0.835507
7551.000000;0.835515
7550.000000;0.835700
7549.000000;0.836118
7548.000000;0.836565
7547.000000;0.836885
7546.000000;0.837205
7545.000000;0.837743
7544.000000;0.838459
7543.000000;0.839050
7542.000000;0.839309
7541.000000;0.839366
7540.000000;0.839527
7539.000000;0.839954
7538.000000;0.840571
7537.000000;0.841201
7536.000000;0.841694
7535.000000;0.841962
7534.000000;0.842029
7533.000000;0.842072
7532.000000;0.842311
7531.000000;0.842776
7530.000000;0.843266
7529.000000;0.843594
7528.000000;0.843822
7527.000000;0.844172
7526.000000;0.844732
7525.000000;0.845363
7524.000000;0.845883
7523.000000;0.846236
7522.000000;0.846500
7521.000000;0.846787
7520.000000;0.847187
7519.000000;0.847713
7518.000000;0.848276
7517.000000;0.848755
7516.000000;0.849129
7515.000000;0.849478
7514.000000;0.849846
7513.000000;0.850176
7512.000000;0.850423
7511.000000;0.850668
7510.000000;0.851035
7509.000000;0.851548
7508.000000;0.852111
7507.000000;0.852633
7506.000000;0.853126
7505.000000;0.853689
7504.000000;0.854387
7503.000000;0.855124
7502.000000;0.855636
7501.000000;0.855713
7500.000000;0.855464
7499.000000;0.855296
7498.000000;0.855553
7497.000000;0.856226
7496.000000;0.857025
7495.000000;0.857696
7494.000000;0.858194
7493.000000;0.858633
7492.000000;0.859073
7491.000000;0.859529
7490.000000;0.859877
7489.000000;0.860004
7488.000000;0.860005
7487.000000;0.860102
7486.000000;0.860409
7485.000000;0.860793
7484.000000;0.861091
7483.000000;0.861383
7482.000000;0.861901
7481.000000;0.862694
7480.000000;0.863537
7479.000000;0.864196
7478.000000;0.864658
7477.000000;0.865058
7476.000000;0.865478
7475.000000;0.865907
7474.000000;0.866312
7473.000000;0.866668
7472.000000;0.866962
7471.000000;0.867230
7470.000000;0.867555
7469.000000;0.867985
7468.000000;0.868476
7467.000000;0.868967
7466.000000;0.869467
7465.000000;0.869998
7464.000000;0.870483
7463.000000;0.870775
7462.000000;0.870846
7461.000000;0.870882
7460.000000;0.871151
7459.000000;0.871739
7458.000000;0.872469
7457.000000;0.873087
7456.000000;0.873514
7455.000000;0.873887
7454.000000;0.874366
7453.000000;0.874959
7452.000000;0.875561
7451.000000;0.876087
7450.000000;0.876502
7449.000000;0.876787
7448.000000;0.876954
7447.000000;0.877119
7446.000000;0.877431
7445.000000;0.877935
7444.000000;0.878526
7443.000000;0.879082
7442.000000;0.879570
7441.000000;0.880010
7440.000000;0.880415
7439.000000;0.880789
7438.000000;0.881145
7437.000000;0.881485
7436.000000;0.881809
7435.000000;0.882156
7434.000000;0.882588
7433.000000;0.883097
7432.000000;0.883597
7431.000000;0.884035
7430.000000;0.884465
7429.000000;0.884957
7428.000000;0.885485
7427.000000;0.885956
7426.000000;0.886314
7425.000000;0.886547
7424.000000;0.886644
7423.000000;0.886627
7422.000000;0.886623
7421.000000;0.886807
7420.000000;0.887250
7419.000000;0.887867
7418.000000;0.888510
7417.000000;0.889080
7416.000000;0.889545
7415.000000;0.889921
7414.000000;0.890258
7413.000000;0.890617
7412.000000;0.891019
7411.000000;0.891432
7410.000000;0.891813
7409.000000;0.892143
7408.000000;0.892429
7407.000000;0.892700
7406.000000;0.893024
7405.000000;0.893473
7404.000000;0.894055
7403.000000;0.894660
7402.000000;0.895090
7401.000000;0.895200
7400.000000;0.895057
7399.000000;0.894976
7398.000000;0.895306
7397.000000;0.896103
7396.000000;0.897051
7395.000000;0.897754
7394.000000;0.898086
7393.000000;0.898209
7392.000000;0.898333
7391.000000;0.898575
7390.000000;0.898986
7389.000000;0.899564
7388.000000;0.900200
7387.000000;0.900723
7386.000000;0.901067
7385.000000;0.901326
7384.000000;0.901624
7383.000000;0.901989
7382.000000;0.902386
7381.000000;0.902773
7380.000000;0.903082
7379.000000;0.903228
7378.000000;0.903251
7377.000000;0.903369
7376.000000;0.903789
7375.000000;0.904488
7374.000000;0.905267
7373.000000;0.905942
7372.000000;0.906412
7371.000000;0.906624
7370.000000;0.906661
7369.000000;0.906808
7368.000000;0.907333
7367.000000;0.908185
7366.000000;0.909030
7365.000000;0.909581
7364.000000;0.909791
7363.000000;0.909797
7362.000000;0.909828
7361.000000;0.910151
7360.000000;0.910871
7359.000000;0.911720
7358.000000;0.912245
7357.000000;0.912296
7356.000000;0.912208
7355.000000;0.912397
7354.000000;0.912923
7353.000000;0.913539
7352.000000;0.914013
7351.000000;0.914305
7350.000000;0.914547
7349.000000;0.914960
7348.000000;0.915653
7347.000000;0.916425
7346.000000;0.916893
7345.000000;0.916926
7344.000000;0.916780
7343.000000;0.916750
7342.000000;0.916875
7341.000000;0.917132
7340.000000;0.917687
7339.000000;0.918666
7338.000000;0.919805
7337.000000;0.920660
7336.000000;0.921155
7335.000000;0.921667
7334.000000;0.922559
7333.000000;0.923785
7332.000000;0.924930
7331.000000;0.925523
7330.000000;0.925405
7329.000000;0.924960
7328.000000;0.924899
7327.000000;0.925606
7326.000000;0.926732
7325.000000;0.927607
7324.000000;0.927995
7323.000000;0.928233
7322.000000;0.928725
7321.000000;0.929529
7320.000000;0.930432
7319.000000;0.931219
7318.000000;0.931821
7317.000000;0.932361
7316.000000;0.933056
7315.000000;0.933989
7314.000000;0.934924
7313.000000;0.935523
7312.000000;0.935762
7311.000000;0.935940
7310.000000;0.936241
7309.000000;0.936552
7308.000000;0.936817
7307.000000;0.937301
7306.000000;0.938298
7305.000000;0.939732
7304.000000;0.941219
7303.000000;0.942465
7302.000000;0.943460
7301.000000;0.944359
7300.000000;0.945287
7299.000000;0.946228
7298.000000;0.947004
7297.000000;0.947407
7296.000000;0.947478
7295.000000;0.947632
7294.000000;0.948366
7293.000000;0.949770
7292.000000;0.951424
7291.000000;0.952790
7290.000000;0.953652
7289.000000;0.954220
7288.000000;0.954902
7287.000000;0.955940
7286.000000;0.957212
7285.000000;0.958398
7284.000000;0.959329
7283.000000;0.960119
7282.000000;0.960973
7281.000000;0.961973
7280.000000;0.963079
7279.000000;0.964249
7278.000000;0.965419
7277.000000;0.966446
7276.000000;0.967237
7275.000000;0.967956
7274.000000;0.968952
7273.000000;0.970422
7272.000000;0.972210
7271.000000;0.973971
7270.000000;0.975474
7269.000000;0.976724
7268.000000;0.977842
7267.000000;0.978915
7266.000000;0.979953
7265.000000;0.980954
7264.000000;0.981990
7263.000000;0.983199
7262.000000;0.984686
7261.000000;0.986410
7260.000000;0.988208
7259.000000;0.989923
7258.000000;0.991512
7257.000000;0.993039
7256.000000;0.994624
7255.000000;0.996346
7254.000000;0.998166
7253.000000;0.999929
7252.000000;1.001469
7251.000000;1.002743
7250.000000;1.003898
7249.000000;1.005205
7248.000000;1.006893
7247.000000;1.008911
7246.000000;1.010887
7245.000000;1.012487
7244.000000;1.013874
7243.000000;1.015621
7242.000000;1.018032
7241.000000;1.020692
7240.000000;1.022909
7239.000000;1.024528
7238.000000;1.026063
7237.000000;1.028049
7236.000000;1.030487
7235.000000;1.032938
7234.000000;1.035032
7233.000000;1.036846
7232.000000;1.038816
7231.000000;1.041252
7230.000000;1.043943
7229.000000;1.046330
7228.000000;1.048174
7227.000000;1.049917
7226.000000;1.052291
7225.000000;1.055614
7224.000000;1.059501
7223.000000;1.063230
7222.000000;1.066334
7221.000000;1.068898
7220.000000;1.071362
7219.000000;1.074098
7218.000000;1.077105
7217.000000;1.080063
7216.000000;1.082728
7215.000000;1.085260
7214.000000;1.088081
7213.000000;1.091420
7212.000000;1.095105
7211.000000;1.098806
7210.000000;1.102323
7209.000000;1.105573
7208.000000;1.108554
7207.000000;1.111449
7206.000000;1.114591
7205.000000;1.118124
7204.000000;1.121806
7203.000000;1.125320
7202.000000;1.128699
7201.000000;1.132263
7200.000000;1.136165
7199.000000;1.140223
7198.000000;1.144214
7197.000000;1.148168
7196.000000;1.152258
7195.000000;1.156532
7194.000000;1.160844
7193.000000;1.165010
7192.000000;1.169000
7191.000000;1.172996
7190.000000;1.177231
7189.000000;1.181733
7188.000000;1.186287
7187.000000;1.190671
7186.000000;1.194863
7185.000000;1.198931
7184.000000;1.202875
7183.000000;1.206721
7182.000000;1.210703
7181.000000;1.215106
7180.000000;1.219919
7179.000000;1.224812
7178.000000;1.229542
7177.000000;1.234260
7176.000000;1.239343
7175.000000;1.245001
7174.000000;1.251025
7173.000000;1.256875
7172.000000;1.262035
7171.000000;1.266421
7170.000000;1.270438
7169.000000;1.274562
7168.000000;1.278894
7167.000000;1.283232
7166.000000;1.287555
7165.000000;1.292143
7164.000000;1.297188
7163.000000;1.302565
7162.000000;1.308098
7161.000000;1.313778
7160.000000;1.319550
7159.000000;1.325129
7158.000000;1.330298
7157.000000;1.335319
7156.000000;1.340744
7155.000000;1.346809
7154.000000;1.353224
7153.000000;1.359497
7152.000000;1.365289
7151.000000;1.370506
7150.000000;1.375334
7149.000000;1.380234
7148.000000;1.385619
7147.000000;1.391408
7146.000000;1.397067
7145.000000;1.402207
7144.000000;1.406981
7143.000000;1.411757
7142.000000;1.416641
7141.000000;1.421590
7140.000000;1.426755
7139.000000;1.432316
7138.000000;1.438067
7137.000000;1.443546
7136.000000;1.448603
7135.000000;1.453597
7134.000000;1.459003
7133.000000;1.465019
7132.000000;1.471485
7131.000000;1.477969
7130.000000;1.483978
7129.000000;1.489317
7128.000000;1.494283
7127.000000;1.499331
7126.000000;1.504591
7125.000000;1.509906
7124.000000;1.515264
7123.000000;1.520845
7122.000000;1.526582
7121.000000;1.532014
7120.000000;1.536770
7119.000000;1.540980
7118.000000;1.545065
7117.000000;1.549268
7116.000000;1.553571
7115.000000;1.557922
7114.000000;1.562373
7113.000000;1.567011
7112.000000;1.571853
7111.000000;1.576806
7110.000000;1.581694
7109.000000;1.586413
7108.000000;1.591092
7107.000000;1.595997
7106.000000;1.601187
7105.000000;1.606369
7104.000000;1.611175
7103.000000;1.615482
7102.000000;1.619427
7101.000000;1.623235
7100.000000;1.627127
7099.000000;1.631256
7098.000000;1.635613
7097.000000;1.640043
7096.000000;1.644409
7095.000000;1.648708
7094.000000;1.653051
7093.000000;1.657640
7092.000000;1.662623
7091.000000;1.667807
7090.000000;1.672572
7089.000000;1.676432
7088.000000;1.679706
7087.000000;1.683258
7086.000000;1.687453
7085.000000;1.691688
7084.000000;1.695095
7083.000000;1.697499
7082.000000;1.699495
7081.000000;1.701852
7080.000000;1.705098
7079.000000;1.709464
7078.000000;1.714769
7077.000000;1.720298
7076.000000;1.725101
7075.000000;1.728731
7074.000000;1.731659
7073.000000;1.734803
7072.000000;1.738565
7071.000000;1.742428
7070.000000;1.745586
7069.000000;1.747868
7068.000000;1.749822
7067.000000;1.751956
7066.000000;1.754255
7065.000000;1.756524
7064.000000;1.758900
7063.000000;1.761720
7062.000000;1.765049
7061.000000;1.768632
7060.000000;1.772207
7059.000000;1.775604
7058.000000;1.778637
7057.000000;1.781245
7056.000000;1.783682
7055.000000;1.786295
7054.000000;1.789164
7053.000000;1.792129
7052.000000;1.794970
7051.000000;1.797363
7050.000000;1.798918
7049.000000;1.799661
7048.000000;1.800309
7047.000000;1.801652
7046.000000;1.803715
7045.000000;1.805890
7044.000000;1.807784
7043.000000;1.809530
7042.000000;1.811403
7041.000000;1.813674
7040.000000;1.816708
7039.000000;1.820511
7038.000000;1.824083
7037.000000;1.825949
7036.000000;1.825755
7035.000000;1.824863
7034.000000;1.825071
7033.000000;1.827174
7032.000000;1.830754
7031.000000;1.834678
7030.000000;1.837590
7029.000000;1.838649
7028.000000;1.838363
7027.000000;1.838286
7026.000000;1.839458
7025.000000;1.841483
7024.000000;1.843420
7023.000000;1.845143
7022.000000;1.847220
7021.000000;1.849812
7020.000000;1.852393
7019.000000;1.854487
7018.000000;1.856131
7017.000000;1.857610
7016.000000;1.859135
7015.000000;1.860728
7014.000000;1.862033
7013.000000;1.862390
7012.000000;1.861593
7011.000000;1.860546
7010.000000;1.860647
7009.000000;1.862482
7008.000000;1.865463
7007.000000;1.868654
7006.000000;1.871461
7005.000000;1.873503
7004.000000;1.874455
7003.000000;1.874411
7002.000000;1.874038
7001.000000;1.873989
7000.000000;1.874314
6999.000000;1.874695
6998.000000;1.874983
6997.000000;1.875179
6996.000000;1.875234
6995.000000;1.875245
6994.000000;1.875700
6993.000000;1.877111
6992.000000;1.879306
6991.000000;1.881489
6990.000000;1.883160
6989.000000;1.884597
6988.000000;1.886165
6987.000000;1.887526
6986.000000;1.887940
6985.000000;1.887218
6984.000000;1.886014
6983.000000;1.885234
6982.000000;1.885426
6981.000000;1.886634
6980.000000;1.888422
6979.000000;1.890018
6978.000000;1.890860
6977.000000;1.891084
6976.000000;1.891161
6975.000000;1.891005
6974.000000;1.889966
6973.000000;1.887959
6972.000000;1.886136
6971.000000;1.885928
6970.000000;1.887600
6969.000000;1.890061
6968.000000;1.891975
6967.000000;1.892805
6966.000000;1.892912
6965.000000;1.892969
6964.000000;1.893288
6963.000000;1.893506
6962.000000;1.892980
6961.000000;1.891661
6960.000000;1.890443
6959.000000;1.890447
6958.000000;1.891917
6957.000000;1.893981
6956.000000;1.895448
6955.000000;1.895730
6954.000000;1.895101
6953.000000;1.894399
6952.000000;1.894477
6951.000000;1.895601
6950.000000;1.897210
6949.000000;1.898462
6948.000000;1.899074
6947.000000;1.899430
6946.000000;1.899838
6945.000000;1.899985
6944.000000;1.899320
6943.000000;1.897785
6942.000000;1.895958
6941.000000;1.894585
6940.000000;1.894105
6939.000000;1.894501
6938.000000;1.895363
6937.000000;1.896090
6936.000000;1.896160
6935.000000;1.895385
6934.000000;1.894122
6933.000000;1.893188
6932.000000;1.893343
6931.000000;1.894685
6930.000000;1.896477
6929.000000;1.897625
6928.000000;1.897470
6927.000000;1.896263
6926.000000;1.895013
6925.000000;1.894785
6924.000000;1.895781
6923.000000;1.896936
6922.000000;1.896730
6921.000000;1.894696
6920.000000;1.891951
6919.000000;1.890098
6918.000000;1.889849
6917.000000;1.890788
6916.000000;1.892005
6915.000000;1.892679
6914.000000;1.892354
6913.000000;1.891231
6912.000000;1.890182
6911.000000;1.890068
6910.000000;1.890886
6909.000000;1.891753
6908.000000;1.891862
6907.000000;1.891277
6906.000000;1.890672
6905.000000;1.890413
6904.000000;1.890096
6903.000000;1.889135
6902.000000;1.887754
6901.000000;1.886990
6900.000000;1.887391
6899.000000;1.887968
6898.000000;1.887145
6897.000000;1.884941
6896.000000;1.883397
6895.000000;1.884295
6894.000000;1.887063
6893.000000;1.889447
6892.000000;1.889939
6891.000000;1.888924
6890.000000;1.887612
6889.000000;1.886711
6888.000000;1.886244
6887.000000;1.885890
6886.000000;1.885243
6885.000000;1.884230
6884.000000;1.883420
6883.000000;1.883540
6882.000000;1.884540
6881.000000;1.885478
6880.000000;1.885481
6879.000000;1.884499
6878.000000;1.883010
6877.000000;1.881418
6876.000000;1.879944
6875.000000;1.878747
6874.000000;1.877836
6873.000000;1.877083
6872.000000;1.876526
6871.000000;1.876504
6870.000000;1.877317
6869.000000;1.878809
6868.000000;1.880334
6867.000000;1.881077
6866.000000;1.880523
6865.000000;1.878893
6864.000000;1.877120
6863.000000;1.876118
6862.000000;1.875953
6861.000000;1.875845
6860.000000;1.875030
6859.000000;1.873445
6858.000000;1.871581
6857.000000;1.869901
6856.000000;1.868558
6855.000000;1.867546
6854.000000;1.866952
6853.000000;1.866971
6852.000000;1.867574
6851.000000;1.868159
6850.000000;1.867824
6849.000000;1.866270
6848.000000;1.864324
6847.000000;1.863308
6846.000000;1.863829
6845.000000;1.865272
6844.000000;1.866419
6843.000000;1.866388
6842.000000;1.865058
6841.000000;1.862895
6840.000000;1.860519
6839.000000;1.858401
6838.000000;1.856870
6837.000000;1.856164
6836.000000;1.856168
6835.000000;1.856196
6834.000000;1.855511
6833.000000;1.854190
6832.000000;1.853004
6831.000000;1.852278
6830.000000;1.851460
6829.000000;1.850171
6828.000000;1.849019
6827.000000;1.848645
6826.000000;1.848424
6825.000000;1.847022
6824.000000;1.844150
6823.000000;1.840939
6822.000000;1.838517
6821.000000;1.836991
6820.000000;1.835900
6819.000000;1.834966
6818.000000;1.834110
6817.000000;1.833269
6816.000000;1.832473
6815.000000;1.831736
6814.000000;1.830767
6813.000000;1.829221
6812.000000;1.827309
6811.000000;1.825653
6810.000000;1.824327
6809.000000;1.822524
6808.000000;1.819523
6807.000000;1.815703
6806.000000;1.812282
6805.000000;1.810232
6804.000000;1.809573
6803.000000;1.809455
6802.000000;1.808830
6801.000000;1.807248
6800.000000;1.805116
6799.000000;1.803045
6798.000000;1.801133
6797.000000;1.799207
6796.000000;1.797490
6795.000000;1.796377
6794.000000;1.795583
6793.000000;1.794198
6792.000000;1.791819
6791.000000;1.789046
6790.000000;1.786595
6789.000000;1.784436
6788.000000;1.782133
6787.000000;1.779573
6786.000000;1.776985
6785.000000;1.774626
6784.000000;1.772730
6783.000000;1.771419
6782.000000;1.770368
6781.000000;1.768975
6780.000000;1.767123
6779.000000;1.765351
6778.000000;1.763951
6777.000000;1.762408
6776.000000;1.760185
6775.000000;1.757591
6774.000000;1.755289
6773.000000;1.753300
6772.000000;1.751162
6771.000000;1.748802
6770.000000;1.746544
6769.000000;1.744350
6768.000000;1.741795
6767.000000;1.738854
6766.000000;1.736116
6765.000000;1.733982
6764.000000;1.732143
6763.000000;1.730083
6762.000000;1.727746
6761.000000;1.725440
6760.000000;1.723319
6759.000000;1.721252
6758.000000;1.719082
6757.000000;1.716851
6756.000000;1.714799
6755.000000;1.713143
6754.000000;1.711755
6753.000000;1.710113
6752.000000;1.707780
6751.000000;1.704981
6750.000000;1.702421
6749.000000;1.700461
6748.000000;1.698696
6747.000000;1.696521
6746.000000;1.693923
6745.000000;1.691457
6744.000000;1.689542
6743.000000;1.688006
6742.000000;1.686330
6741.000000;1.684148
6740.000000;1.681455
6739.000000;1.678482
6738.000000;1.675542
6737.000000;1.672930
6736.000000;1.670772
6735.000000;1.668914
6734.000000;1.667080
6733.000000;1.665199
6732.000000;1.663450
6731.000000;1.661893
6730.000000;1.660228
6729.000000;1.658121
6728.000000;1.655650
6727.000000;1.653159
6726.000000;1.650741
6725.000000;1.648225
6724.000000;1.645690
6723.000000;1.643579
6722.000000;1.642082
6721.000000;1.640747
6720.000000;1.638986
6719.000000;1.636732
6718.000000;1.634291
6717.000000;1.631723
6716.000000;1.628817
6715.000000;1.625635
6714.000000;1.622670
6713.000000;1.620332
6712.000000;1.618559
6711.000000;1.617036
6710.000000;1.615578
6709.000000;1.614171
6708.000000;1.612782
6707.000000;1.611280
6706.000000;1.609505
6705.000000;1.607329
6704.000000;1.604776
6703.000000;1.602118
6702.000000;1.599735
6701.000000;1.597799
6700.000000;1.596104
6699.000000;1.594353
6698.000000;1.592341
6697.000000;1.589985
6696.000000;1.587499
6695.000000;1.585114
6694.000000;1.583056
6693.000000;1.581291
6692.000000;1.579500
6691.000000;1.577373
6690.000000;1.574958
6689.000000;1.572639
6688.000000;1.570730
6687.000000;1.569172
6686.000000;1.567620
6685.000000;1.565797
6684.000000;1.563743
6683.000000;1.561747
6682.000000;1.560061
6681.000000;1.558658
6680.000000;1.557253
6679.000000;1.555557
6678.000000;1.553520
6677.000000;1.551332
6676.000000;1.549212
6675.000000;1.547249
6674.000000;1.545413
6673.000000;1.543646
6672.000000;1.541874
6671.000000;1.539967
6670.000000;1.537791
6669.000000;1.535331
6668.000000;1.532747
6667.000000;1.530264
6666.000000;1.528038
6665.000000;1.526132
6664.000000;1.524538
6663.000000;1.523178
6662.000000;1.521916
6661.000000;1.520626
6660.000000;1.519218
6659.000000;1.517562
6658.000000;1.515467
6657.000000;1.512893
6656.000000;1.510164
6655.000000;1.507777
6654.000000;1.505908
6653.000000;1.504247
6652.000000;1.502397
6651.000000;1.500312
6650.000000;1.498218
6649.000000;1.496235
6648.000000;1.494275
6647.000000;1.492283
6646.000000;1.490353
6645.000000;1.488564
6644.000000;1.486863
6643.000000;1.485214
6642.000000;1.483713
6641.000000;1.482423
6640.000000;1.481178
6639.000000;1.479686
6638.000000;1.477837
6637.000000;1.475825
6636.000000;1.473958
6635.000000;1.472383
6634.000000;1.471000
6633.000000;1.469568
6632.000000;1.467913
6631.000000;1.466053
6630.000000;1.464145
6629.000000;1.462287
6628.000000;1.460416
6627.000000;1.458462
6626.000000;1.456538
6625.000000;1.454852
6624.000000;1.453416
6623.000000;1.451972
6622.000000;1.450307
6621.000000;1.448516
6620.000000;1.446838
6619.000000;1.445282
6618.000000;1.443607
6617.000000;1.441684
6616.000000;1.439689
6615.000000;1.437853
6614.000000;1.436140
6613.000000;1.434333
6612.000000;1.432383
6611.000000;1.430520
6610.000000;1.428996
6609.000000;1.427805
6608.000000;1.426716
6607.000000;1.425508
6606.000000;1.424106
6605.000000;1.422533
6604.000000;1.420832
6603.000000;1.419070
6602.000000;1.417372
6601.000000;1.415874
6600.000000;1.414597
6599.000000;1.413385
6598.000000;1.411991
6597.000000;1.410247
6596.000000;1.408203
6595.000000;1.406111
6594.000000;1.404285
6593.000000;1.402899
6592.000000;1.401860
6591.000000;1.400828
6590.000000;1.399461
6589.000000;1.397680
6588.000000;1.395727
6587.000000;1.393949
6586.000000;1.392523
6585.000000;1.391376
6584.000000;1.390321
6583.000000;1.389234
6582.000000;1.388128
6581.000000;1.387080
6580.000000;1.386076
6579.000000;1.384929
6578.000000;1.383393
6577.000000;1.381410
6576.000000;1.379237
6575.000000;1.377268
6574.000000;1.375733
6573.000000;1.374549
6572.000000;1.373460
6571.000000;1.372261
6570.000000;1.370926
6569.000000;1.369533
6568.000000;1.368111
6567.000000;1.366594
6566.000000;1.364936
6565.000000;1.363230
6564.000000;1.361656
6563.000000;1.360281
6562.000000;1.358991
6561.000000;1.357656
6560.000000;1.356323
6559.000000;1.355161
6558.000000;1.354229
6557.000000;1.353340
6556.000000;1.352201
6555.000000;1.350680
6554.000000;1.348946
6553.000000;1.347356
6552.000000;1.346144
6551.000000;1.345197
6550.000000;1.344162
6549.000000;1.342799
6548.000000;1.341211
6547.000000;1.339701
6546.000000;1.338437
6545.000000;1.337327
6544.000000;1.336171
6543.000000;1.334872
6542.000000;1.333494
6541.000000;1.332177
6540.000000;1.331019
6539.000000;1.329997
6538.000000;1.328989
6537.000000;1.327866
6536.000000;1.326572
6535.000000;1.325107
6534.000000;1.323507
6533.000000;1.321885
6532.000000;1.320436
6531.000000;1.319304
6530.000000;1.318425
6529.000000;1.317569
6528.000000;1.316568
6527.000000;1.315454
6526.000000;1.314361
6525.000000;1.313345
6524.000000;1.312333
6523.000000;1.311219
6522.000000;1.309973
6521.000000;1.308644
6520.000000;1.307289
6519.000000;1.305925
6518.000000;1.304552
6517.000000;1.303227
6516.000000;1.302046
6515.000000;1.301021
6514.000000;1.300016
6513.000000;1.298871
6512.000000;1.297585
6511.000000;1.296315
6510.000000;1.295184
6509.000000;1.294158
6508.000000;1.293138
6507.000000;1.292117
6506.000000;1.291178
6505.000000;1.290358
6504.000000;1.289542
6503.000000;1.288560
6502.000000;1.287361
6501.000000;1.286071
6500.000000;1.284867
6499.000000;1.283814
6498.000000;1.282845
6497.000000;1.281866
6496.000000;1.280823
6495.000000;1.279674
6494.000000;1.278378
6493.000000;1.276968
6492.000000;1.275588
6491.000000;1.274406
6490.000000;1.273486
6489.000000;1.272773
6488.000000;1.272153
6487.000000;1.271508
6486.000000;1.270773
6485.000000;1.269967
6484.000000;1.269162
6483.000000;1.268376
6482.000000;1.267538
6481.000000;1.266588
6480.000000;1.265545
6479.000000;1.264468
6478.000000;1.263404
6477.000000;1.262426
6476.000000;1.261599
6475.000000;1.260833
6474.000000;1.259879
6473.000000;1.258612
6472.000000;1.257249
6471.000000;1.256124
6470.000000;1.255278
6469.000000;1.254455
6468.000000;1.253482
6467.000000;1.252469
6466.000000;1.251581
6465.000000;1.250801
6464.000000;1.249998
6463.000000;1.249112
6462.000000;1.248146
6461.000000;1.247084
6460.000000;1.245935
6459.000000;1.244769
6458.000000;1.243635
6457.000000;1.242518
6456.000000;1.241443
6455.000000;1.240524
6454.000000;1.239811
6453.000000;1.239186
6452.000000;1.238531
6451.000000;1.237904
6450.000000;1.237393
6449.000000;1.236859
6448.000000;1.236020
6447.000000;1.234802
6446.000000;1.233448
6445.000000;1.232227
6444.000000;1.231197
6443.000000;1.230285
6442.000000;1.229461
6441.000000;1.228714
6440.000000;1.227955
6439.000000;1.227093
6438.000000;1.226176
6437.000000;1.225368
6436.000000;1.224753
6435.000000;1.224232
6434.000000;1.223629
6433.000000;1.222867
6432.000000;1.222018
6431.000000;1.221213
6430.000000;1.220503
6429.000000;1.219816
6428.000000;1.219032
6427.000000;1.218098
6426.000000;1.217047
6425.000000;1.215932
6424.000000;1.214786
6423.000000;1.213685
6422.000000;1.212781
6421.000000;1.212185
6420.000000;1.211821
6419.000000;1.211457
6418.000000;1.210899
6417.000000;1.210140
6416.000000;1.209297
6415.000000;1.208471
6414.000000;1.207693
6413.000000;1.206973
6412.000000;1.206316
6411.000000;1.205679
6410.000000;1.204971
6409.000000;1.204141
6408.000000;1.203254
6407.000000;1.202465
6406.000000;1.201888
6405.000000;1.201490
6404.000000;1.201093
6403.000000;1.200491
6402.000000;1.199606
6401.000000;1.198570
6400.000000;1.197612
6399.000000;1.196842
6398.000000;1.196165
6397.000000;1.195415
6396.000000;1.194552
6395.000000;1.193683
6394.000000;1.192906
6393.000000;1.192211
6392.000000;1.191528
6391.000000;1.190832
6390.000000;1.190165
6389.000000;1.189559
6388.000000;1.188974
6387.000000;1.188325
6386.000000;1.187565
6385.000000;1.186767
6384.000000;1.186100
6383.000000;1.185679
6382.000000;1.185430
6381.000000;1.185131
6380.000000;1.184608
6379.000000;1.183882
6378.000000;1.183117
6377.000000;1.182455
6376.000000;1.181898
6375.000000;1.181323
6374.000000;1.180591
6373.000000;1.179654
6372.000000;1.178599
6371.000000;1.177603
6370.000000;1.176818
6369.000000;1.176273
6368.000000;1.175871
6367.000000;1.175467
6366.000000;1.174966
6365.000000;1.174370
6364.000000;1.173750
6363.000000;1.173146
6362.000000;1.172534
6361.000000;1.171880
6360.000000;1.171212
6359.000000;1.170602
6358.000000;1.170061
6357.000000;1.169515
6356.000000;1.168882
6355.000000;1.168160
6354.000000;1.167413
6353.000000;1.166697
6352.000000;1.166021
6351.000000;1.165360
6350.000000;1.164701
6349.000000;1.164057
6348.000000;1.163448
6347.000000;1.162861
6346.000000;1.162252
6345.000000;1.161601
6344.000000;1.160960
6343.000000;1.160400
6342.000000;1.159924
6341.000000;1.159478
6340.000000;1.159039
6339.000000;1.158633
6338.000000;1.158246
6337.000000;1.157805
6336.000000;1.157290
6335.000000;1.156805
6334.000000;1.156451
6333.000000;1.156158
6332.000000;1.155716
6331.000000;1.155025
6330.000000;1.154236
6329.000000;1.153626
6328.000000;1.153347
6327.000000;1.153305
6326.000000;1.153244
6325.000000;1.152927
6324.000000;1.152289
6323.000000;1.151456
6322.000000;1.150640
6321.000000;1.149993
6320.000000;1.149524
6319.000000;1.149129
6318.000000;1.148670
6317.000000;1.148049
6316.000000;1.147257
6315.000000;1.146394
6314.000000;1.145629
6313.000000;1.145085
6312.000000;1.144750
6311.000000;1.144502
6310.000000;1.144212
6309.000000;1.143836
6308.000000;1.143408
6307.000000;1.142986
6306.000000;1.142604
6305.000000;1.142256
6304.000000;1.141895
6303.000000;1.141456
6302.000000;1.140911
6301.000000;1.140314
6300.000000;1.139780
6299.000000;1.139384
6298.000000;1.139092
6297.000000;1.138787
6296.000000;1.138381
6295.000000;1.137879
6294.000000;1.137334
6293.000000;1.136768
6292.000000;1.136164
6291.000000;1.135540
6290.000000;1.135002
6289.000000;1.134669
6288.000000;1.134532
6287.000000;1.134425
6286.000000;1.134181
6285.000000;1.133802
6284.000000;1.133426
6283.000000;1.133132
6282.000000;1.132849
6281.000000;1.132480
6280.000000;1.132040
6279.000000;1.131606
6278.000000;1.131185
6277.000000;1.130720
6276.000000;1.130195
6275.000000;1.129666
6274.000000;1.129170
6273.000000;1.128695
6272.000000;1.128240
6271.000000;1.127827
6270.000000;1.127435
6269.000000;1.126989
6268.000000;1.126444
6267.000000;1.125858
6266.000000;1.125325
6265.000000;1.124889
6264.000000;1.124542
6263.000000;1.124255
6262.000000;1.123967
6261.000000;1.123588
6260.000000;1.123086
6259.000000;1.122564
6258.000000;1.122191
6257.000000;1.122062
6256.000000;1.122134
6255.000000;1.122271
6254.000000;1.122300
6253.000000;1.122093
6252.000000;1.121656
6251.000000;1.121151
6250.000000;1.120747
6249.000000;1.120434
6248.000000;1.120050
6247.000000;1.119512
6246.000000;1.118926
6245.000000;1.118456
6244.000000;1.118119
6243.000000;1.117792
6242.000000;1.117391
6241.000000;1.116958
6240.000000;1.116579
6239.000000;1.116280
6238.000000;1.116030
6237.000000;1.115813
6236.000000;1.115628
6235.000000;1.115438
6234.000000;1.115166
6233.000000;1.114774
6232.000000;1.114336
6231.000000;1.113986
6230.000000;1.113793
6229.000000;1.113716
6228.000000;1.113653
6227.000000;1.113525
6226.000000;1.113289
6225.000000;1.112948
6224.000000;1.112569
6223.000000;1.112265
6222.000000;1.112082
6221.000000;1.111932
6220.000000;1.111690
6219.000000;1.111349
6218.000000;1.111032
6217.000000;1.110814
6216.000000;1.110617
6215.000000;1.110304
6214.000000;1.109847
6213.000000;1.109349
6212.000000;1.108924
6211.000000;1.108604
6210.000000;1.108351
6209.000000;1.108098
6208.000000;1.107778
6207.000000;1.107373
6206.000000;1.106950
6205.000000;1.106598
6204.000000;1.106324
6203.000000;1.106034
6202.000000;1.105650
6201.000000;1.105214
6200.000000;1.104834
6199.000000;1.104557
6198.000000;1.104326
6197.000000;1.104068
6196.000000;1.103786
6195.000000;1.103536
6194.000000;1.103358
6193.000000;1.103227
6192.000000;1.103079
6191.000000;1.102873
6190.000000;1.102623
6189.000000;1.102390
6188.000000;1.102217
6187.000000;1.102094
6186.000000;1.101969
6185.000000;1.101788
6184.000000;1.101529
6183.000000;1.101200
6182.000000;1.100848
6181.000000;1.100552
6180.000000;1.100364
6179.000000;1.100255
6178.000000;1.100132
6177.000000;1.099941
6176.000000;1.099719
6175.000000;1.099537
6174.000000;1.099402
6173.000000;1.099253
6172.000000;1.099035
6171.000000;1.098750
6170.000000;1.098451
6169.000000;1.098202
6168.000000;1.098043
6167.000000;1.097957
6166.000000;1.097861
6165.000000;1.097676
6164.000000;1.097415
6163.000000;1.097193
6162.000000;1.097107
6161.000000;1.097134
6160.000000;1.097142
6159.000000;1.097006
6158.000000;1.096690
6157.000000;1.096235
6156.000000;1.095724
6155.000000;1.095251
6154.000000;1.094917
6153.000000;1.094774
6152.000000;1.094769
6151.000000;1.094759
6150.000000;1.094630
6149.000000;1.094398
6148.000000;1.094175
6147.000000;1.094042
6146.000000;1.093970
6145.000000;1.093882
6144.000000;1.093746
6143.000000;1.093573
6142.000000;1.093361
6141.000000;1.093084
6140.000000;1.092762
6139.000000;1.092489
6138.000000;1.092369
6137.000000;1.092397
6136.000000;1.092451
6135.000000;1.092401
6134.000000;1.092225
6133.000000;1.092000
6132.000000;1.091795
6131.000000;1.091599
6130.000000;1.091381
6129.000000;1.091172
6128.000000;1.091036
6127.000000;1.090964
6126.000000;1.090849
6125.000000;1.090600
6124.000000;1.090253
6123.000000;1.089930
6122.000000;1.089701
6121.000000;1.089519
6120.000000;1.089284
6119.000000;1.088961
6118.000000;1.088625
6117.000000;1.088405
6116.000000;1.088343
6115.000000;1.088333
6114.000000;1.088207
6113.000000;1.087925
6112.000000;1.087625
6111.000000;1.087471
6110.000000;1.087487
6109.000000;1.087570
6108.000000;1.087626
6107.000000;1.087631
6106.000000;1.087572
6105.000000;1.087436
6104.000000;1.087255
6103.000000;1.087117
6102.000000;1.087080
6101.000000;1.087109
6100.000000;1.087112
6099.000000;1.087010
6098.000000;1.086784
6097.000000;1.086484
6096.000000;1.086216
6095.000000;1.086068
6094.000000;1.086029
6093.000000;1.085989
6092.000000;1.085842
6091.000000;1.085578
6090.000000;1.085263
6089.000000;1.084980
6088.000000;1.084781
6087.000000;1.084669
6086.000000;1.084615
6085.000000;1.084608
6084.000000;1.084680
6083.000000;1.084849
6082.000000;1.085022
6081.000000;1.085054
6080.000000;1.084907
6079.000000;1.084700
6078.000000;1.084554
6077.000000;1.084460
6076.000000;1.084340
6075.000000;1.084190
6074.000000;1.084063
6073.000000;1.083957
6072.000000;1.083798
6071.000000;1.083565
6070.000000;1.083344
6069.000000;1.083236
6068.000000;1.083255
6067.000000;1.083330
6066.000000;1.083380
6065.000000;1.083359
6064.000000;1.083272
6063.000000;1.083182
6062.000000;1.083153
6061.000000;1.083181
6060.000000;1.083186
6059.000000;1.083097
6058.000000;1.082922
6057.000000;1.082714
6056.000000;1.082495
6055.000000;1.082262
6054.000000;1.082046
6053.000000;1.081918
6052.000000;1.081934
6051.000000;1.082085
6050.000000;1.082307
6049.000000;1.082528
6048.000000;1.082677
6047.000000;1.082707
6046.000000;1.082623
6045.000000;1.082488
6044.000000;1.082366
6043.000000;1.082275
6042.000000;1.082198
6041.000000;1.082137
6040.000000;1.082103
6039.000000;1.082067
6038.000000;1.081972
6037.000000;1.081819
6036.000000;1.081683
6035.000000;1.081628
6034.000000;1.081629
6033.000000;1.081627
6032.000000;1.081620
6031.000000;1.081639
6030.000000;1.081662
6029.000000;1.081630
6028.000000;1.081538
6027.000000;1.081457
6026.000000;1.081426
6025.000000;1.081411
6024.000000;1.081372
6023.000000;1.081328
6022.000000;1.081330
6021.000000;1.081394
6020.000000;1.081495
6019.000000;1.081580
6018.000000;1.081576
6017.000000;1.081446
6016.000000;1.081269
6015.000000;1.081211
6014.000000;1.081352
6013.000000;1.081587
6012.000000;1.081749
6011.000000;1.081801
6010.000000;1.081864
6009.000000;1.082039
6008.000000;1.082293
6007.000000;1.082500
6006.000000;1.082561
6005.000000;1.082472
6004.000000;1.082324
6003.000000;1.082242
6002.000000;1.082282
6001.000000;1.082376
6000.000000;1.082403
5999.000000;1.082338
5998.000000;1.082279
5997.000000;1.082335
5996.000000;1.082514
5995.000000;1.082730
5994.000000;1.082895
5993.000000;1.082970
5992.000000;1.082963
5991.000000;1.082915
5990.000000;1.082886
5989.000000;1.082914
5988.000000;1.082991
5987.000000;1.083087
5986.000000;1.083193
5985.000000;1.083343
5984.000000;1.083561
5983.000000;1.083807
5982.000000;1.083975
5981.000000;1.083999
5980.000000;1.083941
5979.000000;1.083955
5978.000000;1.084140
5977.000000;1.084437
5976.000000;1.084703
5975.000000;1.084844
5974.000000;1.084876
5973.000000;1.084876
5972.000000;1.084910
5971.000000;1.085003
5970.000000;1.085134
5969.000000;1.085261
5968.000000;1.085380
5967.000000;1.085534
5966.000000;1.085753
5965.000000;1.085994
5964.000000;1.086187
5963.000000;1.086345
5962.000000;1.086567
5961.000000;1.086911
5960.000000;1.087314
5959.000000;1.087659
5958.000000;1.087897
5957.000000;1.088072
5956.000000;1.088247
5955.000000;1.088427
5954.000000;1.088574
5953.000000;1.088670
5952.000000;1.088737
5951.000000;1.088811
5950.000000;1.088907
5949.000000;1.089031
5948.000000;1.089222
5947.000000;1.089529
5946.000000;1.089922
5945.000000;1.090280
5944.000000;1.090507
5943.000000;1.090644
5942.000000;1.090816
5941.000000;1.091067
5940.000000;1.091317
5939.000000;1.091498
5938.000000;1.091666
5937.000000;1.091920
5936.000000;1.092261
5935.000000;1.092580
5934.000000;1.092781
5933.000000;1.092888
5932.000000;1.093012
5931.000000;1.093239
5930.000000;1.093554
5929.000000;1.093866
5928.000000;1.094110
5927.000000;1.094309
5926.000000;1.094534
5925.000000;1.094837
5924.000000;1.095214
5923.000000;1.095621
5922.000000;1.095977
5921.000000;1.096181
5920.000000;1.096190
5919.000000;1.096088
5918.000000;1.096022
5917.000000;1.096069
5916.000000;1.096200
5915.000000;1.096387
5914.000000;1.096652
5913.000000;1.096988
5912.000000;1.097293
5911.000000;1.097460
5910.000000;1.097502
5909.000000;1.097512
5908.000000;1.097538
5907.000000;1.097562
5906.000000;1.097582
5905.000000;1.097646
5904.000000;1.097774
5903.000000;1.097916
5902.000000;1.098015
5901.000000;1.098078
5900.000000;1.098171
5899.000000;1.098339
5898.000000;1.098554
5897.000000;1.098732
5896.000000;1.098802
5895.000000;1.098774
5894.000000;1.098716
5893.000000;1.098674
5892.000000;1.098631
5891.000000;1.098578
5890.000000;1.098568
5889.000000;1.098655
5888.000000;1.098812
5887.000000;1.098969
5886.000000;1.099121
5885.000000;1.099341
5884.000000;1.099663
5883.000000;1.100028
5882.000000;1.100365
5881.000000;1.100645
5880.000000;1.100851
5879.000000;1.100955
5878.000000;1.100984
5877.000000;1.101063
5876.000000;1.101291
5875.000000;1.101599
5874.000000;1.101796
5873.000000;1.101785
5872.000000;1.101693
5871.000000;1.101765
5870.000000;1.102129
5869.000000;1.102692
5868.000000;1.103236
5867.000000;1.103611
5866.000000;1.103825
5865.000000;1.103981
5864.000000;1.104168
5863.000000;1.104431
5862.000000;1.104798
5861.000000;1.105271
5860.000000;1.105777
5859.000000;1.106176
5858.000000;1.106379
5857.000000;1.106447
5856.000000;1.106552
5855.000000;1.106836
5854.000000;1.107311
5853.000000;1.107852
5852.000000;1.108288
5851.000000;1.108538
5850.000000;1.108684
5849.000000;1.108904
5848.000000;1.109296
5847.000000;1.109799
5846.000000;1.110274
5845.000000;1.110653
5844.000000;1.110967
5843.000000;1.111277
5842.000000;1.111626
5841.000000;1.112050
5840.000000;1.112566
5839.000000;1.113148
5838.000000;1.113717
5837.000000;1.114194
5836.000000;1.114561
5835.000000;1.114875
5834.000000;1.115234
5833.000000;1.115687
5832.000000;1.116171
5831.000000;1.116570
5830.000000;1.116860
5829.000000;1.117130
5828.000000;1.117444
5827.000000;1.117739
5826.000000;1.117946
5825.000000;1.118160
5824.000000;1.118577
5823.000000;1.119260
5822.000000;1.120062
5821.000000;1.120798
5820.000000;1.121405
5819.000000;1.121922
5818.000000;1.122395
5817.000000;1.122854
5816.000000;1.123326
5815.000000;1.123814
5814.000000;1.124305
5813.000000;1.124816
5812.000000;1.125381
5811.000000;1.125967
5810.000000;1.126476
5809.000000;1.126878
5808.000000;1.127273
5807.000000;1.127777
5806.000000;1.128376
5805.000000;1.128963
5804.000000;1.129473
5803.000000;1.129921
5802.000000;1.130358
5801.000000;1.130830
5800.000000;1.131361
5799.000000;1.131920
5798.000000;1.132435
5797.000000;1.132890
5796.000000;1.133369
5795.000000;1.133941
5794.000000;1.134556
5793.000000;1.135128
5792.000000;1.135677
5791.000000;1.136292
5790.000000;1.136976
5789.000000;1.137623
5788.000000;1.138154
5787.000000;1.138596
5786.000000;1.139010
5785.000000;1.139441
5784.000000;1.139940
5783.000000;1.140548
5782.000000;1.141236
5781.000000;1.141924
5780.000000;1.142569
5779.000000;1.143198
5778.000000;1.143826
5777.000000;1.144443
5776.000000;1.145065
5775.000000;1.145733
5774.000000;1.146411
5773.000000;1.146977
5772.000000;1.147369
5771.000000;1.147677
5770.000000;1.148042
5769.000000;1.148512
5768.000000;1.149048
5767.000000;1.149607
5766.000000;1.150174
5765.000000;1.150736
5764.000000;1.151286
5763.000000;1.151836
5762.000000;1.152391
5761.000000;1.152937
5760.000000;1.153483
5759.000000;1.154068
5758.000000;1.154690
5757.000000;1.155274
5756.000000;1.155767
5755.000000;1.156221
5754.000000;1.156725
5753.000000;1.157290
5752.000000;1.157849
5751.000000;1.158372
5750.000000;1.158896
5749.000000;1.159473
5748.000000;1.160112
5747.000000;1.160787
5746.000000;1.161447
5745.000000;1.162041
5744.000000;1.162562
5743.000000;1.163074
5742.000000;1.163649
5741.000000;1.164302
5740.000000;1.164985
5739.000000;1.165640
5738.000000;1.166237
5737.000000;1.166778
5736.000000;1.167340
5735.000000;1.168034
5734.000000;1.168897
5733.000000;1.169805
5732.000000;1.170590
5731.000000;1.171208
5730.000000;1.171763
5729.000000;1.172348
5728.000000;1.172961
5727.000000;1.173572
5726.000000;1.174197
5725.000000;1.174873
5724.000000;1.175604
5723.000000;1.176351
5722.000000;1.177062
5721.000000;1.177696
5720.000000;1.178263
5719.000000;1.178852
5718.000000;1.179561
5717.000000;1.180376
5716.000000;1.181153
5715.000000;1.181757
5714.000000;1.182190
5713.000000;1.182562
5712.000000;1.182984
5711.000000;1.183517
5710.000000;1.184197
5709.000000;1.185028
5708.000000;1.185964
5707.000000;1.186933
5706.000000;1.187877
5705.000000;1.188752
5704.000000;1.189508
5703.000000;1.190132
5702.000000;1.190700
5701.000000;1.191332
5700.000000;1.192070
5699.000000;1.192851
5698.000000;1.193594
5697.000000;1.194302
5696.000000;1.195030
5695.000000;1.195803
5694.000000;1.196582
5693.000000;1.197364
5692.000000;1.198092
5691.000000;1.198701
5690.000000;1.199159
5689.000000;1.199536
5688.000000;1.199979
5687.000000;1.200572
5686.000000;1.201275
5685.000000;1.202008
5684.000000;1.202773
5683.000000;1.203619
5682.000000;1.204520
5681.000000;1.205358
5680.000000;1.206053
5679.000000;1.206641
5678.000000;1.207214
5677.000000;1.207818
5676.000000;1.208459
5675.000000;1.209146
5674.000000;1.209878
5673.000000;1.210610
5672.000000;1.211292
5671.000000;1.211944
5670.000000;1.212638
5669.000000;1.213406
5668.000000;1.214215
5667.000000;1.215041
5666.000000;1.215906
5665.000000;1.216802
5664.000000;1.217625
5663.000000;1.218261
5662.000000;1.218748
5661.000000;1.219277
5660.000000;1.220007
5659.000000;1.220898
5658.000000;1.221752
5657.000000;1.222411
5656.000000;1.222881
5655.000000;1.223280
5654.000000;1.223697
5653.000000;1.224128
5652.000000;1.224527
5651.000000;1.224907
5650.000000;1.225351
5649.000000;1.225928
5648.000000;1.226610
5647.000000;1.227287
5646.000000;1.227880
5645.000000;1.228405
5644.000000;1.228933
5643.000000;1.229506
5642.000000;1.230121
5641.000000;1.230778
5640.000000;1.231492
5639.000000;1.232244
5638.000000;1.232951
5637.000000;1.233513
5636.000000;1.233884
5635.000000;1.234114
5634.000000;1.234337
5633.000000;1.234702
5632.000000;1.235278
5631.000000;1.236007
5630.000000;1.236765
5629.000000;1.237487
5628.000000;1.238186
5627.000000;1.238862
5626.000000;1.239446
5625.000000;1.239890
5624.000000;1.240245
5623.000000;1.240606
5622.000000;1.240997
5621.000000;1.241364
5620.000000;1.241688
5619.000000;1.242018
5618.000000;1.242393
5617.000000;1.242780
5616.000000;1.243128
5615.000000;1.243436
5614.000000;1.243766
5613.000000;1.244187
5612.000000;1.244710
5611.000000;1.245269
5610.000000;1.245774
5609.000000;1.246201
5608.000000;1.246635
5607.000000;1.247181
5606.000000;1.247831
5605.000000;1.248457
5604.000000;1.248928
5603.000000;1.249219
5602.000000;1.249412
5601.000000;1.249610
5600.000000;1.249861
5599.000000;1.250128
5598.000000;1.250325
5597.000000;1.250400
5596.000000;1.250388
5595.000000;1.250385
5594.000000;1.250487
5593.000000;1.250759
5592.000000;1.251204
5591.000000;1.251726
5590.000000;1.252144
5589.000000;1.252341
5588.000000;1.252385
5587.000000;1.252457
5586.000000;1.252665
5585.000000;1.252966
5584.000000;1.253276
5583.000000;1.253568
5582.000000;1.253858
5581.000000;1.254154
5580.000000;1.254457
5579.000000;1.254766
5578.000000;1.255049
5577.000000;1.255250
5576.000000;1.255365
5575.000000;1.255460
5574.000000;1.255582
5573.000000;1.255712
5572.000000;1.255823
5571.000000;1.255940
5570.000000;1.256091
5569.000000;1.256236
5568.000000;1.256306
5567.000000;1.256293
5566.000000;1.256259
5565.000000;1.256279
5564.000000;1.256371
5563.000000;1.256492
5562.000000;1.256549
5561.000000;1.256484
5560.000000;1.256372
5559.000000;1.256411
5558.000000;1.256760
5557.000000;1.257350
5556.000000;1.257911
5555.000000;1.258180
5554.000000;1.258113
5553.000000;1.257891
5552.000000;1.257750
5551.000000;1.257774
5550.000000;1.257844
5549.000000;1.257787
5548.000000;1.257579
5547.000000;1.257350
5546.000000;1.257229
5545.000000;1.257247
5544.000000;1.257400
5543.000000;1.257708
5542.000000;1.258120
5541.000000;1.258463
5540.000000;1.258585
5539.000000;1.258544
5538.000000;1.258546
5537.000000;1.258695
5536.000000;1.258893
5535.000000;1.258977
5534.000000;1.258896
5533.000000;1.258720
5532.000000;1.258559
5531.000000;1.258506
5530.000000;1.258607
5529.000000;1.258823
5528.000000;1.259038
5527.000000;1.259125
5526.000000;1.259031
5525.000000;1.258807
5524.000000;1.258579
5523.000000;1.258479
5522.000000;1.258552
5521.000000;1.258736
5520.000000;1.258940
5519.000000;1.259156
5518.000000;1.259441
5517.000000;1.259782
5516.000000;1.260058
5515.000000;1.260139
5514.000000;1.260020
5513.000000;1.259819
5512.000000;1.259677
5511.000000;1.259662
5510.000000;1.259752
5509.000000;1.259884
5508.000000;1.260030
5507.000000;1.260214
5506.000000;1.260459
5505.000000;1.260749
5504.000000;1.261069
5503.000000;1.261439
5502.000000;1.261859
5501.000000;1.262245
5500.000000;1.262466
5499.000000;1.262487
5498.000000;1.262402
5497.000000;1.262296
5496.000000;1.262165
5495.000000;1.261999
5494.000000;1.261874
5493.000000;1.261878
5492.000000;1.261977
5491.000000;1.262049
5490.000000;1.262097
5489.000000;1.262301
5488.000000;1.262797
5487.000000;1.263484
5486.000000;1.264120
5485.000000;1.264580
5484.000000;1.264943
5483.000000;1.265316
5482.000000;1.265705
5481.000000;1.266073
5480.000000;1.266413
5479.000000;1.266690
5478.000000;1.266820
5477.000000;1.266801
5476.000000;1.266865
5475.000000;1.267285
5474.000000;1.268007
5473.000000;1.268662
5472.000000;1.269038
5471.000000;1.269335
5470.000000;1.269845
5469.000000;1.270528
5468.000000;1.271062
5467.000000;1.271247
5466.000000;1.271195
5465.000000;1.271154
5464.000000;1.271271
5463.000000;1.271562
5462.000000;1.272018
5461.000000;1.272671
5460.000000;1.273505
5459.000000;1.274389
5458.000000;1.275192
5457.000000;1.275932
5456.000000;1.276757
5455.000000;1.277745
5454.000000;1.278738
5453.000000;1.279471
5452.000000;1.279868
5451.000000;1.280123
5450.000000;1.280457
5449.000000;1.280881
5448.000000;1.281302
5447.000000;1.281799
5446.000000;1.282613
5445.000000;1.283770
5444.000000;1.284924
5443.000000;1.285757
5442.000000;1.286415
5441.000000;1.287347
5440.000000;1.288685
5439.000000;1.290027
5438.000000;1.290963
5437.000000;1.291621
5436.000000;1.292515
5435.000000;1.293944
5434.000000;1.295613
5433.000000;1.296914
5432.000000;1.297549
5431.000000;1.297835
5430.000000;1.298396
5429.000000;1.299597
5428.000000;1.301250
5427.000000;1.302855
5426.000000;1.304148
5425.000000;1.305337
5424.000000;1.306787
5423.000000;1.308571
5422.000000;1.310436
5421.000000;1.312126
5420.000000;1.313644
5419.000000;1.315171
5418.000000;1.316770
5417.000000;1.318266
5416.000000;1.319501
5415.000000;1.320643
5414.000000;1.322073
5413.000000;1.323916
5412.000000;1.325907
5411.000000;1.327821
5410.000000;1.329819
5409.000000;1.332160
5408.000000;1.334768
5407.000000;1.337354
5406.000000;1.339836
5405.000000;1.342386
5404.000000;1.345089
5403.000000;1.347799
5402.000000;1.350387
5401.000000;1.352905
5400.000000;1.355467
5399.000000;1.358114
5398.000000;1.360822
5397.000000;1.363557
5396.000000;1.366292
5395.000000;1.369055
5394.000000;1.372032
5393.000000;1.375423
5392.000000;1.379167
5391.000000;1.383009
5390.000000;1.386800
5389.000000;1.390588
5388.000000;1.394432
5387.000000;1.398361
5386.000000;1.402443
5385.000000;1.406676
5384.000000;1.410869
5383.000000;1.414840
5382.000000;1.418759
5381.000000;1.422997
5380.000000;1.427617
5379.000000;1.432289
5378.000000;1.436825
5377.000000;1.441518
5376.000000;1.446707
5375.000000;1.452276
5374.000000;1.457885
5373.000000;1.463538
5372.000000;1.469546
5371.000000;1.476005
5370.000000;1.482661
5369.000000;1.489288
5368.000000;1.495899
5367.000000;1.502569
5366.000000;1.509325
5365.000000;1.516215
5364.000000;1.523314
5363.000000;1.530604
5362.000000;1.538004
5361.000000;1.545569
5360.000000;1.553555
5359.000000;1.562135
5358.000000;1.571138
5357.000000;1.580176
5356.000000;1.589041
5355.000000;1.597932
5354.000000;1.607254
5353.000000;1.617166
5352.000000;1.627406
5351.000000;1.637661
5350.000000;1.647994
5349.000000;1.658679
5348.000000;1.669756
5347.000000;1.681074
5346.000000;1.692724
5345.000000;1.705086
5344.000000;1.718267
5343.000000;1.731767
5342.000000;1.745035
5341.000000;1.758237
5340.000000;1.772067
5339.000000;1.786886
5338.000000;1.802324
5337.000000;1.817737
5336.000000;1.832874
5335.000000;1.848043
5334.000000;1.863765
5333.000000;1.880347
5332.000000;1.897756
5331.000000;1.915797
5330.000000;1.934270
5329.000000;1.952991
5328.000000;1.971825
5327.000000;1.990737
5326.000000;2.009817
5325.000000;2.029321
5324.000000;2.049652
5323.000000;2.071142
5322.000000;2.093660
5321.000000;2.116547
5320.000000;2.139191
5319.000000;2.161620
5318.000000;2.184257
5317.000000;2.207238
5316.000000;2.230382
5315.000000;2.253753
5314.000000;2.277768
5313.000000;2.302611
5312.000000;2.327892
5311.000000;2.353001
5310.000000;2.377582
5309.000000;2.401829
5308.000000;2.426753
5307.000000;2.453707
5306.000000;2.482588
5305.000000;2.510677
5304.000000;2.534804
5303.000000;2.555152
5302.000000;2.575367
5301.000000;2.598325
5300.000000;2.623301
5299.000000;2.647569
5298.000000;2.669280
5297.000000;2.688128
5296.000000;2.704716
5295.000000;2.720588
5294.000000;2.737682
5293.000000;2.756451
5292.000000;2.775285
5291.000000;2.792278
5290.000000;2.806563
5289.000000;2.817885
5288.000000;2.826645
5287.000000;2.834814
5286.000000;2.844989
5285.000000;2.857913
5284.000000;2.872382
5283.000000;2.887606
5282.000000;2.903102
5281.000000;2.915997
5280.000000;2.922000
5279.000000;2.920747
5278.000000;2.916927
5277.000000;2.915147
5276.000000;2.917107
5275.000000;2.923440
5274.000000;2.934090
5273.000000;2.946030
5272.000000;2.954382
5271.000000;2.957367
5270.000000;2.957395
5269.000000;2.956525
5268.000000;2.953988
5267.000000;2.949770
5266.000000;2.946934
5265.000000;2.947654
5264.000000;2.950020
5263.000000;2.951234
5262.000000;2.951749
5261.000000;2.953244
5260.000000;2.954757
5259.000000;2.953843
5258.000000;2.949570
5257.000000;2.942472
5256.000000;2.933893
5255.000000;2.927055
5254.000000;2.926097
5253.000000;2.931717
5252.000000;2.939280
5251.000000;2.943398
5250.000000;2.943559
5249.000000;2.943411
5248.000000;2.945865
5247.000000;2.950895
5246.000000;2.956885
5245.000000;2.961912
5244.000000;2.964216
5243.000000;2.963440
5242.000000;2.961076
5241.000000;2.958562
5240.000000;2.956037
5239.000000;2.953579
5238.000000;2.951960
5237.000000;2.951444
5236.000000;2.951316
5235.000000;2.951248
5234.000000;2.951749
5233.000000;2.953069
5232.000000;2.955234
5231.000000;2.959142
5230.000000;2.965792
5229.000000;2.973709
5228.000000;2.978609
5227.000000;2.977281
5226.000000;2.971131
5225.000000;2.964544
5224.000000;2.960601
5223.000000;2.959346
5222.000000;2.959107
5221.000000;2.958177
5220.000000;2.956150
5219.000000;2.954650
5218.000000;2.955506
5217.000000;2.957565
5216.000000;2.957113
5215.000000;2.953092
5214.000000;2.949739
5213.000000;2.951485
5212.000000;2.956662
5211.000000;2.958575
5210.000000;2.953137
5209.000000;2.943353
5208.000000;2.935803
5207.000000;2.935315
5206.000000;2.942541
5205.000000;2.953954
5204.000000;2.963822
5203.000000;2.968154
5202.000000;2.967590
5201.000000;2.965641
5200.000000;2.964504
5199.000000;2.963250
5198.000000;2.959784
5197.000000;2.953858
5196.000000;2.947224
5195.000000;2.941799
5194.000000;2.938939
5193.000000;2.939573
5192.000000;2.943520
5191.000000;2.948654
5190.000000;2.952137
5189.000000;2.953413
5188.000000;2.955078
5187.000000;2.959672
5186.000000;2.965977
5185.000000;2.969490
5184.000000;2.967012
5183.000000;2.960497
5182.000000;2.955662
5181.000000;2.956546
5180.000000;2.961045
5179.000000;2.961699
5178.000000;2.953367
5177.000000;2.941043
5176.000000;2.936576
5175.000000;2.946860
5174.000000;2.966354
5173.000000;2.981372
5172.000000;2.983534
5171.000000;2.976990
5170.000000;2.970326
5169.000000;2.966824
5168.000000;2.964384
5167.000000;2.960481
5166.000000;2.954676
5165.000000;2.948210
5164.000000;2.943346
5163.000000;2.942050
5162.000000;2.944229
5161.000000;2.948088
5160.000000;2.952353
5159.000000;2.957178
5158.000000;2.962122
5157.000000;2.964714
5156.000000;2.963358
5155.000000;2.960342
5154.000000;2.959462
5153.000000;2.961753
5152.000000;2.964960
5151.000000;2.965928
5150.000000;2.962994
5149.000000;2.957279
5148.000000;2.952334
5147.000000;2.952663
5146.000000;2.961295
5145.000000;2.976784
5144.000000;2.992406
5143.000000;2.999580
5142.000000;2.993981
5141.000000;2.979469
5140.000000;2.964885
5139.000000;2.956369
5138.000000;2.953290
5137.000000;2.951656
5136.000000;2.950519
5135.000000;2.952743
5134.000000;2.959441
5133.000000;2.966957
5132.000000;2.970820
5131.000000;2.970078
5130.000000;2.965974
5129.000000;2.959578
5128.000000;2.952584
5127.000000;2.947488
5126.000000;2.944866
5125.000000;2.942184
5124.000000;2.937344
5123.000000;2.931870
5122.000000;2.928458
5121.000000;2.927456
5120.000000;2.927959
5119.000000;2.930456
5118.000000;2.935628
5117.000000;2.941950
5116.000000;2.947540
5115.000000;2.953061
5114.000000;2.959674
5113.000000;2.965301
5112.000000;2.966167
5111.000000;2.962451
5110.000000;2.959261
5109.000000;2.960950
5108.000000;2.966755
5107.000000;2.971924
5106.000000;2.971805
5105.000000;2.966071
5104.000000;2.959622
5103.000000;2.957718
5102.000000;2.960552
5101.000000;2.963927
5100.000000;2.965052
5099.000000;2.965201
5098.000000;2.965170
5097.000000;2.962029
5096.000000;2.953887
5095.000000;2.944015
5094.000000;2.937473
5093.000000;2.936550
5092.000000;2.940364
5091.000000;2.947243
5090.000000;2.955487
5089.000000;2.962355
5088.000000;2.965482
5087.000000;2.965474
5086.000000;2.964413
5085.000000;2.962757
5084.000000;2.960333
5083.000000;2.958493
5082.000000;2.958069
5081.000000;2.956748
5080.000000;2.952174
5079.000000;2.946996
5078.000000;2.946993
5077.000000;2.954251
5076.000000;2.964456
5075.000000;2.970901
5074.000000;2.970000
5073.000000;2.963052
5072.000000;2.955090
5071.000000;2.952013
5070.000000;2.956044
5069.000000;2.963526
5068.000000;2.968650
5067.000000;2.969093
5066.000000;2.965673
5065.000000;2.958174
5064.000000;2.946401
5063.000000;2.934665
5062.000000;2.929980
5061.000000;2.934897
5060.000000;2.944599
5059.000000;2.951659
5058.000000;2.952356
5057.000000;2.947450
5056.000000;2.939763
5055.000000;2.933301
5054.000000;2.931470
5053.000000;2.933581
5052.000000;2.934921
5051.000000;2.932418
5050.000000;2.928517
5049.000000;2.927180
5048.000000;2.928450
5047.000000;2.929352
5046.000000;2.928532
5045.000000;2.927058
5044.000000;2.925036
5043.000000;2.920689
5042.000000;2.913668
5041.000000;2.907436
5040.000000;2.906648
5039.000000;2.911919
5038.000000;2.918334
5037.000000;2.920715
5036.000000;2.919950
5035.000000;2.921377
5034.000000;2.926987
5033.000000;2.932213
5032.000000;2.932166
5031.000000;2.928634
5030.000000;2.926807
5029.000000;2.927063
5028.000000;2.924455
5027.000000;2.916809
5026.000000;2.909325
5025.000000;2.908253
5024.000000;2.913186
5023.000000;2.917799
5022.000000;2.916793
5021.000000;2.910683
5020.000000;2.904016
5019.000000;2.900724
5018.000000;2.901335
5017.000000;2.902817
5016.000000;2.901059
5015.000000;2.894497
5014.000000;2.885312
5013.000000;2.876993
5012.000000;2.871371
5011.000000;2.868209
5010.000000;2.866866
5009.000000;2.867245
5008.000000;2.868974
5007.000000;2.870911
5006.000000;2.872242
5005.000000;2.873776
5004.000000;2.877101
5003.000000;2.881708
5002.000000;2.883843
5001.000000;2.879807
5000.000000;2.870613
4999.000000;2.861472
4998.000000;2.856457
4997.000000;2.855647
4996.000000;2.857109
4995.000000;2.859406
4994.000000;2.861196
4993.000000;2.860496
4992.000000;2.856498
4991.000000;2.851168
4990.000000;2.847385
4989.000000;2.845225
4988.000000;2.841742
4987.000000;2.835268
4986.000000;2.827882
4985.000000;2.822424
4984.000000;2.819107
4983.000000;2.816432
4982.000000;2.814360
4981.000000;2.815065
4980.000000;2.820222
4979.000000;2.827936
4978.000000;2.832947
4977.000000;2.830580
4976.000000;2.820996
4975.000000;2.809260
4974.000000;2.800814
4973.000000;2.797401
4972.000000;2.797304
4971.000000;2.798055
4970.000000;2.797988
4969.000000;2.796016
4968.000000;2.791599
4967.000000;2.785568
4966.000000;2.780074
4965.000000;2.776649
4964.000000;2.774606
4963.000000;2.771912
4962.000000;2.767124
4961.000000;2.760839
4960.000000;2.755400
4959.000000;2.752235
4958.000000;2.749677
4957.000000;2.744700
4956.000000;2.737103
4955.000000;2.730315
4954.000000;2.727322
4953.000000;2.727213
4952.000000;2.726492
4951.000000;2.723153
4950.000000;2.718246
4949.000000;2.713562
4948.000000;2.709317
4947.000000;2.704493
4946.000000;2.698669
4945.000000;2.692960
4944.000000;2.689221
4943.000000;2.688344
4942.000000;2.689154
4941.000000;2.689262
4940.000000;2.687215
4939.000000;2.683275
4938.000000;2.678128
4937.000000;2.672213
4936.000000;2.666896
4935.000000;2.664673
4934.000000;2.666549
4933.000000;2.669621
4932.000000;2.669056
4931.000000;2.662983
4930.000000;2.653791
4929.000000;2.644400
4928.000000;2.635507
4927.000000;2.627011
4926.000000;2.620095
4925.000000;2.616471
4924.000000;2.616215
4923.000000;2.617402
4922.000000;2.617762
4921.000000;2.616082
4920.000000;2.612113
4919.000000;2.606177
4918.000000;2.599428
4917.000000;2.593854
4916.000000;2.591191
4915.000000;2.591496
4914.000000;2.592779
4913.000000;2.592224
4912.000000;2.588125
4911.000000;2.580913
4910.000000;2.572583
4909.000000;2.565361
4908.000000;2.560679
4907.000000;2.558613
4906.000000;2.557850
4905.000000;2.556661
4904.000000;2.554325
4903.000000;2.551410
4902.000000;2.548764
4901.000000;2.546593
4900.000000;2.544487
4899.000000;2.541882
4898.000000;2.538169
4897.000000;2.532805
4896.000000;2.525869
4895.000000;2.518388
4894.000000;2.511807
4893.000000;2.507131
4892.000000;2.504631
4891.000000;2.503964
4890.000000;2.504231
4889.000000;2.504053
4888.000000;2.502021
4887.000000;2.497474
4886.000000;2.491006
4885.000000;2.484157
4884.000000;2.478364
4883.000000;2.474016
4882.000000;2.470652
4881.000000;2.468094
4880.000000;2.466776
4879.000000;2.466536
4878.000000;2.465722
4877.000000;2.462494
4876.000000;2.456926
4875.000000;2.450937
4874.000000;2.446085
4873.000000;2.442313
4872.000000;2.438999
4871.000000;2.436289
4870.000000;2.434626
4869.000000;2.433578
4868.000000;2.431938
4867.000000;2.428848
4866.000000;2.424348
4865.000000;2.418997
4864.000000;2.413449
4863.000000;2.408270
4862.000000;2.403779
4861.000000;2.400070
4860.000000;2.397182
4859.000000;2.395017
4858.000000;2.393056
4857.000000;2.390605
4856.000000;2.387388
4855.000000;2.383528
4854.000000;2.378964
4853.000000;2.373537
4852.000000;2.367694
4851.000000;2.362325
4850.000000;2.357651
4849.000000;2.353066
4848.000000;2.348340
4847.000000;2.344076
4846.000000;2.340600
4845.000000;2.337311
4844.000000;2.333845
4843.000000;2.331029
4842.000000;2.329615
4841.000000;2.328604
4840.000000;2.326038
4839.000000;2.321449
4838.000000;2.316462
4837.000000;2.312843
4836.000000;2.310914
4835.000000;2.309907
4834.000000;2.308887
4833.000000;2.307030
4832.000000;2.303780
4831.000000;2.299293
4830.000000;2.294382
4829.000000;2.289717
4828.000000;2.285297
4827.000000;2.280927
4826.000000;2.276915
4825.000000;2.273947
4824.000000;2.272219
4823.000000;2.270873
4822.000000;2.268543
4821.000000;2.264733
4820.000000;2.260465
4819.000000;2.257154
4818.000000;2.254940
4817.000000;2.252725
4816.000000;2.249882
4815.000000;2.247134
4814.000000;2.245264
4813.000000;2.243662
4812.000000;2.240970
4811.000000;2.236842
4810.000000;2.232309
4809.000000;2.228527
4808.000000;2.225800
4807.000000;2.223625
4806.000000;2.221088
4805.000000;2.217392
4804.000000;2.212591
4803.000000;2.207742
4802.000000;2.203829
4801.000000;2.200687
4800.000000;2.197564
4799.000000;2.194512
4798.000000;2.192240
4797.000000;2.190576
4796.000000;2.188219
4795.000000;2.184413
4794.000000;2.179967
4793.000000;2.176046
4792.000000;2.172732
4791.000000;2.169378
4790.000000;2.165759
4789.000000;2.162174
4788.000000;2.158769
4787.000000;2.155473
4786.000000;2.152365
4785.000000;2.149505
4784.000000;2.146564
4783.000000;2.143217
4782.000000;2.139784
4781.000000;2.136915
4780.000000;2.134688
4779.000000;2.132571
4778.000000;2.130281
4777.000000;2.128126
4776.000000;2.126337
4775.000000;2.124516
4774.000000;2.122035
4773.000000;2.118694
4772.000000;2.114757
4771.000000;2.110628
4770.000000;2.106705
4769.000000;2.103357
4768.000000;2.100729
4767.000000;2.098501
4766.000000;2.096017
4765.000000;2.092751
4764.000000;2.088721
4763.000000;2.084536
4762.000000;2.081037
4761.000000;2.078698
4760.000000;2.077229
4759.000000;2.075801
4758.000000;2.073711
4757.000000;2.070836
4756.000000;2.067484
4755.000000;2.064015
4754.000000;2.060641
4753.000000;2.057420
4752.000000;2.054306
4751.000000;2.051287
4750.000000;2.048510
4749.000000;2.046193
4748.000000;2.044289
4747.000000;2.042336
4746.000000;2.039793
4745.000000;2.036570
4744.000000;2.033152
4743.000000;2.030211
4742.000000;2.028075
4741.000000;2.026453
4740.000000;2.024594
4739.000000;2.021879
4738.000000;2.018439
4737.000000;2.015088
4736.000000;2.012520
4735.000000;2.010680
4734.000000;2.009025
4733.000000;2.007220
4732.000000;2.005283
4731.000000;2.003151
4730.000000;2.000520
4729.000000;1.997265
4728.000000;1.993721
4727.000000;1.990363
4726.000000;1.987355
4725.000000;1.984574
4724.000000;1.981967
4723.000000;1.979741
4722.000000;1.978182
4721.000000;1.977289
4720.000000;1.976492
4719.000000;1.974850
4718.000000;1.971819
4717.000000;1.967890
4716.000000;1.964189
4715.000000;1.961400
4714.000000;1.959289
4713.000000;1.957299
4712.000000;1.955204
4711.000000;1.953024
4710.000000;1.950707
4709.000000;1.948331
4708.000000;1.946280
4707.000000;1.944740
4706.000000;1.943172
4705.000000;1.940874
4704.000000;1.938033
4703.000000;1.935635
4702.000000;1.934194
4701.000000;1.933106
4700.000000;1.931507
4699.000000;1.929348
4698.000000;1.927234
4697.000000;1.925487
4696.000000;1.923825
4695.000000;1.921890
4694.000000;1.919708
4693.000000;1.917593
4692.000000;1.915845
4691.000000;1.914558
4690.000000;1.913502
4689.000000;1.912131
4688.000000;1.909938
4687.000000;1.906953
4686.000000;1.903804
4685.000000;1.901167
4684.000000;1.899157
4683.000000;1.897311
4682.000000;1.895115
4681.000000;1.892508
4680.000000;1.889884
4679.000000;1.887683
4678.000000;1.886040
4677.000000;1.884785
4676.000000;1.883673
4675.000000;1.882586
4674.000000;1.881529
4673.000000;1.880487
4672.000000;1.879320
4671.000000;1.877806
4670.000000;1.875810
4669.000000;1.873461
4668.000000;1.871133
4667.000000;1.869165
4666.000000;1.867521
4665.000000;1.865784
4664.000000;1.863593
4663.000000;1.861096
4662.000000;1.858893
4661.000000;1.857465
4660.000000;1.856699
4659.000000;1.856031
4658.000000;1.854969
4657.000000;1.853412
4656.000000;1.851542
4655.000000;1.849614
4654.000000;1.847853
4653.000000;1.846300
4652.000000;1.844680
4651.000000;1.842648
4650.000000;1.840339
4649.000000;1.838425
4648.000000;1.837373
4647.000000;1.836832
4646.000000;1.836058
4645.000000;1.834850
4644.000000;1.833662
4643.000000;1.832788
4642.000000;1.831873
4641.000000;1.830433
4640.000000;1.828497
4639.000000;1.826534
4638.000000;1.824930
4637.000000;1.823763
4636.000000;1.822851
4635.000000;1.821829
4634.000000;1.820318
4633.000000;1.818272
4632.000000;1.816099
4631.000000;1.814325
4630.000000;1.813189
4629.000000;1.812569
4628.000000;1.812078
4627.000000;1.811183
4626.000000;1.809553
4625.000000;1.807489
4624.000000;1.805763
4623.000000;1.804767
4622.000000;1.804032
4621.000000;1.802858
4620.000000;1.801206
4619.000000;1.799593
4618.000000;1.798306
4617.000000;1.797160
4616.000000;1.796003
4615.000000;1.795020
4614.000000;1.794398
4613.000000;1.793993
4612.000000;1.793509
4611.000000;1.792826
4610.000000;1.792002
4609.000000;1.791070
4608.000000;1.790006
4607.000000;1.788865
4606.000000;1.787814
4605.000000;1.786935
4604.000000;1.786023
4603.000000;1.784691
4602.000000;1.782835
4601.000000;1.780914
4600.000000;1.779570
4599.000000;1.778922
4598.000000;1.778453
4597.000000;1.777652
4596.000000;1.776520
4595.000000;1.775355
4594.000000;1.774325
4593.000000;1.773483
4592.000000;1.772929
4591.000000;1.772644
4590.000000;1.772346
4589.000000;1.771801
4588.000000;1.771173
4587.000000;1.770773
4586.000000;1.770570
4585.000000;1.770241
4584.000000;1.769642
4583.000000;1.768903
4582.000000;1.768066
4581.000000;1.766935
4580.000000;1.765369
4579.000000;1.763513
4578.000000;1.761730
4577.000000;1.760417
4576.000000;1.759805
4575.000000;1.759722
4574.000000;1.759634
4573.000000;1.759146
4572.000000;1.758424
4571.000000;1.757890
4570.000000;1.757566
4569.000000;1.756989
4568.000000;1.755785
4567.000000;1.754106
4566.000000;1.752493
4565.000000;1.751447
4564.000000;1.751070
4563.000000;1.750961
4562.000000;1.750549
4561.000000;1.749722
4560.000000;1.748948
4559.000000;1.748600
4558.000000;1.748384
4557.000000;1.747795
4556.000000;1.746931
4555.000000;1.746416
4554.000000;1.746515
4553.000000;1.746750
4552.000000;1.746468
4551.000000;1.745452
4550.000000;1.743952
4549.000000;1.742440
4548.000000;1.741381
4547.000000;1.740904
4546.000000;1.740610
4545.000000;1.739968
4544.000000;1.738950
4543.000000;1.738057
4542.000000;1.737694
4541.000000;1.737808
4540.000000;1.738099
4539.000000;1.738255
4538.000000;1.737979
4537.000000;1.737171
4536.000000;1.736186
4535.000000;1.735632
4534.000000;1.735806
4533.000000;1.736498
4532.000000;1.737298
4531.000000;1.737792
4530.000000;1.737554
4529.000000;1.736444
4528.000000;1.735018
4527.000000;1.734193
4526.000000;1.734281
4525.000000;1.734659
4524.000000;1.734535
4523.000000;1.733764
4522.000000;1.732777
4521.000000;1.732039
4520.000000;1.731788
4519.000000;1.731967
4518.000000;1.732191
4517.000000;1.731996
4516.000000;1.731345
4515.000000;1.730703
4514.000000;1.730483
4513.000000;1.730621
4512.000000;1.730825
4511.000000;1.730951
4510.000000;1.730970
4509.000000;1.730818
4508.000000;1.730503
4507.000000;1.730200
4506.000000;1.730045
4505.000000;1.729982
4504.000000;1.729936
4503.000000;1.729975
4502.000000;1.730202
4501.000000;1.730615
4500.000000;1.731113
4499.000000;1.731539
4498.000000;1.731715
4497.000000;1.731676
4496.000000;1.731836
4495.000000;1.732596
4494.000000;1.733721
4493.000000;1.734436
4492.000000;1.734272
4491.000000;1.733518
4490.000000;1.732698
4489.000000;1.731966
4488.000000;1.731219
4487.000000;1.730518
4486.000000;1.730130
4485.000000;1.730275
4484.000000;1.730990
4483.000000;1.732081
4482.000000;1.733127
4481.000000;1.733734
4480.000000;1.733901
4479.000000;1.733950
4478.000000;1.734055
4477.000000;1.734120
4476.000000;1.734188
4475.000000;1.734601
4474.000000;1.735543
4473.000000;1.736661
4472.000000;1.737372
4471.000000;1.737432
4470.000000;1.737129
4469.000000;1.737053
4468.000000;1.737689
4467.000000;1.738999
4466.000000;1.740362
4465.000000;1.741185
4464.000000;1.741582
4463.000000;1.742150
4462.000000;1.743095
4461.000000;1.744009
4460.000000;1.744548
4459.000000;1.744880
4458.000000;1.745322
4457.000000;1.746010
4456.000000;1.747050
4455.000000;1.748532
4454.000000;1.750155
4453.000000;1.751344
4452.000000;1.752015
4451.000000;1.752776
4450.000000;1.754061
4449.000000;1.755538
4448.000000;1.756703
4447.000000;1.757610
4446.000000;1.758608
4445.000000;1.759810
4444.000000;1.761265
4443.000000;1.763205
4442.000000;1.765585
4441.000000;1.767724
4440.000000;1.769032
4439.000000;1.769861
4438.000000;1.771034
4437.000000;1.772709
4436.000000;1.774246
4435.000000;1.775177
4434.000000;1.775784
4433.000000;1.776717
4432.000000;1.778415
4431.000000;1.780872
4430.000000;1.783586
4429.000000;1.785812
4428.000000;1.787218
4427.000000;1.788241
4426.000000;1.789544
4425.000000;1.791260
4424.000000;1.793089
4423.000000;1.794924
4422.000000;1.796962
4421.000000;1.799273
4420.000000;1.801653
4419.000000;1.803910
4418.000000;1.805997
4417.000000;1.807893
4416.000000;1.809627
4415.000000;1.811379
4414.000000;1.813326
4413.000000;1.815469
4412.000000;1.817813
4411.000000;1.820500
4410.000000;1.823467
4409.000000;1.826176
4408.000000;1.828076
4407.000000;1.829282
4406.000000;1.830514
4405.000000;1.832415
4404.000000;1.835052
4403.000000;1.837898
4402.000000;1.840159
4401.000000;1.841500
4400.000000;1.842687
4399.000000;1.845096
4398.000000;1.849159
4397.000000;1.853656
4396.000000;1.856980
4395.000000;1.858826
4394.000000;1.860113
4393.000000;1.861613
4392.000000;1.863375
4391.000000;1.865289
4390.000000;1.867494
4389.000000;1.870203
4388.000000;1.873595
4387.000000;1.877793
4386.000000;1.882448
4385.000000;1.886494
4384.000000;1.888960
4383.000000;1.890114
4382.000000;1.891267
4381.000000;1.893412
4380.000000;1.896468
4379.000000;1.899685
4378.000000;1.902271
4377.000000;1.903791
4376.000000;1.904598
4375.000000;1.905836
4374.000000;1.908416
4373.000000;1.911940
4372.000000;1.915085
4371.000000;1.917023
4370.000000;1.918099
4369.000000;1.919226
4368.000000;1.921122
4367.000000;1.924044
4366.000000;1.927617
4365.000000;1.930852
4364.000000;1.932906
4363.000000;1.933961
4362.000000;1.934912
4361.000000;1.936287
4360.000000;1.937970
4359.000000;1.939784
4358.000000;1.941609
4357.000000;1.943106
4356.000000;1.944148
4355.000000;1.945496
4354.000000;1.948119
4353.000000;1.951770
4352.000000;1.955218
4351.000000;1.958009
4350.000000;1.960807
4349.000000;1.963748
4348.000000;1.965846
4347.000000;1.966771
4346.000000;1.968058
4345.000000;1.971380
4344.000000;1.976288
4343.000000;1.980619
4342.000000;1.982790
4341.000000;1.982957
4340.000000;1.982400
4339.000000;1.982803
4338.000000;1.985677
4337.000000;1.991141
4336.000000;1.997079
4335.000000;2.000601
4334.000000;2.000910
4333.000000;1.999905
4332.000000;1.999686
4331.000000;2.000428
4330.000000;2.000994
4329.000000;2.000842
4328.000000;2.000655
4327.000000;2.001324
4326.000000;2.002994
4325.000000;2.005130
4324.000000;2.007309
4323.000000;2.009975
4322.000000;2.014298
4321.000000;2.020767
4320.000000;2.027827
4319.000000;2.032598
4318.000000;2.033552
4317.000000;2.032054
4316.000000;2.030742
4315.000000;2.031143
4314.000000;2.033491
4313.000000;2.037816
4312.000000;2.043742
4311.000000;2.049399
4310.000000;2.052296
4309.000000;2.052259
4308.000000;2.052222
4307.000000;2.054959
4306.000000;2.059843
4305.000000;2.063814
4304.000000;2.065304
4303.000000;2.066084
4302.000000;2.068800
4301.000000;2.073655
4300.000000;2.078184
4299.000000;2.079854
4298.000000;2.078604
4297.000000;2.077164
4296.000000;2.078912
4295.000000;2.085118
4294.000000;2.093913
4293.000000;2.101814
4292.000000;2.106481
4291.000000;2.108121
4290.000000;2.108483
4289.000000;2.109042
4288.000000;2.110163
4287.000000;2.111598
4286.000000;2.113629
4285.000000;2.117350
4284.000000;2.123114
4283.000000;2.128756
4282.000000;2.131009
4281.000000;2.129491
4280.000000;2.127567
4279.000000;2.128507
4278.000000;2.132130
4277.000000;2.135969
4276.000000;2.138752
4275.000000;2.141323
4274.000000;2.145041
4273.000000;2.151216
4272.000000;2.161339
4271.000000;2.175226
4270.000000;2.188795
4269.000000;2.196464
4268.000000;2.197066
4267.000000;2.194875
4266.000000;2.193789
4265.000000;2.193371
4264.000000;2.191336
4263.000000;2.187214
4262.000000;2.182290
4261.000000;2.178318
4260.000000;2.177811
4259.000000;2.183345
4258.000000;2.194677
4257.000000;2.207669
4256.000000;2.217597
4255.000000;2.222561
4254.000000;2.222867
4253.000000;2.220004
4252.000000;2.217088
4251.000000;2.217128
4250.000000;2.220271
4249.000000;2.224317
4248.000000;2.228458
4247.000000;2.234524
4246.000000;2.242773
4245.000000;2.249071
4244.000000;2.249773
4243.000000;2.248187
4242.000000;2.251636
4241.000000;2.262720
4240.000000;2.276750
4239.000000;2.287181
4238.000000;2.291322
4237.000000;2.290218
4236.000000;2.286068
4235.000000;2.281337
4234.000000;2.278306
4233.000000;2.278519
4232.000000;2.283190
4231.000000;2.293512
4230.000000;2.308961
4229.000000;2.325752
4228.000000;2.338713
4227.000000;2.344966
4226.000000;2.346191
4225.000000;2.346806
4224.000000;2.349372
4223.000000;2.353076
4222.000000;2.355851
4221.000000;2.357233
4220.000000;2.359567
4219.000000;2.366764
4218.000000;2.380752
4217.000000;2.397518
4216.000000;2.407933
4215.000000;2.405176
4214.000000;2.391768
4213.000000;2.376843
4212.000000;2.367219
4211.000000;2.363919
4210.000000;2.365336
4209.000000;2.371063
4208.000000;2.381647
4207.000000;2.394602
4206.000000;2.404942
4205.000000;2.411124
4204.000000;2.417237
4203.000000;2.426989
4202.000000;2.436746
4201.000000;2.440035
4200.000000;2.438765
4199.000000;2.440930
4198.000000;2.446521
4197.000000;2.444449
4196.000000;2.427530
4195.000000;2.405248
4194.000000;2.393565
4193.000000;2.399447
4192.000000;2.420954
4191.000000;2.452272
4190.000000;2.481792
4189.000000;2.492755
4188.000000;2.479145
4187.000000;2.456037
4186.000000;2.442679
4185.000000;2.444581
4184.000000;2.454394
4183.000000;2.462829
4182.000000;2.465657
4181.000000;2.462798
4180.000000;2.457136
4179.000000;2.452211
4178.000000;2.450751
4177.000000;2.454578
4176.000000;2.464582
4175.000000;2.483428
4174.000000;2.512953
4173.000000;2.545153
4172.000000;2.559588
4171.000000;2.541302
4170.000000;2.502311
4169.000000;2.469763
4168.000000;2.460956
4167.000000;2.474228
4166.000000;2.490677
4165.000000;2.488615
4164.000000;2.467644
4163.000000;2.449493
4162.000000;2.454138
4161.000000;2.484973
4160.000000;2.528933
4159.000000;2.563682
4158.000000;2.566795
4157.000000;2.539404
4156.000000;2.517946
4155.000000;2.532487
4154.000000;2.578622
4153.000000;2.624366
4152.000000;2.640013
4151.000000;2.624248
4150.000000;2.594556
4149.000000;2.569984
4148.000000;2.564771
4147.000000;2.583101
4146.000000;2.606277
4145.000000;2.600056
4144.000000;2.564282
4143.000000;2.525121
4142.000000;2.490455
4141.000000;2.455842
4140.000000;2.427056
4139.000000;2.420920
4138.000000;2.447503
4137.000000;2.495604
4136.000000;2.534872
4135.000000;2.545481
4134.000000;2.539600
4133.000000;2.538489
4132.000000;2.550408
4131.000000;2.568294
4130.000000;2.583299
4129.000000;2.605032
4128.000000;2.647995
4127.000000;2.707755
4126.000000;2.760986
4125.000000;2.764667
4124.000000;2.675875
4123.000000;2.550145
4122.000000;2.464456
4121.000000;2.436415
4120.000000;2.452083
4119.000000;2.483891
4118.000000;2.504467
4117.000000;2.510982
4116.000000;2.523920
4115.000000;2.550327
4114.000000;2.565203
4113.000000;2.541597
4112.000000;2.487269
4111.000000;2.433241
4110.000000;2.406631
4109.000000;2.419146
4108.000000;2.466835
4107.000000;2.531418
4106.000000;2.584401
4105.000000;2.597276
4104.000000;2.569292
4103.000000;2.530078
4102.000000;2.510929
4101.000000;2.528582
4100.000000;2.576244
4099.000000;2.646008
4098.000000;2.723700
4097.000000;2.756424
4096.000000;2.707416
4095.000000;2.617017
4094.000000;2.541271
4093.000000;2.503430
4092.000000;2.498009
4091.000000;2.499087
4090.000000;2.491603
4089.000000;2.498294
4088.000000;2.538547
4087.000000;2.588803
4086.000000;2.601423
4085.000000;2.554506
4084.000000;2.500520
4083.000000;2.496952
4082.000000;2.528915
4081.000000;2.521208
4080.000000;2.469819
4079.000000;2.439596
4078.000000;2.425638
4077.000000;2.400036
4076.000000;2.370783
4075.000000;2.358819
4074.000000;2.363870
4073.000000;2.363156
4072.000000;2.364653
4071.000000;2.416368
4070.000000;2.538920
4069.000000;2.650641
4068.000000;2.651297
4067.000000;2.634077
4066.000000;2.667758
4065.000000;2.736658
4064.000000;2.832132
4063.000000;2.959123
4062.000000;2.987992
4061.000000;2.824647
4060.000000;2.636186
4059.000000;2.510474
4058.000000;2.466256
4057.000000;2.503453
4056.000000;2.594857
4055.000000;2.648371
4054.000000;2.614301
4053.000000;2.556696
4052.000000;2.540434
4051.000000;2.602561
4050.000000;2.683598
4049.000000;2.652409
4048.000000;2.537431
4047.000000;2.432736
4046.000000;2.387263
4045.000000;2.423309
4044.000000;2.541310
4043.000000;2.685276
4042.000000;2.690748
4041.000000;2.619821
4040.000000;2.613582
4039.000000;2.667951
4038.000000;2.693608
4037.000000;2.690243
4036.000000;2.673421
4035.000000;2.581695
4034.000000;2.479518
4033.000000;2.426619
4032.000000;2.422842
4031.000000;2.442645
4030.000000;2.443391
4029.000000;2.405648
4028.000000;2.359452
4027.000000;2.332716
4026.000000;2.311194
4025.000000;2.301174
4024.000000;2.351863
4023.000000;2.583821
4022.000000;3.097866
4021.000000;2.909872
4020.000000;2.790830
4019.000000;2.735043
4018.000000;2.519309
4017.000000;2.446617
4016.000000;2.531938
4015.000000;2.825082
4014.000000;2.946574
4013.000000;2.840885
4012.000000;2.892748
4011.000000;2.907137
4010.000000;2.715749
4009.000000;2.550297
4008.000000;2.497438
4007.000000;2.511464
4006.000000;2.503582
4005.000000;2.434800
4004.000000;2.365686
4003.000000;2.347225
4002.000000;2.386222
4001.000000;2.434236
4000.000000;2.422194
3999.000000;2.405300
3998.000000;2.481845
3997.000000;2.681346
3996.000000;2.938504
3995.000000;3.138111
3994.000000;3.165648
3993.000000;2.874180
3992.000000;2.641623
3991.000000;2.573117
3990.000000;2.663847
3989.000000;2.894329
3988.000000;3.137367
3987.000000;3.177604
3986.000000;3.282370
3985.000000;3.309728
3984.000000;2.888578
3983.000000;2.780447
3982.000000;3.011671
3981.000000;3.989489
3980.000000;3.441323
3979.000000;3.366173
3978.000000;3.021554
3977.000000;2.836568
3976.000000;2.801464
3975.000000;2.957773
3974.000000;3.259955
3973.000000;3.018979
3972.000000;2.804702
3971.000000;2.700248
3970.000000;2.621640
3969.000000;2.580392
3968.000000;2.578970
3967.000000;2.631202
3966.000000;2.797652
3965.000000;3.068058
3964.000000;3.033840
3963.000000;2.997856
3962.000000;3.181376
3961.000000;3.188156
3960.000000;3.032324
3959.000000;2.910530
3958.000000;2.769395
3957.000000;2.631961
3956.000000;2.557188
3955.000000;2.563110
3954.000000;2.634570
3953.000000;2.696416
3952.000000;2.691937
3951.000000;2.689214
3950.000000;2.698729
3949.000000;2.688564
3948.000000;2.717805
3947.000000;2.896338
3946.000000;3.077915
3945.000000;2.900987
3944.000000;2.787151
3943.000000;2.879966
3942.000000;3.198681
3941.000000;3.224237
3940.000000;2.959369
3939.000000;2.831330
3938.000000;2.794824
3937.000000;2.862156
3936.000000;3.021853
3935.000000;3.134265
3934.000000;3.020481
3933.000000;2.918392
3932.000000;2.893632
3931.000000;2.912044
3930.000000;2.952277
3929.000000;2.993706
3928.000000;3.024002
3927.000000;3.142539
3926.000000;3.303452
3925.000000;3.067490
3924.000000;3.024515
3923.000000;3.206293
3922.000000;3.271018
3921.000000;3.153632
3920.000000;3.129333
3919.000000;3.237055
3918.000000;3.390779
3917.000000;3.497024
3916.000000;3.517091
3915.000000;3.453604
3914.000000;3.444947
3913.000000;3.445825
3912.000000;3.328005
3911.000000;3.226906
3910.000000;3.241413
3909.000000;3.312635
3908.000000;3.363473
3907.000000;3.394221
3906.000000;3.384838
3905.000000;3.338741
3904.000000;3.353622
3903.000000;3.520672
3902.000000;4.103480
3901.000000;3.939109
3900.000000;3.643627
3899.000000;3.609942
3898.000000;3.828332
3897.000000;4.456255
3896.000000;3.791367
3895.000000;3.389066
3894.000000;3.198890
3893.000000;3.201867
3892.000000;3.593726
3891.000000;3.587852
3890.000000;3.111525
3889.000000;3.021874
3888.000000;3.019848
3887.000000;2.979671
3886.000000;2.989351
3885.000000;3.123811
3884.000000;3.169056
3883.000000;3.109610
3882.000000;3.065212
3881.000000;3.076687
3880.000000;3.207437
3879.000000;3.398184
3878.000000;3.496743
3877.000000;3.307202
3876.000000;2.959888
3875.000000;2.727371
3874.000000;2.668686
3873.000000;2.766867
3872.000000;2.937090
3871.000000;2.998898
3870.000000;2.935742
3869.000000;2.908178
3868.000000;2.950784
3867.000000;3.031860
3866.000000;3.131228
3865.000000;3.207497
3864.000000;3.162231
3863.000000;3.009200
3862.000000;2.868662
3861.000000;2.790730
3860.000000;2.776437
3859.000000;2.816279
3858.000000;2.923613
3857.000000;3.146016
3856.000000;3.460784
3855.000000;3.513143
3854.000000;3.257646
3853.000000;3.101850
3852.000000;3.169202
3851.000000;3.466717
3850.000000;3.346335
3849.000000;3.081387
3848.000000;3.015647
3847.000000;3.053840
3846.000000;3.241188
3845.000000;3.537003
3844.000000;3.310118
3843.000000;3.025128
3842.000000;2.849207
3841.000000;2.797649
3840.000000;2.880929
3839.000000;3.127825
3838.000000;3.222409
3837.000000;2.926084
3836.000000;2.746756
3835.000000;2.661081
3834.000000;2.676290
3833.000000;2.793881
3832.000000;2.873625
3831.000000;2.844339
3830.000000;2.776146
3829.000000;2.728427
3828.000000;2.777167
3827.000000;3.030828
3826.000000;3.199906
3825.000000;3.026006
3824.000000;2.963523
3823.000000;2.955660
3822.000000;2.929243
3821.000000;2.846723
3820.000000;2.737743
3819.000000;2.677212
3818.000000;2.684798
3817.000000;2.760590
3816.000000;2.871629
3815.000000;3.008134
3814.000000;3.232727
3813.000000;3.172792
3812.000000;2.973294
3811.000000;2.877007
3810.000000;2.763550
3809.000000;2.695805
3808.000000;2.691007
3807.000000;2.746253
3806.000000;2.903180
3805.000000;3.192442
3804.000000;3.237415
3803.000000;2.972637
3802.000000;2.736641
3801.000000;2.555366
3800.000000;2.549462
3799.000000;2.675390
3798.000000;2.534154
3797.000000;2.413724
3796.000000;2.469034
3795.000000;2.590692
3794.000000;2.803841
3793.000000;3.267026
3792.000000;3.763321
3791.000000;3.374237
3790.000000;3.151519
3789.000000;3.003785
3788.000000;3.001674
3787.000000;3.094467
3786.000000;3.183085
3785.000000;3.179896
3784.000000;3.142472
3783.000000;3.310548
3782.000000;3.530765
3781.000000;3.264135
3780.000000;3.033609
3779.000000;2.920329
3778.000000;3.013354
3777.000000;3.213813
3776.000000;3.221695
3775.000000;3.394663
3774.000000;3.365088
3773.000000;3.185286
3772.000000;3.150929
3771.000000;3.193101
3770.000000;3.177288
3769.000000;2.975072
3768.000000;2.929906
3767.000000;3.029674
3766.000000;3.039315
3765.000000;2.984374
3764.000000;3.008345
3763.000000;3.097973
3762.000000;3.327940
3761.000000;3.733666
3760.000000;3.415976
3759.000000;3.157655
3758.000000;3.073144
3757.000000;3.085825
3756.000000;3.117772
3755.000000;2.970114
3754.000000;2.792744
3753.000000;2.742480
3752.000000;2.879924
3751.000000;3.026300
3750.000000;2.893820
3749.000000;2.817071
3748.000000;2.941264
3747.000000;3.034076
3746.000000;2.836874
3745.000000;2.734629
3744.000000;2.785756
3743.000000;2.896485
3742.000000;3.014223
3741.000000;3.083336
3740.000000;3.160885
3739.000000;3.226719
3738.000000;3.435466
3737.000000;4.031805
3736.000000;3.711482
3735.000000;3.710212
3734.000000;3.939219
3733.000000;3.954900
3732.000000;3.848718
3731.000000;3.712280
3730.000000;3.581931
3729.000000;3.289639
3728.000000;3.043324
3727.000000;3.001141
3726.000000;3.153394
3725.000000;3.335049
3724.000000;3.362341
3723.000000;3.363016
3722.000000;3.402728
3721.000000;3.432044
3720.000000;3.272509
3719.000000;3.208694
3718.000000;3.373044
3717.000000;3.188246
3716.000000;2.995909
3715.000000;3.023834
3714.000000;3.119501
3713.000000;3.243256
3712.000000;3.369438
3711.000000;3.329500
3710.000000;3.290681
3709.000000;3.522816
3708.000000;3.233978
3707.000000;2.893370
3706.000000;2.828006
3705.000000;2.841062
3704.000000;2.881385
3703.000000;3.053943
3702.000000;3.432979
3701.000000;3.441960
3700.000000;3.318370
3699.000000;3.572532
3698.000000;3.383504
3697.000000;3.157799
3696.000000;3.076345
3695.000000;3.135622
3694.000000;3.924454
3693.000000;3.342417
3692.000000;2.903279
3691.000000;2.853683
3690.000000;2.851929
3689.000000;3.070017
3688.000000;3.318805
3687.000000;2.797523
3686.000000;2.611591
3685.000000;2.617496
3684.000000;2.652625
3683.000000;2.753340
3682.000000;2.961378
3681.000000;3.379352
3680.000000;3.651973
3679.000000;3.607722
3678.000000;3.503102
3677.000000;3.249070
3676.000000;3.090260
3675.000000;3.010477
3674.000000;2.929889
3673.000000;2.848545
3672.000000;2.803869
3671.000000;2.830169
3670.000000;2.965068
3669.000000;3.161335
3668.000000;3.121195
3667.000000;2.942449
3666.000000;2.902859
3665.000000;2.966811
3664.000000;3.149529
3663.000000;3.366168
3662.000000;2.979948
3661.000000;2.733248
3660.000000;2.642428
3659.000000;2.615523
3658.000000;2.659337
3657.000000;2.835241
3656.000000;3.239694
3655.000000;3.274561
3654.000000;3.044620
3653.000000;2.992836
3652.000000;3.018434
3651.000000;3.089427
3650.000000;3.087292
3649.000000;3.016573
3648.000000;2.955714
3647.000000;2.923038
3646.000000;2.948821
3645.000000;3.019627
3644.000000;3.080228
3643.000000;3.086479
3642.000000;3.042598
3641.000000;3.025913
3640.000000;3.071416
3639.000000;3.010586
3638.000000;2.876145
3637.000000;2.837972
3636.000000;2.941460
3635.000000;3.327515
3634.000000;3.500950
3633.000000;3.168467
3632.000000;3.093344
3631.000000;3.312782
3630.000000;3.589270
3629.000000;3.297915
3628.000000;3.381623
3627.000000;3.727730
3626.000000;4.028404
3625.000000;3.889855
3624.000000;3.807271
3623.000000;3.668207
3622.000000;3.132013
3621.000000;2.921899
3620.000000;2.940581
3619.000000;3.070599
3618.000000;3.224115
3617.000000;3.324635
3616.000000;3.387027
3615.000000;3.384617
3614.000000;3.375020
3613.000000;3.363787
3612.000000;3.297522
3611.000000;3.167423
3610.000000;3.080664
3609.000000;3.099361
3608.000000;3.298390
3607.000000;3.573330
3606.000000;3.474697
3605.000000;3.428702
3604.000000;3.624321
3603.000000;3.724831
3602.000000;3.241027
3601.000000;2.965566
3600.000000;2.898797
3599.000000;2.955484
3598.000000;3.109257
3597.000000;3.275521
3596.000000;3.250877
3595.000000;3.165715
3594.000000;3.190208
3593.000000;3.251870
3592.000000;3.310916
3591.000000;3.366840
3590.000000;3.433064
3589.000000;3.347897
3588.000000;3.261011
3587.000000;3.316692
3586.000000;3.413213
3585.000000;3.443571
3584.000000;3.416996
3583.000000;3.353154
3582.000000;3.453587
3581.000000;3.676584
3580.000000;3.284280
3579.000000;3.106767
3578.000000;3.149439
3577.000000;3.191481
3576.000000;3.130169
3575.000000;3.029677
3574.000000;3.121162
3573.000000;3.262230
3572.000000;3.124754
3571.000000;3.083353
3570.000000;3.482778
3569.000000;4.015349
3568.000000;3.500935
3567.000000;3.520292
3566.000000;3.751831
3565.000000;4.079191
3564.000000;3.915624
3563.000000;3.508598
3562.000000;3.352086
3561.000000;3.270045
3560.000000;3.225046
3559.000000;3.189852
3558.000000;3.179886
3557.000000;3.350638
3556.000000;3.208579
3555.000000;2.889197
3554.000000;2.781239
3553.000000;2.783209
3552.000000;2.767568
3551.000000;2.731275
3550.000000;2.738159
3549.000000;2.843930
3548.000000;3.064108
3547.000000;3.150958
3546.000000;3.157192
3545.000000;3.330630
3544.000000;3.447922
3543.000000;3.408663
3542.000000;3.386695
3541.000000;3.458823
3540.000000;3.737144
3539.000000;3.503889
3538.000000;3.404682
3537.000000;3.751510
3536.000000;3.360734
3535.000000;3.059146
3534.000000;2.976889
3533.000000;2.927969
3532.000000;2.967088
3531.000000;3.101051
3530.000000;3.410431
3529.000000;4.417297
3528.000000;3.718316
3527.000000;3.424152
3526.000000;3.452647
3525.000000;3.501005
3524.000000;3.488580
3523.000000;3.292697
3522.000000;3.085316
3521.000000;2.938509
3520.000000;2.877533
3519.000000;2.913398
3518.000000;3.011125
3517.000000;3.089939
3516.000000;3.114735
3515.000000;3.179499
3514.000000;3.214352
3513.000000;3.167864
3512.000000;3.091678
3511.000000;3.203763
3510.000000;3.843321
3509.000000;3.855973
3508.000000;3.890762
3507.000000;3.722279
3506.000000;3.222956
3505.000000;3.026397
3504.000000;2.864675
3503.000000;2.828932
3502.000000;2.958908
3501.000000;3.253685
3500.000000;3.661760
3499.000000;3.688678
3498.000000;3.541564
3497.000000;3.321190
3496.000000;3.135433
3495.000000;3.070392
3494.000000;3.166100
3493.000000;3.318707
3492.000000;3.393530
3491.000000;3.710514
3490.000000;3.525528
3489.000000;3.203903
3488.000000;3.199513
3487.000000;3.185116
3486.000000;3.090210
3485.000000;3.082819
3484.000000;3.193154
3483.000000;3.402985
3482.000000;3.667318
3481.000000;3.510473
3480.000000;3.278981
3479.000000;3.251097
3478.000000;3.315612
3477.000000;3.340063
3476.000000;3.255501
3475.000000;3.116501
3474.000000;2.972273
3473.000000;2.886308
3472.000000;2.895518
3471.000000;2.960148
3470.000000;2.965451
3469.000000;2.881473
3468.000000;2.816984
3467.000000;2.847691
3466.000000;2.966695
3465.000000;3.055456
3464.000000;3.023179
3463.000000;2.941819
3462.000000;2.879457
3461.000000;2.880567
3460.000000;2.959700
3459.000000;3.098573
3458.000000;3.266288
3457.000000;3.379449
3456.000000;3.241481
3455.000000;2.977248
3454.000000;2.784642
3453.000000;2.697066
3452.000000;2.707264
3451.000000;2.785894
3450.000000;2.908594
3449.000000;2.972129
3448.000000;2.908604
3447.000000;2.874293
3446.000000;2.980415
3445.000000;3.225006
3444.000000;3.501068
3443.000000;3.554360
3442.000000;3.162641
3441.000000;2.912499
3440.000000;2.869651
3439.000000;2.939680
3438.000000;3.178511
3437.000000;3.604855
3436.000000;3.256338
3435.000000;3.009760
3434.000000;3.086953
3433.000000;3.217407
3432.000000;3.083181
3431.000000;2.986685
3430.000000;3.006032
3429.000000;3.050695
3428.000000;3.108614
3427.000000;3.181196
3426.000000;3.054525
3425.000000;2.902447
3424.000000;2.868874
3423.000000;3.007194
3422.000000;3.526089
3421.000000;3.397989
3420.000000;3.035369
3419.000000;2.949026
3418.000000;2.958406
3417.000000;3.118853
3416.000000;3.279092
3415.000000;3.127667
3414.000000;3.008218
3413.000000;3.225543
3412.000000;3.392054
3411.000000;3.002080
3410.000000;2.940319
3409.000000;3.061422
3408.000000;3.253214
3407.000000;3.287208
3406.000000;3.084861
3405.000000;3.016899
3404.000000;3.092195
3403.000000;3.215679
3402.000000;3.174167
3401.000000;3.165898
3400.000000;3.348572
3399.000000;3.269952
3398.000000;3.102266
3397.000000;3.033188
3396.000000;3.026092
3395.000000;3.321563
3394.000000;3.280111
3393.000000;2.931379
3392.000000;2.874131
3391.000000;3.059854
3390.000000;3.570402
3389.000000;4.279391
3388.000000;3.767296
3387.000000;3.184914
3386.000000;2.959097
3385.000000;2.889073
3384.000000;2.887739
3383.000000;2.984048
3382.000000;3.381070
3381.000000;3.648021
3380.000000;3.201868
3379.000000;3.153920
3378.000000;3.065378
3377.000000;2.919460
3376.000000;2.851186
3375.000000;2.854601
3374.000000;2.911782
3373.000000;2.975357
3372.000000;3.083793
3371.000000;3.239921
3370.000000;3.134513
3369.000000;2.987831
3368.000000;2.939940
3367.000000;2.802038
3366.000000;2.670045
3365.000000;2.637038
3364.000000;2.701876
3363.000000;2.844950
3362.000000;2.968194
3361.000000;3.101102
3360.000000;3.209090
3359.000000;3.093126
3358.000000;3.038585
3357.000000;3.203713
3356.000000;3.385652
3355.000000;3.010002
3354.000000;2.750469
3353.000000;2.659502
3352.000000;2.705120
3351.000000;2.950951
3350.000000;3.037991
3349.000000;2.850737
3348.000000;2.861725
3347.000000;2.940184
3346.000000;2.918579
3345.000000;2.893583
3344.000000;2.939841
3343.000000;3.024392
3342.000000;2.976746
3341.000000;2.857941
3340.000000;2.819671
3339.000000;2.885199
3338.000000;3.045935
3337.000000;3.235478
3336.000000;3.263690
3335.000000;3.109604
3334.000000;2.989938
3333.000000;2.974090
3332.000000;3.017716
3331.000000;3.064034
3330.000000;3.063883
3329.000000;2.977392
3328.000000;2.857569
3327.000000;2.777356
3326.000000;2.779400
3325.000000;2.870870
3324.000000;3.049869
3323.000000;3.356623
3322.000000;3.427342
3321.000000;3.173351
3320.000000;3.031187
3319.000000;2.942738
3318.000000;2.837630
3317.000000;2.775510
3316.000000;2.821388
3315.000000;3.116846
3314.000000;3.572499
3313.000000;3.145976
3312.000000;3.018502
3311.000000;3.080742
3310.000000;3.125590
3309.000000;3.058412
3308.000000;2.945183
3307.000000;2.942997
3306.000000;2.997013
3305.000000;2.962529
3304.000000;2.868087
3303.000000;2.850315
3302.000000;2.931538
3301.000000;3.043192
3300.000000;3.084031
3299.000000;3.016100
3298.000000;2.928461
3297.000000;2.939939
3296.000000;3.099575
3295.000000;3.296382
3294.000000;3.292209
3293.000000;3.388155
3292.000000;3.984347
3291.000000;4.140445
3290.000000;3.706894
3289.000000;3.501262
3288.000000;3.280247
3287.000000;3.155412
3286.000000;3.109351
3285.000000;3.074092
3284.000000;3.003744
3283.000000;2.948670
3282.000000;2.917955
3281.000000;2.864254
3280.000000;2.826755
3279.000000;2.873734
3278.000000;3.039730
3277.000000;3.347049
3276.000000;3.673544
3275.000000;3.728005
3274.000000;3.577153
3273.000000;3.351909
3272.000000;3.200559
3271.000000;3.047344
3270.000000;2.900854
3269.000000;2.847825
3268.000000;2.913037
3267.000000;3.216979
3266.000000;3.565676
3265.000000;3.071888
3264.000000;2.813137
3263.000000;2.740561
3262.000000;2.787596
3261.000000;2.974314
3260.000000;3.111204
3259.000000;3.037855
3258.000000;3.064553
3257.000000;3.154249
3256.000000;3.007521
3255.000000;2.881220
3254.000000;2.944961
3253.000000;3.304828
3252.000000;3.510600
3251.000000;3.246093
3250.000000;3.280740
3249.000000;3.240765
3248.000000;3.122481
3247.000000;3.052158
3246.000000;3.064539
3245.000000;3.125615
3244.000000;3.078345
3243.000000;2.956599
3242.000000;2.883835
3241.000000;2.904804
3240.000000;3.039069
3239.000000;3.285153
3238.000000;3.563389
3237.000000;3.772869
3236.000000;3.436935
3235.000000;3.000173
3234.000000;2.751823
3233.000000;2.662217
3232.000000;2.719617
3231.000000;2.946161
3230.000000;3.023174
3229.000000;2.791509
3228.000000;2.698182
3227.000000;2.762609
3226.000000;2.964529
3225.000000;3.084783
3224.000000;3.039934
3223.000000;3.124606
3222.000000;3.308396
3221.000000;3.392488
3220.000000;3.337363
3219.000000;3.433323
3218.000000;3.281396
3217.000000;2.969101
3216.000000;2.867287
3215.000000;2.920265
3214.000000;3.142622
3213.000000;3.570919
3212.000000;3.359694
3211.000000;2.936457
3210.000000;2.729673
3209.000000;2.700398
3208.000000;2.889133
3207.000000;3.076000
3206.000000;2.941464
3205.000000;2.898303
3204.000000;2.909202
3203.000000;2.933021
3202.000000;3.019021
3201.000000;3.064316
3200.000000;2.969513
3199.000000;2.824816
3198.000000;2.735408
3197.000000;2.730981
3196.000000;2.798593
3195.000000;2.882830
3194.000000;2.929490
3193.000000;2.930965
3192.000000;2.875673
3191.000000;2.831628
3190.000000;3.003195
3189.000000;3.221259
3188.000000;2.950769
3187.000000;2.851308
3186.000000;2.964893
3185.000000;3.097292
3184.000000;3.054037
3183.000000;2.995769
3182.000000;3.002738
3181.000000;3.069836
3180.000000;3.238303
3179.000000;3.172756
3178.000000;3.052323
3177.000000;3.048129
3176.000000;3.045762
3175.000000;3.024927
3174.000000;3.059285
3173.000000;3.232334
3172.000000;3.484608
3171.000000;3.794948
3170.000000;4.308372
3169.000000;3.464509
3168.000000;3.196481
3167.000000;3.053524
3166.000000;2.894392
3165.000000;2.768495
3164.000000;2.715721
3163.000000;2.756014
3162.000000;2.873202
3161.000000;3.115124
3160.000000;3.459856
3159.000000;3.191549
3158.000000;3.059294
3157.000000;3.184712
3156.000000;3.055851
3155.000000;2.864633
3154.000000;2.783293
3153.000000;2.770552
3152.000000;2.842863
3151.000000;3.009904
3150.000000;3.312237
3149.000000;3.608095
3148.000000;3.221872
3147.000000;3.019267
3146.000000;2.966199
3145.000000;2.944124
3144.000000;2.924784
3143.000000;2.931650
3142.000000;3.084662
3141.000000;3.504819
3140.000000;3.283543
3139.000000;2.974104
3138.000000;2.896793
3137.000000;2.901224
3136.000000;2.990951
3135.000000;3.205334
3134.000000;3.108920
3133.000000;2.832092
3132.000000;2.754747
3131.000000;2.847158
3130.000000;3.244985
3129.000000;3.543413
3128.000000;3.223354
3127.000000;3.161036
3126.000000;3.162799
3125.000000;3.188864
3124.000000;3.259977
3123.000000;3.154815
3122.000000;3.058517
3121.000000;3.179095
3120.000000;3.418748
3119.000000;3.314848
3118.000000;3.301264
3117.000000;3.337055
3116.000000;3.595552
3115.000000;3.736774
3114.000000;3.044449
3113.000000;2.847586
3112.000000;2.797318
3111.000000;2.844665
3110.000000;2.939087
3109.000000;3.013162
3108.000000;3.086709
3107.000000;3.156419
3106.000000;3.176556
3105.000000;3.256238
3104.000000;3.488577
3103.000000;3.310456
3102.000000;3.130293
3101.000000;3.299975
3100.000000;3.152614
3099.000000;2.899343
3098.000000;2.890212
3097.000000;3.086858
3096.000000;3.582517
3095.000000;3.590691
3094.000000;3.086922
3093.000000;2.845588
3092.000000;2.732117
3091.000000;2.706572
3090.000000;2.735680
3089.000000;2.764713
3088.000000;2.749850
3087.000000;2.720886
3086.000000;2.738417
3085.000000;2.829411
3084.000000;2.889353
3083.000000;2.850299
3082.000000;2.870442
3081.000000;3.118910
3080.000000;3.455953
3079.000000;3.056408
3078.000000;2.814248
3077.000000;2.764431
3076.000000;2.828151
3075.000000;2.914514
3074.000000;2.881128
3073.000000;2.767019
3072.000000;2.670461
3071.000000;2.638220
3070.000000;2.657956
3069.000000;2.714566
3068.000000;2.829132
3067.000000;3.046502
3066.000000;3.318941
3065.000000;3.265529
3064.000000;3.149422
3063.000000;3.036996
3062.000000;2.883612
3061.000000;2.751137
3060.000000;2.683970
3059.000000;2.695576
3058.000000;2.781270
3057.000000;2.906094
3056.000000;2.996373
3055.000000;3.001980
3054.000000;2.943021
3053.000000;2.893288
3052.000000;2.911999
3051.000000;3.078277
3050.000000;3.450097
3049.000000;3.260617
3048.000000;3.146286
3047.000000;3.382553
3046.000000;3.810561
3045.000000;3.492990
3044.000000;3.149254
3043.000000;3.025449
3042.000000;3.029715
3041.000000;3.089366
3040.000000;3.131965
3039.000000;3.118348
3038.000000;3.062694
3037.000000;3.021604
3036.000000;3.030982
3035.000000;3.034732
3034.000000;3.015118
3033.000000;3.093314
3032.000000;3.247709
3031.000000;3.294147
3030.000000;3.447642
3029.000000;3.629598
3028.000000;3.282706
3027.000000;3.044581
3026.000000;2.915844
3025.000000;2.780917
3024.000000;2.644941
3023.000000;2.578401
3022.000000;2.617835
3021.000000;2.765088
3020.000000;3.283949
3019.000000;3.311995
3018.000000;3.006287
3017.000000;3.023992
3016.000000;3.158530
3015.000000;3.618722
3014.000000;3.635640
3013.000000;3.706712
3012.000000;3.099684
3011.000000;2.731834
3010.000000;2.615758
3009.000000;2.652093
3008.000000;2.795798
3007.000000;2.964055
3006.000000;3.022759
3005.000000;2.983220
3004.000000;2.914888
3003.000000;2.869151
3002.000000;2.909624
3001.000000;3.143514
3000.000000;3.520264
2999.000000;3.159800
2998.000000;2.945619
2997.000000;2.993965
2996.000000;3.157339
2995.000000;3.199236
2994.000000;3.103233
2993.000000;3.015315
2992.000000;3.005153
2991.000000;3.098262
2990.000000;3.249143
2989.000000;3.231579
2988.000000;3.123357
2987.000000;2.990145
2986.000000;2.877048
2985.000000;2.909186
2984.000000;3.093272
2983.000000;3.175523
2982.000000;3.198185
2981.000000;3.367914
2980.000000;3.204203
2979.000000;2.941194
2978.000000;2.874874
2977.000000;2.957279
2976.000000;3.168748
2975.000000;3.134388
2974.000000;2.947114
2973.000000;2.934792
2972.000000;3.049121
2971.000000;3.158664
2970.000000;3.155199
2969.000000;3.149695
2968.000000;3.146939
2967.000000;3.115084
2966.000000;3.021597
2965.000000;2.941262
2964.000000;2.971278
2963.000000;3.214007
2962.000000;3.628116
2961.000000;3.428921
2960.000000;3.796385
2959.000000;3.433697
2958.000000;3.286088
2957.000000;3.435186
2956.000000;3.444179
2955.000000;3.066703
2954.000000;2.907872
2953.000000;2.995565
2952.000000;3.269304
2951.000000;3.202303
2950.000000;3.331145
2949.000000;3.643411
2948.000000;3.320684
2947.000000;3.252132
2946.000000;3.163891
2945.000000;3.144229
2944.000000;3.121290
2943.000000;3.006609
2942.000000;3.000283
2941.000000;3.126490
2940.000000;3.173976
2939.000000;3.171152
2938.000000;3.459372
2937.000000;3.651130
2936.000000;3.305132
2935.000000;3.111177
2934.000000;2.996377
2933.000000;2.974868
2932.000000;2.932897
2931.000000;2.825360
2930.000000;2.753989
2929.000000;2.750234
2928.000000;2.804677
2927.000000;2.910800
2926.000000;3.035676
2925.000000;3.330512
2924.000000;3.757229
2923.000000;3.107895
2922.000000;2.911139
2921.000000;2.961650
2920.000000;3.356799
2919.000000;3.105576
2918.000000;2.822781
2917.000000;2.883069
2916.000000;3.099176
2915.000000;3.157976
2914.000000;3.104714
2913.000000;3.251866
2912.000000;3.293416
2911.000000;3.463245
2910.000000;3.221774
2909.000000;2.951735
2908.000000;2.911599
2907.000000;2.937450
2906.000000;2.892700
2905.000000;2.854753
2904.000000;2.916668
2903.000000;3.066237
2902.000000;3.236370
2901.000000;3.506687
2900.000000;3.646815
2899.000000;3.277282
2898.000000;3.045438
2897.000000;2.967028
2896.000000;2.922484
2895.000000;2.830135
2894.000000;2.758730
2893.000000;2.744710
2892.000000;2.811797
2891.000000;2.991455
2890.000000;3.548298
2889.000000;3.314711
2888.000000;3.080334
2887.000000;3.279804
2886.000000;3.647995
2885.000000;3.250525
2884.000000;2.941895
2883.000000;2.834691
2882.000000;2.813803
2881.000000;2.799915
2880.000000;2.807846
2879.000000;2.831869
2878.000000;2.793820
2877.000000;2.735141
2876.000000;2.694912
2875.000000;2.688428
2874.000000;2.749296
2873.000000;2.857469
2872.000000;2.909256
2871.000000;2.972897
2870.000000;3.296930
2869.000000;3.387924
2868.000000;2.989216
2867.000000;2.866278
2866.000000;2.848938
2865.000000;2.977020
2864.000000;3.253202
2863.000000;3.432439
2862.000000;3.202917
2861.000000;3.060425
2860.000000;3.078087
2859.000000;3.237613
2858.000000;3.198685
2857.000000;3.035805
2856.000000;3.002464
2855.000000;3.110378
2854.000000;3.380233
2853.000000;3.418681
2852.000000;3.240627
2851.000000;3.264325
2850.000000;3.487556
2849.000000;3.461291
2848.000000;3.247114
2847.000000;3.124521
2846.000000;3.058719
2845.000000;3.066643
2844.000000;3.205902
2843.000000;3.327730
2842.000000;3.039899
2841.000000;2.882570
2840.000000;2.890188
2839.000000;3.089373
2838.000000;3.406033
2837.000000;3.149555
2836.000000;2.987481
2835.000000;2.975844
2834.000000;2.874064
2833.000000;2.767353
2832.000000;2.749716
2831.000000;2.832017
2830.000000;2.978439
2829.000000;3.094969
2828.000000;3.104085
2827.000000;3.060217
2826.000000;3.114615
2825.000000;3.467495
2824.000000;3.536041
2823.000000;3.164620
2822.000000;3.193323
2821.000000;3.227989
2820.000000;3.152649
2819.000000;3.331106
2818.000000;3.569602
2817.000000;3.516956
2816.000000;3.678685
2815.000000;3.447769
2814.000000;3.258552
2813.000000;3.114927
2812.000000;3.011927
2811.000000;2.929802
2810.000000;2.909396
2809.000000;3.027207
2808.000000;3.524549
2807.000000;3.139153
2806.000000;2.860418
2805.000000;2.859978
2804.000000;2.954703
2803.000000;3.122307
2802.000000;3.319972
2801.000000;3.424026
2800.000000;3.238823
2799.000000;3.067823
2798.000000;3.068104
2797.000000;3.084922
2796.000000;2.968412
2795.000000;2.944908
2794.000000;2.988445
2793.000000;2.998742
2792.000000;2.919911
2791.000000;2.778423
2790.000000;2.724365
2789.000000;2.831884
2788.000000;3.152259
2787.000000;3.902323
2786.000000;3.799553
2785.000000;3.228316
2784.000000;3.007582
2783.000000;2.863283
2782.000000;2.800442
2781.000000;2.902125
2780.000000;3.017875
2779.000000;2.825461
2778.000000;2.741976
2777.000000;2.842082
2776.000000;3.158167
2775.000000;3.301688
2774.000000;2.886888
2773.000000;2.663640
2772.000000;2.568015
2771.000000;2.566698
2770.000000;2.626712
2769.000000;2.654000
2768.000000;2.632852
2767.000000;2.680044
2766.000000;2.838885
2765.000000;3.276226
2764.000000;3.789312
2763.000000;3.064139
2762.000000;3.000185
2761.000000;2.980014
2760.000000;3.138226
2759.000000;3.386334
2758.000000;3.224048
2757.000000;3.013159
2756.000000;2.908999
2755.000000;2.929425
2754.000000;3.293593
2753.000000;3.555233
2752.000000;3.251817
2751.000000;3.277723
2750.000000;3.438002
2749.000000;3.175358
2748.000000;2.980793
2747.000000;3.015817
2746.000000;3.405491
2745.000000;3.495492
2744.000000;3.214985
2743.000000;3.255631
2742.000000;3.514645
2741.000000;3.248739
2740.000000;2.914547
2739.000000;2.795352
2738.000000;2.812384
2737.000000;2.909897
2736.000000;2.995978
2735.000000;3.011743
2734.000000;3.073473
2733.000000;3.191423
2732.000000;3.098947
2731.000000;3.018981
2730.000000;3.192746
2729.000000;3.178484
2728.000000;2.910182
2727.000000;2.790201
2726.000000;2.782729
2725.000000;2.864104
2724.000000;3.009370
2723.000000;3.273999
2722.000000;3.295851
2721.000000;3.100836
2720.000000;3.145730
2719.000000;3.317857
2718.000000;3.098254
2717.000000;3.064362
2716.000000;3.180739
2715.000000;2.991522
2714.000000;2.847782
2713.000000;2.874666
2712.000000;2.987760
2711.000000;2.991088
2710.000000;2.844892
2709.000000;2.723273
2708.000000;2.721860
2707.000000;2.891739
2706.000000;3.268506
2705.000000;3.320944
2704.000000;3.211087
2703.000000;3.520944
2702.000000;3.691551
2701.000000;3.432960
2700.000000;3.387339
2699.000000;3.596561
2698.000000;3.443950
2697.000000;3.271783
2696.000000;3.521831
2695.000000;3.781807
2694.000000;3.569667
2693.000000;3.329044
2692.000000;2.919092
2691.000000;2.752890
2690.000000;2.796994
2689.000000;3.051455
2688.000000;3.291153
2687.000000;3.239722
2686.000000;3.219189
2685.000000;3.064286
2684.000000;2.943325
2683.000000;2.887104
2682.000000;2.907996
2681.000000;3.116898
2680.000000;3.256583
2679.000000;2.921516
2678.000000;2.748881
2677.000000;2.696851
2676.000000;2.730121
2675.000000;2.817746
2674.000000;2.891173
2673.000000;2.917348
2672.000000;2.966895
2671.000000;3.097165
2670.000000;3.452198
2669.000000;3.867041
2668.000000;3.485058
2667.000000;3.466874
2666.000000;3.629589
2665.000000;3.413262
2664.000000;3.183278
2663.000000;3.096549
2662.000000;3.151762
2661.000000;3.243653
2660.000000;3.179892
2659.000000;3.079189
2658.000000;3.036964
2657.000000;3.077549
2656.000000;3.137006
2655.000000;3.107456
2654.000000;3.030654
2653.000000;3.036039
2652.000000;3.206997
2651.000000;3.354249
2650.000000;3.178916
2649.000000;3.044346
2648.000000;3.102656
2647.000000;3.502058
2646.000000;3.585289
2645.000000;3.370874
2644.000000;3.072190
2643.000000;2.804424
2642.000000;2.657739
2641.000000;2.600560
2640.000000;2.633347
2639.000000;2.735668
2638.000000;2.863468
2637.000000;2.928858
2636.000000;2.890788
2635.000000;2.863378
2634.000000;2.867965
2633.000000;2.851755
2632.000000;2.851002
2631.000000;2.919912
2630.000000;3.217214
2629.000000;3.657980
2628.000000;3.172768
2627.000000;3.083911
2626.000000;3.161132
2625.000000;3.251982
2624.000000;3.109255
2623.000000;2.972463
2622.000000;2.988181
2621.000000;3.204258
2620.000000;3.497332
2619.000000;3.394519
2618.000000;3.281129
2617.000000;3.253350
2616.000000;3.207580
2615.000000;3.131929
2614.000000;3.090270
2613.000000;3.075526
2612.000000;3.083862
2611.000000;3.219222
2610.000000;3.561832
2609.000000;3.357471
2608.000000;3.174803
2607.000000;3.128963
2606.000000;3.104436
2605.000000;3.056581
2604.000000;2.903151
2603.000000;2.725258
2602.000000;2.618997
2601.000000;2.569346
2600.000000;2.564075
2599.000000;2.628610
2598.000000;2.975386
2597.000000;3.359776
2596.000000;2.965020
2595.000000;2.937796
2594.000000;3.015492
2593.000000;3.042603
2592.000000;3.042445
2591.000000;3.118783
2590.000000;3.292934
2589.000000;3.287417
2588.000000;3.270301
2587.000000;3.608820
2586.000000;3.823518
2585.000000;3.417939
2584.000000;3.115711
2583.000000;2.921930
2582.000000;2.823118
2581.000000;2.786564
2580.000000;2.811874
2579.000000;2.931621
2578.000000;3.124926
2577.000000;3.079148
2576.000000;2.933269
2575.000000;2.919213
2574.000000;2.966523
2573.000000;2.958091
2572.000000;2.878062
2571.000000;2.810789
2570.000000;2.823044
2569.000000;2.943142
2568.000000;3.090124
2567.000000;3.104252
2566.000000;2.982474
2565.000000;2.830202
2564.000000;2.738219
2563.000000;2.738063
2562.000000;2.818630
2561.000000;2.860983
2560.000000;2.801948
2559.000000;2.766936
2558.000000;2.804029
2557.000000;2.928050
2556.000000;3.218367
2555.000000;3.856902
2554.000000;3.776850
2553.000000;3.262635
2552.000000;3.032154
2551.000000;3.066317
2550.000000;3.292906
2549.000000;3.426847
2548.000000;3.287501
2547.000000;3.225255
2546.000000;3.431233
2545.000000;3.819668
2544.000000;3.337571
2543.000000;3.008823
2542.000000;2.913531
2541.000000;3.018403
2540.000000;3.426278
2539.000000;3.153716
2538.000000;2.894725
2537.000000;2.949576
2536.000000;3.309633
2535.000000;3.305009
2534.000000;3.015485
2533.000000;3.005864
2532.000000;3.252708
2531.000000;3.274681
2530.000000;3.149983
2529.000000;3.359921
2528.000000;3.174269
2527.000000;2.981954
2526.000000;3.054851
2525.000000;3.431551
2524.000000;3.544233
2523.000000;3.024680
2522.000000;2.826379
2521.000000;2.729843
2520.000000;2.725706
2519.000000;2.811760
2518.000000;2.979296
2517.000000;3.123848
2516.000000;3.120749
2515.000000;3.076174
2514.000000;2.979306
2513.000000;2.863873
2512.000000;2.802225
2511.000000;2.809032
2510.000000;2.817525
2509.000000;2.798178
2508.000000;2.751019
2507.000000;2.679915
2506.000000;2.684307
2505.000000;2.838117
2504.000000;3.130717
2503.000000;3.203590
2502.000000;3.381743
2501.000000;3.405648
2500.000000;2.887588
2499.000000;2.728909
2498.000000;2.740959
2497.000000;2.885508
2496.000000;3.145094
2495.000000;3.260676
2494.000000;3.222240
2493.000000;3.556839
2492.000000;3.529235
2491.000000;2.963115
2490.000000;2.790952
2489.000000;2.751545
2488.000000;2.773324
2487.000000;2.814216
2486.000000;2.978890
2485.000000;3.434764
2484.000000;3.238468
2483.000000;3.017995
2482.000000;3.012049
2481.000000;2.950929
2480.000000;2.829118
2479.000000;2.735515
2478.000000;2.752280
2477.000000;2.921594
2476.000000;3.257898
2475.000000;3.270513
2474.000000;2.903785
2473.000000;2.708507
2472.000000;2.677270
2471.000000;2.763753
2470.000000;2.989315
2469.000000;3.114612
2468.000000;2.868984
2467.000000;2.776466
2466.000000;2.789213
2465.000000;2.808444
2464.000000;2.806575
2463.000000;2.819655
2462.000000;2.892356
2461.000000;3.029648
2460.000000;3.183957
2459.000000;3.117150
2458.000000;2.955027
2457.000000;2.946619
2456.000000;3.010626
2455.000000;2.906099
2454.000000;2.803009
2453.000000;2.793945
2452.000000;2.825356
2451.000000;2.920070
2450.000000;3.100907
2449.000000;3.177210
2448.000000;3.128771
2447.000000;3.048289
2446.000000;2.915049
2445.000000;2.815873
2444.000000;2.765198
2443.000000;2.727666
2442.000000;2.722156
2441.000000;2.816880
2440.000000;2.999477
2439.000000;3.101035
2438.000000;3.150273
2437.000000;3.331042
2436.000000;3.389747
2435.000000;3.164246
2434.000000;3.004505
2433.000000;2.859237
2432.000000;2.729735
2431.000000;2.695078
2430.000000;2.748536
2429.000000;2.887107
2428.000000;3.027981
2427.000000;3.048838
2426.000000;3.209313
2425.000000;3.074167
2424.000000;2.784286
2423.000000;2.700787
2422.000000;2.735234
2421.000000;2.842200
2420.000000;2.967437
2419.000000;3.024840
2418.000000;3.047405
2417.000000;3.001029
2416.000000;2.989613
2415.000000;3.117626
2414.000000;3.200061
2413.000000;3.236657
2412.000000;3.362200
2411.000000;3.424221
2410.000000;3.236912
2409.000000;2.952147
2408.000000;2.794024
2407.000000;2.741769
2406.000000;2.762939
2405.000000;2.830469
2404.000000;2.838579
2403.000000;2.773876
2402.000000;2.749107
2401.000000;2.820814
2400.000000;2.951588
2399.000000;3.132997
2398.000000;3.617298
2397.000000;3.587469
2396.000000;3.251415
2395.000000;3.135327
2394.000000;2.962108
2393.000000;2.859943
2392.000000;2.872154
2391.000000;3.006279
2390.000000;3.295306
2389.000000;3.319209
2388.000000;3.200484
2387.000000;3.278393
2386.000000;3.176246
2385.000000;3.092666
2384.000000;3.218238
2383.000000;3.408127
2382.000000;3.717975
2381.000000;3.865896
2380.000000;3.399224
2379.000000;3.227724
2378.000000;3.397139
2377.000000;3.750811
2376.000000;3.434392
2375.000000;3.283713
2374.000000;3.380439
2373.000000;3.427273
2372.000000;3.346668
2371.000000;3.336709
2370.000000;3.430692
2369.000000;3.563523
2368.000000;3.699512
2367.000000;3.888392
2366.000000;3.807490
2365.000000;3.541305
2364.000000;3.450158
2363.000000;3.500214
2362.000000;3.565199
2361.000000;3.494773
2360.000000;3.404868
2359.000000;3.401337
2358.000000;3.429295
2357.000000;3.492817
2356.000000;3.631106
2355.000000;3.583403
2354.000000;3.441187
2353.000000;3.440922
2352.000000;3.524238
2351.000000;3.630229
2350.000000;3.685474
2349.000000;3.768683
2348.000000;4.045006
2347.000000;3.727908
2346.000000;3.461516
2345.000000;3.480240
2344.000000;3.571272
2343.000000;3.613569
2342.000000;3.539975
2341.000000;3.456306
2340.000000;3.437852
2339.000000;3.579989
2338.000000;3.658120
2337.000000;3.388101
2336.000000;3.267857
2335.000000;3.291538
2334.000000;3.359040
2333.000000;3.422102
2332.000000;3.490697
2331.000000;3.838869
2330.000000;4.176414
2329.000000;3.779572
2328.000000;3.873000
2327.000000;3.852768
2326.000000;3.539792
2325.000000;3.380619
2324.000000;3.315047
2323.000000;3.307337
2322.000000;3.322105
2321.000000;3.330787
2320.000000;3.319105
2319.000000;3.291677
2318.000000;3.228135
2317.000000;3.175024
2316.000000;3.198092
2315.000000;3.315541
2314.000000;3.435040
2313.000000;3.414178
2312.000000;3.343501
2311.000000;3.174379
2310.000000;2.977790
2309.000000;2.901941
2308.000000;2.951238
2307.000000;3.163226
2306.000000;3.419103
2305.000000;3.226916
2304.000000;3.081064
2303.000000;3.177175
2302.000000;3.595898
2301.000000;3.686762
2300.000000;3.181942
2299.000000;2.912810
2298.000000;2.778921
2297.000000;2.812644
2296.000000;3.106245
2295.000000;3.326918
2294.000000;3.153547
2293.000000;3.164547
2292.000000;3.279723
2291.000000;3.367584
2290.000000;3.148227
2289.000000;2.924504
2288.000000;2.835242
2287.000000;2.829293
2286.000000;2.895047
2285.000000;3.073925
2284.000000;3.318331
2283.000000;3.199231
2282.000000;3.020315
2281.000000;2.987712
2280.000000;3.148991
2279.000000;3.207084
2278.000000;2.995370
2277.000000;3.002652
2276.000000;3.187674
2275.000000;3.044637
2274.000000;2.844522
2273.000000;2.818835
2272.000000;2.946125
2271.000000;3.475482
2270.000000;3.509221
2269.000000;3.083714
2268.000000;3.045882
2267.000000;3.055288
2266.000000;3.028088
2265.000000;2.900317
2264.000000;2.764784
2263.000000;2.714169
2262.000000;2.821042
2261.000000;3.150041
2260.000000;3.215529
2259.000000;2.976802
2258.000000;2.898822
2257.000000;2.949391
2256.000000;3.224102
2255.000000;3.374015
2254.000000;3.164396
2253.000000;3.165397
2252.000000;3.054673
2251.000000;2.948097
2250.000000;3.025511
2249.000000;3.389328
2248.000000;3.671381
2247.000000;3.182271
2246.000000;2.909511
2245.000000;2.739051
2244.000000;2.618232
2243.000000;2.541745
2242.000000;2.530995
2241.000000;2.637290
2240.000000;3.010420
2239.000000;3.254050
2238.000000;2.879740
2237.000000;2.747905
2236.000000;2.736018
2235.000000;2.791786
2234.000000;2.951635
2233.000000;3.250184
2232.000000;3.316881
2231.000000;3.124575
2230.000000;3.122284
2229.000000;3.226087
2228.000000;3.492794
2227.000000;3.454150
2226.000000;3.194577
2225.000000;3.279373
2224.000000;3.208917
2223.000000;3.011604
2222.000000;2.967865
2221.000000;2.999999
2220.000000;3.149769
2219.000000;3.392548
2218.000000;3.207458
2217.000000;3.221417
2216.000000;3.572211
2215.000000;3.064053
2214.000000;2.817506
2213.000000;2.884921
2212.000000;3.281664
2211.000000;3.411813
2210.000000;2.954916
2209.000000;2.763539
2208.000000;2.677573
2207.000000;2.706885
2206.000000;2.827752
2205.000000;2.861149
2204.000000;2.816566
2203.000000;2.816316
2202.000000;2.856409
2201.000000;2.915027
2200.000000;2.944741
2199.000000;2.923871
2198.000000;2.932114
2197.000000;3.026161
2196.000000;3.123080
2195.000000;3.042741
2194.000000;2.896961
2193.000000;2.764511
2192.000000;2.650319
2191.000000;2.599101
2190.000000;2.653239
2189.000000;2.809848
2188.000000;3.053740
2187.000000;3.286341
2186.000000;3.080702
2185.000000;2.861737
2184.000000;2.825166
2183.000000;2.896867
2182.000000;2.944848
2181.000000;2.891506
2180.000000;2.858495
2179.000000;2.922826
2178.000000;3.089770
2177.000000;3.215923
2176.000000;3.142880
2175.000000;3.080838
2174.000000;3.127912
2173.000000;3.170884
2172.000000;3.065137
2171.000000;2.957675
2170.000000;2.952538
2169.000000;3.048802
2168.000000;3.163572
2167.000000;3.088851
2166.000000;2.956985
2165.000000;2.937360
2164.000000;3.001466
2163.000000;3.087024
2162.000000;3.114503
2161.000000;2.975712
2160.000000;2.811979
2159.000000;2.758868
2158.000000;2.790008
2157.000000;2.797383
2156.000000;2.761676
2155.000000;2.796671
2154.000000;2.956510
2153.000000;3.376093
2152.000000;3.868523
2151.000000;3.467221
2150.000000;3.456841
2149.000000;3.376392
2148.000000;3.137347
2147.000000;3.327892
2146.000000;3.610286
2145.000000;3.019444
2144.000000;2.832285
2143.000000;2.850673
2142.000000;3.111694
2141.000000;3.604637
2140.000000;3.202573
2139.000000;2.985189
2138.000000;2.921469
2137.000000;2.965764
2136.000000;3.162379
2135.000000;3.139731
2134.000000;2.971416
2133.000000;2.984979
2132.000000;3.164927
2131.000000;3.437130
2130.000000;3.595585
2129.000000;3.507825
2128.000000;3.288923
2127.000000;3.047400
2126.000000;2.939328
2125.000000;2.953958
2124.000000;3.242342
2123.000000;3.582704
2122.000000;3.083191
2121.000000;2.965035
2120.000000;3.091692
2119.000000;3.255604
2118.000000;3.092793
2117.000000;2.813678
2116.000000;2.630206
2115.000000;2.542981
2114.000000;2.559386
2113.000000;2.660332
2112.000000;2.822948
2111.000000;2.959965
2110.000000;3.000346
2109.000000;3.081937
2108.000000;3.422576
2107.000000;4.105504
2106.000000;3.903779
2105.000000;3.405590
2104.000000;3.162815
2103.000000;3.090295
2102.000000;3.192555
2101.000000;3.438929
2100.000000;3.323834
2099.000000;3.101579
2098.000000;3.019604
2097.000000;3.074613
2096.000000;3.239286
2095.000000;3.296673
2094.000000;3.160631
2093.000000;3.019372
2092.000000;2.995212
2091.000000;3.135974
2090.000000;3.466382
2089.000000;3.310935
2088.000000;2.947233
2087.000000;2.773293
2086.000000;2.733475
2085.000000;2.829900
2084.000000;3.040947
2083.000000;3.657970
2082.000000;3.641699
2081.000000;3.335431
2080.000000;3.778462
2079.000000;3.332579
2078.000000;2.999769
2077.000000;3.006341
2076.000000;3.119666
2075.000000;2.944696
2074.000000;2.767413
2073.000000;2.829946
2072.000000;3.064425
2071.000000;3.195417
2070.000000;3.225357
2069.000000;3.369843
2068.000000;3.553906
2067.000000;3.349037
2066.000000;3.062942
2065.000000;2.953496
2064.000000;2.876451
2063.000000;2.816510
2062.000000;2.794002
2061.000000;2.763217
2060.000000;2.759273
2059.000000;2.830101
2058.000000;3.121654
2057.000000;3.518633
2056.000000;3.443767
2055.000000;3.786776
2054.000000;3.416128
2053.000000;3.109867
2052.000000;3.145501
2051.000000;3.149709
2050.000000;3.006872
2049.000000;2.836430
2048.000000;2.770979
2047.000000;2.822967
2046.000000;2.965052
2045.000000;3.098236
2044.000000;3.020520
2043.000000;2.911181
2042.000000;2.919477
2041.000000;2.996409
2040.000000;3.068112
2039.000000;3.110026
2038.000000;3.257764
2037.000000;3.353902
2036.000000;3.100075
2035.000000;2.953459
2034.000000;2.938982
2033.000000;2.963382
2032.000000;2.980129
2031.000000;3.002150
2030.000000;3.128644
2029.000000;3.416183
2028.000000;3.617728
2027.000000;3.518657
2026.000000;3.336705
2025.000000;3.191584
2024.000000;3.071307
2023.000000;3.042679
2022.000000;3.078255
2021.000000;2.867220
2020.000000;2.663108
2019.000000;2.630424
2018.000000;2.754925
2017.000000;3.038368
2016.000000;3.382980
2015.000000;3.795132
2014.000000;3.834195
2013.000000;3.326411
2012.000000;3.220106
2011.000000;3.298848
2010.000000;3.253134
2009.000000;3.217724
2008.000000;3.338822
2007.000000;3.491581
2006.000000;3.769035
2005.000000;3.293898
2004.000000;2.887584
2003.000000;2.822335
2002.000000;2.997530
2001.000000;3.270455
2000.000000;3.100533
1999.000000;3.116083
1998.000000;3.445751
1997.000000;3.281752
1996.000000;3.037126
1995.000000;3.174383
1994.000000;3.933474
1993.000000;3.448982
1992.000000;3.561391
1991.000000;3.323593
1990.000000;2.885119
1989.000000;2.792856
1988.000000;2.800129
1987.000000;2.795415
1986.000000;2.738395
1985.000000;2.704926
1984.000000;2.719520
1983.000000;2.794442
1982.000000;2.959485
1981.000000;2.935677
1980.000000;2.720991
1979.000000;2.642320
1978.000000;2.722416
1977.000000;3.016096
1976.000000;3.335010
1975.000000;3.304251
1974.000000;3.494454
1973.000000;3.565465
1972.000000;3.386057
1971.000000;3.278044
1970.000000;3.251828
1969.000000;3.297289
1968.000000;3.075132
1967.000000;2.841447
1966.000000;2.725696
1965.000000;2.725504
1964.000000;2.806618
1963.000000;3.055760
1962.000000;3.585021
1961.000000;3.193843
1960.000000;2.968449
1959.000000;2.958638
1958.000000;3.108718
1957.000000;3.508379
1956.000000;3.483353
1955.000000;3.210796
1954.000000;3.066669
1953.000000;2.963777
1952.000000;2.911360
1951.000000;2.952198
1950.000000;3.042793
1949.000000;3.042592
1948.000000;3.030586
1947.000000;3.117356
1946.000000;3.262355
1945.000000;3.498662
1944.000000;3.811368
1943.000000;3.504435
1942.000000;3.100285
1941.000000;2.911777
1940.000000;2.905978
1939.000000;3.066762
1938.000000;3.344471
1937.000000;3.496707
1936.000000;3.411684
1935.000000;3.309356
1934.000000;3.563533
1933.000000;3.473168
1932.000000;2.960001
1931.000000;2.831887
1930.000000;2.863926
1929.000000;3.028816
1928.000000;3.185574
1927.000000;3.016949
1926.000000;2.905782
1925.000000;3.067593
1924.000000;3.427804
1923.000000;3.052134
1922.000000;2.800262
1921.000000;2.766949
1920.000000;2.826715
1919.000000;2.977928
1918.000000;3.088818
1917.000000;3.034577
1916.000000;2.970384
1915.000000;2.977356
1914.000000;3.049649
1913.000000;3.106773
1912.000000;3.009079
1911.000000;2.914103
1910.000000;2.957829
1909.000000;3.200199
1908.000000;3.532031
1907.000000;3.550891
1906.000000;3.852870
1905.000000;3.605542
1904.000000;3.213983
1903.000000;3.135982
1902.000000;3.165955
1901.000000;3.235719
1900.000000;3.337525
1899.000000;3.602123
1898.000000;3.510096
1897.000000;3.211729
1896.000000;3.108973
1895.000000;3.106529
1894.000000;3.191399
1893.000000;3.149654
1892.000000;3.051990
1891.000000;3.083945
1890.000000;3.162893
1889.000000;3.104155
1888.000000;2.918869
1887.000000;2.762768
1886.000000;2.681727
1885.000000;2.683742
1884.000000;2.790250
1883.000000;2.970291
1882.000000;2.982851
1881.000000;2.826383
1880.000000;2.733478
1879.000000;2.755950
1878.000000;2.955349
1877.000000;3.348437
1876.000000;3.561030
1875.000000;3.412466
1874.000000;3.159394
1873.000000;3.022502
1872.000000;3.057768
1871.000000;3.221119
1870.000000;3.032652
1869.000000;2.762087
1868.000000;2.694611
1867.000000;2.742611
1866.000000;2.891163
1865.000000;3.050862
1864.000000;3.182778
1863.000000;3.681492
1862.000000;3.365647
1861.000000;3.091795
1860.000000;3.421170
1859.000000;3.472696
1858.000000;3.288427
1857.000000;3.459264
1856.000000;2.941178
1855.000000;2.684713
1854.000000;2.606717
1853.000000;2.606682
1852.000000;2.691100
1851.000000;2.839663
1850.000000;3.249329
1849.000000;3.882113
1848.000000;3.181155
1847.000000;2.877074
1846.000000;2.644716
1845.000000;2.536944
1844.000000;2.550937
1843.000000;2.652720
1842.000000;2.857187
1841.000000;3.209331
1840.000000;3.757193
1839.000000;3.970324
1838.000000;3.326676
1837.000000;3.012991
1836.000000;2.973633
1835.000000;3.143057
1834.000000;3.184626
1833.000000;3.033434
1832.000000;2.978414
1831.000000;3.071839
1830.000000;3.175511
1829.000000;3.010508
1828.000000;2.902259
1827.000000;2.919027
1826.000000;3.045544
1825.000000;3.187674
1824.000000;3.138528
1823.000000;3.031882
1822.000000;2.985707
1821.000000;3.000417
1820.000000;3.020259
1819.000000;2.973748
1818.000000;2.934712
1817.000000;2.943095
1816.000000;3.038722
1815.000000;3.440501
1814.000000;3.571473
1813.000000;3.178335
1812.000000;3.175101
1811.000000;3.716948
1810.000000;3.594637
1809.000000;3.102700
1808.000000;2.848597
1807.000000;2.661244
1806.000000;2.571973
1805.000000;2.543621
1804.000000;2.541505
1803.000000;2.549520
1802.000000;2.586978
1801.000000;2.671667
1800.000000;2.992142
1799.000000;3.531999
1798.000000;2.932861
1797.000000;2.881455
1796.000000;3.040144
1795.000000;3.072759
1794.000000;3.211298
1793.000000;3.471991
1792.000000;3.040783
1791.000000;2.836632
1790.000000;2.811552
1789.000000;2.829563
1788.000000;2.875210
1787.000000;2.997252
1786.000000;3.329650
1785.000000;3.273215
1784.000000;2.985069
1783.000000;2.916937
1782.000000;2.998996
1781.000000;3.221246
1780.000000;3.442935
1779.000000;3.275536
1778.000000;2.984373
1777.000000;2.859847
1776.000000;2.926099
1775.000000;3.060225
1774.000000;3.061933
1773.000000;3.050833
1772.000000;3.079884
1771.000000;3.106916
1770.000000;3.142730
1769.000000;3.218496
1768.000000;3.485256
1767.000000;3.565039
1766.000000;3.071371
1765.000000;2.881903
1764.000000;2.908894
1763.000000;2.922194
1762.000000;2.802174
1761.000000;2.708218
1760.000000;2.670912
1759.000000;2.715546
1758.000000;2.915443
1757.000000;3.141588
1756.000000;2.997009
1755.000000;2.858520
1754.000000;2.841221
1753.000000;2.912651
1752.000000;2.961297
1751.000000;2.827124
1750.000000;2.701639
1749.000000;2.679726
1748.000000;2.774310
1747.000000;3.032558
1746.000000;3.234571
1745.000000;3.004643
1744.000000;2.930578
1743.000000;3.208076
1742.000000;3.523428
1741.000000;2.962959
1740.000000;2.802288
1739.000000;2.742702
1738.000000;2.736598
1737.000000;2.807468
1736.000000;2.971084
1735.000000;2.909356
1734.000000;2.776663
1733.000000;2.795225
1732.000000;2.893968
1731.000000;3.029974
1730.000000;2.932253
1729.000000;2.848105
1728.000000;2.923447
1727.000000;3.231633
1726.000000;3.886483
1725.000000;3.779515
1724.000000;3.577477
1723.000000;3.110814
1722.000000;2.923014
1721.000000;2.878786
1720.000000;2.917304
1719.000000;3.072874
1718.000000;3.190077
1717.000000;3.016260
1716.000000;2.853134
1715.000000;2.809626
1714.000000;2.919168
1713.000000;2.882189
1712.000000;2.707755
1711.000000;2.685893
1710.000000;2.771670
1709.000000;2.938062
1708.000000;3.236774
1707.000000;3.476455
1706.000000;3.257680
1705.000000;3.111928
1704.000000;3.058005
1703.000000;3.005775
1702.000000;2.902063
1701.000000;2.823299
1700.000000;2.862360
1699.000000;2.919316
1698.000000;2.841645
1697.000000;2.786325
1696.000000;2.892560
1695.000000;3.144899
1694.000000;3.469356
1693.000000;3.304015
1692.000000;3.088005
1691.000000;2.985552
1690.000000;2.948172
1689.000000;3.012964
1688.000000;3.162443
1687.000000;3.407309
1686.000000;3.477716
1685.000000;3.218892
1684.000000;3.138752
1683.000000;3.204522
1682.000000;3.555635
1681.000000;3.112061
1680.000000;2.725903
1679.000000;2.670324
1678.000000;2.719589
1677.000000;2.855225
1676.000000;2.900172
1675.000000;2.898535
1674.000000;3.033095
1673.000000;3.183836
1672.000000;3.279134
1671.000000;3.153124
1670.000000;3.065656
1669.000000;3.145626
1668.000000;3.257026
1667.000000;3.209394
1666.000000;3.035506
1665.000000;2.915438
1664.000000;2.884854
1663.000000;2.877121
1662.000000;2.849366
1661.000000;2.821959
1660.000000;2.826470
1659.000000;2.896200
1658.000000;3.020806
1657.000000;3.161693
1656.000000;3.342821
1655.000000;3.209052
1654.000000;2.967741
1653.000000;2.950631
1652.000000;3.007571
1651.000000;2.969526
1650.000000;2.960160
1649.000000;2.997367
1648.000000;2.989590
1647.000000;3.012060
1646.000000;3.114169
1645.000000;3.210135
1644.000000;3.239307
1643.000000;3.253521
1642.000000;3.422353
1641.000000;3.974192
1640.000000;3.466920
1639.000000;3.216550
1638.000000;3.135867
1637.000000;3.300258
1636.000000;3.796688
1635.000000;3.389763
1634.000000;3.048855
1633.000000;2.804577
1632.000000;2.684516
1631.000000;2.700601
1630.000000;2.805422
1629.000000;2.964607
1628.000000;3.222207
1627.000000;3.318819
1626.000000;3.111839
1625.000000;3.013896
1624.000000;3.077543
1623.000000;3.552670
1622.000000;3.282170
1621.000000;2.932911
1620.000000;2.833236
1619.000000;2.857329
1618.000000;2.992577
1617.000000;3.121927
1616.000000;3.194204
1615.000000;3.212323
1614.000000;3.211362
1613.000000;3.100271
1612.000000;2.940030
1611.000000;2.965576
1610.000000;3.170371
1609.000000;3.302987
1608.000000;3.093339
1607.000000;3.044341
1606.000000;3.177956
1605.000000;3.339264
1604.000000;3.255197
1603.000000;3.331405
1602.000000;3.655907
1601.000000;3.265566
1600.000000;3.130064
1599.000000;3.438911
1598.000000;3.468774
1597.000000;3.310405
1596.000000;3.297721
1595.000000;3.147315
1594.000000;2.972764
1593.000000;2.856551
1592.000000;2.799736
1591.000000;2.771051
1590.000000;2.751289
1589.000000;2.784108
1588.000000;2.912142
1587.000000;3.089215
1586.000000;3.090293
1585.000000;2.987298
1584.000000;2.978166
1583.000000;3.109474
1582.000000;3.271469
1581.000000;3.101774
1580.000000;2.959707
1579.000000;2.970677
1578.000000;3.112743
1577.000000;3.422491
1576.000000;3.452844
1575.000000;3.179594
1574.000000;3.027398
1573.000000;2.965536
1572.000000;3.216610
1571.000000;3.616331
1570.000000;3.271673
1569.000000;3.219522
1568.000000;3.339691
1567.000000;3.367497
1566.000000;3.236641
1565.000000;3.129939
1564.000000;3.099861
1563.000000;3.071886
1562.000000;3.063903
1561.000000;3.154286
1560.000000;3.361377
1559.000000;3.547229
1558.000000;3.624485
1557.000000;3.625729
1556.000000;4.040526
1555.000000;3.310719
1554.000000;3.113033
1553.000000;3.099394
1552.000000;3.387269
1551.000000;3.668421
1550.000000;3.130528
1549.000000;2.996343
1548.000000;2.898037
1547.000000;2.808594
1546.000000;2.748548
1545.000000;2.706130
1544.000000;2.632588
1543.000000;2.619564
1542.000000;2.746251
1541.000000;3.123122
1540.000000;3.574906
1539.000000;3.394098
1538.000000;3.497551
1537.000000;3.300226
1536.000000;2.853235
1535.000000;2.707747
1534.000000;2.757504
1533.000000;3.011887
1532.000000;3.741120
1531.000000;3.505913
1530.000000;3.441333
1529.000000;3.193099
1528.000000;3.138467
1527.000000;3.244500
1526.000000;3.407542
1525.000000;3.276585
1524.000000;3.176480
1523.000000;3.282351
1522.000000;3.025193
1521.000000;2.805708
1520.000000;2.749475
1519.000000;2.776415
1518.000000;2.824954
1517.000000;2.815361
1516.000000;2.832122
1515.000000;2.891479
1514.000000;3.005186
1513.000000;2.991874
1512.000000;3.089721
1511.000000;3.227264
1510.000000;2.885478
1509.000000;2.712673
1508.000000;2.712524
1507.000000;2.859514
1506.000000;3.019740
1505.000000;2.901151
1504.000000;2.727124
1503.000000;2.722696
1502.000000;2.921147
1501.000000;3.124530
1500.000000;2.888580
1499.000000;2.732256
1498.000000;2.689713
1497.000000;2.734123
1496.000000;2.854189
1495.000000;3.031671
1494.000000;3.321150
1493.000000;3.537527
1492.000000;3.241642
1491.000000;3.045918
1490.000000;2.982455
1489.000000;3.057603
1488.000000;3.520118
1487.000000;3.283283
1486.000000;3.008899
1485.000000;2.885242
1484.000000;2.797843
1483.000000;2.817256
1482.000000;2.965813
1481.000000;3.241921
1480.000000;3.514651
1479.000000;3.419772
1478.000000;3.145901
1477.000000;3.003742
1476.000000;3.026956
1475.000000;3.085843
1474.000000;2.937196
1473.000000;2.839051
1472.000000;2.860756
1471.000000;2.940437
1470.000000;2.967898
1469.000000;2.948684
1468.000000;2.960479
1467.000000;2.954204
1466.000000;2.939580
1465.000000;2.975872
1464.000000;3.100539
1463.000000;3.093588
1462.000000;2.985718
1461.000000;3.010499
1460.000000;3.457657
1459.000000;3.225666
1458.000000;2.939448
1457.000000;2.915622
1456.000000;2.958988
1455.000000;2.958995
1454.000000;2.933164
1453.000000;3.054989
1452.000000;3.164726
1451.000000;2.928927
1450.000000;2.778397
1449.000000;2.726213
1448.000000;2.725679
1447.000000;2.726006
1446.000000;2.708946
1445.000000;2.702813
1444.000000;2.735266
1443.000000;2.811106
1442.000000;2.904215
1441.000000;2.941520
1440.000000;2.926061
1439.000000;2.939227
1438.000000;2.966929
1437.000000;2.966492
1436.000000;2.954094
1435.000000;2.949387
1434.000000;2.980748
1433.000000;3.154321
1432.000000;3.106210
1431.000000;2.959695
1430.000000;3.007092
1429.000000;3.298745
1428.000000;4.015425
1427.000000;3.210824
1426.000000;2.931864
1425.000000;2.887636
1424.000000;2.953106
1423.000000;2.887232
1422.000000;2.835001
1421.000000;3.024944
1420.000000;3.239486
1419.000000;2.791875
1418.000000;2.660545
1417.000000;2.647846
1416.000000;2.701324
1415.000000;2.689159
1414.000000;2.625945
1413.000000;2.624874
1412.000000;2.745324
1411.000000;3.104210
1410.000000;3.678184
1409.000000;3.278770
1408.000000;3.010783
1407.000000;2.938211
1406.000000;3.039775
1405.000000;3.343798
1404.000000;3.282761
1403.000000;3.152074
1402.000000;3.165071
1401.000000;3.272841
1400.000000;3.381816
1399.000000;3.577434
1398.000000;3.740099
1397.000000;3.244343
1396.000000;3.023446
1395.000000;2.976844
1394.000000;3.248795
1393.000000;3.534385
1392.000000;2.948896
1391.000000;2.843791
1390.000000;2.834655
1389.000000;2.933042
1388.000000;3.292774
1387.000000;3.415807
1386.000000;2.953808
1385.000000;2.817627
1384.000000;2.753740
1383.000000;2.743758
1382.000000;2.782016
1381.000000;2.886729
1380.000000;3.051031
1379.000000;3.367123
1378.000000;3.166686
1377.000000;2.923220
1376.000000;2.885983
1375.000000;2.989577
1374.000000;3.300936
1373.000000;3.300892
1372.000000;3.000130
1371.000000;2.964801
1370.000000;3.083054
1369.000000;3.047743
1368.000000;2.912778
1367.000000;2.899038
1366.000000;3.031820
1365.000000;3.459670
1364.000000;3.482873
1363.000000;2.996363
1362.000000;3.027851
1361.000000;3.247280
1360.000000;3.126826
1359.000000;2.961977
1358.000000;2.871793
1357.000000;2.841733
1356.000000;2.994550
1355.000000;3.486610
1354.000000;3.416098
1353.000000;3.245845
1352.000000;3.536414
1351.000000;3.296505
1350.000000;2.934370
1349.000000;2.698528
1348.000000;2.574367
1347.000000;2.569874
1346.000000;2.681242
1345.000000;2.882611
1344.000000;3.011668
1343.000000;2.900720
1342.000000;2.881626
1341.000000;3.034055
1340.000000;3.217101
1339.000000;3.156758
1338.000000;2.928363
1337.000000;2.750575
1336.000000;2.710943
1335.000000;2.771579
1334.000000;2.850436
1333.000000;2.895154
1332.000000;2.910303
1331.000000;2.959033
1330.000000;3.089554
1329.000000;3.567582
1328.000000;3.691758
1327.000000;3.259546
1326.000000;3.134941
1325.000000;3.059922
1324.000000;2.973070
1323.000000;2.831536
1322.000000;2.696692
1321.000000;2.608633
1320.000000;2.576636
1319.000000;2.619393
1318.000000;2.781289
1317.000000;3.074543
1316.000000;2.981718
1315.000000;2.873064
1314.000000;2.907245
1313.000000;2.995253
1312.000000;3.099634
1311.000000;3.151019
1310.000000;3.043039
1309.000000;2.886623
1308.000000;2.805784
1307.000000;2.808036
1306.000000;2.856296
1305.000000;2.874679
1304.000000;2.863107
1303.000000;2.919826
1302.000000;3.270873
1301.000000;3.396255
1300.000000;3.131126
1299.000000;3.093761
1298.000000;3.090673
1297.000000;3.090374
1296.000000;3.160513
1295.000000;3.267707
1294.000000;3.225306
1293.000000;3.162970
1292.000000;3.120115
1291.000000;3.061069
1290.000000;3.003191
1289.000000;3.036460
1288.000000;3.269105
1287.000000;3.898511
1286.000000;3.310091
1285.000000;3.217722
1284.000000;3.433261
1283.000000;3.321371
1282.000000;3.413535
1281.000000;3.459157
1280.000000;2.953925
1279.000000;2.778383
1278.000000;2.712760
1277.000000;2.761235
1276.000000;2.989095
1275.000000;3.570546
1274.000000;3.425889
1273.000000;3.322123
1272.000000;3.849720
1271.000000;3.287272
1270.000000;3.081890
1269.000000;3.270806
1268.000000;3.564585
1267.000000;3.295767
1266.000000;3.332552
1265.000000;3.194684
1264.000000;3.036133
1263.000000;2.999151
1262.000000;3.036771
1261.000000;3.179356
1260.000000;3.403115
1259.000000;3.659660
1258.000000;3.573557
1257.000000;3.141825
1256.000000;2.946282
1255.000000;2.938157
1254.000000;3.116108
1253.000000;3.223889
1252.000000;3.145639
1251.000000;3.153422
1250.000000;3.176696
1249.000000;3.137632
1248.000000;3.380789
1247.000000;3.504297
1246.000000;3.095847
1245.000000;3.010182
1244.000000;3.141942
1243.000000;3.183609
1242.000000;2.970773
1241.000000;2.881750
1240.000000;2.968751
1239.000000;3.197397
1238.000000;3.146335
1237.000000;2.994690
1236.000000;3.026550
1235.000000;3.153732
1234.000000;3.276462
1233.000000;3.543894
1232.000000;3.795828
1231.000000;3.517832
1230.000000;3.291365
1229.000000;3.022302
1228.000000;2.885651
1227.000000;2.877451
1226.000000;2.967549
1225.000000;3.112169
1224.000000;3.234113
1223.000000;3.145311
1222.000000;2.929134
1221.000000;2.838212
1220.000000;2.959543
1219.000000;3.336415
1218.000000;3.191962
1217.000000;2.994008
1216.000000;2.927457
1215.000000;2.885419
1214.000000;2.931281
1213.000000;3.064803
1212.000000;3.097599
1211.000000;3.120142
1210.000000;3.411290
1209.000000;3.535168
1208.000000;3.403801
1207.000000;3.728833
1206.000000;4.044844
1205.000000;4.051858
1204.000000;3.719486
1203.000000;3.086473
1202.000000;2.798929
1201.000000;2.643924
1200.000000;2.591183
