Criado como novo conjunto de dados;"e0108.spp","-4292085.2 Secs"
cm-1;Abs
10000.000000;0.253107
9999.000000;0.252842
9998.000000;0.252506
9997.000000;0.252040
9996.000000;0.251427
9995.000000;0.250799
9994.000000;0.250346
9993.000000;0.250077
9992.000000;0.249847
9991.000000;0.249572
9990.000000;0.249293
9989.000000;0.248989
9988.000000;0.248514
9987.000000;0.247806
9986.000000;0.247021
9985.000000;0.246355
9984.000000;0.245838
9983.000000;0.245399
9982.000000;0.245053
9981.000000;0.244856
9980.000000;0.244733
9979.000000;0.244514
9978.000000;0.244146
9977.000000;0.243762
9976.000000;0.243514
9975.000000;0.243450
9974.000000;0.243532
9973.000000;0.243638
9972.000000;0.243529
9971.000000;0.242973
9970.000000;0.242017
9969.000000;0.241054
9968.000000;0.240522
9967.000000;0.240530
9966.000000;0.240808
9965.000000;0.240978
9964.000000;0.240841
9963.000000;0.240504
9962.000000;0.240290
9961.000000;0.240457
9960.000000;0.240879
9959.000000;0.241020
9958.000000;0.240354
9957.000000;0.238860
9956.000000;0.237096
9955.000000;0.235761
9954.000000;0.235184
9953.000000;0.235164
9952.000000;0.235200
9951.000000;0.234887
9950.000000;0.234207
9949.000000;0.233500
9948.000000;0.233130
9947.000000;0.233123
9946.000000;0.233162
9945.000000;0.232917
9944.000000;0.232383
9943.000000;0.231844
9942.000000;0.231532
9941.000000;0.231365
9940.000000;0.231073
9939.000000;0.230571
9938.000000;0.230132
9937.000000;0.230130
9936.000000;0.230625
9935.000000;0.231238
9934.000000;0.231417
9933.000000;0.230823
9932.000000;0.229581
9931.000000;0.228244
9930.000000;0.227427
9929.000000;0.227302
9928.000000;0.227417
9927.000000;0.227183
9926.000000;0.226533
9925.000000;0.225933
9924.000000;0.225734
9923.000000;0.225744
9922.000000;0.225578
9921.000000;0.225199
9920.000000;0.224874
9919.000000;0.224708
9918.000000;0.224519
9917.000000;0.224174
9916.000000;0.223814
9915.000000;0.223640
9914.000000;0.223620
9913.000000;0.223486
9912.000000;0.222991
9911.000000;0.222161
9910.000000;0.221361
9909.000000;0.221034
9908.000000;0.221255
9907.000000;0.221558
9906.000000;0.221360
9905.000000;0.220565
9904.000000;0.219615
9903.000000;0.218941
9902.000000;0.218524
9901.000000;0.218069
9900.000000;0.217448
9899.000000;0.216832
9898.000000;0.216465
9897.000000;0.216415
9896.000000;0.216559
9895.000000;0.216720
9894.000000;0.216776
9893.000000;0.216666
9892.000000;0.216345
9891.000000;0.215833
9890.000000;0.215300
9889.000000;0.214994
9888.000000;0.215002
9887.000000;0.215126
9886.000000;0.215070
9885.000000;0.214686
9884.000000;0.214014
9883.000000;0.213192
9882.000000;0.212461
9881.000000;0.212093
9880.000000;0.212125
9879.000000;0.212206
9878.000000;0.211951
9877.000000;0.211365
9876.000000;0.210732
9875.000000;0.210153
9874.000000;0.209520
9873.000000;0.208919
9872.000000;0.208670
9871.000000;0.208840
9870.000000;0.209036
9869.000000;0.208867
9868.000000;0.208371
9867.000000;0.207776
9866.000000;0.207122
9865.000000;0.206362
9864.000000;0.205654
9863.000000;0.205236
9862.000000;0.205095
9861.000000;0.205029
9860.000000;0.204967
9859.000000;0.204992
9858.000000;0.205108
9857.000000;0.205196
9856.000000;0.205205
9855.000000;0.205169
9854.000000;0.205040
9853.000000;0.204698
9852.000000;0.204139
9851.000000;0.203528
9850.000000;0.203050
9849.000000;0.202803
9848.000000;0.202772
9847.000000;0.202760
9846.000000;0.202432
9845.000000;0.201639
9844.000000;0.200691
9843.000000;0.200070
9842.000000;0.199836
9841.000000;0.199545
9840.000000;0.198804
9839.000000;0.197725
9838.000000;0.196762
9837.000000;0.196291
9836.000000;0.196401
9835.000000;0.196901
9834.000000;0.197366
9833.000000;0.197308
9832.000000;0.196527
9831.000000;0.195334
9830.000000;0.194354
9829.000000;0.194063
9828.000000;0.194468
9827.000000;0.195117
9826.000000;0.195438
9825.000000;0.195161
9824.000000;0.194465
9823.000000;0.193692
9822.000000;0.192960
9821.000000;0.192192
9820.000000;0.191445
9819.000000;0.190977
9818.000000;0.190903
9817.000000;0.191010
9816.000000;0.191021
9815.000000;0.190878
9814.000000;0.190641
9813.000000;0.190270
9812.000000;0.189701
9811.000000;0.189055
9810.000000;0.188584
9809.000000;0.188423
9808.000000;0.188511
9807.000000;0.188685
9806.000000;0.188769
9805.000000;0.188613
9804.000000;0.188179
9803.000000;0.187581
9802.000000;0.186966
9801.000000;0.186405
9800.000000;0.185971
9799.000000;0.185770
9798.000000;0.185736
9797.000000;0.185550
9796.000000;0.184996
9795.000000;0.184345
9794.000000;0.184106
9793.000000;0.184371
9792.000000;0.184680
9791.000000;0.184598
9790.000000;0.184193
9789.000000;0.183806
9788.000000;0.183570
9787.000000;0.183359
9786.000000;0.183086
9785.000000;0.182817
9784.000000;0.182605
9783.000000;0.182393
9782.000000;0.182115
9781.000000;0.181780
9780.000000;0.181423
9779.000000;0.181024
9778.000000;0.180537
9777.000000;0.179975
9776.000000;0.179457
9775.000000;0.179145
9774.000000;0.179071
9773.000000;0.179054
9772.000000;0.178886
9771.000000;0.178595
9770.000000;0.178389
9769.000000;0.178288
9768.000000;0.178011
9767.000000;0.177351
9766.000000;0.176516
9765.000000;0.175894
9764.000000;0.175577
9763.000000;0.175355
9762.000000;0.175102
9761.000000;0.174910
9760.000000;0.174824
9759.000000;0.174696
9758.000000;0.174396
9757.000000;0.173986
9756.000000;0.173587
9755.000000;0.173248
9754.000000;0.173038
9753.000000;0.173086
9752.000000;0.173361
9751.000000;0.173565
9750.000000;0.173400
9749.000000;0.172863
9748.000000;0.172138
9747.000000;0.171325
9746.000000;0.170459
9745.000000;0.169685
9744.000000;0.169181
9743.000000;0.168928
9742.000000;0.168773
9741.000000;0.168686
9740.000000;0.168749
9739.000000;0.168871
9738.000000;0.168779
9737.000000;0.168360
9736.000000;0.167820
9735.000000;0.167400
9734.000000;0.167116
9733.000000;0.166885
9732.000000;0.166733
9731.000000;0.166677
9730.000000;0.166555
9729.000000;0.166181
9728.000000;0.165615
9727.000000;0.165066
9726.000000;0.164569
9725.000000;0.163986
9724.000000;0.163334
9723.000000;0.162874
9722.000000;0.162745
9721.000000;0.162701
9720.000000;0.162389
9719.000000;0.161820
9718.000000;0.161379
9717.000000;0.161358
9716.000000;0.161630
9715.000000;0.161797
9714.000000;0.161589
9713.000000;0.161094
9712.000000;0.160678
9711.000000;0.160704
9710.000000;0.161233
9709.000000;0.161915
9708.000000;0.162246
9707.000000;0.161990
9706.000000;0.161352
9705.000000;0.160691
9704.000000;0.160098
9703.000000;0.159345
9702.000000;0.158250
9701.000000;0.157011
9700.000000;0.156086
9699.000000;0.155779
9698.000000;0.155955
9697.000000;0.156190
9696.000000;0.156200
9695.000000;0.156101
9694.000000;0.156213
9693.000000;0.156627
9692.000000;0.157045
9691.000000;0.157081
9690.000000;0.156621
9689.000000;0.155836
9688.000000;0.154933
9687.000000;0.154048
9686.000000;0.153327
9685.000000;0.152886
9684.000000;0.152649
9683.000000;0.152406
9682.000000;0.152117
9681.000000;0.152000
9680.000000;0.152174
9679.000000;0.152370
9678.000000;0.152193
9677.000000;0.151623
9676.000000;0.151049
9675.000000;0.150792
9674.000000;0.150763
9673.000000;0.150649
9672.000000;0.150301
9671.000000;0.149834
9670.000000;0.149424
9669.000000;0.149107
9668.000000;0.148794
9667.000000;0.148425
9666.000000;0.148082
9665.000000;0.147920
9664.000000;0.148011
9663.000000;0.148260
9662.000000;0.148470
9661.000000;0.148439
9660.000000;0.148022
9659.000000;0.147216
9658.000000;0.146243
9657.000000;0.145448
9656.000000;0.144999
9655.000000;0.144721
9654.000000;0.144334
9653.000000;0.143842
9652.000000;0.143537
9651.000000;0.143606
9650.000000;0.143837
9649.000000;0.143820
9648.000000;0.143377
9647.000000;0.142725
9646.000000;0.142216
9645.000000;0.141986
9644.000000;0.141909
9643.000000;0.141840
9642.000000;0.141791
9641.000000;0.141801
9640.000000;0.141705
9639.000000;0.141248
9638.000000;0.140443
9637.000000;0.139671
9636.000000;0.139304
9635.000000;0.139320
9634.000000;0.139376
9633.000000;0.139190
9632.000000;0.138721
9631.000000;0.138095
9630.000000;0.137502
9629.000000;0.137154
9628.000000;0.137139
9627.000000;0.137300
9626.000000;0.137348
9625.000000;0.137132
9624.000000;0.136709
9623.000000;0.136206
9622.000000;0.135728
9621.000000;0.135383
9620.000000;0.135246
9619.000000;0.135265
9618.000000;0.135306
9617.000000;0.135291
9616.000000;0.135199
9615.000000;0.134967
9614.000000;0.134529
9613.000000;0.133937
9612.000000;0.133303
9611.000000;0.132607
9610.000000;0.131770
9609.000000;0.130940
9608.000000;0.130503
9607.000000;0.130694
9606.000000;0.131332
9605.000000;0.132021
9604.000000;0.132462
9603.000000;0.132507
9602.000000;0.132077
9601.000000;0.131239
9600.000000;0.130274
9599.000000;0.129539
9598.000000;0.129219
9597.000000;0.129238
9596.000000;0.129337
9595.000000;0.129194
9594.000000;0.128611
9593.000000;0.127732
9592.000000;0.126987
9591.000000;0.126700
9590.000000;0.126781
9589.000000;0.126888
9588.000000;0.126812
9587.000000;0.126580
9586.000000;0.126264
9585.000000;0.125864
9584.000000;0.125410
9583.000000;0.125044
9582.000000;0.124904
9581.000000;0.124968
9580.000000;0.125050
9579.000000;0.124940
9578.000000;0.124586
9577.000000;0.124128
9576.000000;0.123731
9575.000000;0.123415
9574.000000;0.123099
9573.000000;0.122795
9572.000000;0.122621
9571.000000;0.122565
9570.000000;0.122379
9569.000000;0.121848
9568.000000;0.121083
9567.000000;0.120412
9566.000000;0.120023
9565.000000;0.119837
9564.000000;0.119728
9563.000000;0.119729
9562.000000;0.119946
9561.000000;0.120341
9560.000000;0.120665
9559.000000;0.120629
9558.000000;0.120145
9557.000000;0.119426
9556.000000;0.118838
9555.000000;0.118606
9554.000000;0.118653
9553.000000;0.118683
9552.000000;0.118442
9551.000000;0.117895
9550.000000;0.117222
9549.000000;0.116679
9548.000000;0.116407
9547.000000;0.116344
9546.000000;0.116294
9545.000000;0.116106
9544.000000;0.115756
9543.000000;0.115318
9542.000000;0.114895
9541.000000;0.114565
9540.000000;0.114348
9539.000000;0.114211
9538.000000;0.114172
9537.000000;0.114331
9536.000000;0.114705
9535.000000;0.115084
9534.000000;0.115197
9533.000000;0.115022
9532.000000;0.114758
9531.000000;0.114478
9530.000000;0.113998
9529.000000;0.113199
9528.000000;0.112295
9527.000000;0.111640
9526.000000;0.111386
9525.000000;0.111451
9524.000000;0.111684
9523.000000;0.111841
9522.000000;0.111540
9521.000000;0.110562
9520.000000;0.109253
9519.000000;0.108384
9518.000000;0.108445
9517.000000;0.109153
9516.000000;0.109772
9515.000000;0.109853
9514.000000;0.109550
9513.000000;0.109263
9512.000000;0.109140
9511.000000;0.109013
9510.000000;0.108747
9509.000000;0.108473
9508.000000;0.108390
9507.000000;0.108432
9506.000000;0.108279
9505.000000;0.107750
9504.000000;0.107059
9503.000000;0.106614
9502.000000;0.106585
9501.000000;0.106748
9500.000000;0.106732
9499.000000;0.106394
9498.000000;0.105930
9497.000000;0.105633
9496.000000;0.105549
9495.000000;0.105433
9494.000000;0.105095
9493.000000;0.104672
9492.000000;0.104443
9491.000000;0.104417
9490.000000;0.104337
9489.000000;0.104055
9488.000000;0.103721
9487.000000;0.103497
9486.000000;0.103331
9485.000000;0.103128
9484.000000;0.102973
9483.000000;0.102997
9482.000000;0.103102
9481.000000;0.103026
9480.000000;0.102642
9479.000000;0.102053
9478.000000;0.101421
9477.000000;0.100835
9476.000000;0.100339
9475.000000;0.099975
9474.000000;0.099760
9473.000000;0.099659
9472.000000;0.099527
9471.000000;0.099123
9470.000000;0.098305
9469.000000;0.097316
9468.000000;0.096710
9467.000000;0.096851
9466.000000;0.097537
9465.000000;0.098209
9464.000000;0.098441
9463.000000;0.098113
9462.000000;0.097314
9461.000000;0.096306
9460.000000;0.095532
9459.000000;0.095354
9458.000000;0.095725
9457.000000;0.096236
9456.000000;0.096523
9455.000000;0.096522
9454.000000;0.096366
9453.000000;0.096202
9452.000000;0.096124
9451.000000;0.096113
9450.000000;0.096004
9449.000000;0.095631
9448.000000;0.095065
9447.000000;0.094597
9446.000000;0.094446
9445.000000;0.094582
9444.000000;0.094832
9443.000000;0.095029
9442.000000;0.094993
9441.000000;0.094520
9440.000000;0.093569
9439.000000;0.092428
9438.000000;0.091596
9437.000000;0.091408
9436.000000;0.091745
9435.000000;0.092127
9434.000000;0.092120
9433.000000;0.091687
9432.000000;0.091121
9431.000000;0.090674
9430.000000;0.090371
9429.000000;0.090170
9428.000000;0.090131
9427.000000;0.090289
9426.000000;0.090491
9425.000000;0.090545
9424.000000;0.090428
9423.000000;0.090201
9422.000000;0.089816
9421.000000;0.089225
9420.000000;0.088605
9419.000000;0.088239
9418.000000;0.088174
9417.000000;0.088226
9416.000000;0.088319
9415.000000;0.088533
9414.000000;0.088758
9413.000000;0.088602
9412.000000;0.087839
9411.000000;0.086764
9410.000000;0.085883
9409.000000;0.085386
9408.000000;0.085104
9407.000000;0.084902
9406.000000;0.084877
9405.000000;0.085148
9404.000000;0.085607
9403.000000;0.085961
9402.000000;0.085989
9401.000000;0.085702
9400.000000;0.085282
9399.000000;0.084881
9398.000000;0.084519
9397.000000;0.084163
9396.000000;0.083850
9395.000000;0.083642
9394.000000;0.083522
9393.000000;0.083435
9392.000000;0.083408
9391.000000;0.083483
9390.000000;0.083558
9389.000000;0.083456
9388.000000;0.083163
9387.000000;0.082835
9386.000000;0.082555
9385.000000;0.082242
9384.000000;0.081859
9383.000000;0.081531
9382.000000;0.081336
9381.000000;0.081167
9380.000000;0.080906
9379.000000;0.080599
9378.000000;0.080332
9377.000000;0.080074
9376.000000;0.079809
9375.000000;0.079700
9374.000000;0.079908
9373.000000;0.080334
9372.000000;0.080718
9371.000000;0.080970
9370.000000;0.081188
9369.000000;0.081395
9368.000000;0.081437
9367.000000;0.081163
9366.000000;0.080554
9365.000000;0.079672
9364.000000;0.078642
9363.000000;0.077718
9362.000000;0.077191
9361.000000;0.077140
9360.000000;0.077384
9359.000000;0.077701
9358.000000;0.077971
9357.000000;0.078070
9356.000000;0.077845
9355.000000;0.077327
9354.000000;0.076818
9353.000000;0.076588
9352.000000;0.076546
9351.000000;0.076364
9350.000000;0.075875
9349.000000;0.075198
9348.000000;0.074506
9347.000000;0.073864
9346.000000;0.073337
9345.000000;0.073079
9344.000000;0.073158
9343.000000;0.073403
9342.000000;0.073561
9341.000000;0.073586
9340.000000;0.073673
9339.000000;0.074002
9338.000000;0.074508
9337.000000;0.074951
9336.000000;0.075106
9335.000000;0.074885
9334.000000;0.074339
9333.000000;0.073646
9332.000000;0.073031
9331.000000;0.072628
9330.000000;0.072379
9329.000000;0.072136
9328.000000;0.071845
9327.000000;0.071590
9326.000000;0.071447
9325.000000;0.071363
9324.000000;0.071232
9323.000000;0.071037
9322.000000;0.070859
9321.000000;0.070768
9320.000000;0.070767
9319.000000;0.070831
9318.000000;0.070928
9317.000000;0.070969
9316.000000;0.070825
9315.000000;0.070443
9314.000000;0.069923
9313.000000;0.069410
9312.000000;0.068953
9311.000000;0.068534
9310.000000;0.068186
9309.000000;0.067973
9308.000000;0.067850
9307.000000;0.067677
9306.000000;0.067436
9305.000000;0.067342
9304.000000;0.067607
9303.000000;0.068165
9302.000000;0.068722
9301.000000;0.069040
9300.000000;0.069054
9299.000000;0.068748
9298.000000;0.068127
9297.000000;0.067360
9296.000000;0.066790
9295.000000;0.066660
9294.000000;0.066840
9293.000000;0.066937
9292.000000;0.066677
9291.000000;0.066151
9290.000000;0.065715
9289.000000;0.065642
9288.000000;0.065854
9287.000000;0.065997
9286.000000;0.065827
9285.000000;0.065480
9284.000000;0.065279
9283.000000;0.065299
9282.000000;0.065300
9281.000000;0.065095
9280.000000;0.064793
9279.000000;0.064577
9278.000000;0.064437
9277.000000;0.064289
9276.000000;0.064187
9275.000000;0.064211
9274.000000;0.064237
9273.000000;0.064051
9272.000000;0.063662
9271.000000;0.063269
9270.000000;0.062955
9269.000000;0.062637
9268.000000;0.062324
9267.000000;0.062194
9266.000000;0.062293
9265.000000;0.062379
9264.000000;0.062196
9263.000000;0.061786
9262.000000;0.061417
9261.000000;0.061299
9260.000000;0.061446
9259.000000;0.061689
9258.000000;0.061725
9257.000000;0.061278
9256.000000;0.060377
9255.000000;0.059439
9254.000000;0.058933
9253.000000;0.058956
9252.000000;0.059213
9251.000000;0.059360
9250.000000;0.059275
9249.000000;0.059001
9248.000000;0.058603
9247.000000;0.058119
9246.000000;0.057613
9245.000000;0.057220
9244.000000;0.057096
9243.000000;0.057296
9242.000000;0.057696
9241.000000;0.058088
9240.000000;0.058367
9239.000000;0.058571
9238.000000;0.058718
9237.000000;0.058697
9236.000000;0.058425
9235.000000;0.058036
9234.000000;0.057791
9233.000000;0.057796
9232.000000;0.057906
9231.000000;0.057912
9230.000000;0.057753
9229.000000;0.057503
9228.000000;0.057242
9227.000000;0.056992
9226.000000;0.056764
9225.000000;0.056596
9224.000000;0.056533
9223.000000;0.056585
9222.000000;0.056686
9221.000000;0.056711
9220.000000;0.056535
9219.000000;0.056122
9218.000000;0.055560
9217.000000;0.055043
9216.000000;0.054772
9215.000000;0.054847
9214.000000;0.055220
9213.000000;0.055739
9212.000000;0.056224
9211.000000;0.056494
9210.000000;0.056380
9209.000000;0.055821
9208.000000;0.054978
9207.000000;0.054206
9206.000000;0.053818
9205.000000;0.053846
9204.000000;0.054042
9203.000000;0.054111
9202.000000;0.053941
9201.000000;0.053620
9200.000000;0.053267
9199.000000;0.052910
9198.000000;0.052545
9197.000000;0.052259
9196.000000;0.052194
9195.000000;0.052378
9194.000000;0.052668
9193.000000;0.052894
9192.000000;0.052986
9191.000000;0.052928
9190.000000;0.052708
9189.000000;0.052416
9188.000000;0.052282
9187.000000;0.052427
9186.000000;0.052596
9185.000000;0.052354
9184.000000;0.051601
9183.000000;0.050734
9182.000000;0.050198
9181.000000;0.050013
9180.000000;0.049850
9179.000000;0.049487
9178.000000;0.049030
9177.000000;0.048728
9176.000000;0.048688
9175.000000;0.048815
9174.000000;0.048942
9173.000000;0.048980
9172.000000;0.048966
9171.000000;0.048963
9170.000000;0.048913
9169.000000;0.048647
9168.000000;0.048089
9167.000000;0.047421
9166.000000;0.046968
9165.000000;0.046922
9164.000000;0.047205
9163.000000;0.047571
9162.000000;0.047813
9161.000000;0.047887
9160.000000;0.047908
9159.000000;0.048026
9158.000000;0.048256
9157.000000;0.048440
9156.000000;0.048389
9155.000000;0.048070
9154.000000;0.047641
9153.000000;0.047323
9152.000000;0.047263
9151.000000;0.047447
9150.000000;0.047690
9149.000000;0.047730
9148.000000;0.047427
9147.000000;0.046889
9146.000000;0.046377
9145.000000;0.046078
9144.000000;0.045973
9143.000000;0.045923
9142.000000;0.045817
9141.000000;0.045623
9140.000000;0.045359
9139.000000;0.045093
9138.000000;0.044943
9137.000000;0.044989
9136.000000;0.045173
9135.000000;0.045325
9134.000000;0.045335
9133.000000;0.045273
9132.000000;0.045257
9131.000000;0.045248
9130.000000;0.045082
9129.000000;0.044725
9128.000000;0.044369
9127.000000;0.044202
9126.000000;0.044194
9125.000000;0.044219
9124.000000;0.044276
9123.000000;0.044430
9122.000000;0.044574
9121.000000;0.044486
9120.000000;0.044146
9119.000000;0.043817
9118.000000;0.043723
9117.000000;0.043785
9116.000000;0.043781
9115.000000;0.043642
9114.000000;0.043454
9113.000000;0.043272
9112.000000;0.043069
9111.000000;0.042834
9110.000000;0.042582
9109.000000;0.042283
9108.000000;0.041893
9107.000000;0.041476
9106.000000;0.041198
9105.000000;0.041166
9104.000000;0.041309
9103.000000;0.041458
9102.000000;0.041507
9101.000000;0.041472
9100.000000;0.041427
9099.000000;0.041388
9098.000000;0.041304
9097.000000;0.041152
9096.000000;0.041033
9095.000000;0.041086
9094.000000;0.041332
9093.000000;0.041620
9092.000000;0.041739
9091.000000;0.041540
9090.000000;0.040999
9089.000000;0.040270
9088.000000;0.039677
9087.000000;0.039520
9086.000000;0.039807
9085.000000;0.040226
9084.000000;0.040416
9083.000000;0.040206
9082.000000;0.039633
9081.000000;0.038876
9080.000000;0.038260
9079.000000;0.038127
9078.000000;0.038561
9077.000000;0.039255
9076.000000;0.039770
9075.000000;0.039893
9074.000000;0.039707
9073.000000;0.039400
9072.000000;0.039115
9071.000000;0.038933
9070.000000;0.038873
9069.000000;0.038888
9068.000000;0.038934
9067.000000;0.039000
9066.000000;0.039057
9065.000000;0.039015
9064.000000;0.038817
9063.000000;0.038519
9062.000000;0.038225
9061.000000;0.038008
9060.000000;0.037924
9059.000000;0.038015
9058.000000;0.038209
9057.000000;0.038329
9056.000000;0.038274
9055.000000;0.038125
9054.000000;0.037983
9053.000000;0.037827
9052.000000;0.037642
9051.000000;0.037550
9050.000000;0.037622
9049.000000;0.037678
9048.000000;0.037478
9047.000000;0.037079
9046.000000;0.036788
9045.000000;0.036762
9044.000000;0.036862
9043.000000;0.036905
9042.000000;0.036874
9041.000000;0.036841
9040.000000;0.036831
9039.000000;0.036830
9038.000000;0.036820
9037.000000;0.036749
9036.000000;0.036605
9035.000000;0.036471
9034.000000;0.036408
9033.000000;0.036302
9032.000000;0.036002
9031.000000;0.035612
9030.000000;0.035434
9029.000000;0.035568
9028.000000;0.035769
9027.000000;0.035759
9026.000000;0.035501
9025.000000;0.035104
9024.000000;0.034661
9023.000000;0.034316
9022.000000;0.034293
9021.000000;0.034649
9020.000000;0.035083
9019.000000;0.035169
9018.000000;0.034770
9017.000000;0.034161
9016.000000;0.033776
9015.000000;0.033852
9014.000000;0.034251
9013.000000;0.034562
9012.000000;0.034477
9011.000000;0.034094
9010.000000;0.033786
9009.000000;0.033770
9008.000000;0.033934
9007.000000;0.034108
9006.000000;0.034283
9005.000000;0.034466
9004.000000;0.034539
9003.000000;0.034415
9002.000000;0.034191
9001.000000;0.033969
9000.000000;0.033653
8999.000000;0.033137
8998.000000;0.032595
8997.000000;0.032368
8996.000000;0.032568
8995.000000;0.032982
8994.000000;0.033352
8993.000000;0.033590
8992.000000;0.033722
8991.000000;0.033767
8990.000000;0.033734
8989.000000;0.033630
8988.000000;0.033456
8987.000000;0.033227
8986.000000;0.032951
8985.000000;0.032554
8984.000000;0.031934
8983.000000;0.031194
8982.000000;0.030706
8981.000000;0.030756
8980.000000;0.031219
8979.000000;0.031726
8978.000000;0.032113
8977.000000;0.032462
8976.000000;0.032782
8975.000000;0.032913
8974.000000;0.032831
8973.000000;0.032783
8972.000000;0.032994
8971.000000;0.033372
8970.000000;0.033644
8969.000000;0.033650
8968.000000;0.033399
8967.000000;0.032961
8966.000000;0.032458
8965.000000;0.032079
8964.000000;0.031963
8963.000000;0.032047
8962.000000;0.032128
8961.000000;0.032074
8960.000000;0.031905
8959.000000;0.031724
8958.000000;0.031636
8957.000000;0.031712
8956.000000;0.031934
8955.000000;0.032147
8954.000000;0.032125
8953.000000;0.031749
8952.000000;0.031143
8951.000000;0.030618
8950.000000;0.030462
8949.000000;0.030717
8948.000000;0.031178
8947.000000;0.031608
8946.000000;0.031917
8945.000000;0.032091
8944.000000;0.032026
8943.000000;0.031596
8942.000000;0.030913
8941.000000;0.030362
8940.000000;0.030271
8939.000000;0.030576
8938.000000;0.030914
8937.000000;0.031023
8936.000000;0.030958
8935.000000;0.030955
8934.000000;0.031145
8933.000000;0.031421
8932.000000;0.031547
8931.000000;0.031369
8930.000000;0.030946
8929.000000;0.030488
8928.000000;0.030178
8927.000000;0.030065
8926.000000;0.030109
8925.000000;0.030251
8924.000000;0.030410
8923.000000;0.030488
8922.000000;0.030461
8921.000000;0.030428
8920.000000;0.030480
8919.000000;0.030535
8918.000000;0.030396
8917.000000;0.029987
8916.000000;0.029473
8915.000000;0.029089
8914.000000;0.028923
8913.000000;0.028893
8912.000000;0.028904
8911.000000;0.028951
8910.000000;0.029083
8909.000000;0.029311
8908.000000;0.029573
8907.000000;0.029765
8906.000000;0.029789
8905.000000;0.029608
8904.000000;0.029272
8903.000000;0.028898
8902.000000;0.028620
8901.000000;0.028543
8900.000000;0.028715
8899.000000;0.029123
8898.000000;0.029687
8897.000000;0.030277
8896.000000;0.030747
8895.000000;0.030958
8894.000000;0.030819
8893.000000;0.030365
8892.000000;0.029788
8891.000000;0.029354
8890.000000;0.029228
8889.000000;0.029379
8888.000000;0.029644
8887.000000;0.029881
8886.000000;0.030047
8885.000000;0.030175
8884.000000;0.030321
8883.000000;0.030487
8882.000000;0.030587
8881.000000;0.030516
8880.000000;0.030279
8879.000000;0.030007
8878.000000;0.029798
8877.000000;0.029623
8876.000000;0.029435
8875.000000;0.029315
8874.000000;0.029392
8873.000000;0.029645
8872.000000;0.029923
8871.000000;0.030143
8870.000000;0.030331
8869.000000;0.030448
8868.000000;0.030354
8867.000000;0.030041
8866.000000;0.029789
8865.000000;0.029918
8864.000000;0.030419
8863.000000;0.030939
8862.000000;0.031113
8861.000000;0.030857
8860.000000;0.030381
8859.000000;0.029993
8858.000000;0.029874
8857.000000;0.029981
8856.000000;0.030155
8855.000000;0.030335
8854.000000;0.030587
8853.000000;0.030913
8852.000000;0.031114
8851.000000;0.030968
8850.000000;0.030516
8849.000000;0.030068
8848.000000;0.029901
8847.000000;0.030022
8846.000000;0.030233
8845.000000;0.030365
8844.000000;0.030425
8843.000000;0.030545
8842.000000;0.030832
8841.000000;0.031246
8840.000000;0.031646
8839.000000;0.031934
8838.000000;0.032098
8837.000000;0.032128
8836.000000;0.031987
8835.000000;0.031733
8834.000000;0.031557
8833.000000;0.031597
8832.000000;0.031759
8831.000000;0.031862
8830.000000;0.031882
8829.000000;0.031943
8828.000000;0.032066
8827.000000;0.032098
8826.000000;0.031930
8825.000000;0.031641
8824.000000;0.031389
8823.000000;0.031260
8822.000000;0.031273
8821.000000;0.031442
8820.000000;0.031743
8819.000000;0.032071
8818.000000;0.032300
8817.000000;0.032388
8816.000000;0.032403
8815.000000;0.032472
8814.000000;0.032690
8813.000000;0.033024
8812.000000;0.033299
8811.000000;0.033346
8810.000000;0.033204
8809.000000;0.033116
8808.000000;0.033300
8807.000000;0.033757
8806.000000;0.034311
8805.000000;0.034748
8804.000000;0.034916
8803.000000;0.034776
8802.000000;0.034473
8801.000000;0.034292
8800.000000;0.034445
8799.000000;0.034883
8798.000000;0.035366
8797.000000;0.035711
8796.000000;0.035922
8795.000000;0.036099
8794.000000;0.036280
8793.000000;0.036406
8792.000000;0.036432
8791.000000;0.036396
8790.000000;0.036355
8789.000000;0.036278
8788.000000;0.036083
8787.000000;0.035819
8786.000000;0.035719
8785.000000;0.035956
8784.000000;0.036405
8783.000000;0.036763
8782.000000;0.036910
8781.000000;0.037020
8780.000000;0.037295
8779.000000;0.037722
8778.000000;0.038150
8777.000000;0.038483
8776.000000;0.038698
8775.000000;0.038758
8774.000000;0.038669
8773.000000;0.038588
8772.000000;0.038732
8771.000000;0.039138
8770.000000;0.039616
8769.000000;0.039955
8768.000000;0.040111
8767.000000;0.040162
8766.000000;0.040164
8765.000000;0.040151
8764.000000;0.040229
8763.000000;0.040538
8762.000000;0.041080
8761.000000;0.041649
8760.000000;0.042009
8759.000000;0.042140
8758.000000;0.042228
8757.000000;0.042431
8756.000000;0.042717
8755.000000;0.042957
8754.000000;0.043097
8753.000000;0.043178
8752.000000;0.043261
8751.000000;0.043414
8750.000000;0.043719
8749.000000;0.044194
8748.000000;0.044719
8747.000000;0.045131
8746.000000;0.045378
8745.000000;0.045502
8744.000000;0.045506
8743.000000;0.045370
8742.000000;0.045218
8741.000000;0.045287
8740.000000;0.045655
8739.000000;0.046105
8738.000000;0.046388
8737.000000;0.046526
8736.000000;0.046752
8735.000000;0.047189
8734.000000;0.047708
8733.000000;0.048090
8732.000000;0.048205
8731.000000;0.048042
8730.000000;0.047684
8729.000000;0.047311
8728.000000;0.047140
8727.000000;0.047283
8726.000000;0.047666
8725.000000;0.048110
8724.000000;0.048506
8723.000000;0.048891
8722.000000;0.049368
8721.000000;0.049960
8720.000000;0.050533
8719.000000;0.050890
8718.000000;0.050963
8717.000000;0.050922
8716.000000;0.051042
8715.000000;0.051450
8714.000000;0.051998
8713.000000;0.052411
8712.000000;0.052553
8711.000000;0.052513
8710.000000;0.052457
8709.000000;0.052452
8708.000000;0.052471
8707.000000;0.052530
8706.000000;0.052705
8705.000000;0.052992
8704.000000;0.053259
8703.000000;0.053434
8702.000000;0.053636
8701.000000;0.054006
8700.000000;0.054448
8699.000000;0.054694
8698.000000;0.054650
8697.000000;0.054526
8696.000000;0.054565
8695.000000;0.054775
8694.000000;0.055016
8693.000000;0.055224
8692.000000;0.055423
8691.000000;0.055587
8690.000000;0.055648
8689.000000;0.055651
8688.000000;0.055770
8687.000000;0.056128
8686.000000;0.056643
8685.000000;0.057090
8684.000000;0.057295
8683.000000;0.057281
8682.000000;0.057261
8681.000000;0.057439
8680.000000;0.057780
8679.000000;0.058035
8678.000000;0.058042
8677.000000;0.057962
8676.000000;0.058105
8675.000000;0.058557
8674.000000;0.059089
8673.000000;0.059430
8672.000000;0.059517
8671.000000;0.059456
8670.000000;0.059359
8669.000000;0.059304
8668.000000;0.059360
8667.000000;0.059546
8666.000000;0.059775
8665.000000;0.059920
8664.000000;0.059933
8663.000000;0.059857
8662.000000;0.059748
8661.000000;0.059648
8660.000000;0.059625
8659.000000;0.059765
8658.000000;0.060073
8657.000000;0.060404
8656.000000;0.060566
8655.000000;0.060521
8654.000000;0.060446
8653.000000;0.060556
8652.000000;0.060863
8651.000000;0.061162
8650.000000;0.061282
8649.000000;0.061282
8648.000000;0.061349
8647.000000;0.061556
8646.000000;0.061789
8645.000000;0.061905
8644.000000;0.061863
8643.000000;0.061718
8642.000000;0.061568
8641.000000;0.061538
8640.000000;0.061727
8639.000000;0.062082
8638.000000;0.062400
8637.000000;0.062489
8636.000000;0.062339
8635.000000;0.062093
8634.000000;0.061906
8633.000000;0.061876
8632.000000;0.062035
8631.000000;0.062321
8630.000000;0.062576
8629.000000;0.062667
8628.000000;0.062617
8627.000000;0.062572
8626.000000;0.062622
8625.000000;0.062698
8624.000000;0.062665
8623.000000;0.062486
8622.000000;0.062279
8621.000000;0.062217
8620.000000;0.062376
8619.000000;0.062677
8618.000000;0.062981
8617.000000;0.063234
8616.000000;0.063459
8615.000000;0.063626
8614.000000;0.063632
8613.000000;0.063472
8612.000000;0.063321
8611.000000;0.063345
8610.000000;0.063476
8609.000000;0.063514
8608.000000;0.063419
8607.000000;0.063359
8606.000000;0.063457
8605.000000;0.063631
8604.000000;0.063750
8603.000000;0.063802
8602.000000;0.063843
8601.000000;0.063878
8600.000000;0.063900
8599.000000;0.063949
8598.000000;0.064060
8597.000000;0.064194
8596.000000;0.064289
8595.000000;0.064325
8594.000000;0.064244
8593.000000;0.063962
8592.000000;0.063538
8591.000000;0.063254
8590.000000;0.063326
8589.000000;0.063618
8588.000000;0.063828
8587.000000;0.063895
8586.000000;0.064035
8585.000000;0.064359
8584.000000;0.064671
8583.000000;0.064728
8582.000000;0.064548
8581.000000;0.064355
8580.000000;0.064334
8579.000000;0.064519
8578.000000;0.064796
8577.000000;0.064941
8576.000000;0.064765
8575.000000;0.064333
8574.000000;0.063947
8573.000000;0.063832
8572.000000;0.063924
8571.000000;0.064055
8570.000000;0.064225
8569.000000;0.064542
8568.000000;0.064978
8567.000000;0.065331
8566.000000;0.065438
8565.000000;0.065291
8564.000000;0.064981
8563.000000;0.064634
8562.000000;0.064414
8561.000000;0.064440
8560.000000;0.064651
8559.000000;0.064847
8558.000000;0.064883
8557.000000;0.064764
8556.000000;0.064557
8555.000000;0.064310
8554.000000;0.064098
8553.000000;0.064054
8552.000000;0.064274
8551.000000;0.064699
8550.000000;0.065142
8549.000000;0.065408
8548.000000;0.065415
8547.000000;0.065237
8546.000000;0.065065
8545.000000;0.065068
8544.000000;0.065257
8543.000000;0.065495
8542.000000;0.065623
8541.000000;0.065588
8540.000000;0.065445
8539.000000;0.065307
8538.000000;0.065260
8537.000000;0.065315
8536.000000;0.065407
8535.000000;0.065478
8534.000000;0.065520
8533.000000;0.065529
8532.000000;0.065469
8531.000000;0.065358
8530.000000;0.065322
8529.000000;0.065467
8528.000000;0.065683
8527.000000;0.065713
8526.000000;0.065457
8525.000000;0.065148
8524.000000;0.065142
8523.000000;0.065566
8522.000000;0.066186
8521.000000;0.066610
8520.000000;0.066618
8519.000000;0.066338
8518.000000;0.066110
8517.000000;0.066130
8516.000000;0.066235
8515.000000;0.066100
8514.000000;0.065640
8513.000000;0.065132
8512.000000;0.064895
8511.000000;0.064947
8510.000000;0.065055
8509.000000;0.065055
8508.000000;0.065025
8507.000000;0.065155
8506.000000;0.065538
8505.000000;0.066082
8504.000000;0.066563
8503.000000;0.066750
8502.000000;0.066557
8501.000000;0.066117
8500.000000;0.065713
8499.000000;0.065584
8498.000000;0.065773
8497.000000;0.066148
8496.000000;0.066542
8495.000000;0.066871
8494.000000;0.067113
8493.000000;0.067238
8492.000000;0.067185
8491.000000;0.066941
8490.000000;0.066581
8489.000000;0.066212
8488.000000;0.065911
8487.000000;0.065737
8486.000000;0.065744
8485.000000;0.065928
8484.000000;0.066167
8483.000000;0.066320
8482.000000;0.066364
8481.000000;0.066376
8480.000000;0.066382
8479.000000;0.066333
8478.000000;0.066242
8477.000000;0.066233
8476.000000;0.066396
8475.000000;0.066675
8474.000000;0.066964
8473.000000;0.067235
8472.000000;0.067469
8471.000000;0.067566
8470.000000;0.067468
8469.000000;0.067328
8468.000000;0.067383
8467.000000;0.067645
8466.000000;0.067854
8465.000000;0.067807
8464.000000;0.067617
8463.000000;0.067539
8462.000000;0.067631
8461.000000;0.067719
8460.000000;0.067662
8459.000000;0.067502
8458.000000;0.067333
8457.000000;0.067148
8456.000000;0.066902
8455.000000;0.066661
8454.000000;0.066579
8453.000000;0.066730
8452.000000;0.067049
8451.000000;0.067437
8450.000000;0.067850
8449.000000;0.068242
8448.000000;0.068498
8447.000000;0.068502
8446.000000;0.068279
8445.000000;0.068003
8444.000000;0.067845
8443.000000;0.067832
8442.000000;0.067880
8441.000000;0.067928
8440.000000;0.067981
8439.000000;0.068057
8438.000000;0.068142
8437.000000;0.068225
8436.000000;0.068325
8435.000000;0.068440
8434.000000;0.068492
8433.000000;0.068377
8432.000000;0.068094
8431.000000;0.067783
8430.000000;0.067614
8429.000000;0.067650
8428.000000;0.067825
8427.000000;0.068024
8426.000000;0.068163
8425.000000;0.068223
8424.000000;0.068266
8423.000000;0.068396
8422.000000;0.068644
8421.000000;0.068910
8420.000000;0.069064
8419.000000;0.069102
8418.000000;0.069136
8417.000000;0.069224
8416.000000;0.069284
8415.000000;0.069225
8414.000000;0.069089
8413.000000;0.069012
8412.000000;0.069073
8411.000000;0.069248
8410.000000;0.069465
8409.000000;0.069659
8408.000000;0.069761
8407.000000;0.069705
8406.000000;0.069493
8405.000000;0.069219
8404.000000;0.069027
8403.000000;0.069022
8402.000000;0.069214
8401.000000;0.069509
8400.000000;0.069799
8399.000000;0.070049
8398.000000;0.070279
8397.000000;0.070472
8396.000000;0.070554
8395.000000;0.070526
8394.000000;0.070524
8393.000000;0.070671
8392.000000;0.070922
8391.000000;0.071134
8390.000000;0.071263
8389.000000;0.071388
8388.000000;0.071534
8387.000000;0.071595
8386.000000;0.071488
8385.000000;0.071255
8384.000000;0.070980
8383.000000;0.070674
8382.000000;0.070344
8381.000000;0.070099
8380.000000;0.070065
8379.000000;0.070209
8378.000000;0.070344
8377.000000;0.070359
8376.000000;0.070355
8375.000000;0.070494
8374.000000;0.070762
8373.000000;0.070975
8372.000000;0.070999
8371.000000;0.070915
8370.000000;0.070922
8369.000000;0.071129
8368.000000;0.071450
8367.000000;0.071702
8366.000000;0.071748
8365.000000;0.071586
8364.000000;0.071361
8363.000000;0.071271
8362.000000;0.071416
8361.000000;0.071691
8360.000000;0.071872
8359.000000;0.071826
8358.000000;0.071626
8357.000000;0.071452
8356.000000;0.071412
8355.000000;0.071486
8354.000000;0.071572
8353.000000;0.071573
8352.000000;0.071467
8351.000000;0.071367
8350.000000;0.071458
8349.000000;0.071812
8348.000000;0.072274
8347.000000;0.072599
8346.000000;0.072684
8345.000000;0.072646
8344.000000;0.072653
8343.000000;0.072746
8342.000000;0.072838
8341.000000;0.072828
8340.000000;0.072699
8339.000000;0.072542
8338.000000;0.072492
8337.000000;0.072610
8336.000000;0.072815
8335.000000;0.072944
8334.000000;0.072886
8333.000000;0.072651
8332.000000;0.072333
8331.000000;0.072036
8330.000000;0.071843
8329.000000;0.071797
8328.000000;0.071895
8327.000000;0.072105
8326.000000;0.072399
8325.000000;0.072751
8324.000000;0.073101
8323.000000;0.073340
8322.000000;0.073375
8321.000000;0.073205
8320.000000;0.072946
8319.000000;0.072768
8318.000000;0.072757
8317.000000;0.072839
8316.000000;0.072885
8315.000000;0.072900
8314.000000;0.073028
8313.000000;0.073329
8312.000000;0.073631
8311.000000;0.073708
8310.000000;0.073552
8309.000000;0.073348
8308.000000;0.073215
8307.000000;0.073106
8306.000000;0.073005
8305.000000;0.073051
8304.000000;0.073361
8303.000000;0.073817
8302.000000;0.074153
8301.000000;0.074240
8300.000000;0.074166
8299.000000;0.074064
8298.000000;0.073955
8297.000000;0.073797
8296.000000;0.073630
8295.000000;0.073566
8294.000000;0.073645
8293.000000;0.073748
8292.000000;0.073718
8291.000000;0.073560
8290.000000;0.073473
8289.000000;0.073635
8288.000000;0.073989
8287.000000;0.074300
8286.000000;0.074429
8285.000000;0.074460
8284.000000;0.074545
8283.000000;0.074682
8282.000000;0.074738
8281.000000;0.074641
8280.000000;0.074502
8279.000000;0.074487
8278.000000;0.074630
8277.000000;0.074776
8276.000000;0.074718
8275.000000;0.074396
8274.000000;0.073970
8273.000000;0.073707
8272.000000;0.073783
8271.000000;0.074156
8270.000000;0.074606
8269.000000;0.074872
8268.000000;0.074826
8267.000000;0.074566
8266.000000;0.074331
8265.000000;0.074285
8264.000000;0.074384
8263.000000;0.074486
8262.000000;0.074573
8261.000000;0.074768
8260.000000;0.075105
8259.000000;0.075396
8258.000000;0.075407
8257.000000;0.075134
8256.000000;0.074826
8255.000000;0.074739
8254.000000;0.074909
8253.000000;0.075162
8252.000000;0.075301
8251.000000;0.075260
8250.000000;0.075128
8249.000000;0.075033
8248.000000;0.075017
8247.000000;0.075026
8246.000000;0.075014
8245.000000;0.075041
8244.000000;0.075210
8243.000000;0.075543
8242.000000;0.075930
8241.000000;0.076230
8240.000000;0.076393
8239.000000;0.076477
8238.000000;0.076560
8237.000000;0.076650
8236.000000;0.076673
8235.000000;0.076553
8234.000000;0.076304
8233.000000;0.076049
8232.000000;0.075929
8231.000000;0.075992
8230.000000;0.076178
8229.000000;0.076400
8228.000000;0.076606
8227.000000;0.076776
8226.000000;0.076867
8225.000000;0.076812
8224.000000;0.076596
8223.000000;0.076323
8222.000000;0.076174
8221.000000;0.076275
8220.000000;0.076596
8219.000000;0.076987
8218.000000;0.077294
8217.000000;0.077422
8216.000000;0.077339
8215.000000;0.077086
8214.000000;0.076795
8213.000000;0.076630
8212.000000;0.076664
8211.000000;0.076817
8210.000000;0.076950
8209.000000;0.077020
8208.000000;0.077091
8207.000000;0.077234
8206.000000;0.077441
8205.000000;0.077672
8204.000000;0.077916
8203.000000;0.078163
8202.000000;0.078340
8201.000000;0.078326
8200.000000;0.078088
8199.000000;0.077760
8198.000000;0.077543
8197.000000;0.077517
8196.000000;0.077582
8195.000000;0.077600
8194.000000;0.077560
8193.000000;0.077568
8192.000000;0.077679
8191.000000;0.077802
8190.000000;0.077803
8189.000000;0.077680
8188.000000;0.077601
8187.000000;0.077739
8186.000000;0.078081
8185.000000;0.078419
8184.000000;0.078565
8183.000000;0.078536
8182.000000;0.078502
8181.000000;0.078557
8180.000000;0.078606
8179.000000;0.078520
8178.000000;0.078328
8177.000000;0.078201
8176.000000;0.078255
8175.000000;0.078436
8174.000000;0.078612
8173.000000;0.078711
8172.000000;0.078745
8171.000000;0.078757
8170.000000;0.078782
8169.000000;0.078835
8168.000000;0.078887
8167.000000;0.078868
8166.000000;0.078749
8165.000000;0.078615
8164.000000;0.078608
8163.000000;0.078778
8162.000000;0.079018
8161.000000;0.079193
8160.000000;0.079292
8159.000000;0.079403
8158.000000;0.079563
8157.000000;0.079686
8156.000000;0.079694
8155.000000;0.079654
8154.000000;0.079734
8153.000000;0.080009
8152.000000;0.080380
8151.000000;0.080671
8150.000000;0.080771
8149.000000;0.080678
8148.000000;0.080447
8147.000000;0.080157
8146.000000;0.079906
8145.000000;0.079782
8144.000000;0.079837
8143.000000;0.080058
8142.000000;0.080365
8141.000000;0.080624
8140.000000;0.080721
8139.000000;0.080661
8138.000000;0.080573
8137.000000;0.080590
8136.000000;0.080728
8135.000000;0.080905
8134.000000;0.081036
8133.000000;0.081069
8132.000000;0.080969
8131.000000;0.080748
8130.000000;0.080528
8129.000000;0.080480
8128.000000;0.080668
8127.000000;0.080966
8126.000000;0.081176
8125.000000;0.081200
8124.000000;0.081085
8123.000000;0.080942
8122.000000;0.080867
8121.000000;0.080914
8120.000000;0.081096
8119.000000;0.081371
8118.000000;0.081659
8117.000000;0.081893
8116.000000;0.082064
8115.000000;0.082198
8114.000000;0.082316
8113.000000;0.082418
8112.000000;0.082492
8111.000000;0.082531
8110.000000;0.082532
8109.000000;0.082508
8108.000000;0.082487
8107.000000;0.082476
8106.000000;0.082450
8105.000000;0.082386
8104.000000;0.082331
8103.000000;0.082373
8102.000000;0.082528
8101.000000;0.082698
8100.000000;0.082776
8099.000000;0.082767
8098.000000;0.082745
8097.000000;0.082731
8096.000000;0.082689
8095.000000;0.082630
8094.000000;0.082636
8093.000000;0.082761
8092.000000;0.082960
8091.000000;0.083141
8090.000000;0.083251
8089.000000;0.083278
8088.000000;0.083249
8087.000000;0.083234
8086.000000;0.083312
8085.000000;0.083495
8084.000000;0.083703
8083.000000;0.083843
8082.000000;0.083878
8081.000000;0.083813
8080.000000;0.083676
8079.000000;0.083543
8078.000000;0.083515
8077.000000;0.083621
8076.000000;0.083787
8075.000000;0.083925
8074.000000;0.084005
8073.000000;0.084019
8072.000000;0.083963
8071.000000;0.083901
8070.000000;0.083969
8069.000000;0.084230
8068.000000;0.084552
8067.000000;0.084725
8066.000000;0.084669
8065.000000;0.084469
8064.000000;0.084256
8063.000000;0.084128
8062.000000;0.084142
8061.000000;0.084261
8060.000000;0.084352
8059.000000;0.084305
8058.000000;0.084169
8057.000000;0.084086
8056.000000;0.084120
8055.000000;0.084238
8054.000000;0.084423
8053.000000;0.084684
8052.000000;0.084961
8051.000000;0.085145
8050.000000;0.085226
8049.000000;0.085313
8048.000000;0.085465
8047.000000;0.085615
8046.000000;0.085688
8045.000000;0.085713
8044.000000;0.085754
8043.000000;0.085805
8042.000000;0.085832
8041.000000;0.085843
8040.000000;0.085862
8039.000000;0.085875
8038.000000;0.085876
8037.000000;0.085917
8036.000000;0.086041
8035.000000;0.086214
8034.000000;0.086385
8033.000000;0.086561
8032.000000;0.086759
8031.000000;0.086907
8030.000000;0.086887
8029.000000;0.086690
8028.000000;0.086457
8027.000000;0.086349
8026.000000;0.086389
8025.000000;0.086458
8024.000000;0.086433
8023.000000;0.086317
8022.000000;0.086235
8021.000000;0.086296
8020.000000;0.086461
8019.000000;0.086595
8018.000000;0.086639
8017.000000;0.086675
8016.000000;0.086787
8015.000000;0.086945
8014.000000;0.087074
8013.000000;0.087181
8012.000000;0.087320
8011.000000;0.087493
8010.000000;0.087667
8009.000000;0.087859
8008.000000;0.088107
8007.000000;0.088350
8006.000000;0.088449
8005.000000;0.088369
8004.000000;0.088248
8003.000000;0.088220
8002.000000;0.088249
8001.000000;0.088216
8000.000000;0.088121
7999.000000;0.088081
7998.000000;0.088155
7997.000000;0.088284
7996.000000;0.088423
7995.000000;0.088623
7994.000000;0.088919
7993.000000;0.089227
7992.000000;0.089426
7991.000000;0.089506
7990.000000;0.089541
7989.000000;0.089541
7988.000000;0.089441
7987.000000;0.089246
7986.000000;0.089090
7985.000000;0.089105
7984.000000;0.089279
7983.000000;0.089502
7982.000000;0.089688
7981.000000;0.089811
7980.000000;0.089863
7979.000000;0.089853
7978.000000;0.089841
7977.000000;0.089900
7976.000000;0.090046
7975.000000;0.090230
7974.000000;0.090380
7973.000000;0.090422
7972.000000;0.090313
7971.000000;0.090113
7970.000000;0.089991
7969.000000;0.090076
7968.000000;0.090297
7967.000000;0.090448
7966.000000;0.090430
7965.000000;0.090361
7964.000000;0.090423
7963.000000;0.090668
7962.000000;0.090987
7961.000000;0.091228
7960.000000;0.091303
7959.000000;0.091224
7958.000000;0.091084
7957.000000;0.090993
7956.000000;0.090995
7955.000000;0.091080
7954.000000;0.091243
7953.000000;0.091476
7952.000000;0.091699
7951.000000;0.091772
7950.000000;0.091647
7949.000000;0.091465
7948.000000;0.091441
7947.000000;0.091653
7946.000000;0.091994
7945.000000;0.092295
7944.000000;0.092456
7943.000000;0.092472
7942.000000;0.092402
7941.000000;0.092342
7940.000000;0.092369
7939.000000;0.092490
7938.000000;0.092640
7937.000000;0.092748
7936.000000;0.092779
7935.000000;0.092748
7934.000000;0.092719
7933.000000;0.092788
7932.000000;0.093019
7931.000000;0.093344
7930.000000;0.093571
7929.000000;0.093541
7928.000000;0.093293
7927.000000;0.093034
7926.000000;0.092952
7925.000000;0.093066
7924.000000;0.093274
7923.000000;0.093504
7922.000000;0.093754
7921.000000;0.094030
7920.000000;0.094290
7919.000000;0.094488
7918.000000;0.094622
7917.000000;0.094705
7916.000000;0.094727
7915.000000;0.094676
7914.000000;0.094588
7913.000000;0.094545
7912.000000;0.094614
7911.000000;0.094792
7910.000000;0.095016
7909.000000;0.095200
7908.000000;0.095291
7907.000000;0.095313
7906.000000;0.095330
7905.000000;0.095362
7904.000000;0.095340
7903.000000;0.095201
7902.000000;0.094997
7901.000000;0.094877
7900.000000;0.094940
7899.000000;0.095149
7898.000000;0.095380
7897.000000;0.095534
7896.000000;0.095601
7895.000000;0.095650
7894.000000;0.095763
7893.000000;0.095955
7892.000000;0.096149
7891.000000;0.096243
7890.000000;0.096218
7889.000000;0.096152
7888.000000;0.096139
7887.000000;0.096220
7886.000000;0.096389
7885.000000;0.096608
7884.000000;0.096823
7883.000000;0.096986
7882.000000;0.097082
7881.000000;0.097127
7880.000000;0.097134
7879.000000;0.097124
7878.000000;0.097146
7877.000000;0.097258
7876.000000;0.097455
7875.000000;0.097665
7874.000000;0.097838
7873.000000;0.097997
7872.000000;0.098179
7871.000000;0.098356
7870.000000;0.098461
7869.000000;0.098488
7868.000000;0.098511
7867.000000;0.098603
7866.000000;0.098751
7865.000000;0.098886
7864.000000;0.098973
7863.000000;0.099046
7862.000000;0.099146
7861.000000;0.099248
7860.000000;0.099277
7859.000000;0.099219
7858.000000;0.099154
7857.000000;0.099180
7856.000000;0.099307
7855.000000;0.099473
7854.000000;0.099630
7853.000000;0.099784
7852.000000;0.099952
7851.000000;0.100133
7850.000000;0.100313
7849.000000;0.100476
7848.000000;0.100598
7847.000000;0.100653
7846.000000;0.100657
7845.000000;0.100661
7844.000000;0.100705
7843.000000;0.100802
7842.000000;0.100952
7841.000000;0.101162
7840.000000;0.101412
7839.000000;0.101654
7838.000000;0.101840
7837.000000;0.101947
7836.000000;0.101972
7835.000000;0.101925
7834.000000;0.101841
7833.000000;0.101787
7832.000000;0.101826
7831.000000;0.101977
7830.000000;0.102199
7829.000000;0.102406
7828.000000;0.102516
7827.000000;0.102509
7826.000000;0.102455
7825.000000;0.102457
7824.000000;0.102569
7823.000000;0.102763
7822.000000;0.102971
7821.000000;0.103133
7820.000000;0.103232
7819.000000;0.103303
7818.000000;0.103396
7817.000000;0.103514
7816.000000;0.103611
7815.000000;0.103688
7814.000000;0.103852
7813.000000;0.104205
7812.000000;0.104670
7811.000000;0.105024
7810.000000;0.105122
7809.000000;0.105035
7808.000000;0.104940
7807.000000;0.104939
7806.000000;0.105027
7805.000000;0.105156
7804.000000;0.105283
7803.000000;0.105360
7802.000000;0.105370
7801.000000;0.105365
7800.000000;0.105422
7799.000000;0.105555
7798.000000;0.105699
7797.000000;0.105790
7796.000000;0.105833
7795.000000;0.105891
7794.000000;0.106014
7793.000000;0.106193
7792.000000;0.106358
7791.000000;0.106441
7790.000000;0.106457
7789.000000;0.106524
7788.000000;0.106763
7787.000000;0.107176
7786.000000;0.107632
7785.000000;0.107957
7784.000000;0.108068
7783.000000;0.108020
7782.000000;0.107972
7781.000000;0.108077
7780.000000;0.108359
7779.000000;0.108679
7778.000000;0.108853
7777.000000;0.108823
7776.000000;0.108705
7775.000000;0.108670
7774.000000;0.108791
7773.000000;0.109027
7772.000000;0.109306
7771.000000;0.109599
7770.000000;0.109889
7769.000000;0.110120
7768.000000;0.110222
7767.000000;0.110185
7766.000000;0.110092
7765.000000;0.110049
7764.000000;0.110094
7763.000000;0.110177
7762.000000;0.110232
7761.000000;0.110250
7760.000000;0.110288
7759.000000;0.110411
7758.000000;0.110624
7757.000000;0.110870
7756.000000;0.111078
7755.000000;0.111223
7754.000000;0.111338
7753.000000;0.111485
7752.000000;0.111703
7751.000000;0.111983
7750.000000;0.112267
7749.000000;0.112499
7748.000000;0.112678
7747.000000;0.112849
7746.000000;0.113030
7745.000000;0.113173
7744.000000;0.113231
7743.000000;0.113244
7742.000000;0.113314
7741.000000;0.113488
7740.000000;0.113713
7739.000000;0.113926
7738.000000;0.114126
7737.000000;0.114332
7736.000000;0.114518
7735.000000;0.114648
7734.000000;0.114758
7733.000000;0.114938
7732.000000;0.115239
7731.000000;0.115615
7730.000000;0.115957
7729.000000;0.116182
7728.000000;0.116292
7727.000000;0.116371
7726.000000;0.116506
7725.000000;0.116693
7724.000000;0.116840
7723.000000;0.116883
7722.000000;0.116870
7721.000000;0.116891
7720.000000;0.116964
7719.000000;0.117039
7718.000000;0.117106
7717.000000;0.117221
7716.000000;0.117426
7715.000000;0.117689
7714.000000;0.117944
7713.000000;0.118152
7712.000000;0.118317
7711.000000;0.118466
7710.000000;0.118621
7709.000000;0.118786
7708.000000;0.118950
7707.000000;0.119124
7706.000000;0.119338
7705.000000;0.119595
7704.000000;0.119843
7703.000000;0.120025
7702.000000;0.120151
7701.000000;0.120278
7700.000000;0.120438
7699.000000;0.120631
7698.000000;0.120859
7697.000000;0.121129
7696.000000;0.121416
7695.000000;0.121668
7694.000000;0.121853
7693.000000;0.121975
7692.000000;0.122055
7691.000000;0.122138
7690.000000;0.122290
7689.000000;0.122529
7688.000000;0.122763
7687.000000;0.122865
7686.000000;0.122825
7685.000000;0.122773
7684.000000;0.122830
7683.000000;0.123006
7682.000000;0.123240
7681.000000;0.123486
7680.000000;0.123729
7679.000000;0.123967
7678.000000;0.124230
7677.000000;0.124559
7676.000000;0.124931
7675.000000;0.125246
7674.000000;0.125430
7673.000000;0.125530
7672.000000;0.125650
7671.000000;0.125841
7670.000000;0.126069
7669.000000;0.126280
7668.000000;0.126453
7667.000000;0.126590
7666.000000;0.126726
7665.000000;0.126932
7664.000000;0.127263
7663.000000;0.127687
7662.000000;0.128085
7661.000000;0.128348
7660.000000;0.128485
7659.000000;0.128608
7658.000000;0.128814
7657.000000;0.129076
7656.000000;0.129280
7655.000000;0.129362
7654.000000;0.129401
7653.000000;0.129540
7652.000000;0.129822
7651.000000;0.130141
7650.000000;0.130362
7649.000000;0.130463
7648.000000;0.130533
7647.000000;0.130673
7646.000000;0.130900
7645.000000;0.131147
7644.000000;0.131349
7643.000000;0.131513
7642.000000;0.131716
7641.000000;0.132006
7640.000000;0.132349
7639.000000;0.132683
7638.000000;0.133004
7637.000000;0.133332
7636.000000;0.133643
7635.000000;0.133888
7634.000000;0.134097
7633.000000;0.134368
7632.000000;0.134732
7631.000000;0.135102
7630.000000;0.135390
7629.000000;0.135614
7628.000000;0.135854
7627.000000;0.136141
7626.000000;0.136452
7625.000000;0.136777
7624.000000;0.137107
7623.000000;0.137398
7622.000000;0.137596
7621.000000;0.137716
7620.000000;0.137837
7619.000000;0.138030
7618.000000;0.138311
7617.000000;0.138659
7616.000000;0.139045
7615.000000;0.139420
7614.000000;0.139721
7613.000000;0.139924
7612.000000;0.140072
7611.000000;0.140257
7610.000000;0.140542
7609.000000;0.140914
7608.000000;0.141314
7607.000000;0.141695
7606.000000;0.142051
7605.000000;0.142361
7604.000000;0.142558
7603.000000;0.142596
7602.000000;0.142566
7601.000000;0.142662
7600.000000;0.142997
7599.000000;0.143478
7598.000000;0.143892
7597.000000;0.144118
7596.000000;0.144232
7595.000000;0.144417
7594.000000;0.144807
7593.000000;0.145380
7592.000000;0.145998
7591.000000;0.146520
7590.000000;0.146908
7589.000000;0.147216
7588.000000;0.147503
7587.000000;0.147768
7586.000000;0.147993
7585.000000;0.148202
7584.000000;0.148458
7583.000000;0.148799
7582.000000;0.149199
7581.000000;0.149578
7580.000000;0.149865
7579.000000;0.150059
7578.000000;0.150232
7577.000000;0.150469
7576.000000;0.150789
7575.000000;0.151145
7574.000000;0.151490
7573.000000;0.151810
7572.000000;0.152118
7571.000000;0.152444
7570.000000;0.152841
7569.000000;0.153345
7568.000000;0.153903
7567.000000;0.154378
7566.000000;0.154684
7565.000000;0.154874
7564.000000;0.155071
7563.000000;0.155352
7562.000000;0.155714
7561.000000;0.156142
7560.000000;0.156635
7559.000000;0.157174
7558.000000;0.157697
7557.000000;0.158141
7556.000000;0.158476
7555.000000;0.158725
7554.000000;0.158929
7553.000000;0.159112
7552.000000;0.159271
7551.000000;0.159422
7550.000000;0.159638
7549.000000;0.160005
7548.000000;0.160506
7547.000000;0.161017
7546.000000;0.161438
7545.000000;0.161804
7544.000000;0.162208
7543.000000;0.162662
7542.000000;0.163076
7541.000000;0.163406
7540.000000;0.163733
7539.000000;0.164186
7538.000000;0.164787
7537.000000;0.165410
7536.000000;0.165885
7535.000000;0.166150
7534.000000;0.166298
7533.000000;0.166496
7532.000000;0.166840
7531.000000;0.167304
7530.000000;0.167797
7529.000000;0.168246
7528.000000;0.168630
7527.000000;0.168978
7526.000000;0.169344
7525.000000;0.169749
7524.000000;0.170139
7523.000000;0.170429
7522.000000;0.170625
7521.000000;0.170854
7520.000000;0.171243
7519.000000;0.171791
7518.000000;0.172393
7517.000000;0.172958
7516.000000;0.173449
7515.000000;0.173854
7514.000000;0.174177
7513.000000;0.174480
7512.000000;0.174837
7511.000000;0.175268
7510.000000;0.175732
7509.000000;0.176194
7508.000000;0.176655
7507.000000;0.177101
7506.000000;0.177487
7505.000000;0.177809
7504.000000;0.178140
7503.000000;0.178556
7502.000000;0.179034
7501.000000;0.179479
7500.000000;0.179832
7499.000000;0.180119
7498.000000;0.180417
7497.000000;0.180779
7496.000000;0.181222
7495.000000;0.181739
7494.000000;0.182308
7493.000000;0.182896
7492.000000;0.183466
7491.000000;0.183974
7490.000000;0.184376
7489.000000;0.184657
7488.000000;0.184868
7487.000000;0.185110
7486.000000;0.185466
7485.000000;0.185926
7484.000000;0.186417
7483.000000;0.186895
7482.000000;0.187390
7481.000000;0.187938
7480.000000;0.188515
7479.000000;0.189060
7478.000000;0.189545
7477.000000;0.189985
7476.000000;0.190400
7475.000000;0.190790
7474.000000;0.191165
7473.000000;0.191547
7472.000000;0.191943
7471.000000;0.192351
7470.000000;0.192781
7469.000000;0.193242
7468.000000;0.193706
7467.000000;0.194134
7466.000000;0.194539
7465.000000;0.194976
7464.000000;0.195458
7463.000000;0.195932
7462.000000;0.196374
7461.000000;0.196852
7460.000000;0.197435
7459.000000;0.198073
7458.000000;0.198627
7457.000000;0.199008
7456.000000;0.199244
7455.000000;0.199429
7454.000000;0.199654
7453.000000;0.199979
7452.000000;0.200420
7451.000000;0.200934
7450.000000;0.201449
7449.000000;0.201921
7448.000000;0.202355
7447.000000;0.202778
7446.000000;0.203207
7445.000000;0.203636
7444.000000;0.204044
7443.000000;0.204421
7442.000000;0.204782
7441.000000;0.205158
7440.000000;0.205551
7439.000000;0.205935
7438.000000;0.206309
7437.000000;0.206724
7436.000000;0.207220
7435.000000;0.207761
7434.000000;0.208253
7433.000000;0.208646
7432.000000;0.208978
7431.000000;0.209326
7430.000000;0.209744
7429.000000;0.210226
7428.000000;0.210720
7427.000000;0.211172
7426.000000;0.211562
7425.000000;0.211911
7424.000000;0.212226
7423.000000;0.212497
7422.000000;0.212749
7421.000000;0.213067
7420.000000;0.213531
7419.000000;0.214121
7418.000000;0.214726
7417.000000;0.215243
7416.000000;0.215645
7415.000000;0.215978
7414.000000;0.216324
7413.000000;0.216755
7412.000000;0.217294
7411.000000;0.217885
7410.000000;0.218443
7409.000000;0.218918
7408.000000;0.219315
7407.000000;0.219652
7406.000000;0.219943
7405.000000;0.220221
7404.000000;0.220551
7403.000000;0.220973
7402.000000;0.221454
7401.000000;0.221911
7400.000000;0.222302
7399.000000;0.222647
7398.000000;0.222984
7397.000000;0.223311
7396.000000;0.223603
7395.000000;0.223889
7394.000000;0.224250
7393.000000;0.224739
7392.000000;0.225306
7391.000000;0.225856
7390.000000;0.226352
7389.000000;0.226812
7388.000000;0.227217
7387.000000;0.227511
7386.000000;0.227714
7385.000000;0.227943
7384.000000;0.228269
7383.000000;0.228628
7382.000000;0.228936
7381.000000;0.229240
7380.000000;0.229642
7379.000000;0.230137
7378.000000;0.230604
7377.000000;0.230972
7376.000000;0.231294
7375.000000;0.231661
7374.000000;0.232108
7373.000000;0.232616
7372.000000;0.233129
7371.000000;0.233562
7370.000000;0.233861
7369.000000;0.234097
7368.000000;0.234433
7367.000000;0.234968
7366.000000;0.235651
7365.000000;0.236345
7364.000000;0.236911
7363.000000;0.237255
7362.000000;0.237403
7361.000000;0.237545
7360.000000;0.237915
7359.000000;0.238554
7358.000000;0.239251
7357.000000;0.239759
7356.000000;0.240025
7355.000000;0.240206
7354.000000;0.240508
7353.000000;0.241015
7352.000000;0.241645
7351.000000;0.242230
7350.000000;0.242673
7349.000000;0.243037
7348.000000;0.243451
7347.000000;0.243930
7346.000000;0.244369
7345.000000;0.244718
7344.000000;0.245058
7343.000000;0.245452
7342.000000;0.245846
7341.000000;0.246184
7340.000000;0.246547
7339.000000;0.247064
7338.000000;0.247740
7337.000000;0.248453
7336.000000;0.249109
7335.000000;0.249703
7334.000000;0.250282
7333.000000;0.250893
7332.000000;0.251525
7331.000000;0.252076
7330.000000;0.252426
7329.000000;0.252611
7328.000000;0.252872
7327.000000;0.253429
7326.000000;0.254226
7325.000000;0.255020
7324.000000;0.255688
7323.000000;0.256329
7322.000000;0.257059
7321.000000;0.257840
7320.000000;0.258555
7319.000000;0.259155
7318.000000;0.259682
7317.000000;0.260204
7316.000000;0.260792
7315.000000;0.261459
7314.000000;0.262114
7313.000000;0.262629
7312.000000;0.263007
7311.000000;0.263419
7310.000000;0.264015
7309.000000;0.264756
7308.000000;0.265499
7307.000000;0.266199
7306.000000;0.266932
7305.000000;0.267761
7304.000000;0.268665
7303.000000;0.269603
7302.000000;0.270534
7301.000000;0.271410
7300.000000;0.272219
7299.000000;0.273035
7298.000000;0.273940
7297.000000;0.274883
7296.000000;0.275696
7295.000000;0.276305
7294.000000;0.276864
7293.000000;0.277624
7292.000000;0.278664
7291.000000;0.279812
7290.000000;0.280848
7289.000000;0.281714
7288.000000;0.282539
7287.000000;0.283483
7286.000000;0.284596
7285.000000;0.285804
7284.000000;0.287014
7283.000000;0.288196
7282.000000;0.289362
7281.000000;0.290523
7280.000000;0.291671
7279.000000;0.292803
7278.000000;0.293924
7277.000000;0.295020
7276.000000;0.296078
7275.000000;0.297113
7274.000000;0.298169
7273.000000;0.299278
7272.000000;0.300439
7271.000000;0.301638
7270.000000;0.302864
7269.000000;0.304114
7268.000000;0.305391
7267.000000;0.306711
7266.000000;0.308078
7265.000000;0.309456
7264.000000;0.310809
7263.000000;0.312157
7262.000000;0.313565
7261.000000;0.315064
7260.000000;0.316617
7259.000000;0.318187
7258.000000;0.319783
7257.000000;0.321417
7256.000000;0.323047
7255.000000;0.324616
7254.000000;0.326126
7253.000000;0.327663
7252.000000;0.329315
7251.000000;0.331098
7250.000000;0.332964
7249.000000;0.334879
7248.000000;0.336846
7247.000000;0.338860
7246.000000;0.340835
7245.000000;0.342641
7244.000000;0.344238
7243.000000;0.345787
7242.000000;0.347558
7241.000000;0.349671
7240.000000;0.351979
7239.000000;0.354261
7238.000000;0.356461
7237.000000;0.358679
7236.000000;0.360969
7235.000000;0.363251
7234.000000;0.365424
7233.000000;0.367529
7232.000000;0.369733
7231.000000;0.372169
7230.000000;0.374829
7229.000000;0.377609
7228.000000;0.380380
7227.000000;0.383052
7226.000000;0.385634
7225.000000;0.388238
7224.000000;0.390973
7223.000000;0.393812
7222.000000;0.396617
7221.000000;0.399299
7220.000000;0.401935
7219.000000;0.404699
7218.000000;0.407715
7217.000000;0.410958
7216.000000;0.414303
7215.000000;0.417628
7214.000000;0.420877
7213.000000;0.424074
7212.000000;0.427280
7211.000000;0.430537
7210.000000;0.433851
7209.000000;0.437231
7208.000000;0.440693
7207.000000;0.444218
7206.000000;0.447729
7205.000000;0.451174
7204.000000;0.454610
7203.000000;0.458163
7202.000000;0.461907
7201.000000;0.465801
7200.000000;0.469770
7199.000000;0.473785
7198.000000;0.477830
7197.000000;0.481857
7196.000000;0.485829
7195.000000;0.489802
7194.000000;0.493903
7193.000000;0.498196
7192.000000;0.502605
7191.000000;0.506999
7190.000000;0.511299
7189.000000;0.515514
7188.000000;0.519708
7187.000000;0.523964
7186.000000;0.528352
7185.000000;0.532883
7184.000000;0.537484
7183.000000;0.542052
7182.000000;0.546565
7181.000000;0.551111
7180.000000;0.555791
7179.000000;0.560616
7178.000000;0.565524
7177.000000;0.570472
7176.000000;0.575472
7175.000000;0.580527
7174.000000;0.585575
7173.000000;0.590531
7172.000000;0.595390
7171.000000;0.600262
7170.000000;0.605268
7169.000000;0.610431
7168.000000;0.615679
7167.000000;0.620957
7166.000000;0.626281
7165.000000;0.631679
7164.000000;0.637114
7163.000000;0.642511
7162.000000;0.647869
7161.000000;0.653286
7160.000000;0.658821
7159.000000;0.664398
7158.000000;0.669894
7157.000000;0.675306
7156.000000;0.680755
7155.000000;0.686330
7154.000000;0.691988
7153.000000;0.697626
7152.000000;0.703181
7151.000000;0.708668
7150.000000;0.714154
7149.000000;0.719721
7148.000000;0.725370
7147.000000;0.730956
7146.000000;0.736308
7145.000000;0.741452
7144.000000;0.746605
7143.000000;0.751893
7142.000000;0.757227
7141.000000;0.762552
7140.000000;0.768054
7139.000000;0.773930
7138.000000;0.780029
7137.000000;0.785968
7136.000000;0.791577
7135.000000;0.797039
7134.000000;0.802558
7133.000000;0.808107
7132.000000;0.813581
7131.000000;0.819025
7130.000000;0.824600
7129.000000;0.830389
7128.000000;0.836307
7127.000000;0.842144
7126.000000;0.847681
7125.000000;0.852855
7124.000000;0.857888
7123.000000;0.863156
7122.000000;0.868834
7121.000000;0.874694
7120.000000;0.880325
7119.000000;0.885543
7118.000000;0.890525
7117.000000;0.895568
7116.000000;0.900764
7115.000000;0.905975
7114.000000;0.911072
7113.000000;0.916122
7112.000000;0.921283
7111.000000;0.926550
7110.000000;0.931711
7109.000000;0.936587
7108.000000;0.941263
7107.000000;0.946014
7106.000000;0.951000
7105.000000;0.956080
7104.000000;0.960907
7103.000000;0.965201
7102.000000;0.969014
7101.000000;0.972782
7100.000000;0.977044
7099.000000;0.981998
7098.000000;0.987325
7097.000000;0.992494
7096.000000;0.997187
7095.000000;1.001431
7094.000000;1.005483
7093.000000;1.009720
7092.000000;1.014474
7091.000000;1.019722
7090.000000;1.024963
7089.000000;1.029588
7088.000000;1.033452
7087.000000;1.036934
7086.000000;1.040447
7085.000000;1.044067
7084.000000;1.047698
7083.000000;1.051385
7082.000000;1.055289
7081.000000;1.059431
7080.000000;1.063602
7079.000000;1.067551
7078.000000;1.071211
7077.000000;1.074700
7076.000000;1.078167
7075.000000;1.081682
7074.000000;1.085295
7073.000000;1.089058
7072.000000;1.092902
7071.000000;1.096529
7070.000000;1.099649
7069.000000;1.102357
7068.000000;1.105092
7067.000000;1.108127
7066.000000;1.111278
7065.000000;1.114222
7064.000000;1.116937
7063.000000;1.119634
7062.000000;1.122425
7061.000000;1.125281
7060.000000;1.128231
7059.000000;1.131358
7058.000000;1.134641
7057.000000;1.137976
7056.000000;1.141303
7055.000000;1.144515
7054.000000;1.147331
7053.000000;1.149556
7052.000000;1.151457
7051.000000;1.153592
7050.000000;1.156179
7049.000000;1.158862
7048.000000;1.161199
7047.000000;1.163159
7046.000000;1.165024
7045.000000;1.166981
7044.000000;1.169020
7043.000000;1.171107
7042.000000;1.173246
7041.000000;1.175389
7040.000000;1.177450
7039.000000;1.179434
7038.000000;1.181474
7037.000000;1.183682
7036.000000;1.186016
7035.000000;1.188330
7034.000000;1.190534
7033.000000;1.192636
7032.000000;1.194628
7031.000000;1.196419
7030.000000;1.197987
7029.000000;1.199494
7028.000000;1.201138
7027.000000;1.202880
7026.000000;1.204517
7025.000000;1.205992
7024.000000;1.207464
7023.000000;1.209010
7022.000000;1.210534
7021.000000;1.212063
7020.000000;1.213849
7019.000000;1.215943
7018.000000;1.217873
7017.000000;1.219088
7016.000000;1.219628
7015.000000;1.220078
7014.000000;1.220898
7013.000000;1.222074
7012.000000;1.223366
7011.000000;1.224611
7010.000000;1.225744
7009.000000;1.226783
7008.000000;1.227898
7007.000000;1.229284
7006.000000;1.230889
7005.000000;1.232390
7004.000000;1.233546
7003.000000;1.234470
7002.000000;1.235490
7001.000000;1.236815
7000.000000;1.238361
6999.000000;1.239815
6998.000000;1.240881
6997.000000;1.241545
6996.000000;1.242093
6995.000000;1.242775
6994.000000;1.243516
6993.000000;1.244072
6992.000000;1.244398
6991.000000;1.244705
6990.000000;1.245192
6989.000000;1.245886
6988.000000;1.246723
6987.000000;1.247594
6986.000000;1.248336
6985.000000;1.248875
6984.000000;1.249429
6983.000000;1.250315
6982.000000;1.251499
6981.000000;1.252513
6980.000000;1.252925
6979.000000;1.252804
6978.000000;1.252646
6977.000000;1.252900
6976.000000;1.253625
6975.000000;1.254504
6974.000000;1.255156
6973.000000;1.255486
6972.000000;1.255726
6971.000000;1.256047
6970.000000;1.256262
6969.000000;1.256114
6968.000000;1.255796
6967.000000;1.255869
6966.000000;1.256617
6965.000000;1.257724
6964.000000;1.258662
6963.000000;1.259154
6962.000000;1.259153
6961.000000;1.258725
6960.000000;1.258165
6959.000000;1.257998
6958.000000;1.258537
6957.000000;1.259535
6956.000000;1.260472
6955.000000;1.261082
6954.000000;1.261357
6953.000000;1.261200
6952.000000;1.260487
6951.000000;1.259513
6950.000000;1.259002
6949.000000;1.259442
6948.000000;1.260558
6947.000000;1.261572
6946.000000;1.261907
6945.000000;1.261517
6944.000000;1.260676
6943.000000;1.259693
6942.000000;1.258871
6941.000000;1.258541
6940.000000;1.258889
6939.000000;1.259694
6938.000000;1.260347
6937.000000;1.260280
6936.000000;1.259468
6935.000000;1.258452
6934.000000;1.257809
6933.000000;1.257647
6932.000000;1.257673
6931.000000;1.257661
6930.000000;1.257720
6929.000000;1.258054
6928.000000;1.258616
6927.000000;1.259109
6926.000000;1.259264
6925.000000;1.259038
6924.000000;1.258592
6923.000000;1.258137
6922.000000;1.257773
6921.000000;1.257398
6920.000000;1.256825
6919.000000;1.256066
6918.000000;1.255421
6917.000000;1.255151
6916.000000;1.255117
6915.000000;1.254915
6914.000000;1.254428
6913.000000;1.254005
6912.000000;1.253988
6911.000000;1.254240
6910.000000;1.254354
6909.000000;1.254201
6908.000000;1.254028
6907.000000;1.254001
6906.000000;1.253921
6905.000000;1.253518
6904.000000;1.252848
6903.000000;1.252228
6902.000000;1.251826
6901.000000;1.251464
6900.000000;1.250857
6899.000000;1.249964
6898.000000;1.249083
6897.000000;1.248608
6896.000000;1.248697
6895.000000;1.249152
6894.000000;1.249599
6893.000000;1.249752
6892.000000;1.249524
6891.000000;1.248946
6890.000000;1.248106
6889.000000;1.247144
6888.000000;1.246223
6887.000000;1.245448
6886.000000;1.244854
6885.000000;1.244447
6884.000000;1.244230
6883.000000;1.244159
6882.000000;1.244165
6881.000000;1.244202
6880.000000;1.244212
6879.000000;1.244067
6878.000000;1.243657
6877.000000;1.243087
6876.000000;1.242622
6875.000000;1.242364
6874.000000;1.242091
6873.000000;1.241543
6872.000000;1.240803
6871.000000;1.240252
6870.000000;1.240120
6869.000000;1.240208
6868.000000;1.240093
6867.000000;1.239569
6866.000000;1.238804
6865.000000;1.238101
6864.000000;1.237568
6863.000000;1.237083
6862.000000;1.236561
6861.000000;1.236140
6860.000000;1.236020
6859.000000;1.236117
6858.000000;1.236005
6857.000000;1.235295
6856.000000;1.234033
6855.000000;1.232657
6854.000000;1.231587
6853.000000;1.230911
6852.000000;1.230444
6851.000000;1.229988
6850.000000;1.229470
6849.000000;1.228880
6848.000000;1.228172
6847.000000;1.227291
6846.000000;1.226253
6845.000000;1.225173
6844.000000;1.224202
6843.000000;1.223475
6842.000000;1.223079
6841.000000;1.222962
6840.000000;1.222837
6839.000000;1.222273
6838.000000;1.221006
6837.000000;1.219188
6836.000000;1.217267
6835.000000;1.215608
6834.000000;1.214207
6833.000000;1.212756
6832.000000;1.210994
6831.000000;1.209024
6830.000000;1.207270
6829.000000;1.206054
6828.000000;1.205201
6827.000000;1.204180
6826.000000;1.202668
6825.000000;1.200881
6824.000000;1.199271
6823.000000;1.198034
6822.000000;1.197039
6821.000000;1.196099
6820.000000;1.195115
6819.000000;1.193984
6818.000000;1.192589
6817.000000;1.190934
6816.000000;1.189161
6815.000000;1.187391
6814.000000;1.185624
6813.000000;1.183791
6812.000000;1.181812
6811.000000;1.179631
6810.000000;1.177336
6809.000000;1.175218
6808.000000;1.173531
6807.000000;1.172138
6806.000000;1.170587
6805.000000;1.168595
6804.000000;1.166354
6803.000000;1.164253
6802.000000;1.162449
6801.000000;1.160774
6800.000000;1.158973
6799.000000;1.156931
6798.000000;1.154753
6797.000000;1.152724
6796.000000;1.151106
6795.000000;1.149859
6794.000000;1.148593
6793.000000;1.146910
6792.000000;1.144736
6791.000000;1.142290
6790.000000;1.139788
6789.000000;1.137307
6788.000000;1.134872
6787.000000;1.132517
6786.000000;1.130236
6785.000000;1.127979
6784.000000;1.125749
6783.000000;1.123621
6782.000000;1.121645
6781.000000;1.119779
6780.000000;1.117941
6779.000000;1.116072
6778.000000;1.114116
6777.000000;1.111983
6776.000000;1.109637
6775.000000;1.107193
6774.000000;1.104868
6773.000000;1.102773
6772.000000;1.100791
6771.000000;1.098716
6770.000000;1.096475
6769.000000;1.094191
6768.000000;1.092015
6767.000000;1.089964
6766.000000;1.087941
6765.000000;1.085855
6764.000000;1.083669
6763.000000;1.081390
6762.000000;1.079049
6761.000000;1.076667
6760.000000;1.074206
6759.000000;1.071593
6758.000000;1.068864
6757.000000;1.066231
6756.000000;1.063923
6755.000000;1.061971
6754.000000;1.060197
6753.000000;1.058405
6752.000000;1.056501
6751.000000;1.054431
6750.000000;1.052135
6749.000000;1.049634
6748.000000;1.047072
6747.000000;1.044614
6746.000000;1.042318
6745.000000;1.040133
6744.000000;1.038007
6743.000000;1.035905
6742.000000;1.033759
6741.000000;1.031471
6740.000000;1.029015
6739.000000;1.026503
6738.000000;1.024102
6737.000000;1.021877
6736.000000;1.019751
6735.000000;1.017618
6734.000000;1.015473
6733.000000;1.013357
6732.000000;1.011242
6731.000000;1.009032
6730.000000;1.006700
6729.000000;1.004333
6728.000000;1.002021
6727.000000;0.999771
6726.000000;0.997559
6725.000000;0.995381
6724.000000;0.993192
6723.000000;0.990898
6722.000000;0.988481
6721.000000;0.986062
6720.000000;0.983771
6719.000000;0.981616
6718.000000;0.979547
6717.000000;0.977579
6716.000000;0.975722
6715.000000;0.973865
6714.000000;0.971843
6713.000000;0.969602
6712.000000;0.967190
6711.000000;0.964653
6710.000000;0.962065
6709.000000;0.959622
6708.000000;0.957519
6707.000000;0.955704
6706.000000;0.953884
6705.000000;0.951846
6704.000000;0.949650
6703.000000;0.947468
6702.000000;0.945339
6701.000000;0.943140
6700.000000;0.940765
6699.000000;0.938253
6698.000000;0.935780
6697.000000;0.933534
6696.000000;0.931532
6695.000000;0.929568
6694.000000;0.927433
6693.000000;0.925179
6692.000000;0.923057
6691.000000;0.921176
6690.000000;0.919333
6689.000000;0.917245
6688.000000;0.914861
6687.000000;0.912366
6686.000000;0.909965
6685.000000;0.907739
6684.000000;0.905663
6683.000000;0.903686
6682.000000;0.901785
6681.000000;0.899974
6680.000000;0.898222
6679.000000;0.896399
6678.000000;0.894353
6677.000000;0.892089
6676.000000;0.889789
6675.000000;0.887607
6674.000000;0.885535
6673.000000;0.883476
6672.000000;0.881392
6671.000000;0.879316
6670.000000;0.877288
6669.000000;0.875342
6668.000000;0.873492
6667.000000;0.871682
6666.000000;0.869804
6665.000000;0.867823
6664.000000;0.865832
6663.000000;0.863919
6662.000000;0.862047
6661.000000;0.860126
6660.000000;0.858156
6659.000000;0.856200
6658.000000;0.854266
6657.000000;0.852293
6656.000000;0.850253
6655.000000;0.848187
6654.000000;0.846141
6653.000000;0.844135
6652.000000;0.842190
6651.000000;0.840331
6650.000000;0.838551
6649.000000;0.836813
6648.000000;0.835068
6647.000000;0.833246
6646.000000;0.831260
6645.000000;0.829096
6644.000000;0.826886
6643.000000;0.824825
6642.000000;0.823009
6641.000000;0.821380
6640.000000;0.819818
6639.000000;0.818215
6638.000000;0.816500
6637.000000;0.814660
6636.000000;0.812768
6635.000000;0.810930
6634.000000;0.809190
6633.000000;0.807515
6632.000000;0.805866
6631.000000;0.804221
6630.000000;0.802548
6629.000000;0.800818
6628.000000;0.799043
6627.000000;0.797238
6626.000000;0.795351
6625.000000;0.793302
6624.000000;0.791144
6623.000000;0.789095
6622.000000;0.787330
6621.000000;0.785788
6620.000000;0.784257
6619.000000;0.782626
6618.000000;0.780978
6617.000000;0.779417
6616.000000;0.777896
6615.000000;0.776278
6614.000000;0.774517
6613.000000;0.772729
6612.000000;0.771052
6611.000000;0.769508
6610.000000;0.767999
6609.000000;0.766429
6608.000000;0.764774
6607.000000;0.763060
6606.000000;0.761324
6605.000000;0.759621
6604.000000;0.758014
6603.000000;0.756521
6602.000000;0.755066
6601.000000;0.753536
6600.000000;0.751883
6599.000000;0.750174
6598.000000;0.748530
6597.000000;0.747014
6596.000000;0.745577
6595.000000;0.744107
6594.000000;0.742533
6593.000000;0.740889
6592.000000;0.739277
6591.000000;0.737764
6590.000000;0.736322
6589.000000;0.734872
6588.000000;0.733357
6587.000000;0.731774
6586.000000;0.730148
6585.000000;0.728519
6584.000000;0.726935
6583.000000;0.725420
6582.000000;0.723940
6581.000000;0.722427
6580.000000;0.720848
6579.000000;0.719244
6578.000000;0.717682
6577.000000;0.716192
6576.000000;0.714763
6575.000000;0.713383
6574.000000;0.712064
6573.000000;0.710806
6572.000000;0.709567
6571.000000;0.708263
6570.000000;0.706833
6569.000000;0.705287
6568.000000;0.703697
6567.000000;0.702156
6566.000000;0.700718
6565.000000;0.699367
6564.000000;0.698039
6563.000000;0.696670
6562.000000;0.695265
6561.000000;0.693882
6560.000000;0.692550
6559.000000;0.691210
6558.000000;0.689776
6557.000000;0.688257
6556.000000;0.686760
6555.000000;0.685365
6554.000000;0.684031
6553.000000;0.682660
6552.000000;0.681233
6551.000000;0.679838
6550.000000;0.678565
6549.000000;0.677397
6548.000000;0.676234
6547.000000;0.674987
6546.000000;0.673662
6545.000000;0.672337
6544.000000;0.671082
6543.000000;0.669886
6542.000000;0.668676
6541.000000;0.667393
6540.000000;0.666049
6539.000000;0.664714
6538.000000;0.663436
6537.000000;0.662189
6536.000000;0.660903
6535.000000;0.659538
6534.000000;0.658133
6533.000000;0.656780
6532.000000;0.655531
6531.000000;0.654355
6530.000000;0.653184
6529.000000;0.651990
6528.000000;0.650783
6527.000000;0.649555
6526.000000;0.648280
6525.000000;0.646978
6524.000000;0.645740
6523.000000;0.644633
6522.000000;0.643602
6521.000000;0.642518
6520.000000;0.641310
6519.000000;0.640023
6518.000000;0.638749
6517.000000;0.637545
6516.000000;0.636430
6515.000000;0.635393
6514.000000;0.634391
6513.000000;0.633360
6512.000000;0.632271
6511.000000;0.631149
6510.000000;0.630024
6509.000000;0.628885
6508.000000;0.627706
6507.000000;0.626500
6506.000000;0.625320
6505.000000;0.624212
6504.000000;0.623180
6503.000000;0.622195
6502.000000;0.621198
6501.000000;0.620128
6500.000000;0.618958
6499.000000;0.617737
6498.000000;0.616547
6497.000000;0.615436
6496.000000;0.614390
6495.000000;0.613377
6494.000000;0.612387
6493.000000;0.611407
6492.000000;0.610399
6491.000000;0.609312
6490.000000;0.608150
6489.000000;0.606985
6488.000000;0.605911
6487.000000;0.604968
6486.000000;0.604103
6485.000000;0.603210
6484.000000;0.602218
6483.000000;0.601146
6482.000000;0.600063
6481.000000;0.599004
6480.000000;0.597938
6479.000000;0.596836
6478.000000;0.595726
6477.000000;0.594669
6476.000000;0.593682
6475.000000;0.592727
6474.000000;0.591767
6473.000000;0.590813
6472.000000;0.589894
6471.000000;0.589012
6470.000000;0.588142
6469.000000;0.587270
6468.000000;0.586405
6467.000000;0.585554
6466.000000;0.584689
6465.000000;0.583756
6464.000000;0.582720
6463.000000;0.581608
6462.000000;0.580497
6461.000000;0.579468
6460.000000;0.578559
6459.000000;0.577756
6458.000000;0.577013
6457.000000;0.576263
6456.000000;0.575435
6455.000000;0.574502
6454.000000;0.573508
6453.000000;0.572533
6452.000000;0.571606
6451.000000;0.570684
6450.000000;0.569723
6449.000000;0.568762
6448.000000;0.567892
6447.000000;0.567149
6446.000000;0.566457
6445.000000;0.565690
6444.000000;0.564789
6443.000000;0.563800
6442.000000;0.562824
6441.000000;0.561929
6440.000000;0.561111
6439.000000;0.560322
6438.000000;0.559523
6437.000000;0.558706
6436.000000;0.557872
6435.000000;0.557012
6434.000000;0.556127
6433.000000;0.555257
6432.000000;0.554446
6431.000000;0.553695
6430.000000;0.552961
6429.000000;0.552208
6428.000000;0.551442
6427.000000;0.550676
6426.000000;0.549889
6425.000000;0.549051
6424.000000;0.548173
6423.000000;0.547315
6422.000000;0.546532
6421.000000;0.545814
6420.000000;0.545095
6419.000000;0.544301
6418.000000;0.543407
6417.000000;0.542459
6416.000000;0.541546
6415.000000;0.540737
6414.000000;0.540032
6413.000000;0.539382
6412.000000;0.538734
6411.000000;0.538053
6410.000000;0.537321
6409.000000;0.536532
6408.000000;0.535708
6407.000000;0.534903
6406.000000;0.534166
6405.000000;0.533512
6404.000000;0.532904
6403.000000;0.532277
6402.000000;0.531571
6401.000000;0.530776
6400.000000;0.529950
6399.000000;0.529173
6398.000000;0.528474
6397.000000;0.527801
6396.000000;0.527082
6395.000000;0.526300
6394.000000;0.525506
6393.000000;0.524772
6392.000000;0.524139
6391.000000;0.523593
6390.000000;0.523070
6389.000000;0.522485
6388.000000;0.521793
6387.000000;0.521017
6386.000000;0.520227
6385.000000;0.519480
6384.000000;0.518807
6383.000000;0.518209
6382.000000;0.517662
6381.000000;0.517116
6380.000000;0.516519
6379.000000;0.515853
6378.000000;0.515137
6377.000000;0.514400
6376.000000;0.513658
6375.000000;0.512924
6374.000000;0.512213
6373.000000;0.511528
6372.000000;0.510864
6371.000000;0.510222
6370.000000;0.509605
6369.000000;0.508998
6368.000000;0.508379
6367.000000;0.507742
6366.000000;0.507097
6365.000000;0.506452
6364.000000;0.505802
6363.000000;0.505151
6362.000000;0.504510
6361.000000;0.503877
6360.000000;0.503240
6359.000000;0.502605
6358.000000;0.502003
6357.000000;0.501454
6356.000000;0.500940
6355.000000;0.500422
6354.000000;0.499870
6353.000000;0.499277
6352.000000;0.498650
6351.000000;0.497994
6350.000000;0.497319
6349.000000;0.496631
6348.000000;0.495956
6347.000000;0.495351
6346.000000;0.494866
6345.000000;0.494481
6344.000000;0.494098
6343.000000;0.493624
6342.000000;0.493052
6341.000000;0.492452
6340.000000;0.491893
6339.000000;0.491389
6338.000000;0.490919
6337.000000;0.490445
6336.000000;0.489933
6335.000000;0.489363
6334.000000;0.488743
6333.000000;0.488108
6332.000000;0.487500
6331.000000;0.486945
6330.000000;0.486453
6329.000000;0.486011
6328.000000;0.485589
6327.000000;0.485146
6326.000000;0.484653
6325.000000;0.484108
6324.000000;0.483540
6323.000000;0.482993
6322.000000;0.482492
6321.000000;0.482027
6320.000000;0.481560
6319.000000;0.481064
6318.000000;0.480526
6317.000000;0.479944
6316.000000;0.479327
6315.000000;0.478709
6314.000000;0.478147
6313.000000;0.477665
6312.000000;0.477233
6311.000000;0.476796
6310.000000;0.476327
6309.000000;0.475838
6308.000000;0.475352
6307.000000;0.474890
6306.000000;0.474461
6305.000000;0.474046
6304.000000;0.473598
6303.000000;0.473090
6302.000000;0.472552
6301.000000;0.472055
6300.000000;0.471652
6299.000000;0.471349
6298.000000;0.471104
6297.000000;0.470852
6296.000000;0.470531
6295.000000;0.470114
6294.000000;0.469629
6293.000000;0.469134
6292.000000;0.468663
6291.000000;0.468218
6290.000000;0.467780
6289.000000;0.467343
6288.000000;0.466911
6287.000000;0.466490
6286.000000;0.466081
6285.000000;0.465682
6284.000000;0.465281
6283.000000;0.464866
6282.000000;0.464424
6281.000000;0.463946
6280.000000;0.463450
6279.000000;0.462986
6278.000000;0.462605
6277.000000;0.462300
6276.000000;0.461997
6275.000000;0.461622
6274.000000;0.461167
6273.000000;0.460689
6272.000000;0.460252
6271.000000;0.459889
6270.000000;0.459584
6269.000000;0.459282
6268.000000;0.458918
6267.000000;0.458469
6266.000000;0.457983
6265.000000;0.457536
6264.000000;0.457164
6263.000000;0.456835
6262.000000;0.456482
6261.000000;0.456059
6260.000000;0.455580
6259.000000;0.455118
6258.000000;0.454758
6257.000000;0.454531
6256.000000;0.454377
6255.000000;0.454198
6254.000000;0.453940
6253.000000;0.453618
6252.000000;0.453282
6251.000000;0.452964
6250.000000;0.452651
6249.000000;0.452314
6248.000000;0.451939
6247.000000;0.451560
6246.000000;0.451225
6245.000000;0.450939
6244.000000;0.450638
6243.000000;0.450244
6242.000000;0.449744
6241.000000;0.449206
6240.000000;0.448737
6239.000000;0.448409
6238.000000;0.448212
6237.000000;0.448067
6236.000000;0.447886
6235.000000;0.447641
6234.000000;0.447358
6233.000000;0.447046
6232.000000;0.446676
6231.000000;0.446248
6230.000000;0.445825
6229.000000;0.445481
6228.000000;0.445214
6227.000000;0.444967
6226.000000;0.444699
6225.000000;0.444413
6224.000000;0.444132
6223.000000;0.443877
6222.000000;0.443664
6221.000000;0.443477
6220.000000;0.443257
6219.000000;0.442954
6218.000000;0.442599
6217.000000;0.442276
6216.000000;0.442032
6215.000000;0.441830
6214.000000;0.441607
6213.000000;0.441337
6212.000000;0.441035
6211.000000;0.440728
6210.000000;0.440441
6209.000000;0.440177
6208.000000;0.439912
6207.000000;0.439613
6206.000000;0.439280
6205.000000;0.438947
6204.000000;0.438641
6203.000000;0.438361
6202.000000;0.438102
6201.000000;0.437869
6200.000000;0.437656
6199.000000;0.437436
6198.000000;0.437189
6197.000000;0.436919
6196.000000;0.436637
6195.000000;0.436341
6194.000000;0.436034
6193.000000;0.435732
6192.000000;0.435452
6191.000000;0.435195
6190.000000;0.434946
6189.000000;0.434689
6188.000000;0.434412
6187.000000;0.434117
6186.000000;0.433825
6185.000000;0.433559
6184.000000;0.433322
6183.000000;0.433108
6182.000000;0.432918
6181.000000;0.432751
6180.000000;0.432586
6179.000000;0.432401
6178.000000;0.432211
6177.000000;0.432049
6176.000000;0.431918
6175.000000;0.431776
6174.000000;0.431588
6173.000000;0.431360
6172.000000;0.431122
6171.000000;0.430893
6170.000000;0.430679
6169.000000;0.430485
6168.000000;0.430301
6167.000000;0.430106
6166.000000;0.429889
6165.000000;0.429669
6164.000000;0.429474
6163.000000;0.429310
6162.000000;0.429158
6161.000000;0.428992
6160.000000;0.428796
6159.000000;0.428574
6158.000000;0.428351
6157.000000;0.428145
6156.000000;0.427939
6155.000000;0.427700
6154.000000;0.427425
6153.000000;0.427154
6152.000000;0.426926
6151.000000;0.426751
6150.000000;0.426618
6149.000000;0.426508
6148.000000;0.426398
6147.000000;0.426267
6146.000000;0.426118
6145.000000;0.425969
6144.000000;0.425812
6143.000000;0.425611
6142.000000;0.425367
6141.000000;0.425143
6140.000000;0.425002
6139.000000;0.424931
6138.000000;0.424859
6137.000000;0.424741
6136.000000;0.424596
6135.000000;0.424464
6134.000000;0.424359
6133.000000;0.424264
6132.000000;0.424155
6131.000000;0.424009
6130.000000;0.423821
6129.000000;0.423606
6128.000000;0.423385
6127.000000;0.423168
6126.000000;0.422948
6125.000000;0.422706
6124.000000;0.422437
6123.000000;0.422169
6122.000000;0.421955
6121.000000;0.421827
6120.000000;0.421755
6119.000000;0.421666
6118.000000;0.421520
6117.000000;0.421342
6116.000000;0.421167
6115.000000;0.420979
6114.000000;0.420746
6113.000000;0.420493
6112.000000;0.420307
6111.000000;0.420243
6110.000000;0.420265
6109.000000;0.420279
6108.000000;0.420221
6107.000000;0.420085
6106.000000;0.419913
6105.000000;0.419754
6104.000000;0.419644
6103.000000;0.419582
6102.000000;0.419531
6101.000000;0.419447
6100.000000;0.419312
6099.000000;0.419146
6098.000000;0.418990
6097.000000;0.418864
6096.000000;0.418748
6095.000000;0.418597
6094.000000;0.418386
6093.000000;0.418148
6092.000000;0.417951
6091.000000;0.417849
6090.000000;0.417834
6089.000000;0.417844
6088.000000;0.417816
6087.000000;0.417725
6086.000000;0.417587
6085.000000;0.417446
6084.000000;0.417351
6083.000000;0.417328
6082.000000;0.417356
6081.000000;0.417384
6080.000000;0.417353
6079.000000;0.417236
6078.000000;0.417051
6077.000000;0.416849
6076.000000;0.416688
6075.000000;0.416593
6074.000000;0.416548
6073.000000;0.416518
6072.000000;0.416482
6071.000000;0.416447
6070.000000;0.416425
6069.000000;0.416407
6068.000000;0.416370
6067.000000;0.416296
6066.000000;0.416182
6065.000000;0.416045
6064.000000;0.415915
6063.000000;0.415823
6062.000000;0.415779
6061.000000;0.415764
6060.000000;0.415742
6059.000000;0.415690
6058.000000;0.415609
6057.000000;0.415505
6056.000000;0.415389
6055.000000;0.415270
6054.000000;0.415160
6053.000000;0.415071
6052.000000;0.415013
6051.000000;0.415000
6050.000000;0.415039
6049.000000;0.415109
6048.000000;0.415168
6047.000000;0.415175
6046.000000;0.415120
6045.000000;0.415012
6044.000000;0.414870
6043.000000;0.414722
6042.000000;0.414602
6041.000000;0.414533
6040.000000;0.414511
6039.000000;0.414517
6038.000000;0.414527
6037.000000;0.414531
6036.000000;0.414529
6035.000000;0.414531
6034.000000;0.414549
6033.000000;0.414580
6032.000000;0.414599
6031.000000;0.414579
6030.000000;0.414514
6029.000000;0.414433
6028.000000;0.414379
6027.000000;0.414373
6026.000000;0.414400
6025.000000;0.414434
6024.000000;0.414468
6023.000000;0.414514
6022.000000;0.414571
6021.000000;0.414608
6020.000000;0.414601
6019.000000;0.414570
6018.000000;0.414548
6017.000000;0.414540
6016.000000;0.414530
6015.000000;0.414523
6014.000000;0.414544
6013.000000;0.414588
6012.000000;0.414610
6011.000000;0.414585
6010.000000;0.414544
6009.000000;0.414539
6008.000000;0.414584
6007.000000;0.414652
6006.000000;0.414716
6005.000000;0.414767
6004.000000;0.414818
6003.000000;0.414890
6002.000000;0.414986
6001.000000;0.415074
6000.000000;0.415107
5999.000000;0.415088
5998.000000;0.415087
5997.000000;0.415171
5996.000000;0.415325
5995.000000;0.415476
5994.000000;0.415575
5993.000000;0.415631
5992.000000;0.415681
5991.000000;0.415744
5990.000000;0.415819
5989.000000;0.415895
5988.000000;0.415966
5987.000000;0.416039
5986.000000;0.416135
5985.000000;0.416273
5984.000000;0.416455
5983.000000;0.416665
5982.000000;0.416868
5981.000000;0.417008
5980.000000;0.417048
5979.000000;0.417030
5978.000000;0.417055
5977.000000;0.417197
5976.000000;0.417421
5975.000000;0.417642
5974.000000;0.417818
5973.000000;0.417969
5972.000000;0.418117
5971.000000;0.418259
5970.000000;0.418393
5969.000000;0.418525
5968.000000;0.418647
5967.000000;0.418748
5966.000000;0.418853
5965.000000;0.419005
5964.000000;0.419210
5963.000000;0.419420
5962.000000;0.419607
5961.000000;0.419804
5960.000000;0.420060
5959.000000;0.420362
5958.000000;0.420648
5957.000000;0.420870
5956.000000;0.421039
5955.000000;0.421193
5954.000000;0.421360
5953.000000;0.421545
5952.000000;0.421755
5951.000000;0.422000
5950.000000;0.422288
5949.000000;0.422604
5948.000000;0.422918
5947.000000;0.423211
5946.000000;0.423493
5945.000000;0.423774
5944.000000;0.424040
5943.000000;0.424268
5942.000000;0.424465
5941.000000;0.424656
5940.000000;0.424846
5939.000000;0.425015
5938.000000;0.425164
5937.000000;0.425330
5936.000000;0.425549
5935.000000;0.425815
5934.000000;0.426097
5933.000000;0.426378
5932.000000;0.426655
5931.000000;0.426917
5930.000000;0.427133
5929.000000;0.427290
5928.000000;0.427416
5927.000000;0.427571
5926.000000;0.427798
5925.000000;0.428086
5924.000000;0.428381
5923.000000;0.428631
5922.000000;0.428822
5921.000000;0.428962
5920.000000;0.429060
5919.000000;0.429136
5918.000000;0.429233
5917.000000;0.429397
5916.000000;0.429629
5915.000000;0.429876
5914.000000;0.430081
5913.000000;0.430222
5912.000000;0.430315
5911.000000;0.430379
5910.000000;0.430429
5909.000000;0.430478
5908.000000;0.430552
5907.000000;0.430674
5906.000000;0.430842
5905.000000;0.431018
5904.000000;0.431147
5903.000000;0.431203
5902.000000;0.431219
5901.000000;0.431258
5900.000000;0.431351
5899.000000;0.431470
5898.000000;0.431569
5897.000000;0.431636
5896.000000;0.431712
5895.000000;0.431842
5894.000000;0.432032
5893.000000;0.432241
5892.000000;0.432411
5891.000000;0.432512
5890.000000;0.432563
5889.000000;0.432617
5888.000000;0.432723
5887.000000;0.432893
5886.000000;0.433091
5885.000000;0.433267
5884.000000;0.433407
5883.000000;0.433550
5882.000000;0.433744
5881.000000;0.433987
5880.000000;0.434225
5879.000000;0.434410
5878.000000;0.434548
5877.000000;0.434689
5876.000000;0.434875
5875.000000;0.435117
5874.000000;0.435397
5873.000000;0.435680
5872.000000;0.435939
5871.000000;0.436170
5870.000000;0.436405
5869.000000;0.436679
5868.000000;0.436998
5867.000000;0.437327
5866.000000;0.437618
5865.000000;0.437845
5864.000000;0.438025
5863.000000;0.438222
5862.000000;0.438505
5861.000000;0.438888
5860.000000;0.439318
5859.000000;0.439727
5858.000000;0.440090
5857.000000;0.440431
5856.000000;0.440770
5855.000000;0.441108
5854.000000;0.441439
5853.000000;0.441767
5852.000000;0.442102
5851.000000;0.442461
5850.000000;0.442852
5849.000000;0.443269
5848.000000;0.443684
5847.000000;0.444079
5846.000000;0.444455
5845.000000;0.444824
5844.000000;0.445189
5843.000000;0.445556
5842.000000;0.445941
5841.000000;0.446353
5840.000000;0.446773
5839.000000;0.447177
5838.000000;0.447568
5837.000000;0.447981
5836.000000;0.448447
5835.000000;0.448962
5834.000000;0.449490
5833.000000;0.449978
5832.000000;0.450387
5831.000000;0.450718
5830.000000;0.451013
5829.000000;0.451321
5828.000000;0.451664
5827.000000;0.452052
5826.000000;0.452498
5825.000000;0.453002
5824.000000;0.453539
5823.000000;0.454081
5822.000000;0.454622
5821.000000;0.455165
5820.000000;0.455693
5819.000000;0.456184
5818.000000;0.456648
5817.000000;0.457118
5816.000000;0.457613
5815.000000;0.458127
5814.000000;0.458645
5813.000000;0.459153
5812.000000;0.459634
5811.000000;0.460083
5810.000000;0.460534
5809.000000;0.461035
5808.000000;0.461599
5807.000000;0.462190
5806.000000;0.462767
5805.000000;0.463314
5804.000000;0.463839
5803.000000;0.464357
5802.000000;0.464883
5801.000000;0.465432
5800.000000;0.466003
5799.000000;0.466585
5798.000000;0.467166
5797.000000;0.467732
5796.000000;0.468260
5795.000000;0.468738
5794.000000;0.469185
5793.000000;0.469637
5792.000000;0.470119
5791.000000;0.470644
5790.000000;0.471226
5789.000000;0.471867
5788.000000;0.472525
5787.000000;0.473134
5786.000000;0.473665
5785.000000;0.474147
5784.000000;0.474629
5783.000000;0.475130
5782.000000;0.475652
5781.000000;0.476196
5780.000000;0.476763
5779.000000;0.477356
5778.000000;0.477987
5777.000000;0.478671
5776.000000;0.479383
5775.000000;0.480062
5774.000000;0.480664
5773.000000;0.481205
5772.000000;0.481728
5771.000000;0.482259
5770.000000;0.482801
5769.000000;0.483372
5768.000000;0.483991
5767.000000;0.484653
5766.000000;0.485319
5765.000000;0.485953
5764.000000;0.486543
5763.000000;0.487098
5762.000000;0.487631
5761.000000;0.488154
5760.000000;0.488690
5759.000000;0.489269
5758.000000;0.489906
5757.000000;0.490572
5756.000000;0.491211
5755.000000;0.491791
5754.000000;0.492337
5753.000000;0.492897
5752.000000;0.493490
5751.000000;0.494096
5750.000000;0.494703
5749.000000;0.495324
5748.000000;0.495972
5747.000000;0.496632
5746.000000;0.497277
5745.000000;0.497892
5744.000000;0.498476
5743.000000;0.499040
5742.000000;0.499605
5741.000000;0.500199
5740.000000;0.500825
5739.000000;0.501447
5738.000000;0.502029
5737.000000;0.502589
5736.000000;0.503188
5735.000000;0.503871
5734.000000;0.504609
5733.000000;0.505330
5732.000000;0.505995
5731.000000;0.506639
5730.000000;0.507324
5729.000000;0.508067
5728.000000;0.508821
5727.000000;0.509533
5726.000000;0.510203
5725.000000;0.510878
5724.000000;0.511595
5723.000000;0.512339
5722.000000;0.513053
5721.000000;0.513696
5720.000000;0.514281
5719.000000;0.514879
5718.000000;0.515562
5717.000000;0.516337
5716.000000;0.517134
5715.000000;0.517874
5714.000000;0.518536
5713.000000;0.519153
5712.000000;0.519757
5711.000000;0.520346
5710.000000;0.520926
5709.000000;0.521543
5708.000000;0.522254
5707.000000;0.523061
5706.000000;0.523892
5705.000000;0.524667
5704.000000;0.525378
5703.000000;0.526079
5702.000000;0.526810
5701.000000;0.527546
5700.000000;0.528249
5699.000000;0.528942
5698.000000;0.529695
5697.000000;0.530529
5696.000000;0.531378
5695.000000;0.532163
5694.000000;0.532864
5693.000000;0.533513
5692.000000;0.534135
5691.000000;0.534747
5690.000000;0.535394
5689.000000;0.536128
5688.000000;0.536945
5687.000000;0.537777
5686.000000;0.538557
5685.000000;0.539262
5684.000000;0.539900
5683.000000;0.540487
5682.000000;0.541061
5681.000000;0.541680
5680.000000;0.542386
5679.000000;0.543162
5678.000000;0.543959
5677.000000;0.544737
5676.000000;0.545486
5675.000000;0.546212
5674.000000;0.546932
5673.000000;0.547661
5672.000000;0.548401
5671.000000;0.549133
5670.000000;0.549849
5669.000000;0.550570
5668.000000;0.551328
5667.000000;0.552123
5666.000000;0.552919
5665.000000;0.553678
5664.000000;0.554387
5663.000000;0.555051
5662.000000;0.555673
5661.000000;0.556259
5660.000000;0.556834
5659.000000;0.557438
5658.000000;0.558101
5657.000000;0.558821
5656.000000;0.559570
5655.000000;0.560313
5654.000000;0.561014
5653.000000;0.561641
5652.000000;0.562184
5651.000000;0.562674
5650.000000;0.563175
5649.000000;0.563740
5648.000000;0.564372
5647.000000;0.565019
5646.000000;0.565628
5645.000000;0.566183
5644.000000;0.566720
5643.000000;0.567288
5642.000000;0.567910
5641.000000;0.568575
5640.000000;0.569255
5639.000000;0.569920
5638.000000;0.570541
5637.000000;0.571087
5636.000000;0.571553
5635.000000;0.571990
5634.000000;0.572485
5633.000000;0.573089
5632.000000;0.573770
5631.000000;0.574439
5630.000000;0.575033
5629.000000;0.575559
5628.000000;0.576069
5627.000000;0.576594
5626.000000;0.577126
5625.000000;0.577643
5624.000000;0.578128
5623.000000;0.578572
5622.000000;0.578975
5621.000000;0.579359
5620.000000;0.579787
5619.000000;0.580308
5618.000000;0.580909
5617.000000;0.581520
5616.000000;0.582081
5615.000000;0.582580
5614.000000;0.583021
5613.000000;0.583387
5612.000000;0.583676
5611.000000;0.583937
5610.000000;0.584243
5609.000000;0.584630
5608.000000;0.585075
5607.000000;0.585547
5606.000000;0.586024
5605.000000;0.586473
5604.000000;0.586852
5603.000000;0.587152
5602.000000;0.587418
5601.000000;0.587705
5600.000000;0.588027
5599.000000;0.588364
5598.000000;0.588692
5597.000000;0.588997
5596.000000;0.589276
5595.000000;0.589528
5594.000000;0.589765
5593.000000;0.590004
5592.000000;0.590258
5591.000000;0.590531
5590.000000;0.590813
5589.000000;0.591093
5588.000000;0.591371
5587.000000;0.591666
5586.000000;0.591978
5585.000000;0.592271
5584.000000;0.592495
5583.000000;0.592647
5582.000000;0.592784
5581.000000;0.592977
5580.000000;0.593251
5579.000000;0.593572
5578.000000;0.593872
5577.000000;0.594100
5576.000000;0.594257
5575.000000;0.594393
5574.000000;0.594543
5573.000000;0.594693
5572.000000;0.594817
5571.000000;0.594948
5570.000000;0.595133
5569.000000;0.595353
5568.000000;0.595520
5567.000000;0.595592
5566.000000;0.595631
5565.000000;0.595720
5564.000000;0.595862
5563.000000;0.596003
5562.000000;0.596106
5561.000000;0.596166
5560.000000;0.596183
5559.000000;0.596182
5558.000000;0.596228
5557.000000;0.596383
5556.000000;0.596626
5555.000000;0.596861
5554.000000;0.597004
5553.000000;0.597057
5552.000000;0.597095
5551.000000;0.597197
5550.000000;0.597380
5549.000000;0.597593
5548.000000;0.597754
5547.000000;0.597831
5546.000000;0.597851
5545.000000;0.597860
5544.000000;0.597880
5543.000000;0.597923
5542.000000;0.598000
5541.000000;0.598101
5540.000000;0.598187
5539.000000;0.598230
5538.000000;0.598245
5537.000000;0.598271
5536.000000;0.598319
5535.000000;0.598384
5534.000000;0.598476
5533.000000;0.598612
5532.000000;0.598781
5531.000000;0.598950
5530.000000;0.599092
5529.000000;0.599194
5528.000000;0.599243
5527.000000;0.599233
5526.000000;0.599185
5525.000000;0.599139
5524.000000;0.599131
5523.000000;0.599178
5522.000000;0.599275
5521.000000;0.599390
5520.000000;0.599482
5519.000000;0.599546
5518.000000;0.599620
5517.000000;0.599736
5516.000000;0.599883
5515.000000;0.600033
5514.000000;0.600178
5513.000000;0.600315
5512.000000;0.600423
5511.000000;0.600494
5510.000000;0.600561
5509.000000;0.600664
5508.000000;0.600802
5507.000000;0.600951
5506.000000;0.601116
5505.000000;0.601324
5504.000000;0.601578
5503.000000;0.601840
5502.000000;0.602069
5501.000000;0.602239
5500.000000;0.602351
5499.000000;0.602434
5498.000000;0.602538
5497.000000;0.602678
5496.000000;0.602803
5495.000000;0.602864
5494.000000;0.602901
5493.000000;0.603008
5492.000000;0.603225
5491.000000;0.603497
5490.000000;0.603770
5489.000000;0.604053
5488.000000;0.604385
5487.000000;0.604769
5486.000000;0.605171
5485.000000;0.605557
5484.000000;0.605911
5483.000000;0.606219
5482.000000;0.606472
5481.000000;0.606687
5480.000000;0.606913
5479.000000;0.607204
5478.000000;0.607565
5477.000000;0.607944
5476.000000;0.608296
5475.000000;0.608646
5474.000000;0.609052
5473.000000;0.609522
5472.000000;0.610006
5471.000000;0.610473
5470.000000;0.610945
5469.000000;0.611437
5468.000000;0.611911
5467.000000;0.612332
5466.000000;0.612730
5465.000000;0.613161
5464.000000;0.613634
5463.000000;0.614116
5462.000000;0.614585
5461.000000;0.615058
5460.000000;0.615570
5459.000000;0.616157
5458.000000;0.616837
5457.000000;0.617578
5456.000000;0.618302
5455.000000;0.618971
5454.000000;0.619624
5453.000000;0.620308
5452.000000;0.621007
5451.000000;0.621697
5450.000000;0.622424
5449.000000;0.623237
5448.000000;0.624068
5447.000000;0.624789
5446.000000;0.625400
5445.000000;0.626058
5444.000000;0.626904
5443.000000;0.627908
5442.000000;0.628945
5441.000000;0.629949
5440.000000;0.630934
5439.000000;0.631928
5438.000000;0.632937
5437.000000;0.633943
5436.000000;0.634935
5435.000000;0.635945
5434.000000;0.637052
5433.000000;0.638291
5432.000000;0.639596
5431.000000;0.640859
5430.000000;0.642040
5429.000000;0.643215
5428.000000;0.644477
5427.000000;0.645849
5426.000000;0.647299
5425.000000;0.648793
5424.000000;0.650317
5423.000000;0.651883
5422.000000;0.653514
5421.000000;0.655192
5420.000000;0.656860
5419.000000;0.658490
5418.000000;0.660126
5417.000000;0.661813
5416.000000;0.663519
5415.000000;0.665201
5414.000000;0.666922
5413.000000;0.668794
5412.000000;0.670824
5411.000000;0.672929
5410.000000;0.675078
5409.000000;0.677326
5408.000000;0.679691
5407.000000;0.682102
5406.000000;0.684501
5405.000000;0.686904
5404.000000;0.689345
5403.000000;0.691842
5402.000000;0.694418
5401.000000;0.697096
5400.000000;0.699874
5399.000000;0.702735
5398.000000;0.705694
5397.000000;0.708759
5396.000000;0.711878
5395.000000;0.714996
5394.000000;0.718161
5393.000000;0.721481
5392.000000;0.724992
5391.000000;0.728627
5390.000000;0.732340
5389.000000;0.736138
5388.000000;0.740024
5387.000000;0.743991
5386.000000;0.748088
5385.000000;0.752358
5384.000000;0.756731
5383.000000;0.761110
5382.000000;0.765543
5381.000000;0.770173
5380.000000;0.775038
5379.000000;0.780041
5378.000000;0.785126
5377.000000;0.790361
5376.000000;0.795795
5375.000000;0.801364
5374.000000;0.807016
5373.000000;0.812801
5372.000000;0.818783
5371.000000;0.824954
5370.000000;0.831306
5369.000000;0.837881
5368.000000;0.844685
5367.000000;0.851637
5366.000000;0.858673
5365.000000;0.865843
5364.000000;0.873262
5363.000000;0.881029
5362.000000;0.889175
5361.000000;0.897641
5360.000000;0.906309
5359.000000;0.915106
5358.000000;0.924084
5357.000000;0.933327
5356.000000;0.942839
5355.000000;0.952606
5354.000000;0.962701
5353.000000;0.973174
5352.000000;0.983898
5351.000000;0.994731
5350.000000;1.005779
5349.000000;1.017279
5348.000000;1.029269
5347.000000;1.041575
5346.000000;1.054120
5345.000000;1.067031
5344.000000;1.080394
5343.000000;1.094106
5342.000000;1.108077
5341.000000;1.122400
5340.000000;1.137238
5339.000000;1.152709
5338.000000;1.168848
5337.000000;1.185483
5336.000000;1.202260
5335.000000;1.219015
5334.000000;1.236066
5333.000000;1.253892
5332.000000;1.272562
5331.000000;1.291749
5330.000000;1.311280
5329.000000;1.331345
5328.000000;1.352131
5327.000000;1.373555
5326.000000;1.395430
5325.000000;1.417659
5324.000000;1.440242
5323.000000;1.463371
5322.000000;1.487483
5321.000000;1.512853
5320.000000;1.539164
5319.000000;1.565812
5318.000000;1.592584
5317.000000;1.619678
5316.000000;1.647216
5315.000000;1.675266
5314.000000;1.704194
5313.000000;1.734342
5312.000000;1.765418
5311.000000;1.796787
5310.000000;1.828301
5309.000000;1.860268
5308.000000;1.892881
5307.000000;1.926333
5306.000000;1.961067
5305.000000;1.997037
5304.000000;2.033253
5303.000000;2.069073
5302.000000;2.105102
5301.000000;2.141563
5300.000000;2.177008
5299.000000;2.210633
5298.000000;2.244583
5297.000000;2.281268
5296.000000;2.319609
5295.000000;2.356755
5294.000000;2.392235
5293.000000;2.427035
5292.000000;2.460286
5291.000000;2.491418
5290.000000;2.523697
5289.000000;2.559784
5288.000000;2.595459
5287.000000;2.624145
5286.000000;2.646344
5285.000000;2.667477
5284.000000;2.689353
5283.000000;2.711787
5282.000000;2.738787
5281.000000;2.773622
5280.000000;2.809384
5279.000000;2.834089
5278.000000;2.845994
5277.000000;2.852045
5276.000000;2.854679
5275.000000;2.854269
5274.000000;2.857766
5273.000000;2.871073
5272.000000;2.887094
5271.000000;2.893817
5270.000000;2.893087
5269.000000;2.896225
5268.000000;2.905781
5267.000000;2.915305
5266.000000;2.922271
5265.000000;2.930175
5264.000000;2.939085
5263.000000;2.946096
5262.000000;2.954145
5261.000000;2.966537
5260.000000;2.976489
5259.000000;2.975552
5258.000000;2.967467
5257.000000;2.960989
5256.000000;2.955859
5255.000000;2.946876
5254.000000;2.937286
5253.000000;2.936443
5252.000000;2.945861
5251.000000;2.956397
5250.000000;2.959065
5249.000000;2.954525
5248.000000;2.949473
5247.000000;2.948693
5246.000000;2.953935
5245.000000;2.963506
5244.000000;2.970673
5243.000000;2.970812
5242.000000;2.969167
5241.000000;2.972567
5240.000000;2.980032
5239.000000;2.987569
5238.000000;2.994394
5237.000000;2.998700
5236.000000;2.994179
5235.000000;2.979771
5234.000000;2.966083
5233.000000;2.962302
5232.000000;2.964925
5231.000000;2.965606
5230.000000;2.962995
5229.000000;2.959516
5228.000000;2.952720
5227.000000;2.940178
5226.000000;2.928903
5225.000000;2.928962
5224.000000;2.941579
5223.000000;2.959459
5222.000000;2.975396
5221.000000;2.985594
5220.000000;2.986961
5219.000000;2.979509
5218.000000;2.969959
5217.000000;2.965178
5216.000000;2.964397
5215.000000;2.962507
5214.000000;2.956944
5213.000000;2.947939
5212.000000;2.937200
5211.000000;2.929931
5210.000000;2.932906
5209.000000;2.946244
5208.000000;2.960446
5207.000000;2.966710
5206.000000;2.967413
5205.000000;2.969474
5204.000000;2.973726
5203.000000;2.977792
5202.000000;2.982197
5201.000000;2.986016
5200.000000;2.983823
5199.000000;2.975467
5198.000000;2.970304
5197.000000;2.974371
5196.000000;2.981374
5195.000000;2.983689
5194.000000;2.985880
5193.000000;2.994257
5192.000000;3.000948
5191.000000;2.993834
5190.000000;2.978519
5189.000000;2.971784
5188.000000;2.977766
5187.000000;2.984798
5186.000000;2.983318
5185.000000;2.976077
5184.000000;2.968439
5183.000000;2.961408
5182.000000;2.956048
5181.000000;2.956049
5180.000000;2.963613
5179.000000;2.976111
5178.000000;2.987594
5177.000000;2.992596
5176.000000;2.989594
5175.000000;2.983916
5174.000000;2.984890
5173.000000;2.994902
5172.000000;3.003684
5171.000000;3.000049
5170.000000;2.987270
5169.000000;2.976796
5168.000000;2.971563
5167.000000;2.965789
5166.000000;2.958599
5165.000000;2.957057
5164.000000;2.964028
5163.000000;2.971267
5162.000000;2.967956
5161.000000;2.953635
5160.000000;2.937730
5159.000000;2.928525
5158.000000;2.926586
5157.000000;2.926699
5156.000000;2.924913
5155.000000;2.923473
5154.000000;2.926617
5153.000000;2.932649
5152.000000;2.934979
5151.000000;2.931154
5150.000000;2.926169
5149.000000;2.925422
5148.000000;2.927932
5147.000000;2.930190
5146.000000;2.933263
5145.000000;2.939635
5144.000000;2.946549
5143.000000;2.949484
5142.000000;2.950803
5141.000000;2.957827
5140.000000;2.972814
5139.000000;2.989618
5138.000000;2.999685
5137.000000;2.999229
5136.000000;2.991190
5135.000000;2.982351
5134.000000;2.977742
5133.000000;2.975912
5132.000000;2.971030
5131.000000;2.961364
5130.000000;2.952280
5129.000000;2.949185
5128.000000;2.952429
5127.000000;2.960277
5126.000000;2.971183
5125.000000;2.980028
5124.000000;2.978421
5123.000000;2.965765
5122.000000;2.953745
5121.000000;2.953258
5120.000000;2.962672
5119.000000;2.971212
5118.000000;2.971509
5117.000000;2.965370
5116.000000;2.958421
5115.000000;2.955299
5114.000000;2.958240
5113.000000;2.965296
5112.000000;2.971487
5111.000000;2.975115
5110.000000;2.979773
5109.000000;2.985833
5108.000000;2.985839
5107.000000;2.974918
5106.000000;2.959312
5105.000000;2.948300
5104.000000;2.944509
5103.000000;2.945480
5102.000000;2.949501
5101.000000;2.955487
5100.000000;2.959536
5099.000000;2.957676
5098.000000;2.950800
5097.000000;2.942186
5096.000000;2.933469
5095.000000;2.927008
5094.000000;2.927473
5093.000000;2.934888
5092.000000;2.940384
5091.000000;2.937222
5090.000000;2.931877
5089.000000;2.933919
5088.000000;2.941224
5087.000000;2.943408
5086.000000;2.936520
5085.000000;2.926149
5084.000000;2.917872
5083.000000;2.913483
5082.000000;2.913711
5081.000000;2.917486
5080.000000;2.920540
5079.000000;2.920403
5078.000000;2.920911
5077.000000;2.925675
5076.000000;2.929504
5075.000000;2.923385
5074.000000;2.907752
5073.000000;2.894028
5072.000000;2.892874
5071.000000;2.904660
5070.000000;2.919745
5069.000000;2.926500
5068.000000;2.921437
5067.000000;2.911901
5066.000000;2.907395
5065.000000;2.909601
5064.000000;2.912415
5063.000000;2.911497
5062.000000;2.909485
5061.000000;2.908809
5060.000000;2.905415
5059.000000;2.895453
5058.000000;2.883283
5057.000000;2.875463
5056.000000;2.871474
5055.000000;2.865999
5054.000000;2.857800
5053.000000;2.851220
5052.000000;2.849563
5051.000000;2.851597
5050.000000;2.853946
5049.000000;2.853481
5048.000000;2.848893
5047.000000;2.843515
5046.000000;2.844074
5045.000000;2.853050
5044.000000;2.863510
5043.000000;2.864785
5042.000000;2.854476
5041.000000;2.839668
5040.000000;2.826313
5039.000000;2.815145
5038.000000;2.806915
5037.000000;2.805153
5036.000000;2.811645
5035.000000;2.821814
5034.000000;2.827459
5033.000000;2.823213
5032.000000;2.809945
5031.000000;2.794409
5030.000000;2.784337
5029.000000;2.782027
5028.000000;2.783146
5027.000000;2.782612
5026.000000;2.780570
5025.000000;2.779795
5024.000000;2.779145
5023.000000;2.774210
5022.000000;2.764547
5021.000000;2.755625
5020.000000;2.752105
5019.000000;2.752569
5018.000000;2.752006
5017.000000;2.747958
5016.000000;2.742680
5015.000000;2.739569
5014.000000;2.739293
5013.000000;2.739245
5012.000000;2.735950
5011.000000;2.728688
5010.000000;2.719815
5009.000000;2.710968
5008.000000;2.701762
5007.000000;2.692602
5006.000000;2.685373
5005.000000;2.680367
5004.000000;2.675256
5003.000000;2.668329
5002.000000;2.660621
5001.000000;2.653644
5000.000000;2.647168
4999.000000;2.640715
4998.000000;2.635210
4997.000000;2.630918
4996.000000;2.625347
4995.000000;2.615815
4994.000000;2.603410
4993.000000;2.592419
4992.000000;2.586571
4991.000000;2.586766
4990.000000;2.590997
4989.000000;2.595309
4988.000000;2.596112
4987.000000;2.592634
4986.000000;2.586008
4985.000000;2.576196
4984.000000;2.562464
4983.000000;2.546925
4982.000000;2.534330
4981.000000;2.527295
4980.000000;2.523804
4979.000000;2.520282
4978.000000;2.515253
4977.000000;2.508651
4976.000000;2.500018
4975.000000;2.489870
4974.000000;2.481063
4973.000000;2.476056
4972.000000;2.473367
4971.000000;2.469112
4970.000000;2.462303
4969.000000;2.455753
4968.000000;2.451638
4967.000000;2.448828
4966.000000;2.444707
4965.000000;2.438303
4964.000000;2.430645
4963.000000;2.422770
4962.000000;2.414658
4961.000000;2.406034
4960.000000;2.397299
4959.000000;2.389088
4958.000000;2.381015
4957.000000;2.371920
4956.000000;2.361975
4955.000000;2.353582
4954.000000;2.348884
4953.000000;2.346793
4952.000000;2.343948
4951.000000;2.338586
4950.000000;2.331806
4949.000000;2.324925
4948.000000;2.317986
4947.000000;2.311519
4946.000000;2.307103
4945.000000;2.304807
4944.000000;2.302027
4943.000000;2.296591
4942.000000;2.289467
4941.000000;2.282749
4940.000000;2.276486
4939.000000;2.269463
4938.000000;2.261943
4937.000000;2.255432
4936.000000;2.250215
4935.000000;2.245189
4934.000000;2.239824
4933.000000;2.234586
4932.000000;2.229424
4931.000000;2.223385
4930.000000;2.216085
4929.000000;2.208468
4928.000000;2.201666
4927.000000;2.195960
4926.000000;2.191087
4925.000000;2.186781
4924.000000;2.182632
4923.000000;2.177892
4922.000000;2.171844
4921.000000;2.164262
4920.000000;2.155451
4919.000000;2.146047
4918.000000;2.136893
4917.000000;2.128907
4916.000000;2.122858
4915.000000;2.118975
4914.000000;2.116420
4913.000000;2.113375
4912.000000;2.108417
4911.000000;2.101986
4910.000000;2.095778
4909.000000;2.090624
4908.000000;2.085815
4907.000000;2.080600
4906.000000;2.075187
4905.000000;2.069639
4904.000000;2.063048
4903.000000;2.055026
4902.000000;2.047164
4901.000000;2.041540
4900.000000;2.038108
4899.000000;2.034726
4898.000000;2.029785
4897.000000;2.023853
4896.000000;2.018475
4895.000000;2.014336
4894.000000;2.010951
4893.000000;2.007449
4892.000000;2.003259
4891.000000;1.998369
4890.000000;1.993185
4889.000000;1.987960
4888.000000;1.982371
4887.000000;1.976023
4886.000000;1.969316
4885.000000;1.963315
4884.000000;1.958634
4883.000000;1.954852
4882.000000;1.951141
4881.000000;1.947111
4880.000000;1.942850
4879.000000;1.938475
4878.000000;1.933962
4877.000000;1.929300
4876.000000;1.924500
4875.000000;1.919454
4874.000000;1.914010
4873.000000;1.908294
4872.000000;1.902848
4871.000000;1.898221
4870.000000;1.894342
4869.000000;1.890454
4868.000000;1.885908
4867.000000;1.880925
4866.000000;1.876259
4865.000000;1.872085
4864.000000;1.867658
4863.000000;1.862276
4862.000000;1.856272
4861.000000;1.850726
4860.000000;1.846383
4859.000000;1.843039
4858.000000;1.839796
4857.000000;1.835734
4856.000000;1.830566
4855.000000;1.824956
4854.000000;1.820080
4853.000000;1.816582
4852.000000;1.813925
4851.000000;1.810832
4850.000000;1.806426
4849.000000;1.800863
4848.000000;1.794973
4847.000000;1.789537
4846.000000;1.784864
4845.000000;1.780832
4844.000000;1.777168
4843.000000;1.773652
4842.000000;1.770030
4841.000000;1.765901
4840.000000;1.761029
4839.000000;1.755766
4838.000000;1.750894
4837.000000;1.746876
4836.000000;1.743441
4835.000000;1.739999
4834.000000;1.736268
4833.000000;1.732362
4832.000000;1.728470
4831.000000;1.724624
4830.000000;1.720697
4829.000000;1.716479
4828.000000;1.711889
4827.000000;1.707214
4826.000000;1.702987
4825.000000;1.699471
4824.000000;1.696357
4823.000000;1.693084
4822.000000;1.689321
4821.000000;1.685075
4820.000000;1.680558
4819.000000;1.676111
4818.000000;1.672081
4817.000000;1.668533
4816.000000;1.665167
4815.000000;1.661659
4814.000000;1.657991
4813.000000;1.654309
4812.000000;1.650631
4811.000000;1.646861
4810.000000;1.642987
4809.000000;1.639113
4808.000000;1.635270
4807.000000;1.631452
4806.000000;1.627678
4805.000000;1.623987
4804.000000;1.620374
4803.000000;1.616827
4802.000000;1.613318
4801.000000;1.609687
4800.000000;1.605678
4799.000000;1.601312
4798.000000;1.597047
4797.000000;1.593338
4796.000000;1.590109
4795.000000;1.586865
4794.000000;1.583278
4793.000000;1.579479
4792.000000;1.575784
4791.000000;1.572328
4790.000000;1.569026
4789.000000;1.565729
4788.000000;1.562376
4787.000000;1.559033
4786.000000;1.555793
4785.000000;1.552626
4784.000000;1.549358
4783.000000;1.545870
4782.000000;1.542246
4781.000000;1.538635
4780.000000;1.535034
4779.000000;1.531332
4778.000000;1.527518
4777.000000;1.523730
4776.000000;1.520087
4775.000000;1.516577
4774.000000;1.513115
4773.000000;1.509658
4772.000000;1.506260
4771.000000;1.503051
4770.000000;1.500097
4769.000000;1.497248
4768.000000;1.494189
4767.000000;1.490727
4766.000000;1.486986
4765.000000;1.483264
4764.000000;1.479792
4763.000000;1.476667
4762.000000;1.473868
4761.000000;1.471196
4760.000000;1.468298
4759.000000;1.464986
4758.000000;1.461494
4757.000000;1.458226
4756.000000;1.455266
4755.000000;1.452307
4754.000000;1.449103
4753.000000;1.445788
4752.000000;1.442650
4751.000000;1.439760
4750.000000;1.436984
4749.000000;1.434233
4748.000000;1.431485
4747.000000;1.428614
4746.000000;1.425429
4745.000000;1.421984
4744.000000;1.418673
4743.000000;1.415854
4742.000000;1.413444
4741.000000;1.411036
4740.000000;1.408363
4739.000000;1.405506
4738.000000;1.402653
4737.000000;1.399855
4736.000000;1.397070
4735.000000;1.394287
4734.000000;1.391491
4733.000000;1.388623
4732.000000;1.385687
4731.000000;1.382817
4730.000000;1.380098
4729.000000;1.377455
4728.000000;1.374843
4727.000000;1.372433
4726.000000;1.370388
4725.000000;1.368516
4724.000000;1.366366
4723.000000;1.363713
4722.000000;1.360729
4721.000000;1.357699
4720.000000;1.354765
4719.000000;1.352018
4718.000000;1.349553
4717.000000;1.347305
4716.000000;1.344962
4715.000000;1.342251
4714.000000;1.339234
4713.000000;1.336230
4712.000000;1.333508
4711.000000;1.331138
4710.000000;1.329053
4709.000000;1.327091
4708.000000;1.325012
4707.000000;1.322601
4706.000000;1.319846
4705.000000;1.316992
4704.000000;1.314416
4703.000000;1.312358
4702.000000;1.310700
4701.000000;1.309023
4700.000000;1.306991
4699.000000;1.304689
4698.000000;1.302468
4697.000000;1.300468
4696.000000;1.298436
4695.000000;1.296080
4694.000000;1.293453
4693.000000;1.290883
4692.000000;1.288630
4691.000000;1.286704
4690.000000;1.284935
4689.000000;1.283116
4688.000000;1.281101
4687.000000;1.278896
4686.000000;1.276641
4685.000000;1.274499
4684.000000;1.272554
4683.000000;1.270791
4682.000000;1.269095
4681.000000;1.267271
4680.000000;1.265184
4679.000000;1.262934
4678.000000;1.260781
4677.000000;1.258856
4676.000000;1.257029
4675.000000;1.255123
4674.000000;1.253158
4673.000000;1.251306
4672.000000;1.249678
4671.000000;1.248225
4670.000000;1.246766
4669.000000;1.245075
4668.000000;1.243051
4667.000000;1.240864
4666.000000;1.238852
4665.000000;1.237178
4664.000000;1.235672
4663.000000;1.234088
4662.000000;1.232396
4661.000000;1.230732
4660.000000;1.229158
4659.000000;1.227608
4658.000000;1.226028
4657.000000;1.224408
4656.000000;1.222736
4655.000000;1.221016
4654.000000;1.219319
4653.000000;1.217701
4652.000000;1.216108
4651.000000;1.214450
4650.000000;1.212758
4649.000000;1.211129
4648.000000;1.209562
4647.000000;1.207948
4646.000000;1.206235
4645.000000;1.204475
4644.000000;1.202708
4643.000000;1.200921
4642.000000;1.199156
4641.000000;1.197556
4640.000000;1.196214
4639.000000;1.195055
4638.000000;1.193893
4637.000000;1.192597
4636.000000;1.191159
4635.000000;1.189650
4634.000000;1.188156
4633.000000;1.186762
4632.000000;1.185531
4631.000000;1.184459
4630.000000;1.183430
4629.000000;1.182274
4628.000000;1.180915
4627.000000;1.179461
4626.000000;1.178076
4625.000000;1.176798
4624.000000;1.175531
4623.000000;1.174220
4622.000000;1.172918
4621.000000;1.171666
4620.000000;1.170417
4619.000000;1.169137
4618.000000;1.167873
4617.000000;1.166646
4616.000000;1.165400
4615.000000;1.164149
4614.000000;1.163071
4613.000000;1.162290
4612.000000;1.161631
4611.000000;1.160738
4610.000000;1.159446
4609.000000;1.157895
4608.000000;1.156292
4607.000000;1.154717
4606.000000;1.153196
4605.000000;1.151814
4604.000000;1.150669
4603.000000;1.149771
4602.000000;1.149058
4601.000000;1.148451
4600.000000;1.147843
4599.000000;1.147092
4598.000000;1.146095
4597.000000;1.144882
4596.000000;1.143621
4595.000000;1.142517
4594.000000;1.141673
4593.000000;1.141015
4592.000000;1.140343
4591.000000;1.139512
4590.000000;1.138568
4589.000000;1.137670
4588.000000;1.136882
4587.000000;1.136103
4586.000000;1.135209
4585.000000;1.134224
4584.000000;1.133297
4583.000000;1.132545
4582.000000;1.131926
4581.000000;1.131273
4580.000000;1.130444
4579.000000;1.129431
4578.000000;1.128347
4577.000000;1.127321
4576.000000;1.126425
4575.000000;1.125692
4574.000000;1.125123
4573.000000;1.124642
4572.000000;1.124109
4571.000000;1.123445
4570.000000;1.122724
4569.000000;1.122079
4568.000000;1.121529
4567.000000;1.120968
4566.000000;1.120344
4565.000000;1.119757
4564.000000;1.119344
4563.000000;1.119084
4562.000000;1.118756
4561.000000;1.118099
4560.000000;1.117039
4559.000000;1.115784
4558.000000;1.114671
4557.000000;1.113903
4556.000000;1.113401
4555.000000;1.112940
4554.000000;1.112397
4553.000000;1.111827
4552.000000;1.111322
4551.000000;1.110864
4550.000000;1.110348
4549.000000;1.109720
4548.000000;1.109052
4547.000000;1.108487
4546.000000;1.108121
4545.000000;1.107920
4544.000000;1.107728
4543.000000;1.107359
4542.000000;1.106720
4541.000000;1.105893
4540.000000;1.105097
4539.000000;1.104529
4538.000000;1.104225
4537.000000;1.104050
4536.000000;1.103838
4535.000000;1.103502
4534.000000;1.103032
4533.000000;1.102447
4532.000000;1.101810
4531.000000;1.101256
4530.000000;1.100890
4529.000000;1.100660
4528.000000;1.100417
4527.000000;1.100104
4526.000000;1.099836
4525.000000;1.099732
4524.000000;1.099763
4523.000000;1.099797
4522.000000;1.099747
4521.000000;1.099610
4520.000000;1.099399
4519.000000;1.099118
4518.000000;1.098798
4517.000000;1.098506
4516.000000;1.098300
4515.000000;1.098186
4514.000000;1.098111
4513.000000;1.098001
4512.000000;1.097834
4511.000000;1.097699
4510.000000;1.097721
4509.000000;1.097920
4508.000000;1.098157
4507.000000;1.098253
4506.000000;1.098140
4505.000000;1.097904
4504.000000;1.097699
4503.000000;1.097640
4502.000000;1.097728
4501.000000;1.097874
4500.000000;1.098014
4499.000000;1.098201
4498.000000;1.098523
4497.000000;1.098949
4496.000000;1.099319
4495.000000;1.099507
4494.000000;1.099510
4493.000000;1.099383
4492.000000;1.099173
4491.000000;1.098937
4490.000000;1.098744
4489.000000;1.098626
4488.000000;1.098593
4487.000000;1.098730
4486.000000;1.099152
4485.000000;1.099826
4484.000000;1.100543
4483.000000;1.101122
4482.000000;1.101568
4481.000000;1.101943
4480.000000;1.102236
4479.000000;1.102458
4478.000000;1.102766
4477.000000;1.103320
4476.000000;1.104069
4475.000000;1.104802
4474.000000;1.105399
4473.000000;1.105911
4472.000000;1.106413
4471.000000;1.106909
4470.000000;1.107377
4469.000000;1.107837
4468.000000;1.108357
4467.000000;1.109021
4466.000000;1.109849
4465.000000;1.110707
4464.000000;1.111374
4463.000000;1.111791
4462.000000;1.112172
4461.000000;1.112776
4460.000000;1.113629
4459.000000;1.114594
4458.000000;1.115612
4457.000000;1.116712
4456.000000;1.117819
4455.000000;1.118785
4454.000000;1.119612
4453.000000;1.120500
4452.000000;1.121602
4451.000000;1.122866
4450.000000;1.124166
4449.000000;1.125461
4448.000000;1.126765
4447.000000;1.128074
4446.000000;1.129395
4445.000000;1.130759
4444.000000;1.132145
4443.000000;1.133446
4442.000000;1.134597
4441.000000;1.135681
4440.000000;1.136871
4439.000000;1.138280
4438.000000;1.139887
4437.000000;1.141591
4436.000000;1.143322
4435.000000;1.145112
4434.000000;1.147035
4433.000000;1.149038
4432.000000;1.150919
4431.000000;1.152573
4430.000000;1.154181
4429.000000;1.156023
4428.000000;1.158101
4427.000000;1.160133
4426.000000;1.161942
4425.000000;1.163691
4424.000000;1.165644
4423.000000;1.167817
4422.000000;1.169984
4421.000000;1.171972
4420.000000;1.173859
4419.000000;1.175913
4418.000000;1.178374
4417.000000;1.181236
4416.000000;1.184169
4415.000000;1.186743
4414.000000;1.188814
4413.000000;1.190658
4412.000000;1.192676
4411.000000;1.195023
4410.000000;1.197592
4409.000000;1.200276
4408.000000;1.203073
4407.000000;1.205919
4406.000000;1.208576
4405.000000;1.210815
4404.000000;1.212715
4403.000000;1.214675
4402.000000;1.217089
4401.000000;1.220040
4400.000000;1.223300
4399.000000;1.226524
4398.000000;1.229396
4397.000000;1.231713
4396.000000;1.233548
4395.000000;1.235346
4394.000000;1.237634
4393.000000;1.240497
4392.000000;1.243459
4391.000000;1.246033
4390.000000;1.248302
4389.000000;1.250762
4388.000000;1.253666
4387.000000;1.256730
4386.000000;1.259551
4385.000000;1.262078
4384.000000;1.264572
4383.000000;1.267192
4382.000000;1.269834
4381.000000;1.272380
4380.000000;1.274964
4379.000000;1.277880
4378.000000;1.281202
4377.000000;1.284579
4376.000000;1.287504
4375.000000;1.289769
4374.000000;1.291608
4373.000000;1.293406
4372.000000;1.295412
4371.000000;1.297732
4370.000000;1.300403
4369.000000;1.303317
4368.000000;1.306208
4367.000000;1.308860
4366.000000;1.311269
4365.000000;1.313520
4364.000000;1.315600
4363.000000;1.317459
4362.000000;1.319191
4361.000000;1.321012
4360.000000;1.323119
4359.000000;1.325617
4358.000000;1.328521
4357.000000;1.331711
4356.000000;1.335038
4355.000000;1.338519
4354.000000;1.342259
4353.000000;1.346040
4352.000000;1.349242
4351.000000;1.351472
4350.000000;1.353118
4349.000000;1.355011
4348.000000;1.357578
4347.000000;1.360579
4346.000000;1.363529
4345.000000;1.366078
4344.000000;1.368095
4343.000000;1.369772
4342.000000;1.371656
4341.000000;1.374181
4340.000000;1.377086
4339.000000;1.379608
4338.000000;1.381422
4337.000000;1.383089
4336.000000;1.385375
4335.000000;1.388345
4334.000000;1.391312
4333.000000;1.393585
4332.000000;1.395134
4331.000000;1.396586
4330.000000;1.398652
4329.000000;1.401442
4328.000000;1.404316
4327.000000;1.406489
4326.000000;1.407868
4325.000000;1.409178
4324.000000;1.411241
4323.000000;1.414264
4322.000000;1.417790
4321.000000;1.421191
4320.000000;1.424215
4319.000000;1.427114
4318.000000;1.430269
4317.000000;1.433694
4316.000000;1.437025
4315.000000;1.439986
4314.000000;1.442595
4313.000000;1.444794
4312.000000;1.446326
4311.000000;1.447399
4310.000000;1.449085
4309.000000;1.452397
4308.000000;1.457032
4307.000000;1.461573
4306.000000;1.465008
4305.000000;1.467537
4304.000000;1.469839
4303.000000;1.472251
4302.000000;1.474904
4301.000000;1.478051
4300.000000;1.481778
4299.000000;1.485686
4298.000000;1.489281
4297.000000;1.492497
4296.000000;1.495616
4295.000000;1.498903
4294.000000;1.502476
4293.000000;1.506219
4292.000000;1.509689
4291.000000;1.512479
4290.000000;1.514884
4289.000000;1.517785
4288.000000;1.521588
4287.000000;1.525690
4286.000000;1.529393
4285.000000;1.532999
4284.000000;1.537425
4283.000000;1.542859
4282.000000;1.548283
4281.000000;1.552408
4280.000000;1.554949
4279.000000;1.557057
4278.000000;1.560595
4277.000000;1.566705
4276.000000;1.574678
4275.000000;1.582319
4274.000000;1.587807
4273.000000;1.591084
4272.000000;1.593432
4271.000000;1.596257
4270.000000;1.600244
4269.000000;1.605094
4268.000000;1.609897
4267.000000;1.614165
4266.000000;1.618716
4265.000000;1.624756
4264.000000;1.631579
4263.000000;1.636389
4262.000000;1.637758
4261.000000;1.638172
4260.000000;1.641135
4259.000000;1.646563
4258.000000;1.651191
4257.000000;1.653559
4256.000000;1.656183
4255.000000;1.661672
4254.000000;1.668950
4253.000000;1.674987
4252.000000;1.678878
4251.000000;1.682187
4250.000000;1.686106
4249.000000;1.690565
4248.000000;1.695914
4247.000000;1.703102
4246.000000;1.711964
4245.000000;1.720855
4244.000000;1.728596
4243.000000;1.735389
4242.000000;1.741342
4241.000000;1.745832
4240.000000;1.749020
4239.000000;1.752405
4238.000000;1.757051
4237.000000;1.762483
4236.000000;1.767935
4235.000000;1.773497
4234.000000;1.779022
4233.000000;1.783214
4232.000000;1.785354
4231.000000;1.786741
4230.000000;1.789165
4229.000000;1.793254
4228.000000;1.799323
4227.000000;1.808243
4226.000000;1.819786
4225.000000;1.831196
4224.000000;1.839512
4223.000000;1.844811
4222.000000;1.848792
4221.000000;1.850922
4220.000000;1.849310
4219.000000;1.845398
4218.000000;1.844218
4217.000000;1.849303
4216.000000;1.859931
4215.000000;1.873615
4214.000000;1.888690
4213.000000;1.902994
4212.000000;1.912873
4211.000000;1.916484
4210.000000;1.916386
4209.000000;1.917201
4208.000000;1.921874
4207.000000;1.930142
4206.000000;1.939953
4205.000000;1.949397
4204.000000;1.956806
4203.000000;1.961108
4202.000000;1.963623
4201.000000;1.968002
4200.000000;1.977378
4199.000000;1.991496
4198.000000;2.005634
4197.000000;2.013295
4196.000000;2.012945
4195.000000;2.010548
4194.000000;2.012043
4193.000000;2.014966
4192.000000;2.010816
4191.000000;1.996881
4190.000000;1.982043
4189.000000;1.978714
4188.000000;1.992469
4187.000000;2.018581
4186.000000;2.044921
4185.000000;2.059782
4184.000000;2.061295
4183.000000;2.058916
4182.000000;2.063259
4181.000000;2.075966
4180.000000;2.090403
4179.000000;2.100667
4178.000000;2.106871
4177.000000;2.111662
4176.000000;2.116892
4175.000000;2.125904
4174.000000;2.142200
4173.000000;2.161782
4172.000000;2.174122
4171.000000;2.175139
4170.000000;2.170288
4169.000000;2.167616
4168.000000;2.173200
4167.000000;2.184827
4166.000000;2.192574
4165.000000;2.191427
4164.000000;2.188016
4163.000000;2.191383
4162.000000;2.203118
4161.000000;2.218675
4160.000000;2.235023
4159.000000;2.249653
4158.000000;2.250460
4157.000000;2.225966
4156.000000;2.187939
4155.000000;2.161696
4154.000000;2.162893
4153.000000;2.187418
4152.000000;2.216810
4151.000000;2.238502
4150.000000;2.257405
4149.000000;2.280442
4148.000000;2.300928
4147.000000;2.303543
4146.000000;2.281042
4145.000000;2.238897
4144.000000;2.189512
4143.000000;2.153099
4142.000000;2.151323
4141.000000;2.190294
4140.000000;2.249134
4139.000000;2.293918
4138.000000;2.312594
4137.000000;2.313654
4136.000000;2.300166
4135.000000;2.273454
4134.000000;2.250781
4133.000000;2.252049
4132.000000;2.275679
4131.000000;2.301391
4130.000000;2.311679
4129.000000;2.307722
4128.000000;2.309366
4127.000000;2.335002
4126.000000;2.373845
4125.000000;2.384989
4124.000000;2.352136
4123.000000;2.302351
4122.000000;2.278155
4121.000000;2.302962
4120.000000;2.359116
4119.000000;2.401927
4118.000000;2.411520
4117.000000;2.418156
4116.000000;2.444861
4115.000000;2.477789
4114.000000;2.499219
4113.000000;2.511991
4112.000000;2.498909
4111.000000;2.421223
4110.000000;2.307745
4109.000000;2.237639
4108.000000;2.263020
4107.000000;2.399478
4106.000000;2.617979
4105.000000;2.777157
4104.000000;2.699771
4103.000000;2.527859
4102.000000;2.403167
4101.000000;2.341161
4100.000000;2.347764
4099.000000;2.434072
4098.000000;2.595533
4097.000000;2.753449
4096.000000;2.749269
4095.000000;2.647224
4094.000000;2.586827
4093.000000;2.570807
4092.000000;2.554146
4091.000000;2.495503
4090.000000;2.390651
4089.000000;2.309801
4088.000000;2.287346
4087.000000;2.316082
4086.000000;2.381906
4085.000000;2.467337
4084.000000;2.552604
4083.000000;2.644989
4082.000000;2.750704
4081.000000;2.930563
4080.000000;2.917765
4079.000000;2.552374
4078.000000;2.340382
4077.000000;2.262302
4076.000000;2.296744
4075.000000;2.417273
4074.000000;2.561809
4073.000000;2.562707
4072.000000;2.383460
4071.000000;2.254103
4070.000000;2.251062
4069.000000;2.340253
4068.000000;2.411638
4067.000000;2.388578
4066.000000;2.331870
4065.000000;2.292444
4064.000000;2.275357
4063.000000;2.272406
4062.000000;2.281932
4061.000000;2.294401
4060.000000;2.289880
4059.000000;2.277980
4058.000000;2.292156
4057.000000;2.327773
4056.000000;2.338940
4055.000000;2.304540
4054.000000;2.260571
4053.000000;2.253748
4052.000000;2.302450
4051.000000;2.375831
4050.000000;2.460265
4049.000000;2.599487
4048.000000;2.768389
4047.000000;2.947109
4046.000000;3.304115
4045.000000;3.155748
4044.000000;2.851245
4043.000000;3.187436
4042.000000;2.810862
4041.000000;2.394904
4040.000000;2.211134
4039.000000;2.115274
4038.000000;2.083418
4037.000000;2.122279
4036.000000;2.248163
4035.000000;2.451042
4034.000000;2.565567
4033.000000;2.422016
4032.000000;2.249796
4031.000000;2.159747
4030.000000;2.170732
4029.000000;2.264108
4028.000000;2.377872
4027.000000;2.472338
4026.000000;2.550812
4025.000000;2.544554
4024.000000;2.429653
4023.000000;2.268056
4022.000000;2.139838
4021.000000;2.079150
4020.000000;2.075154
4019.000000;2.113330
4018.000000;2.196833
4017.000000;2.302506
4016.000000;2.299759
4015.000000;2.249724
4014.000000;2.282404
4013.000000;2.412163
4012.000000;2.634189
4011.000000;2.642362
4010.000000;2.452839
4009.000000;2.324705
4008.000000;2.246715
4007.000000;2.223758
4006.000000;2.257524
4005.000000;2.316811
4004.000000;2.384498
4003.000000;2.471277
4002.000000;2.500470
4001.000000;2.437350
4000.000000;2.384862
3999.000000;2.393847
3998.000000;2.479209
3997.000000;2.766769
3996.000000;3.252599
3995.000000;2.898290
3994.000000;2.768426
3993.000000;3.090820
3992.000000;3.308549
3991.000000;3.103954
3990.000000;3.092757
3989.000000;2.941919
3988.000000;2.796080
3987.000000;2.678439
3986.000000;2.484088
3985.000000;2.331453
3984.000000;2.296206
3983.000000;2.371913
3982.000000;2.518722
3981.000000;2.702889
3980.000000;2.929433
3979.000000;3.172055
3978.000000;3.288083
3977.000000;2.973982
3976.000000;2.898289
3975.000000;2.681762
3974.000000;2.463067
3973.000000;2.369985
3972.000000;2.315307
3971.000000;2.255614
3970.000000;2.209420
3969.000000;2.216045
3968.000000;2.279315
3967.000000;2.364864
3966.000000;2.450189
3965.000000;2.541234
3964.000000;2.602694
3963.000000;2.546375
3962.000000;2.459809
3961.000000;2.468042
3960.000000;2.576179
3959.000000;2.596554
3958.000000;2.547690
3957.000000;2.579864
3956.000000;2.696911
3955.000000;2.779326
3954.000000;2.681488
3953.000000;2.549032
3952.000000;2.605915
3951.000000;3.026538
3950.000000;2.837691
3949.000000;2.547529
3948.000000;2.549856
3947.000000;2.632392
3946.000000;2.575800
3945.000000;2.414244
3944.000000;2.339033
3943.000000;2.340895
3942.000000;2.359665
3941.000000;2.356271
3940.000000;2.376227
3939.000000;2.496152
3938.000000;2.758279
3937.000000;2.590844
3936.000000;2.377545
3935.000000;2.406670
3934.000000;2.630241
3933.000000;2.873322
3932.000000;2.646058
3931.000000;2.486196
3930.000000;2.465773
3929.000000;2.585428
3928.000000;2.954571
3927.000000;3.285414
3926.000000;3.203991
3925.000000;3.321516
3924.000000;2.838118
3923.000000;2.550002
3922.000000;2.396760
3921.000000;2.303527
3920.000000;2.239895
3919.000000;2.242547
3918.000000;2.321579
3917.000000;2.457392
3916.000000;2.631180
3915.000000;2.760377
3914.000000;2.788747
3913.000000;2.696226
3912.000000;2.555696
3911.000000;2.469540
3910.000000;2.436777
3909.000000;2.459393
3908.000000;2.361457
3907.000000;2.114430
3906.000000;1.990385
3905.000000;1.989399
3904.000000;2.062499
3903.000000;2.139960
3902.000000;2.940110
3901.000000;3.068593
3900.000000;2.813725
3899.000000;2.844019
3898.000000;2.995969
3897.000000;3.170711
3896.000000;3.474727
3895.000000;3.241151
3894.000000;2.828998
3893.000000;2.689390
3892.000000;2.700543
3891.000000;2.880437
3890.000000;2.861735
3889.000000;2.651355
3888.000000;2.608569
3887.000000;2.889545
3886.000000;3.289106
3885.000000;2.899445
3884.000000;2.828817
3883.000000;3.090727
3882.000000;3.226986
3881.000000;2.800147
3880.000000;2.581477
3879.000000;2.522088
3878.000000;2.593169
3877.000000;2.832797
3876.000000;3.181972
3875.000000;3.235588
3874.000000;3.783373
3873.000000;3.081378
3872.000000;2.964403
3871.000000;3.036939
3870.000000;2.764658
3869.000000;2.565089
3868.000000;2.552351
3867.000000;2.733502
3866.000000;3.192426
3865.000000;3.911216
3864.000000;3.385252
3863.000000;2.987870
3862.000000;2.852847
3861.000000;2.855470
3860.000000;2.825661
3859.000000;2.701503
3858.000000;2.651502
3857.000000;2.813225
3856.000000;3.333445
3855.000000;3.043192
3854.000000;2.997673
3853.000000;3.485197
3852.000000;2.858210
3851.000000;2.574449
3850.000000;2.489926
3849.000000;2.540220
3848.000000;2.739443
3847.000000;3.112130
3846.000000;3.803705
3845.000000;3.108862
3844.000000;2.873353
3843.000000;2.757100
3842.000000;2.711784
3841.000000;2.734635
3840.000000;2.733864
3839.000000;2.638127
3838.000000;2.627877
3837.000000;2.772676
3836.000000;3.220273
3835.000000;3.506976
3834.000000;3.082837
3833.000000;2.959119
3832.000000;2.866849
3831.000000;2.805445
3830.000000;2.708109
3829.000000;2.597709
3828.000000;2.545513
3827.000000;2.579958
3826.000000;2.709161
3825.000000;2.930452
3824.000000;3.619061
3823.000000;3.196319
3822.000000;2.889606
3821.000000;2.776595
3820.000000;2.713969
3819.000000;2.666239
3818.000000;2.629702
3817.000000;2.588884
3816.000000;2.586697
3815.000000;2.714305
3814.000000;3.096562
3813.000000;3.581051
3812.000000;3.168187
3811.000000;2.889388
3810.000000;2.625621
3809.000000;2.470183
3808.000000;2.414976
3807.000000;2.434710
3806.000000;2.473543
3805.000000;2.516815
3804.000000;2.645176
3803.000000;2.821137
3802.000000;2.711599
3801.000000;2.640757
3800.000000;2.781699
3799.000000;2.965731
3798.000000;2.892242
3797.000000;2.752902
3796.000000;2.652032
3795.000000;2.603803
3794.000000;2.603720
3793.000000;2.604023
3792.000000;2.557666
3791.000000;2.482913
3790.000000;2.437504
3789.000000;2.471025
3788.000000;2.613065
3787.000000;2.661843
3786.000000;2.698315
3785.000000;2.615196
3784.000000;2.479155
3783.000000;2.442599
3782.000000;2.609727
3781.000000;2.868473
3780.000000;3.000818
3779.000000;2.689514
3778.000000;2.522375
3777.000000;2.498166
3776.000000;2.578160
3775.000000;2.654948
3774.000000;2.659199
3773.000000;2.680563
3772.000000;3.086101
3771.000000;3.044575
3770.000000;2.643674
3769.000000;2.558178
3768.000000;2.576273
3767.000000;2.592118
3766.000000;2.616079
3765.000000;2.679009
3764.000000;2.726859
3763.000000;2.761805
3762.000000;2.757666
3761.000000;2.620415
3760.000000;2.533098
3759.000000;2.540477
3758.000000;2.583058
3757.000000;2.615797
3756.000000;2.637295
3755.000000;2.658558
3754.000000;2.731134
3753.000000;2.929289
3752.000000;3.618080
3751.000000;4.000345
3750.000000;3.486907
3749.000000;3.465943
3748.000000;3.393359
3747.000000;3.125811
3746.000000;3.030690
3745.000000;3.150146
3744.000000;3.189547
3743.000000;3.241032
3742.000000;3.095503
3741.000000;2.944379
3740.000000;2.910848
3739.000000;2.910234
3738.000000;2.927941
3737.000000;3.018766
3736.000000;3.187786
3735.000000;3.272768
3734.000000;3.183601
3733.000000;3.094191
3732.000000;3.352239
3731.000000;3.614859
3730.000000;3.093198
3729.000000;3.135145
3728.000000;3.447511
3727.000000;3.808108
3726.000000;3.539874
3725.000000;3.375345
3724.000000;3.760922
3723.000000;3.848473
3722.000000;3.324817
3721.000000;3.085387
3720.000000;2.995395
3719.000000;3.117615
3718.000000;3.097350
3717.000000;2.912403
3716.000000;2.869329
3715.000000;2.921784
3714.000000;3.078003
3713.000000;3.307295
3712.000000;2.927159
3711.000000;2.758980
3710.000000;2.765862
3709.000000;2.931370
3708.000000;3.182752
3707.000000;3.028063
3706.000000;2.900892
3705.000000;2.915697
3704.000000;2.984549
3703.000000;3.085335
3702.000000;3.337594
3701.000000;3.455961
3700.000000;3.276496
3699.000000;3.076241
3698.000000;2.795756
3697.000000;2.619469
3696.000000;2.549328
3695.000000;2.547422
3694.000000;2.584356
3693.000000;2.674847
3692.000000;2.896113
3691.000000;3.429400
3690.000000;2.940369
3689.000000;2.722343
3688.000000;2.688576
3687.000000;2.658529
3686.000000;2.633410
3685.000000;2.670820
3684.000000;2.811230
3683.000000;2.994042
3682.000000;3.081538
3681.000000;3.251161
3680.000000;3.155598
3679.000000;2.861462
3678.000000;2.791847
3677.000000;2.837797
3676.000000;2.971703
3675.000000;3.075417
3674.000000;2.949284
3673.000000;2.911621
3672.000000;3.227993
3671.000000;3.174137
3670.000000;2.893588
3669.000000;2.850553
3668.000000;2.774997
3667.000000;2.627328
3666.000000;2.478309
3665.000000;2.378467
3664.000000;2.345029
3663.000000;2.395997
3662.000000;2.547194
3661.000000;2.786582
3660.000000;2.998974
3659.000000;3.004752
3658.000000;2.766395
3657.000000;2.608719
3656.000000;2.549405
3655.000000;2.505194
3654.000000;2.458791
3653.000000;2.466133
3652.000000;2.572931
3651.000000;2.795618
3650.000000;2.971545
3649.000000;2.905837
3648.000000;2.875500
3647.000000;3.024707
3646.000000;3.580980
3645.000000;3.454073
3644.000000;3.252386
3643.000000;3.424715
3642.000000;3.158653
3641.000000;3.111069
3640.000000;2.970178
3639.000000;2.645121
3638.000000;2.454560
3637.000000;2.372215
3636.000000;2.377233
3635.000000;2.478624
3634.000000;2.641511
3633.000000;2.632773
3632.000000;2.532820
3631.000000;2.523108
3630.000000;2.619180
3629.000000;2.810151
3628.000000;2.909176
3627.000000;2.830084
3626.000000;2.801657
3625.000000;2.750531
3624.000000;2.649972
3623.000000;2.603667
3622.000000;2.640661
3621.000000;2.765549
3620.000000;2.950284
3619.000000;2.862542
3618.000000;2.667635
3617.000000;2.621608
3616.000000;2.704228
3615.000000;2.853811
3614.000000;2.851091
3613.000000;3.066975
3612.000000;3.214256
3611.000000;3.020333
3610.000000;2.403219
3609.000000;2.598985
3608.000000;2.815294
3607.000000;3.035257
3606.000000;3.256164
3605.000000;2.763115
3604.000000;2.592194
3603.000000;2.605790
3602.000000;2.810109
3601.000000;2.801302
3600.000000;2.526028
3599.000000;2.408513
3598.000000;2.409313
3597.000000;2.517561
3596.000000;2.822026
3595.000000;3.324956
3594.000000;2.937829
3593.000000;2.659490
3592.000000;2.506731
3591.000000;2.372373
3590.000000;2.344235
3589.000000;2.515326
3588.000000;2.636649
3587.000000;2.478286
3586.000000;2.384631
3585.000000;2.389514
3584.000000;2.448193
3583.000000;2.573964
3582.000000;2.803993
3581.000000;3.242076
3580.000000;3.320588
3579.000000;2.840199
3578.000000;2.589604
3577.000000;2.484582
3576.000000;2.491044
3575.000000;2.614505
3574.000000;2.789887
3573.000000;2.670522
3572.000000;2.499161
3571.000000;2.509109
3570.000000;2.882251
3569.000000;2.935626
3568.000000;2.592226
3567.000000;2.550400
3566.000000;2.577145
3565.000000;2.711322
3564.000000;2.962926
3563.000000;3.184774
3562.000000;3.060025
3561.000000;2.885032
3560.000000;2.779435
3559.000000;2.734267
3558.000000;2.725033
3557.000000;2.627186
3556.000000;2.502109
3555.000000;2.472853
3554.000000;2.558129
3553.000000;2.729548
3552.000000;2.776809
3551.000000;2.618342
3550.000000;2.522425
3549.000000;2.530995
3548.000000;2.616558
3547.000000;2.738480
3546.000000;2.848062
3545.000000;2.908609
3544.000000;2.939632
3543.000000;2.921230
3542.000000;2.792453
3541.000000;2.696328
3540.000000;2.696813
3539.000000;2.715173
3538.000000;2.725275
3537.000000;2.810280
3536.000000;3.084268
3535.000000;3.546020
3534.000000;3.693140
3533.000000;3.295219
3532.000000;2.873621
3531.000000;2.669598
3530.000000;2.611954
3529.000000;2.643185
3528.000000;2.727625
3527.000000;2.824816
3526.000000;2.917032
3525.000000;3.070533
3524.000000;3.328685
3523.000000;3.011003
3522.000000;2.644918
3521.000000;2.484075
3520.000000;2.498808
3519.000000;2.630508
3518.000000;2.717035
3517.000000;2.717731
3516.000000;2.793938
3515.000000;2.852722
3514.000000;2.708388
3513.000000;2.629960
3512.000000;2.724607
3511.000000;3.023192
3510.000000;3.358985
3509.000000;3.206651
3508.000000;3.251262
3507.000000;3.405188
3506.000000;2.964206
3505.000000;2.728217
3504.000000;2.675570
3503.000000;2.715092
3502.000000;2.826610
3501.000000;3.005409
3500.000000;3.306054
3499.000000;3.318704
3498.000000;2.947883
3497.000000;2.794501
3496.000000;2.819686
3495.000000;3.019891
3494.000000;3.534084
3493.000000;3.704959
3492.000000;3.008814
3491.000000;2.673334
3490.000000;2.533601
3489.000000;2.536229
3488.000000;2.635398
3487.000000;2.811900
3486.000000;3.032881
3485.000000;2.983415
3484.000000;2.813566
3483.000000;2.751059
3482.000000;2.741269
3481.000000;2.758026
3480.000000;2.806694
3479.000000;2.907023
3478.000000;2.978419
3477.000000;2.922830
3476.000000;2.853091
3475.000000;2.846352
3474.000000;2.977828
3473.000000;3.365356
3472.000000;3.068874
3471.000000;2.814058
3470.000000;2.767322
3469.000000;2.807720
3468.000000;2.729900
3467.000000;2.609903
3466.000000;2.606751
3465.000000;2.716542
3464.000000;2.947969
3463.000000;3.325283
3462.000000;3.155046
3461.000000;3.145987
3460.000000;3.243392
3459.000000;2.749635
3458.000000;2.568594
3457.000000;2.614013
3456.000000;2.874385
3455.000000;2.995395
3454.000000;2.730270
3453.000000;2.555075
3452.000000;2.442914
3451.000000;2.375727
3450.000000;2.375035
3449.000000;2.482304
3448.000000;2.731067
3447.000000;3.193048
3446.000000;3.768251
3445.000000;3.033722
3444.000000;2.738139
3443.000000;2.662117
3442.000000;2.716073
3441.000000;2.847770
3440.000000;2.857217
3439.000000;2.672118
3438.000000;2.572240
3437.000000;2.552366
3436.000000;2.496315
3435.000000;2.432091
3434.000000;2.422265
3433.000000;2.423254
3432.000000;2.431138
3431.000000;2.484128
3430.000000;2.572623
3429.000000;2.678051
3428.000000;2.811173
3427.000000;3.115324
3426.000000;3.042048
3425.000000;2.778064
3424.000000;2.969784
3423.000000;3.138844
3422.000000;2.701754
3421.000000;2.601794
3420.000000;2.697722
3419.000000;2.716760
3418.000000;2.663418
3417.000000;2.714040
3416.000000;3.004073
3415.000000;3.519911
3414.000000;3.012434
3413.000000;2.883969
3412.000000;2.852914
3411.000000;2.907491
3410.000000;3.137716
3409.000000;3.494025
3408.000000;3.388706
3407.000000;3.027743
3406.000000;2.758334
3405.000000;2.645405
3404.000000;2.688775
3403.000000;2.876930
3402.000000;3.086076
3401.000000;3.178659
3400.000000;3.339211
3399.000000;3.544374
3398.000000;3.488290
3397.000000;3.218373
3396.000000;3.047043
3395.000000;2.877402
3394.000000;2.705545
3393.000000;2.634550
3392.000000;2.667826
3391.000000;2.763797
3390.000000;2.776543
3389.000000;2.627026
3388.000000;2.503070
3387.000000;2.481306
3386.000000;2.564812
3385.000000;2.724583
3384.000000;2.932766
3383.000000;3.001109
3382.000000;2.851441
3381.000000;2.996141
3380.000000;3.161947
3379.000000;2.779148
3378.000000;2.709762
3377.000000;3.093702
3376.000000;3.029311
3375.000000;2.658418
3374.000000;2.679417
3373.000000;3.365583
3372.000000;3.138730
3371.000000;2.746969
3370.000000;2.870048
3369.000000;3.018462
3368.000000;2.974099
3367.000000;2.853114
3366.000000;2.772157
3365.000000;2.799176
3364.000000;2.923100
3363.000000;3.138906
3362.000000;3.338464
3361.000000;2.910038
3360.000000;2.760725
3359.000000;2.856191
3358.000000;3.050419
3357.000000;3.037846
3356.000000;2.856089
3355.000000;2.742093
3354.000000;2.762785
3353.000000;2.852361
3352.000000;2.828664
3351.000000;2.663857
3350.000000;2.525336
3349.000000;2.486471
3348.000000;2.552876
3347.000000;2.715432
3346.000000;2.959497
3345.000000;3.287181
3344.000000;3.207566
3343.000000;2.858948
3342.000000;2.676724
3341.000000;2.629647
3340.000000;2.705904
3339.000000;2.929444
3338.000000;2.855581
3337.000000;2.607870
3336.000000;2.540615
3335.000000;2.622415
3334.000000;2.863459
3333.000000;3.173185
3332.000000;2.827757
3331.000000;2.559063
3330.000000;2.455342
3329.000000;2.470518
3328.000000;2.595936
3327.000000;2.883663
3326.000000;3.133054
3325.000000;2.933579
3324.000000;2.883614
3323.000000;2.917028
3322.000000;2.921107
3321.000000;2.961969
3320.000000;2.941259
3319.000000;2.760651
3318.000000;2.618769
3317.000000;2.614778
3316.000000;2.745819
3315.000000;2.899774
3314.000000;2.916351
3313.000000;2.896523
3312.000000;2.946923
3311.000000;3.039250
3310.000000;2.967242
3309.000000;2.795799
3308.000000;2.704060
3307.000000;2.687228
3306.000000;2.700191
3305.000000;2.727873
3304.000000;2.811802
3303.000000;2.956426
3302.000000;2.983153
3301.000000;2.920519
3300.000000;2.920623
3299.000000;2.972905
3298.000000;3.307982
3297.000000;3.188686
3296.000000;2.764142
3295.000000;2.671332
3294.000000;2.712824
3293.000000;2.770975
3292.000000;2.735893
3291.000000;2.704749
3290.000000;2.723851
3289.000000;2.773896
3288.000000;2.854953
3287.000000;2.852067
3286.000000;2.793250
3285.000000;2.819878
3284.000000;3.011536
3283.000000;3.148912
3282.000000;2.903001
3281.000000;2.801508
3280.000000;2.941307
3279.000000;3.352435
3278.000000;3.142549
3277.000000;2.850871
3276.000000;2.715720
3275.000000;2.681585
3274.000000;2.735839
3273.000000;2.806316
3272.000000;2.840010
3271.000000;2.894176
3270.000000;3.098659
3269.000000;3.414975
3268.000000;4.300594
3267.000000;3.561284
3266.000000;2.995185
3265.000000;2.863889
3264.000000;2.931810
3263.000000;3.197727
3262.000000;3.059578
3261.000000;2.878608
3260.000000;2.873852
3259.000000;2.851190
3258.000000;2.787655
3257.000000;2.718149
3256.000000;2.636631
3255.000000;2.585462
3254.000000;2.640583
3253.000000;2.845124
3252.000000;2.911529
3251.000000;2.769385
3250.000000;2.809866
3249.000000;2.890458
3248.000000;2.740463
3247.000000;2.582726
3246.000000;2.544155
3245.000000;2.614684
3244.000000;2.746902
3243.000000;2.873114
3242.000000;2.872112
3241.000000;2.734037
3240.000000;2.666487
3239.000000;2.700447
3238.000000;2.692153
3237.000000;2.572290
3236.000000;2.466603
3235.000000;2.451882
3234.000000;2.510061
3233.000000;2.577647
3232.000000;2.610991
3231.000000;2.620805
3230.000000;2.663753
3229.000000;2.747289
3228.000000;2.955260
3227.000000;3.289769
3226.000000;2.890507
3225.000000;2.704055
3224.000000;2.693165
3223.000000;2.730471
3222.000000;2.752919
3221.000000;2.765274
3220.000000;2.783474
3219.000000;2.782495
3218.000000;2.777974
3217.000000;2.860428
3216.000000;3.202873
3215.000000;3.033306
3214.000000;2.685619
3213.000000;2.582077
3212.000000;2.569627
3211.000000;2.638892
3210.000000;2.753054
3209.000000;2.831031
3208.000000;2.854251
3207.000000;2.882183
3206.000000;2.940485
3205.000000;2.957252
3204.000000;2.861604
3203.000000;2.759689
3202.000000;2.723599
3201.000000;2.767676
3200.000000;2.869345
3199.000000;3.149199
3198.000000;3.616986
3197.000000;3.040498
3196.000000;2.924324
3195.000000;3.048767
3194.000000;3.081908
3193.000000;3.194024
3192.000000;3.346657
3191.000000;2.928119
3190.000000;2.720976
3189.000000;2.632354
3188.000000;2.589924
3187.000000;2.628134
3186.000000;2.851278
3185.000000;3.519161
3184.000000;3.760931
3183.000000;3.448833
3182.000000;2.990243
3181.000000;2.760008
3180.000000;2.702258
3179.000000;2.674830
3178.000000;2.682729
3177.000000;2.704035
3176.000000;2.729638
3175.000000;2.774021
3174.000000;2.887551
3173.000000;3.108962
3172.000000;3.186017
3171.000000;3.148673
3170.000000;3.327637
3169.000000;3.566110
3168.000000;3.442742
3167.000000;3.292632
3166.000000;3.107238
3165.000000;2.964800
3164.000000;3.079292
3163.000000;3.227353
3162.000000;2.999271
3161.000000;2.885937
3160.000000;2.886661
3159.000000;2.923056
3158.000000;2.912635
3157.000000;2.816872
3156.000000;2.774503
3155.000000;2.865133
3154.000000;2.995018
3153.000000;2.990260
3152.000000;2.969380
3151.000000;3.129344
3150.000000;3.468368
3149.000000;3.159744
3148.000000;2.952851
3147.000000;2.894790
3146.000000;2.870787
3145.000000;2.953141
3144.000000;3.183547
3143.000000;2.950782
3142.000000;2.656822
3141.000000;2.580481
3140.000000;2.642187
3139.000000;2.769008
3138.000000;2.774889
3137.000000;2.797447
3136.000000;3.289926
3135.000000;3.423615
3134.000000;3.395483
3133.000000;3.324582
3132.000000;2.788014
3131.000000;2.728354
3130.000000;2.924764
3129.000000;3.119633
3128.000000;3.082176
3127.000000;3.301284
3126.000000;3.052947
3125.000000;2.741818
3124.000000;2.678633
3123.000000;2.796651
3122.000000;3.005168
3121.000000;2.872391
3120.000000;2.762475
3119.000000;2.780752
3118.000000;2.869403
3117.000000;2.937473
3116.000000;2.958817
3115.000000;3.282239
3114.000000;3.164760
3113.000000;2.715766
3112.000000;2.616278
3111.000000;2.648197
3110.000000;2.768683
3109.000000;2.949197
3108.000000;3.003389
3107.000000;2.845886
3106.000000;2.703505
3105.000000;2.618530
3104.000000;2.567249
3103.000000;2.562161
3102.000000;2.618173
3101.000000;2.739210
3100.000000;2.766767
3099.000000;2.663007
3098.000000;2.614258
3097.000000;2.634147
3096.000000;2.656690
3095.000000;2.661265
3094.000000;2.670753
3093.000000;2.713379
3092.000000;2.795307
3091.000000;3.047024
3090.000000;3.249761
3089.000000;3.196209
3088.000000;3.316307
3087.000000;2.805768
3086.000000;2.588926
3085.000000;2.635670
3084.000000;2.991220
3083.000000;3.148840
3082.000000;2.804231
3081.000000;2.759523
3080.000000;2.786532
3079.000000;2.757867
3078.000000;2.651943
3077.000000;2.578216
3076.000000;2.555067
3075.000000;2.620273
3074.000000;2.703013
3073.000000;2.661937
3072.000000;2.649788
3071.000000;2.878707
3070.000000;3.377170
3069.000000;2.854874
3068.000000;2.654350
3067.000000;2.605909
3066.000000;2.597149
3065.000000;2.666434
3064.000000;2.947160
3063.000000;3.337382
3062.000000;2.890233
3061.000000;2.765221
3060.000000;2.743415
3059.000000;2.736414
3058.000000;2.782736
3057.000000;2.903894
3056.000000;3.059012
3055.000000;3.133884
3054.000000;3.063755
3053.000000;2.893388
3052.000000;2.772060
3051.000000;2.807320
3050.000000;3.130942
3049.000000;3.020251
3048.000000;2.779103
3047.000000;2.813965
3046.000000;2.934128
3045.000000;2.918405
3044.000000;2.877251
3043.000000;3.030718
3042.000000;3.035539
3041.000000;2.829575
3040.000000;2.763447
3039.000000;2.823887
3038.000000;3.045118
3037.000000;3.353741
3036.000000;3.223508
3035.000000;3.001019
3034.000000;3.037648
3033.000000;3.355659
3032.000000;3.205102
3031.000000;2.982564
3030.000000;2.930511
3029.000000;2.812708
3028.000000;2.721170
3027.000000;2.814608
3026.000000;2.912618
3025.000000;2.778894
3024.000000;2.708160
3023.000000;2.785605
3022.000000;3.252554
3021.000000;3.105105
3020.000000;2.665272
3019.000000;2.536276
3018.000000;2.544943
3017.000000;2.693019
3016.000000;3.062547
3015.000000;3.511581
3014.000000;3.350860
3013.000000;3.360874
3012.000000;3.087894
3011.000000;2.851588
3010.000000;2.783913
3009.000000;2.830217
3008.000000;2.938044
3007.000000;2.940062
3006.000000;2.792268
3005.000000;2.629659
3004.000000;2.537850
3003.000000;2.538098
3002.000000;2.624082
3001.000000;2.826332
3000.000000;2.981398
2999.000000;2.780720
2998.000000;2.642156
2997.000000;2.664046
2996.000000;2.720568
2995.000000;2.693801
2994.000000;2.667178
2993.000000;2.701096
2992.000000;2.770180
2991.000000;2.771605
2990.000000;2.634171
2989.000000;2.522195
2988.000000;2.487262
2987.000000;2.494361
2986.000000;2.516618
2985.000000;2.535217
2984.000000;2.551428
2983.000000;2.585832
2982.000000;2.625614
2981.000000;2.652843
2980.000000;2.696038
2979.000000;2.731367
2978.000000;2.763006
2977.000000;2.922194
2976.000000;3.290207
2975.000000;4.094044
2974.000000;3.413117
2973.000000;2.915844
2972.000000;2.809669
2971.000000;2.987361
2970.000000;3.584553
2969.000000;3.400042
2968.000000;3.430499
2967.000000;3.348452
2966.000000;2.868830
2965.000000;2.715266
2964.000000;2.682545
2963.000000;2.645625
2962.000000;2.659921
2961.000000;2.861814
2960.000000;3.188239
2959.000000;3.116325
2958.000000;2.879958
2957.000000;2.668132
2956.000000;2.593481
2955.000000;2.629295
2954.000000;2.722647
2953.000000;2.856790
2952.000000;2.939367
2951.000000;2.859175
2950.000000;2.728365
2949.000000;2.675512
2948.000000;2.711618
2947.000000;2.766837
2946.000000;2.674167
2945.000000;2.530946
2944.000000;2.445409
2943.000000;2.461646
2942.000000;2.562852
2941.000000;2.779750
2940.000000;3.466853
2939.000000;2.873145
2938.000000;2.501452
2937.000000;2.383447
2936.000000;2.319655
2935.000000;2.294521
2934.000000;2.297472
2933.000000;2.356170
2932.000000;2.521790
2931.000000;2.864853
2930.000000;2.845528
2929.000000;2.581924
2928.000000;2.529234
2927.000000;2.673587
2926.000000;2.861295
2925.000000;2.699431
2924.000000;2.633077
2923.000000;2.690805
2922.000000;2.691199
2921.000000;2.682892
2920.000000;2.791217
2919.000000;3.092800
2918.000000;3.179190
2917.000000;3.057389
2916.000000;2.862516
2915.000000;2.612655
2914.000000;2.534441
2913.000000;2.681967
2912.000000;3.008774
2911.000000;2.958779
2910.000000;2.817112
2909.000000;2.719384
2908.000000;2.794333
2907.000000;3.061496
2906.000000;2.779835
2905.000000;2.618726
2904.000000;2.634201
2903.000000;2.710032
2902.000000;2.793362
2901.000000;2.789402
2900.000000;2.739810
2899.000000;2.703000
2898.000000;2.703652
2897.000000;2.744981
2896.000000;2.847077
2895.000000;3.018734
2894.000000;3.163068
2893.000000;3.178313
2892.000000;3.095503
2891.000000;2.884122
2890.000000;2.708083
2889.000000;2.692873
2888.000000;2.842679
2887.000000;2.919789
2886.000000;2.801382
2885.000000;2.736973
2884.000000;2.740669
2883.000000;2.839836
2882.000000;3.104259
2881.000000;3.345831
2880.000000;3.239454
2879.000000;3.301002
2878.000000;3.539792
2877.000000;2.953230
2876.000000;2.600831
2875.000000;2.470447
2874.000000;2.471902
2873.000000;2.570599
2872.000000;2.710681
2871.000000;2.790547
2870.000000;2.783504
2869.000000;2.811067
2868.000000;2.912889
2867.000000;2.999887
2866.000000;2.981868
2865.000000;2.928698
2864.000000;2.964526
2863.000000;3.085726
2862.000000;3.138730
2861.000000;3.075491
2860.000000;2.911536
2859.000000;2.849130
2858.000000;3.044973
2857.000000;3.237552
2856.000000;3.124455
2855.000000;2.962003
2854.000000;2.978531
2853.000000;3.396100
2852.000000;3.262094
2851.000000;2.947974
2850.000000;2.812491
2849.000000;2.769695
2848.000000;2.857355
2847.000000;2.941052
2846.000000;2.924336
2845.000000;2.901948
2844.000000;2.950960
2843.000000;3.055461
2842.000000;3.070836
2841.000000;2.954023
2840.000000;2.842424
2839.000000;2.791830
2838.000000;2.788702
2837.000000;2.743976
2836.000000;2.609631
2835.000000;2.497962
2834.000000;2.465615
2833.000000;2.495165
2832.000000;2.563326
2831.000000;2.606054
2830.000000;2.576683
2829.000000;2.568847
2828.000000;2.623326
2827.000000;2.680178
2826.000000;2.704968
2825.000000;2.685325
2824.000000;2.618690
2823.000000;2.532639
2822.000000;2.454434
2821.000000;2.420187
2820.000000;2.460362
2819.000000;2.546559
2818.000000;2.620955
2817.000000;2.699793
2816.000000;2.722132
2815.000000;2.659978
2814.000000;2.678496
2813.000000;2.903802
2812.000000;3.091882
2811.000000;2.968698
2810.000000;2.955825
2809.000000;2.830573
2808.000000;2.685770
2807.000000;2.661704
2806.000000;2.705834
2805.000000;2.805384
2804.000000;2.802585
2803.000000;2.611757
2802.000000;2.465677
2801.000000;2.438847
2800.000000;2.481905
2799.000000;2.515427
2798.000000;2.529351
2797.000000;2.550212
2796.000000;2.603869
2795.000000;2.744916
2794.000000;3.053497
2793.000000;3.380861
2792.000000;3.108565
2791.000000;2.877489
2790.000000;2.828845
2789.000000;2.865319
2788.000000;2.855221
2787.000000;2.782886
2786.000000;2.712108
2785.000000;2.684766
2784.000000;2.685601
2783.000000;2.615199
2782.000000;2.500714
2781.000000;2.451905
2780.000000;2.470366
2779.000000;2.466491
2778.000000;2.427153
2777.000000;2.429271
2776.000000;2.496578
2775.000000;2.593801
2774.000000;2.639041
2773.000000;2.664895
2772.000000;2.753850
2771.000000;3.025265
2770.000000;3.388576
2769.000000;3.037170
2768.000000;2.844926
2767.000000;2.748316
2766.000000;2.677378
2765.000000;2.669595
2764.000000;2.739815
2763.000000;2.904780
2762.000000;3.078596
2761.000000;3.061558
2760.000000;2.876308
2759.000000;2.709495
2758.000000;2.649962
2757.000000;2.618122
2756.000000;2.555235
2755.000000;2.531934
2754.000000;2.695808
2753.000000;3.131376
2752.000000;2.833774
2751.000000;2.587336
2750.000000;2.600988
2749.000000;2.713127
2748.000000;2.948136
2747.000000;3.190113
2746.000000;2.982132
2745.000000;2.744812
2744.000000;2.664047
2743.000000;2.738560
2742.000000;2.889949
2741.000000;2.857659
2740.000000;2.822434
2739.000000;3.054590
2738.000000;3.083767
2737.000000;2.730791
2736.000000;2.593378
2735.000000;2.488179
2734.000000;2.370690
2733.000000;2.304338
2732.000000;2.293998
2731.000000;2.316349
2730.000000;2.341993
2729.000000;2.371091
2728.000000;2.426518
2727.000000;2.527834
2726.000000;2.642440
2725.000000;2.632131
2724.000000;2.594729
2723.000000;2.643492
2722.000000;2.876182
2721.000000;3.530142
2720.000000;3.057138
2719.000000;2.839417
2718.000000;2.880699
2717.000000;3.099588
2716.000000;3.760163
2715.000000;3.350375
2714.000000;3.052993
2713.000000;2.843259
2712.000000;2.712921
2711.000000;2.686098
2710.000000;2.703443
2709.000000;2.753856
2708.000000;2.824297
2707.000000;3.068771
2706.000000;3.507525
2705.000000;3.086229
2704.000000;2.853991
2703.000000;2.832886
2702.000000;2.820450
2701.000000;2.816816
2700.000000;2.933851
2699.000000;3.224674
2698.000000;3.136353
2697.000000;3.024245
2696.000000;3.061598
2695.000000;2.950386
2694.000000;2.807439
2693.000000;2.662063
2692.000000;2.507629
2691.000000;2.399089
2690.000000;2.370337
2689.000000;2.417246
2688.000000;2.494148
2687.000000;2.541628
2686.000000;2.568694
2685.000000;2.613874
2684.000000;2.680683
2683.000000;2.776900
2682.000000;2.972943
2681.000000;3.195012
2680.000000;3.282720
2679.000000;3.447607
2678.000000;3.307670
2677.000000;3.372737
2676.000000;3.577348
2675.000000;3.010772
2674.000000;2.726796
2673.000000;2.631583
2672.000000;2.644042
2671.000000;2.702524
2670.000000;2.730701
2669.000000;2.732358
2668.000000;2.662521
2667.000000;2.557198
2666.000000;2.494218
2665.000000;2.496304
2664.000000;2.564356
2663.000000;2.677127
2662.000000;2.814107
2661.000000;2.957709
2660.000000;3.074441
2659.000000;3.066079
2658.000000;2.946274
2657.000000;2.897930
2656.000000;2.981179
2655.000000;3.179826
2654.000000;3.429836
2653.000000;3.491885
2652.000000;3.100684
2651.000000;2.746439
2650.000000;2.590774
2649.000000;2.569942
2648.000000;2.702900
2647.000000;2.997311
2646.000000;2.892604
2645.000000;2.707052
2644.000000;2.707783
2643.000000;2.754676
2642.000000;2.797187
2641.000000;2.773436
2640.000000;2.714826
2639.000000;2.656401
2638.000000;2.596735
2637.000000;2.585023
2636.000000;2.676326
2635.000000;2.850070
2634.000000;2.847127
2633.000000;2.714866
2632.000000;2.656846
2631.000000;2.670612
2630.000000;2.792152
2629.000000;3.040805
2628.000000;3.551807
2627.000000;3.598070
2626.000000;2.950787
2625.000000;2.709883
2624.000000;2.639936
2623.000000;2.631417
2622.000000;2.665168
2621.000000;2.732141
2620.000000;2.870026
2619.000000;3.088866
2618.000000;2.880478
2617.000000;2.623818
2616.000000;2.561015
2615.000000;2.618764
2614.000000;2.771883
2613.000000;2.828103
2612.000000;2.770305
2611.000000;2.758343
2610.000000;2.994389
2609.000000;3.410866
2608.000000;2.917237
2607.000000;2.768474
2606.000000;2.778081
2605.000000;2.758506
2604.000000;2.750133
2603.000000;2.771566
2602.000000;2.807812
2601.000000;2.834241
2600.000000;2.844039
2599.000000;2.781754
2598.000000;2.756245
2597.000000;2.854369
2596.000000;2.970591
2595.000000;2.804769
2594.000000;2.613410
2593.000000;2.540386
2592.000000;2.548749
2591.000000;2.626525
2590.000000;2.771812
2589.000000;2.977702
2588.000000;3.190056
2587.000000;3.324175
2586.000000;3.232266
2585.000000;3.247551
2584.000000;3.446376
2583.000000;3.173349
2582.000000;2.924745
2581.000000;2.817576
2580.000000;2.777751
2579.000000;2.795427
2578.000000;2.814564
2577.000000;2.837216
2576.000000;2.877703
2575.000000;3.018877
2574.000000;3.168165
2573.000000;3.114752
2572.000000;3.245524
2571.000000;2.975774
2570.000000;2.630372
2569.000000;2.559614
2568.000000;2.769549
2567.000000;3.010099
2566.000000;2.671862
2565.000000;2.517292
2564.000000;2.551882
2563.000000;2.642698
2562.000000;2.720641
2561.000000;2.706130
2560.000000;2.635208
2559.000000;2.566004
2558.000000;2.589641
2557.000000;2.737583
2556.000000;3.019089
2555.000000;3.155543
2554.000000;2.812358
2553.000000;2.612948
2552.000000;2.584655
2551.000000;2.633439
2550.000000;2.629515
2549.000000;2.556844
2548.000000;2.520229
2547.000000;2.542614
2546.000000;2.622361
2545.000000;2.739036
2544.000000;2.872819
2543.000000;2.982822
2542.000000;2.957213
2541.000000;2.855656
2540.000000;2.872741
2539.000000;2.986359
2538.000000;2.807967
2537.000000;2.629769
2536.000000;2.569490
2535.000000;2.617378
2534.000000;2.707682
2533.000000;2.923532
2532.000000;3.640075
2531.000000;2.900529
2530.000000;2.588191
2529.000000;2.507565
2528.000000;2.488928
2527.000000;2.558164
2526.000000;2.718630
2525.000000;3.176682
2524.000000;3.341252
2523.000000;2.959619
2522.000000;2.948097
2521.000000;2.933483
2520.000000;2.867124
2519.000000;2.864122
2518.000000;3.021488
2517.000000;3.214950
2516.000000;3.082545
2515.000000;3.031796
2514.000000;3.170358
2513.000000;3.656032
2512.000000;3.364494
2511.000000;3.137093
2510.000000;3.254764
2509.000000;3.054548
2508.000000;2.825683
2507.000000;2.710847
2506.000000;2.672031
2505.000000;2.730553
2504.000000;2.812569
2503.000000;2.766557
2502.000000;2.682318
2501.000000;2.635946
2500.000000;2.642270
2499.000000;2.717001
2498.000000;2.991943
2497.000000;3.418755
2496.000000;3.063437
2495.000000;2.855695
2494.000000;2.726906
2493.000000;2.637903
2492.000000;2.645693
2491.000000;2.741143
2490.000000;2.816041
2489.000000;2.835617
2488.000000;3.056579
2487.000000;3.155013
2486.000000;2.898342
2485.000000;2.788222
2484.000000;2.736490
2483.000000;2.676125
2482.000000;2.617633
2481.000000;2.597767
2480.000000;2.654998
2479.000000;2.819593
2478.000000;3.126908
2477.000000;3.197061
2476.000000;2.858618
2475.000000;2.631705
2474.000000;2.543634
2473.000000;2.556916
2472.000000;2.600155
2471.000000;2.606342
2470.000000;2.610988
2469.000000;2.634485
2468.000000;2.681077
2467.000000;2.849059
2466.000000;2.987649
2465.000000;2.855356
2464.000000;2.837600
2463.000000;3.007404
2462.000000;3.025497
2461.000000;2.949932
2460.000000;3.219826
2459.000000;3.242291
2458.000000;2.863350
2457.000000;2.777640
2456.000000;2.855312
2455.000000;3.072770
2454.000000;3.575143
2453.000000;3.624838
2452.000000;3.281003
2451.000000;3.277524
2450.000000;3.179248
2449.000000;3.064620
2448.000000;3.099022
2447.000000;2.918526
2446.000000;2.714045
2445.000000;2.690487
2444.000000;2.796906
2443.000000;2.909604
2442.000000;2.975926
2441.000000;3.049673
2440.000000;2.987622
2439.000000;2.827261
2438.000000;2.743302
2437.000000;2.784625
2436.000000;2.907931
2435.000000;2.877909
2434.000000;2.713316
2433.000000;2.630827
2432.000000;2.653872
2431.000000;2.722314
2430.000000;2.842699
2429.000000;2.981004
2428.000000;2.923566
2427.000000;2.839848
2426.000000;2.856875
2425.000000;2.875624
2424.000000;2.814267
2423.000000;2.756796
2422.000000;2.794668
2421.000000;2.900999
2420.000000;2.883493
2419.000000;2.772183
2418.000000;2.727022
2417.000000;2.748723
2416.000000;2.840376
2415.000000;2.987388
2414.000000;3.050379
2413.000000;2.972254
2412.000000;2.983327
2411.000000;3.052110
2410.000000;2.962191
2409.000000;2.953119
2408.000000;2.879446
2407.000000;2.652510
2406.000000;2.518586
2405.000000;2.476125
2404.000000;2.496456
2403.000000;2.610405
2402.000000;2.971818
2401.000000;3.288159
2400.000000;2.896094
2399.000000;2.828164
2398.000000;3.028298
2397.000000;3.061561
2396.000000;2.894574
2395.000000;2.852211
2394.000000;2.853533
2393.000000;2.815914
2392.000000;2.783631
2391.000000;2.867051
2390.000000;2.928130
2389.000000;2.779876
2388.000000;2.741898
2387.000000;2.774238
2386.000000;2.724992
2385.000000;2.704691
2384.000000;2.728138
2383.000000;2.714901
2382.000000;2.734430
2381.000000;2.865516
2380.000000;2.929755
2379.000000;2.859126
2378.000000;2.863747
2377.000000;2.927422
2376.000000;2.915966
2375.000000;2.801822
2374.000000;2.715653
2373.000000;2.749812
2372.000000;2.870336
2371.000000;2.933084
2370.000000;2.969552
2369.000000;3.075104
2368.000000;3.149138
2367.000000;3.125932
2366.000000;3.027362
2365.000000;2.938630
2364.000000;2.946126
2363.000000;3.090313
2362.000000;3.324699
2361.000000;3.306671
2360.000000;3.116273
2359.000000;2.984923
2358.000000;2.957208
2357.000000;3.116749
2356.000000;3.418374
2355.000000;3.740644
2354.000000;3.850508
2353.000000;3.399275
2352.000000;3.116936
2351.000000;2.978836
2350.000000;3.108501
2349.000000;3.184160
2348.000000;3.061071
2347.000000;3.097979
2346.000000;3.132021
2345.000000;3.066994
2344.000000;2.965580
2343.000000;2.936207
2342.000000;3.108935
2341.000000;3.662855
2340.000000;3.290300
2339.000000;3.047621
2338.000000;3.118577
2337.000000;3.255413
2336.000000;3.249826
2335.000000;3.191937
2334.000000;3.235776
2333.000000;3.100132
2332.000000;2.939313
2331.000000;2.888138
2330.000000;3.029223
2329.000000;3.150948
2328.000000;2.960766
2327.000000;2.955408
2326.000000;3.134734
2325.000000;3.126506
2324.000000;2.907023
2323.000000;2.738347
2322.000000;2.666124
2321.000000;2.753815
2320.000000;3.095618
2319.000000;3.296437
2318.000000;3.263597
2317.000000;3.394894
2316.000000;3.248749
2315.000000;3.044540
2314.000000;2.900997
2313.000000;2.822074
2312.000000;2.765969
2311.000000;2.715114
2310.000000;2.736563
2309.000000;2.834408
2308.000000;2.881133
2307.000000;2.870054
2306.000000;2.917663
2305.000000;2.909851
2304.000000;2.820190
2303.000000;2.812974
2302.000000;3.017684
2301.000000;3.194535
2300.000000;2.950036
2299.000000;2.828767
2298.000000;2.899854
2297.000000;3.029766
2296.000000;2.862748
2295.000000;2.634995
2294.000000;2.527879
2293.000000;2.487380
2292.000000;2.483531
2291.000000;2.510848
2290.000000;2.588483
2289.000000;2.709634
2288.000000;2.764680
2287.000000;2.688397
2286.000000;2.645693
2285.000000;2.698430
2284.000000;2.820501
2283.000000;2.879085
2282.000000;2.755401
2281.000000;2.649053
2280.000000;2.644352
2279.000000;2.703643
2278.000000;2.824961
2277.000000;3.340570
2276.000000;3.565730
2275.000000;3.014239
2274.000000;3.051762
2273.000000;3.119967
2272.000000;2.960840
2271.000000;2.745867
2270.000000;2.596051
2269.000000;2.524372
2268.000000;2.520984
2267.000000;2.611470
2266.000000;2.742285
2265.000000;2.782083
2264.000000;2.760787
2263.000000;2.811681
2262.000000;2.896891
2261.000000;2.961698
2260.000000;3.172890
2259.000000;3.142887
2258.000000;2.827215
2257.000000;2.706990
2256.000000;2.704245
2255.000000;2.774030
2254.000000;3.002208
2253.000000;3.339827
2252.000000;3.054901
2251.000000;2.760745
2250.000000;2.628548
2249.000000;2.605862
2248.000000;2.671069
2247.000000;2.708656
2246.000000;2.709128
2245.000000;2.765363
2244.000000;2.875108
2243.000000;3.016882
2242.000000;3.050246
2241.000000;2.858485
2240.000000;2.717775
2239.000000;2.719390
2238.000000;2.682200
2237.000000;2.568405
2236.000000;2.477171
2235.000000;2.440848
2234.000000;2.440455
2233.000000;2.618064
2232.000000;3.179022
2231.000000;2.968682
2230.000000;2.800556
2229.000000;3.016228
2228.000000;3.209320
2227.000000;3.044196
2226.000000;2.799244
2225.000000;2.687654
2224.000000;2.683151
2223.000000;2.769369
2222.000000;3.022665
2221.000000;3.343961
2220.000000;2.977924
2219.000000;2.702428
2218.000000;2.629771
2217.000000;2.684613
2216.000000;2.706145
2215.000000;2.640781
2214.000000;2.668718
2213.000000;2.716426
2212.000000;2.674333
2211.000000;2.549988
2210.000000;2.468159
2209.000000;2.491846
2208.000000;2.746151
2207.000000;3.469344
2206.000000;3.101774
2205.000000;2.947434
2204.000000;3.032266
2203.000000;3.225364
2202.000000;3.428008
2201.000000;3.317173
2200.000000;3.242346
2199.000000;2.798222
2198.000000;2.561580
2197.000000;2.496696
2196.000000;2.523900
2195.000000;2.612390
2194.000000;2.699237
2193.000000;2.784865
2192.000000;2.913157
2191.000000;2.936805
2190.000000;2.876772
2189.000000;2.970963
2188.000000;3.162637
2187.000000;3.176738
2186.000000;3.189984
2185.000000;2.993399
2184.000000;2.702741
2183.000000;2.592690
2182.000000;2.687010
2181.000000;2.836148
2180.000000;3.102091
2179.000000;3.726758
2178.000000;3.000645
2177.000000;2.747020
2176.000000;2.793130
2175.000000;3.097592
2174.000000;2.992082
2173.000000;2.675751
2172.000000;2.680528
2171.000000;2.835324
2170.000000;2.769896
2169.000000;2.601425
2168.000000;2.595731
2167.000000;2.759047
2166.000000;3.276257
2165.000000;3.306289
2164.000000;2.863134
2163.000000;2.781233
2162.000000;2.772986
2161.000000;2.974746
2160.000000;3.579869
2159.000000;3.074016
2158.000000;2.756005
2157.000000;2.643375
2156.000000;2.626995
2155.000000;2.733822
2154.000000;3.073189
2153.000000;3.672404
2152.000000;3.351209
2151.000000;3.533637
2150.000000;3.219037
2149.000000;2.937704
2148.000000;2.859495
2147.000000;3.178537
2146.000000;3.690958
2145.000000;2.814198
2144.000000;2.685562
2143.000000;2.741696
2142.000000;3.089751
2141.000000;3.237088
2140.000000;2.732219
2139.000000;2.609981
2138.000000;2.652324
2137.000000;2.885844
2136.000000;3.069981
2135.000000;2.932212
2134.000000;2.857979
2133.000000;2.831187
2132.000000;2.835030
2131.000000;2.826051
2130.000000;2.939386
2129.000000;3.342031
2128.000000;3.274249
2127.000000;3.061655
2126.000000;3.128594
2125.000000;3.306221
2124.000000;3.123488
2123.000000;2.910193
2122.000000;2.867018
2121.000000;3.178273
2120.000000;4.047943
2119.000000;3.113988
2118.000000;3.306642
2117.000000;3.488056
2116.000000;2.790252
2115.000000;2.557606
2114.000000;2.470069
2113.000000;2.505887
2112.000000;2.619783
2111.000000;2.694949
2110.000000;2.682621
2109.000000;2.690298
2108.000000;2.840402
2107.000000;3.129979
2106.000000;3.296655
2105.000000;3.094754
2104.000000;2.825101
2103.000000;2.625657
2102.000000;2.528440
2101.000000;2.525149
2100.000000;2.612905
2099.000000;2.759254
2098.000000;3.001649
2097.000000;3.247912
2096.000000;3.287358
2095.000000;3.557936
2094.000000;3.110573
2093.000000;2.760239
2092.000000;2.661875
2091.000000;2.631097
2090.000000;2.659015
2089.000000;2.797553
2088.000000;3.117466
2087.000000;3.285620
2086.000000;3.018905
2085.000000;2.812568
2084.000000;2.697083
2083.000000;2.663157
2082.000000;2.710606
2081.000000;2.771973
2080.000000;2.700577
2079.000000;2.590381
2078.000000;2.545159
2077.000000;2.565003
2076.000000;2.677332
2075.000000;2.883342
2074.000000;3.162048
2073.000000;3.506949
2072.000000;3.619618
2071.000000;3.350090
2070.000000;3.136903
2069.000000;3.026494
2068.000000;2.987947
2067.000000;3.041799
2066.000000;3.009004
2065.000000;2.940659
2064.000000;3.037461
2063.000000;3.509525
2062.000000;3.877076
2061.000000;3.260354
2060.000000;3.151051
2059.000000;3.206286
2058.000000;3.370863
2057.000000;3.349999
2056.000000;3.069299
2055.000000;2.928419
2054.000000;2.880006
2053.000000;2.897323
2052.000000;2.960182
2051.000000;3.102336
2050.000000;3.392340
2049.000000;3.159073
2048.000000;2.814898
2047.000000;2.673651
2046.000000;2.634067
2045.000000;2.705576
2044.000000;2.977627
2043.000000;2.976205
2042.000000;2.673560
2041.000000;2.590231
2040.000000;2.636368
2039.000000;2.768114
2038.000000;2.933989
2037.000000;3.019494
2036.000000;3.143161
2035.000000;3.376383
2034.000000;3.326476
2033.000000;3.009494
2032.000000;2.793707
2031.000000;2.666344
2030.000000;2.614957
2029.000000;2.651007
2028.000000;2.831952
2027.000000;3.295626
2026.000000;3.014359
2025.000000;2.940416
2024.000000;3.595770
2023.000000;2.919641
2022.000000;2.625767
2021.000000;2.574800
2020.000000;2.535503
2019.000000;2.530198
2018.000000;2.561627
2017.000000;2.665934
2016.000000;2.849199
2015.000000;3.063624
2014.000000;3.020756
2013.000000;2.880380
2012.000000;2.740660
2011.000000;2.589673
2010.000000;2.516603
2009.000000;2.533249
2008.000000;2.627085
2007.000000;2.773388
2006.000000;3.015945
2005.000000;2.943381
2004.000000;2.735527
2003.000000;2.701597
2002.000000;2.810873
2001.000000;3.448857
2000.000000;3.293381
1999.000000;2.801019
1998.000000;2.680768
1997.000000;2.609760
1996.000000;2.671284
1995.000000;2.918743
1994.000000;3.144342
1993.000000;2.922964
1992.000000;2.757665
1991.000000;2.731084
1990.000000;2.874102
1989.000000;3.094903
1988.000000;3.105371
1987.000000;3.136104
1986.000000;2.879363
1985.000000;2.637709
1984.000000;2.571888
1983.000000;2.596719
1982.000000;2.687060
1981.000000;2.796363
1980.000000;2.933400
1979.000000;3.394016
1978.000000;3.693249
1977.000000;3.542789
1976.000000;3.815966
1975.000000;3.566602
1974.000000;3.449943
1973.000000;3.300788
1972.000000;3.083601
1971.000000;3.114439
1970.000000;3.737629
1969.000000;3.161003
1968.000000;2.697198
1967.000000;2.527868
1966.000000;2.471998
1965.000000;2.525762
1964.000000;2.685835
1963.000000;3.005808
1962.000000;3.081111
1961.000000;2.830215
1960.000000;2.761222
1959.000000;2.821299
1958.000000;2.957346
1957.000000;2.891285
1956.000000;2.608802
1955.000000;2.406127
1954.000000;2.329177
1953.000000;2.359216
1952.000000;2.477700
1951.000000;2.646193
1950.000000;2.790603
1949.000000;3.182977
1948.000000;3.268819
1947.000000;2.834361
1946.000000;2.747438
1945.000000;2.863566
1944.000000;3.313436
1943.000000;3.295376
1942.000000;2.888567
1941.000000;2.807482
1940.000000;2.841000
1939.000000;2.689409
1938.000000;2.473902
1937.000000;2.418843
1936.000000;2.504843
1935.000000;2.795263
1934.000000;3.164517
1933.000000;2.883353
1932.000000;2.701809
1931.000000;2.591517
1930.000000;2.544367
1929.000000;2.629821
1928.000000;2.851122
1927.000000;2.896716
1926.000000;2.704535
1925.000000;2.648294
1924.000000;2.741056
1923.000000;2.937096
1922.000000;3.030016
1921.000000;2.897789
1920.000000;2.608143
1919.000000;2.397006
1918.000000;2.314626
1917.000000;2.287626
1916.000000;2.263211
1915.000000;2.246924
1914.000000;2.272855
1913.000000;2.353506
1912.000000;2.493598
1911.000000;2.706919
1910.000000;2.803278
1909.000000;2.706490
1908.000000;2.652623
1907.000000;2.557708
1906.000000;2.403409
1905.000000;2.288136
1904.000000;2.244014
1903.000000;2.276120
1902.000000;2.375655
1901.000000;2.520659
1900.000000;2.665862
1899.000000;2.771224
1898.000000;2.819074
1897.000000;2.781422
1896.000000;2.708015
1895.000000;2.669459
1894.000000;2.697009
1893.000000;2.786649
1892.000000;2.957033
1891.000000;3.003607
1890.000000;3.004417
1889.000000;3.134930
1888.000000;2.864447
1887.000000;2.664101
1886.000000;2.646156
1885.000000;2.659942
1884.000000;2.686141
1883.000000;2.764452
1882.000000;3.045582
1881.000000;3.266833
1880.000000;2.900025
1879.000000;2.701699
1878.000000;2.617764
1877.000000;2.626225
1876.000000;2.722203
1875.000000;2.779249
1874.000000;2.654503
1873.000000;2.530960
1872.000000;2.530909
1871.000000;2.644326
1870.000000;2.997716
1869.000000;3.218415
1868.000000;2.906018
1867.000000;2.874287
1866.000000;2.950962
1865.000000;3.003024
1864.000000;3.192463
1863.000000;3.464196
1862.000000;3.098015
1861.000000;3.057693
1860.000000;3.315631
1859.000000;2.814442
1858.000000;2.490615
1857.000000;2.364142
1856.000000;2.353248
1855.000000;2.436901
1854.000000;2.542697
1853.000000;2.624926
1852.000000;2.697698
1851.000000;2.792255
1850.000000;2.853195
1849.000000;2.797169
1848.000000;2.777147
1847.000000;2.880577
1846.000000;3.165122
1845.000000;3.406461
1844.000000;3.040300
1843.000000;2.819719
1842.000000;2.739140
1841.000000;2.712159
1840.000000;2.712820
1839.000000;2.679582
1838.000000;2.634045
1837.000000;2.595974
1836.000000;2.625123
1835.000000;2.719936
1834.000000;2.965929
1833.000000;3.438706
1832.000000;2.988885
1831.000000;2.729054
1830.000000;2.729682
1829.000000;2.878800
1828.000000;2.933117
1827.000000;2.889216
1826.000000;2.998924
1825.000000;2.834071
1824.000000;2.580847
1823.000000;2.504451
1822.000000;2.539189
1821.000000;2.610080
1820.000000;3.009969
1819.000000;3.356786
1818.000000;2.706143
1817.000000;2.585963
1816.000000;2.562411
1815.000000;2.520715
1814.000000;2.525497
1813.000000;2.545366
1812.000000;2.590368
1811.000000;2.660697
1810.000000;2.838712
1809.000000;3.290446
1808.000000;3.224372
1807.000000;2.848081
1806.000000;2.715407
1805.000000;2.704467
1804.000000;2.786492
1803.000000;2.816066
1802.000000;2.789532
1801.000000;2.802476
1800.000000;2.889683
1799.000000;2.979001
1798.000000;3.227053
1797.000000;3.433715
1796.000000;2.949565
1795.000000;2.759213
1794.000000;2.782453
1793.000000;3.133381
1792.000000;3.014178
1791.000000;2.627956
1790.000000;2.569932
1789.000000;2.617654
1788.000000;2.729098
1787.000000;2.765092
1786.000000;2.737735
1785.000000;2.748109
1784.000000;2.700458
1783.000000;2.663649
1782.000000;2.681348
1781.000000;2.722500
1780.000000;2.752221
1779.000000;2.839914
1778.000000;3.090041
1777.000000;3.125418
1776.000000;2.949595
1775.000000;2.900826
1774.000000;2.819448
1773.000000;2.724023
1772.000000;2.723369
1771.000000;2.774116
1770.000000;2.846583
1769.000000;2.846186
1768.000000;2.685980
1767.000000;2.613592
1766.000000;2.709939
1765.000000;3.036819
1764.000000;3.186950
1763.000000;2.807766
1762.000000;2.663811
1761.000000;2.596168
1760.000000;2.534658
1759.000000;2.487879
1758.000000;2.499301
1757.000000;2.814589
1756.000000;3.165098
1755.000000;2.861321
1754.000000;2.960055
1753.000000;3.205161
1752.000000;2.966816
1751.000000;2.777480
1750.000000;2.729420
1749.000000;2.769409
1748.000000;2.916397
1747.000000;3.163311
1746.000000;3.450634
1745.000000;3.476424
1744.000000;3.318860
1743.000000;3.414887
1742.000000;3.199723
1741.000000;2.785054
1740.000000;2.692564
1739.000000;2.875677
1738.000000;3.026975
1737.000000;2.946994
1736.000000;2.975622
1735.000000;3.276035
1734.000000;3.225633
1733.000000;2.948015
1732.000000;2.952822
1731.000000;3.006539
1730.000000;3.024686
1729.000000;2.862988
1728.000000;2.711361
1727.000000;2.691852
1726.000000;2.839219
1725.000000;2.995177
1724.000000;2.795750
1723.000000;2.709469
1722.000000;2.784717
1721.000000;2.849331
1720.000000;2.837247
1719.000000;2.849092
1718.000000;2.975999
1717.000000;3.332395
1716.000000;3.638718
1715.000000;3.147068
1714.000000;2.927568
1713.000000;2.887445
1712.000000;2.924195
1711.000000;2.896896
1710.000000;2.846678
1709.000000;2.873898
1708.000000;2.952225
1707.000000;2.979182
1706.000000;3.026270
1705.000000;3.294227
1704.000000;3.232685
1703.000000;3.003479
1702.000000;2.932001
1701.000000;3.088329
1700.000000;3.305273
1699.000000;3.261494
1698.000000;3.244549
1697.000000;3.001668
1696.000000;2.836739
1695.000000;2.968835
1694.000000;3.311840
1693.000000;3.332540
1692.000000;3.300195
1691.000000;3.079925
1690.000000;2.928017
1689.000000;3.276716
1688.000000;3.762530
1687.000000;3.012595
1686.000000;2.854962
1685.000000;2.789057
1684.000000;2.853677
1683.000000;3.065872
1682.000000;3.146684
1681.000000;3.280875
1680.000000;3.686167
1679.000000;3.398500
1678.000000;3.129426
1677.000000;2.880773
1676.000000;2.544816
1675.000000;2.412653
1674.000000;2.471615
1673.000000;2.619894
1672.000000;2.693992
1671.000000;2.678105
1670.000000;2.631259
1669.000000;2.733011
1668.000000;3.153639
1667.000000;2.967953
1666.000000;2.733099
1665.000000;2.779426
1664.000000;2.959855
1663.000000;2.962606
1662.000000;2.809290
1661.000000;2.827248
1660.000000;2.912479
1659.000000;2.923687
1658.000000;2.823618
1657.000000;2.732267
1656.000000;2.705636
1655.000000;2.710024
1654.000000;2.658966
1653.000000;2.723310
1652.000000;2.947395
1651.000000;2.850863
1650.000000;2.725604
1649.000000;2.768830
1648.000000;2.899662
1647.000000;2.827439
1646.000000;2.695358
1645.000000;2.669217
1644.000000;2.655966
1643.000000;2.718933
1642.000000;2.894707
1641.000000;2.915877
1640.000000;2.891278
1639.000000;3.011140
1638.000000;3.005079
1637.000000;2.773901
1636.000000;2.517739
1635.000000;2.379556
1634.000000;2.379761
1633.000000;2.449121
1632.000000;2.530031
1631.000000;2.614251
1630.000000;2.708037
1629.000000;2.841096
1628.000000;2.991745
1627.000000;3.095484
1626.000000;3.178982
1625.000000;3.064524
1624.000000;2.879964
1623.000000;2.792155
1622.000000;2.739093
1621.000000;2.720676
1620.000000;2.833820
1619.000000;3.149299
1618.000000;3.450021
1617.000000;3.146836
1616.000000;2.751325
1615.000000;2.574395
1614.000000;2.585758
1613.000000;2.719344
1612.000000;2.838927
1611.000000;2.824950
1610.000000;2.825297
1609.000000;2.839664
1608.000000;2.853559
1607.000000;2.911135
1606.000000;3.029710
1605.000000;3.280713
1604.000000;3.077205
1603.000000;2.781259
1602.000000;2.691610
1601.000000;2.686164
1600.000000;2.753259
1599.000000;2.903977
1598.000000;3.318046
1597.000000;3.542241
1596.000000;3.075095
1595.000000;2.912526
1594.000000;2.826608
1593.000000;2.886422
1592.000000;3.072862
1591.000000;2.977328
1590.000000;2.894187
1589.000000;2.905262
1588.000000;2.840237
1587.000000;2.739671
1586.000000;2.692399
1585.000000;2.770930
1584.000000;3.061623
1583.000000;3.369193
1582.000000;3.065313
1581.000000;2.754648
1580.000000;2.571811
1579.000000;2.515506
1578.000000;2.539264
1577.000000;2.613097
1576.000000;2.776089
1575.000000;3.104234
1574.000000;3.582719
1573.000000;3.460899
1572.000000;3.302844
1571.000000;3.613867
1570.000000;3.539206
1569.000000;3.098357
1568.000000;2.952363
1567.000000;2.912628
1566.000000;2.937053
1565.000000;3.030018
1564.000000;3.046876
1563.000000;3.038590
1562.000000;3.120365
1561.000000;3.338386
1560.000000;3.428058
1559.000000;2.862727
1558.000000;2.605416
1557.000000;2.570314
1556.000000;2.614263
1555.000000;2.678189
1554.000000;2.689764
1553.000000;2.655377
1552.000000;2.592286
1551.000000;2.524844
1550.000000;2.527102
1549.000000;2.643904
1548.000000;2.774850
1547.000000;2.794331
1546.000000;2.773629
1545.000000;2.854491
1544.000000;3.018862
1543.000000;2.946019
1542.000000;2.822169
1541.000000;2.790854
1540.000000;2.804975
1539.000000;2.747749
1538.000000;2.663557
1537.000000;2.643728
1536.000000;2.644696
1535.000000;2.644008
1534.000000;2.757074
1533.000000;3.184935
1532.000000;3.368455
1531.000000;3.215505
1530.000000;3.520754
1529.000000;3.798614
1528.000000;3.846060
1527.000000;3.508775
1526.000000;3.249871
1525.000000;3.112139
1524.000000;2.942485
1523.000000;2.850738
1522.000000;2.942183
1521.000000;3.161191
1520.000000;2.957390
1519.000000;2.767248
1518.000000;2.742753
1517.000000;2.716582
1516.000000;2.637338
1515.000000;2.538355
1514.000000;2.460336
1513.000000;2.408214
1512.000000;2.441437
1511.000000;2.609718
1510.000000;2.772817
1509.000000;2.789682
1508.000000;2.802276
1507.000000;2.824648
1506.000000;2.847873
1505.000000;2.928611
1504.000000;2.969738
1503.000000;2.860180
1502.000000;2.778984
1501.000000;2.791496
1500.000000;2.829115
1499.000000;2.871052
1498.000000;2.992195
1497.000000;3.091152
1496.000000;3.031282
1495.000000;2.946301
1494.000000;2.862266
1493.000000;2.855523
1492.000000;2.930154
1491.000000;2.953542
1490.000000;2.906582
1489.000000;2.829041
1488.000000;2.722927
1487.000000;2.642479
1486.000000;2.642913
1485.000000;2.736547
1484.000000;2.764141
1483.000000;2.644062
1482.000000;2.568912
1481.000000;2.606902
1480.000000;2.736728
1479.000000;2.839713
1478.000000;2.843606
1477.000000;2.847592
1476.000000;2.917142
1475.000000;3.069064
1474.000000;3.151224
1473.000000;3.048314
1472.000000;3.166079
1471.000000;3.167938
1470.000000;2.872603
1469.000000;2.806973
1468.000000;2.923420
1467.000000;3.456608
1466.000000;3.403121
1465.000000;3.013562
1464.000000;3.087833
1463.000000;3.151336
1462.000000;3.039219
1461.000000;2.860047
1460.000000;2.724583
1459.000000;2.636775
1458.000000;2.558340
1457.000000;2.506342
1456.000000;2.531015
1455.000000;2.623028
1454.000000;2.755054
1453.000000;2.933314
1452.000000;2.960987
1451.000000;2.974284
1450.000000;3.147714
1449.000000;3.088024
1448.000000;2.855857
1447.000000;2.666400
1446.000000;2.577984
1445.000000;2.629074
1444.000000;2.842410
1443.000000;3.390863
1442.000000;4.013982
1441.000000;3.102118
1440.000000;2.827966
1439.000000;2.729947
1438.000000;2.792378
1437.000000;3.355487
1436.000000;2.989906
1435.000000;2.565217
1434.000000;2.469694
1433.000000;2.437671
1432.000000;2.480788
1431.000000;2.557190
1430.000000;2.675259
1429.000000;2.859813
1428.000000;3.192820
1427.000000;4.065196
1426.000000;3.746770
1425.000000;3.119095
1424.000000;2.724369
1423.000000;2.583025
1422.000000;2.600135
1421.000000;2.693528
1420.000000;2.783616
1419.000000;3.040211
1418.000000;3.453948
1417.000000;2.845551
1416.000000;2.563293
1415.000000;2.474291
1414.000000;2.508137
1413.000000;2.731729
1412.000000;3.039695
1411.000000;2.861032
1410.000000;2.699257
1409.000000;2.728452
1408.000000;2.858203
1407.000000;2.877934
1406.000000;2.730194
1405.000000;2.641571
1404.000000;2.675142
1403.000000;2.831985
1402.000000;3.192659
1401.000000;3.506387
1400.000000;2.987597
1399.000000;2.765757
1398.000000;2.871459
1397.000000;3.186058
1396.000000;2.874336
1395.000000;2.681545
1394.000000;2.715198
1393.000000;2.806957
1392.000000;2.852336
1391.000000;3.025347
1390.000000;3.207618
1389.000000;2.843413
1388.000000;2.657299
1387.000000;2.672380
1386.000000;2.820717
1385.000000;2.974248
1384.000000;2.935862
1383.000000;2.851644
1382.000000;2.815683
1381.000000;2.831367
1380.000000;2.862243
1379.000000;2.987449
1378.000000;3.382082
1377.000000;3.263970
1376.000000;3.059280
1375.000000;2.932480
1374.000000;2.793895
1373.000000;2.706041
1372.000000;2.909085
1371.000000;3.442536
1370.000000;2.764730
1369.000000;2.627915
1368.000000;2.751358
1367.000000;3.005801
1366.000000;3.278973
1365.000000;3.194624
1364.000000;3.106249
1363.000000;3.049701
1362.000000;3.026615
1361.000000;2.938643
1360.000000;2.877057
1359.000000;3.072168
1358.000000;3.100051
1357.000000;2.773649
1356.000000;2.621742
1355.000000;2.583860
1354.000000;2.606297
1353.000000;2.740252
1352.000000;3.090211
1351.000000;2.957162
1350.000000;2.790625
1349.000000;2.891928
1348.000000;2.954450
1347.000000;2.806579
1346.000000;2.542538
1345.000000;2.406642
1344.000000;2.435220
1343.000000;2.673447
1342.000000;3.260735
1341.000000;3.121595
1340.000000;2.835521
1339.000000;2.802661
1338.000000;2.798276
1337.000000;2.727873
1336.000000;2.645677
1335.000000;2.629418
1334.000000;2.700625
1333.000000;2.934043
1332.000000;3.296778
1331.000000;3.163731
1330.000000;2.932409
1329.000000;2.844987
1328.000000;2.803108
1327.000000;2.832899
1326.000000;2.922564
1325.000000;2.774641
1324.000000;2.540766
1323.000000;2.408303
1322.000000;2.376716
1321.000000;2.453542
1320.000000;2.656565
1319.000000;2.917868
1318.000000;2.849252
1317.000000;2.595619
1316.000000;2.443503
1315.000000;2.434257
1314.000000;2.594437
1313.000000;2.937919
1312.000000;3.200730
1311.000000;3.164204
1310.000000;3.029436
1309.000000;2.847506
1308.000000;2.753839
1307.000000;2.765777
1306.000000;2.908353
1305.000000;2.969933
1304.000000;2.786308
1303.000000;2.692325
1302.000000;2.761758
1301.000000;2.942044
1300.000000;3.016683
1299.000000;2.943782
1298.000000;2.888870
1297.000000;2.830154
1296.000000;2.708123
1295.000000;2.576668
1294.000000;2.507398
1293.000000;2.515501
1292.000000;2.594232
1291.000000;2.765316
1290.000000;3.181600
1289.000000;3.221569
1288.000000;2.812694
1287.000000;2.738066
1286.000000;2.881282
1285.000000;2.956825
1284.000000;2.725604
1283.000000;2.598402
1282.000000;2.580897
1281.000000;2.633787
1280.000000;2.728961
1279.000000;2.776976
1278.000000;2.757166
1277.000000;2.736721
1276.000000;2.731456
1275.000000;2.705043
1274.000000;2.739787
1273.000000;2.894901
1272.000000;3.045795
1271.000000;2.974407
1270.000000;2.739540
1269.000000;2.560647
1268.000000;2.497483
1267.000000;2.511891
1266.000000;2.577694
1265.000000;2.659729
1264.000000;2.649002
1263.000000;2.610627
1262.000000;2.660351
1261.000000;2.781738
1260.000000;2.925247
1259.000000;3.136338
1258.000000;3.311412
1257.000000;3.115025
1256.000000;2.947051
1255.000000;2.916926
1254.000000;2.871300
1253.000000;2.762952
1252.000000;2.682205
1251.000000;2.660081
1250.000000;2.693540
1249.000000;2.857802
1248.000000;3.278039
1247.000000;3.470900
1246.000000;3.273172
1245.000000;3.044184
1244.000000;2.847794
1243.000000;2.719209
1242.000000;2.632069
1241.000000;2.629181
1240.000000;2.615639
1239.000000;2.522501
1238.000000;2.464434
1237.000000;2.487061
1236.000000;2.622125
1235.000000;2.985463
1234.000000;3.152973
1233.000000;2.889806
1232.000000;2.940290
1231.000000;3.122574
1230.000000;3.303683
1229.000000;3.207770
1228.000000;2.890721
1227.000000;2.706598
1226.000000;2.629433
1225.000000;2.629880
1224.000000;2.727842
1223.000000;2.778380
1222.000000;2.666945
1221.000000;2.559036
1220.000000;2.514306
1219.000000;2.528042
1218.000000;2.618461
1217.000000;2.983950
1216.000000;2.934356
1215.000000;2.542409
1214.000000;2.436837
1213.000000;2.545029
1212.000000;2.992029
1211.000000;3.128963
1210.000000;2.760255
1209.000000;2.696891
1208.000000;2.777980
1207.000000;3.090786
1206.000000;3.409081
1205.000000;3.107482
1204.000000;3.007332
1203.000000;2.947103
1202.000000;2.862123
1201.000000;2.816758
1200.000000;2.847896
