Criado como novo conjunto de dados;"e0108.spp","-4285605.1 Secs"
cm-1;Abs
10000.000000;0.907087
9999.000000;0.905587
9998.000000;0.904092
9997.000000;0.902603
9996.000000;0.901117
9995.000000;0.899639
9994.000000;0.898162
9993.000000;0.896696
9992.000000;0.895225
9991.000000;0.893777
9990.000000;0.892294
9989.000000;0.891024
9988.000000;0.890244
9987.000000;0.889942
9986.000000;0.890100
9985.000000;0.890483
9984.000000;0.890627
9983.000000;0.890253
9982.000000;0.889569
9981.000000;0.888866
9980.000000;0.888089
9979.000000;0.887092
9978.000000;0.886132
9977.000000;0.885778
9976.000000;0.886373
9975.000000;0.887755
9974.000000;0.889333
9973.000000;0.890312
9972.000000;0.890111
9971.000000;0.888862
9970.000000;0.887333
9969.000000;0.886140
9968.000000;0.885196
9967.000000;0.884162
9966.000000;0.883106
9965.000000;0.882367
9964.000000;0.882057
9963.000000;0.882156
9962.000000;0.882876
9961.000000;0.884290
9960.000000;0.885628
9959.000000;0.885687
9958.000000;0.884216
9957.000000;0.882433
9956.000000;0.881800
9955.000000;0.882578
9954.000000;0.883792
9953.000000;0.884394
9952.000000;0.884126
9951.000000;0.883417
9950.000000;0.882775
9949.000000;0.882387
9948.000000;0.882093
9947.000000;0.881586
9946.000000;0.880658
9945.000000;0.879374
9944.000000;0.878113
9943.000000;0.877369
9942.000000;0.877302
9941.000000;0.877387
9940.000000;0.876766
9939.000000;0.875191
9938.000000;0.873479
9937.000000;0.872775
9936.000000;0.873414
9935.000000;0.874690
9934.000000;0.875613
9933.000000;0.875618
9932.000000;0.874714
9931.000000;0.873390
9930.000000;0.872454
9929.000000;0.872564
9928.000000;0.873662
9927.000000;0.874993
9926.000000;0.875749
9925.000000;0.875560
9924.000000;0.874440
9923.000000;0.872650
9922.000000;0.870788
9921.000000;0.869632
9920.000000;0.869549
9919.000000;0.870158
9918.000000;0.870817
9917.000000;0.871367
9916.000000;0.872139
9915.000000;0.873258
9914.000000;0.874199
9913.000000;0.874155
9912.000000;0.872785
9911.000000;0.870569
9910.000000;0.868460
9909.000000;0.867176
9908.000000;0.866744
9907.000000;0.866626
9906.000000;0.866275
9905.000000;0.865613
9904.000000;0.865052
9903.000000;0.865050
9902.000000;0.865575
9901.000000;0.866001
9900.000000;0.865651
9899.000000;0.864489
9898.000000;0.863190
9897.000000;0.862450
9896.000000;0.862378
9895.000000;0.862620
9894.000000;0.862880
9893.000000;0.863066
9892.000000;0.863044
9891.000000;0.862542
9890.000000;0.861388
9889.000000;0.859746
9888.000000;0.858163
9887.000000;0.857367
9886.000000;0.857772
9885.000000;0.858957
9884.000000;0.859808
9883.000000;0.859545
9882.000000;0.858529
9881.000000;0.857704
9880.000000;0.857394
9879.000000;0.857130
9878.000000;0.856604
9877.000000;0.856204
9876.000000;0.856371
9875.000000;0.856860
9874.000000;0.857018
9873.000000;0.856582
9872.000000;0.855837
9871.000000;0.855109
9870.000000;0.854460
9869.000000;0.853848
9868.000000;0.853315
9867.000000;0.852931
9866.000000;0.852646
9865.000000;0.852246
9864.000000;0.851484
9863.000000;0.850390
9862.000000;0.849419
9861.000000;0.849127
9860.000000;0.849550
9859.000000;0.850055
9858.000000;0.849940
9857.000000;0.849095
9856.000000;0.847979
9855.000000;0.847122
9854.000000;0.846819
9853.000000;0.847127
9852.000000;0.847887
9851.000000;0.848756
9850.000000;0.849416
9849.000000;0.849735
9848.000000;0.849613
9847.000000;0.848825
9846.000000;0.847311
9845.000000;0.845556
9844.000000;0.844330
9843.000000;0.843926
9842.000000;0.843921
9841.000000;0.843801
9840.000000;0.843559
9839.000000;0.843496
9838.000000;0.843697
9837.000000;0.844033
9836.000000;0.844546
9835.000000;0.845364
9834.000000;0.846151
9833.000000;0.846046
9832.000000;0.844516
9831.000000;0.842158
9830.000000;0.840329
9829.000000;0.839953
9828.000000;0.840832
9827.000000;0.842083
9826.000000;0.842995
9825.000000;0.843412
9824.000000;0.843466
9823.000000;0.843148
9822.000000;0.842239
9821.000000;0.840659
9820.000000;0.838823
9819.000000;0.837455
9818.000000;0.836970
9817.000000;0.837120
9816.000000;0.837370
9815.000000;0.837466
9814.000000;0.837462
9813.000000;0.837356
9812.000000;0.837053
9811.000000;0.836654
9810.000000;0.836420
9809.000000;0.836371
9808.000000;0.836218
9807.000000;0.835825
9806.000000;0.835423
9805.000000;0.835202
9804.000000;0.834990
9803.000000;0.834553
9802.000000;0.833954
9801.000000;0.833404
9800.000000;0.832983
9799.000000;0.832669
9798.000000;0.832390
9797.000000;0.831860
9796.000000;0.830751
9795.000000;0.829347
9794.000000;0.828631
9793.000000;0.829217
9792.000000;0.830446
9791.000000;0.831089
9790.000000;0.830751
9789.000000;0.830087
9788.000000;0.829735
9787.000000;0.829640
9786.000000;0.829457
9785.000000;0.828991
9784.000000;0.828149
9783.000000;0.826992
9782.000000;0.826038
9781.000000;0.825950
9780.000000;0.826623
9779.000000;0.827049
9778.000000;0.826483
9777.000000;0.825401
9776.000000;0.824874
9775.000000;0.825236
9774.000000;0.825800
9773.000000;0.825768
9772.000000;0.825038
9771.000000;0.824148
9770.000000;0.823707
9769.000000;0.823859
9768.000000;0.824122
9767.000000;0.823769
9766.000000;0.822583
9765.000000;0.821227
9764.000000;0.820662
9763.000000;0.821188
9762.000000;0.822157
9761.000000;0.822606
9760.000000;0.822089
9759.000000;0.820927
9758.000000;0.819799
9757.000000;0.819158
9756.000000;0.818999
9755.000000;0.819054
9754.000000;0.819102
9753.000000;0.819060
9752.000000;0.818928
9751.000000;0.818777
9750.000000;0.818725
9749.000000;0.818752
9748.000000;0.818604
9747.000000;0.818085
9746.000000;0.817400
9745.000000;0.816944
9744.000000;0.816807
9743.000000;0.816702
9742.000000;0.816409
9741.000000;0.816018
9740.000000;0.815665
9739.000000;0.815302
9738.000000;0.814872
9737.000000;0.814490
9736.000000;0.814313
9735.000000;0.814415
9734.000000;0.814869
9733.000000;0.815687
9732.000000;0.816556
9731.000000;0.816878
9730.000000;0.816332
9729.000000;0.815240
9728.000000;0.814208
9727.000000;0.813532
9726.000000;0.813104
9725.000000;0.812704
9724.000000;0.812133
9723.000000;0.811226
9722.000000;0.809973
9721.000000;0.808603
9720.000000;0.807386
9719.000000;0.806432
9718.000000;0.805802
9717.000000;0.805642
9716.000000;0.806022
9715.000000;0.806683
9714.000000;0.807165
9713.000000;0.807202
9712.000000;0.806942
9711.000000;0.806780
9710.000000;0.807001
9709.000000;0.807482
9708.000000;0.807745
9707.000000;0.807428
9706.000000;0.806758
9705.000000;0.806352
9704.000000;0.806507
9703.000000;0.806845
9702.000000;0.806832
9701.000000;0.806402
9700.000000;0.805840
9699.000000;0.805224
9698.000000;0.804348
9697.000000;0.803209
9696.000000;0.802289
9695.000000;0.802240
9694.000000;0.803292
9693.000000;0.804896
9692.000000;0.805908
9691.000000;0.805360
9690.000000;0.803311
9689.000000;0.800891
9688.000000;0.799321
9687.000000;0.798881
9686.000000;0.798915
9685.000000;0.798691
9684.000000;0.798071
9683.000000;0.797402
9682.000000;0.797001
9681.000000;0.796804
9680.000000;0.796438
9679.000000;0.795641
9678.000000;0.794662
9677.000000;0.794103
9676.000000;0.794244
9675.000000;0.794685
9674.000000;0.794817
9673.000000;0.794523
9672.000000;0.794165
9671.000000;0.794019
9670.000000;0.794040
9669.000000;0.794144
9668.000000;0.794340
9667.000000;0.794531
9666.000000;0.794472
9665.000000;0.794068
9664.000000;0.793527
9663.000000;0.793074
9662.000000;0.792680
9661.000000;0.792196
9660.000000;0.791601
9659.000000;0.791002
9658.000000;0.790492
9657.000000;0.790141
9656.000000;0.790032
9655.000000;0.790139
9654.000000;0.790213
9653.000000;0.789947
9652.000000;0.789313
9651.000000;0.788685
9650.000000;0.788520
9649.000000;0.788916
9648.000000;0.789495
9647.000000;0.789726
9646.000000;0.789375
9645.000000;0.788626
9644.000000;0.787848
9643.000000;0.787344
9642.000000;0.787262
9641.000000;0.787545
9640.000000;0.787855
9639.000000;0.787725
9638.000000;0.786987
9637.000000;0.786004
9636.000000;0.785313
9635.000000;0.785076
9634.000000;0.784990
9633.000000;0.784688
9632.000000;0.784112
9631.000000;0.783491
9630.000000;0.783109
9629.000000;0.783084
9628.000000;0.783254
9627.000000;0.783251
9626.000000;0.782819
9625.000000;0.782085
9624.000000;0.781436
9623.000000;0.781129
9622.000000;0.781097
9621.000000;0.781116
9620.000000;0.781058
9619.000000;0.780940
9618.000000;0.780827
9617.000000;0.780747
9616.000000;0.780662
9615.000000;0.780515
9614.000000;0.780284
9613.000000;0.779962
9612.000000;0.779509
9611.000000;0.778913
9610.000000;0.778308
9609.000000;0.777872
9608.000000;0.777563
9607.000000;0.777180
9606.000000;0.776816
9605.000000;0.776974
9604.000000;0.777886
9603.000000;0.778902
9602.000000;0.778972
9601.000000;0.777828
9600.000000;0.776360
9599.000000;0.775678
9598.000000;0.776061
9597.000000;0.776904
9596.000000;0.777409
9595.000000;0.777147
9594.000000;0.776206
9593.000000;0.775070
9592.000000;0.774256
9591.000000;0.773854
9590.000000;0.773465
9589.000000;0.772737
9588.000000;0.771831
9587.000000;0.771193
9586.000000;0.771010
9585.000000;0.771137
9584.000000;0.771493
9583.000000;0.772180
9582.000000;0.773127
9581.000000;0.773878
9580.000000;0.773920
9579.000000;0.773159
9578.000000;0.771930
9577.000000;0.770655
9576.000000;0.769588
9575.000000;0.768841
9574.000000;0.768468
9573.000000;0.768441
9572.000000;0.768607
9571.000000;0.768724
9570.000000;0.768609
9569.000000;0.768308
9568.000000;0.768134
9567.000000;0.768449
9566.000000;0.769255
9565.000000;0.770016
9564.000000;0.770039
9563.000000;0.769144
9562.000000;0.767920
9561.000000;0.767225
9560.000000;0.767413
9559.000000;0.768037
9558.000000;0.768261
9557.000000;0.767603
9556.000000;0.766373
9555.000000;0.765387
9554.000000;0.765196
9553.000000;0.765595
9552.000000;0.765921
9551.000000;0.765797
9550.000000;0.765415
9549.000000;0.765068
9548.000000;0.764649
9547.000000;0.763851
9546.000000;0.762731
9545.000000;0.761740
9544.000000;0.761175
9543.000000;0.760885
9542.000000;0.760616
9541.000000;0.760397
9540.000000;0.760411
9539.000000;0.760650
9538.000000;0.760922
9537.000000;0.761107
9536.000000;0.761176
9535.000000;0.761026
9534.000000;0.760515
9533.000000;0.759721
9532.000000;0.758940
9531.000000;0.758330
9530.000000;0.757677
9529.000000;0.756690
9528.000000;0.755499
9527.000000;0.754722
9526.000000;0.754934
9525.000000;0.756118
9524.000000;0.757673
9523.000000;0.758906
9522.000000;0.759399
9521.000000;0.758994
9520.000000;0.757724
9519.000000;0.756012
9518.000000;0.754706
9517.000000;0.754496
9516.000000;0.755206
9515.000000;0.755921
9514.000000;0.755939
9513.000000;0.755416
9512.000000;0.754995
9511.000000;0.755050
9510.000000;0.755489
9509.000000;0.756041
9508.000000;0.756434
9507.000000;0.756404
9506.000000;0.755846
9505.000000;0.754976
9504.000000;0.754147
9503.000000;0.753499
9502.000000;0.752904
9501.000000;0.752204
9500.000000;0.751355
9499.000000;0.750410
9498.000000;0.749554
9497.000000;0.749097
9496.000000;0.749216
9495.000000;0.749724
9494.000000;0.750244
9493.000000;0.750596
9492.000000;0.750807
9491.000000;0.750811
9490.000000;0.750467
9489.000000;0.749888
9488.000000;0.749424
9487.000000;0.749195
9486.000000;0.748962
9485.000000;0.748613
9484.000000;0.748489
9483.000000;0.748921
9482.000000;0.749645
9481.000000;0.749977
9480.000000;0.749533
9479.000000;0.748515
9478.000000;0.747344
9477.000000;0.746278
9476.000000;0.745476
9475.000000;0.745138
9474.000000;0.745366
9473.000000;0.745919
9472.000000;0.746270
9471.000000;0.745987
9470.000000;0.745058
9469.000000;0.743890
9468.000000;0.743013
9467.000000;0.742786
9466.000000;0.743253
9465.000000;0.744105
9464.000000;0.744747
9463.000000;0.744598
9462.000000;0.743597
9461.000000;0.742389
9460.000000;0.741811
9459.000000;0.742140
9458.000000;0.742924
9457.000000;0.743508
9456.000000;0.743523
9455.000000;0.742898
9454.000000;0.741780
9453.000000;0.740620
9452.000000;0.740052
9451.000000;0.740330
9450.000000;0.740990
9449.000000;0.741335
9448.000000;0.741205
9447.000000;0.741016
9446.000000;0.741104
9445.000000;0.741359
9444.000000;0.741575
9443.000000;0.741811
9442.000000;0.742193
9441.000000;0.742534
9440.000000;0.742413
9439.000000;0.741631
9438.000000;0.740444
9437.000000;0.739329
9436.000000;0.738632
9435.000000;0.738441
9434.000000;0.738669
9433.000000;0.739112
9432.000000;0.739453
9431.000000;0.739365
9430.000000;0.738789
9429.000000;0.738068
9428.000000;0.737677
9427.000000;0.737713
9426.000000;0.737754
9425.000000;0.737324
9424.000000;0.736412
9423.000000;0.735377
9422.000000;0.734425
9421.000000;0.733435
9420.000000;0.732336
9419.000000;0.731382
9418.000000;0.730929
9417.000000;0.731095
9416.000000;0.731774
9415.000000;0.732776
9414.000000;0.733751
9413.000000;0.734201
9412.000000;0.733894
9411.000000;0.733238
9410.000000;0.732888
9409.000000;0.732953
9408.000000;0.732909
9407.000000;0.732412
9406.000000;0.731862
9405.000000;0.731867
9404.000000;0.732395
9403.000000;0.732858
9402.000000;0.732930
9401.000000;0.732860
9400.000000;0.732885
9399.000000;0.732775
9398.000000;0.732230
9397.000000;0.731466
9396.000000;0.731005
9395.000000;0.730977
9394.000000;0.730979
9393.000000;0.730689
9392.000000;0.730313
9391.000000;0.730258
9390.000000;0.730547
9389.000000;0.730768
9388.000000;0.730529
9387.000000;0.729797
9386.000000;0.728842
9385.000000;0.727982
9384.000000;0.727410
9383.000000;0.727153
9382.000000;0.727132
9381.000000;0.727279
9380.000000;0.727562
9379.000000;0.727850
9378.000000;0.727846
9377.000000;0.727345
9376.000000;0.726578
9375.000000;0.726082
9374.000000;0.726129
9373.000000;0.726401
9372.000000;0.726377
9371.000000;0.725931
9370.000000;0.725357
9369.000000;0.724899
9368.000000;0.724519
9367.000000;0.724162
9366.000000;0.723978
9365.000000;0.724111
9364.000000;0.724430
9363.000000;0.724653
9362.000000;0.724657
9361.000000;0.724541
9360.000000;0.724410
9359.000000;0.724270
9358.000000;0.724096
9357.000000;0.723830
9356.000000;0.723362
9355.000000;0.722674
9354.000000;0.721999
9353.000000;0.721633
9352.000000;0.721559
9351.000000;0.721435
9350.000000;0.721041
9349.000000;0.720538
9348.000000;0.720192
9347.000000;0.720073
9346.000000;0.720160
9345.000000;0.720539
9344.000000;0.721225
9343.000000;0.721896
9342.000000;0.722116
9341.000000;0.721847
9340.000000;0.721457
9339.000000;0.721216
9338.000000;0.721031
9337.000000;0.720745
9336.000000;0.720416
9335.000000;0.720101
9334.000000;0.719646
9333.000000;0.718932
9332.000000;0.718201
9331.000000;0.717842
9330.000000;0.717888
9329.000000;0.717993
9328.000000;0.717938
9327.000000;0.717897
9326.000000;0.718077
9325.000000;0.718298
9324.000000;0.718160
9323.000000;0.717566
9322.000000;0.716855
9321.000000;0.716426
9320.000000;0.716352
9319.000000;0.716437
9318.000000;0.716509
9317.000000;0.716555
9316.000000;0.716579
9315.000000;0.716448
9314.000000;0.715980
9313.000000;0.715198
9312.000000;0.714427
9311.000000;0.714045
9310.000000;0.714098
9309.000000;0.714237
9308.000000;0.714117
9307.000000;0.713818
9306.000000;0.713749
9305.000000;0.714131
9304.000000;0.714720
9303.000000;0.715106
9302.000000;0.715149
9301.000000;0.714984
9300.000000;0.714712
9299.000000;0.714289
9298.000000;0.713741
9297.000000;0.713269
9296.000000;0.713048
9295.000000;0.713028
9294.000000;0.713017
9293.000000;0.712869
9292.000000;0.712521
9291.000000;0.711996
9290.000000;0.711509
9289.000000;0.711430
9288.000000;0.711910
9287.000000;0.712576
9286.000000;0.712826
9285.000000;0.712433
9284.000000;0.711697
9283.000000;0.710977
9282.000000;0.710345
9281.000000;0.709792
9280.000000;0.709487
9279.000000;0.709581
9278.000000;0.709878
9277.000000;0.709981
9276.000000;0.709763
9275.000000;0.709463
9274.000000;0.709334
9273.000000;0.709364
9272.000000;0.709387
9271.000000;0.709304
9270.000000;0.709128
9269.000000;0.708937
9268.000000;0.708835
9267.000000;0.708858
9266.000000;0.708837
9265.000000;0.708509
9264.000000;0.707870
9263.000000;0.707326
9262.000000;0.707340
9261.000000;0.707957
9260.000000;0.708743
9259.000000;0.709149
9258.000000;0.708884
9257.000000;0.708002
9256.000000;0.706786
9255.000000;0.705601
9254.000000;0.704775
9253.000000;0.704506
9252.000000;0.704798
9251.000000;0.705393
9250.000000;0.705799
9249.000000;0.705544
9248.000000;0.704572
9247.000000;0.703367
9246.000000;0.702587
9245.000000;0.702566
9244.000000;0.703150
9243.000000;0.703915
9242.000000;0.704478
9241.000000;0.704706
9240.000000;0.704775
9239.000000;0.704955
9238.000000;0.705221
9237.000000;0.705171
9236.000000;0.704536
9235.000000;0.703702
9234.000000;0.703406
9233.000000;0.703830
9232.000000;0.704289
9231.000000;0.703984
9230.000000;0.702844
9229.000000;0.701438
9228.000000;0.700293
9227.000000;0.699625
9226.000000;0.699543
9225.000000;0.700071
9224.000000;0.700900
9223.000000;0.701471
9222.000000;0.701520
9221.000000;0.701328
9220.000000;0.701245
9219.000000;0.701172
9218.000000;0.700742
9217.000000;0.699899
9216.000000;0.699059
9215.000000;0.698681
9214.000000;0.698896
9213.000000;0.699557
9212.000000;0.700434
9211.000000;0.701210
9210.000000;0.701437
9209.000000;0.700809
9208.000000;0.699589
9207.000000;0.698621
9206.000000;0.698684
9205.000000;0.699735
9204.000000;0.700866
9203.000000;0.701121
9202.000000;0.700323
9201.000000;0.699055
9200.000000;0.697934
9199.000000;0.697144
9198.000000;0.696669
9197.000000;0.696634
9196.000000;0.697151
9195.000000;0.698002
9194.000000;0.698766
9193.000000;0.699295
9192.000000;0.699782
9191.000000;0.700335
9190.000000;0.700733
9189.000000;0.700737
9188.000000;0.700404
9187.000000;0.699879
9186.000000;0.699045
9185.000000;0.697703
9184.000000;0.696080
9183.000000;0.694869
9182.000000;0.694620
9181.000000;0.695226
9180.000000;0.696093
9179.000000;0.696681
9178.000000;0.696808
9177.000000;0.696577
9176.000000;0.696188
9175.000000;0.695792
9174.000000;0.695421
9173.000000;0.695050
9172.000000;0.694773
9171.000000;0.694803
9170.000000;0.695155
9169.000000;0.695433
9168.000000;0.695151
9167.000000;0.694329
9166.000000;0.693573
9165.000000;0.693473
9164.000000;0.694019
9163.000000;0.694715
9162.000000;0.695116
9161.000000;0.695127
9160.000000;0.694879
9159.000000;0.694534
9158.000000;0.694233
9157.000000;0.694052
9156.000000;0.693906
9155.000000;0.693584
9154.000000;0.693008
9153.000000;0.692417
9152.000000;0.692198
9151.000000;0.692490
9150.000000;0.693034
9149.000000;0.693475
9148.000000;0.693752
9147.000000;0.694079
9146.000000;0.694538
9145.000000;0.694824
9144.000000;0.694543
9143.000000;0.693702
9142.000000;0.692743
9141.000000;0.692069
9140.000000;0.691691
9139.000000;0.691395
9138.000000;0.691090
9137.000000;0.690837
9136.000000;0.690662
9135.000000;0.690521
9134.000000;0.690435
9133.000000;0.690493
9132.000000;0.690656
9131.000000;0.690694
9130.000000;0.690399
9129.000000;0.689803
9128.000000;0.689155
9127.000000;0.688743
9126.000000;0.688760
9125.000000;0.689228
9124.000000;0.689943
9123.000000;0.690556
9122.000000;0.690808
9121.000000;0.690720
9120.000000;0.690526
9119.000000;0.690432
9118.000000;0.690472
9117.000000;0.690523
9116.000000;0.690431
9115.000000;0.690116
9114.000000;0.689643
9113.000000;0.689197
9112.000000;0.688926
9111.000000;0.688786
9110.000000;0.688548
9109.000000;0.688009
9108.000000;0.687214
9107.000000;0.686468
9106.000000;0.686104
9105.000000;0.686258
9104.000000;0.686858
9103.000000;0.687784
9102.000000;0.688905
9101.000000;0.689963
9100.000000;0.690584
9099.000000;0.690554
9098.000000;0.690042
9097.000000;0.689383
9096.000000;0.688709
9095.000000;0.687931
9094.000000;0.687108
9093.000000;0.686581
9092.000000;0.686624
9091.000000;0.687098
9090.000000;0.687580
9089.000000;0.687777
9088.000000;0.687702
9087.000000;0.687499
9086.000000;0.687232
9085.000000;0.686832
9084.000000;0.686166
9083.000000;0.685205
9082.000000;0.684204
9081.000000;0.683633
9080.000000;0.683782
9079.000000;0.684467
9078.000000;0.685226
9077.000000;0.685759
9076.000000;0.686045
9075.000000;0.686111
9074.000000;0.685969
9073.000000;0.685783
9072.000000;0.685797
9071.000000;0.685956
9070.000000;0.685852
9069.000000;0.685233
9068.000000;0.684412
9067.000000;0.683922
9066.000000;0.683904
9065.000000;0.684083
9064.000000;0.684244
9063.000000;0.684432
9062.000000;0.684672
9061.000000;0.684779
9060.000000;0.684575
9059.000000;0.684127
9058.000000;0.683645
9057.000000;0.683302
9056.000000;0.683208
9055.000000;0.683403
9054.000000;0.683737
9053.000000;0.683925
9052.000000;0.683867
9051.000000;0.683796
9050.000000;0.683935
9049.000000;0.684121
9048.000000;0.683997
9047.000000;0.683545
9046.000000;0.683177
9045.000000;0.683233
9044.000000;0.683581
9043.000000;0.683785
9042.000000;0.683567
9041.000000;0.683017
9040.000000;0.682426
9039.000000;0.682022
9038.000000;0.681845
9037.000000;0.681807
9036.000000;0.681870
9035.000000;0.682110
9034.000000;0.682546
9033.000000;0.682953
9032.000000;0.683014
9031.000000;0.682663
9030.000000;0.682181
9029.000000;0.681902
9028.000000;0.681916
9027.000000;0.682097
9026.000000;0.682256
9025.000000;0.682196
9024.000000;0.681791
9023.000000;0.681159
9022.000000;0.680677
9021.000000;0.680619
9020.000000;0.680812
9019.000000;0.680834
9018.000000;0.680529
9017.000000;0.680167
9016.000000;0.680073
9015.000000;0.680228
9014.000000;0.680328
9013.000000;0.680149
9012.000000;0.679762
9011.000000;0.679444
9010.000000;0.679417
9009.000000;0.679679
9008.000000;0.680046
9007.000000;0.680379
9006.000000;0.680730
9005.000000;0.681198
9004.000000;0.681670
9003.000000;0.681837
9002.000000;0.681487
9001.000000;0.680722
9000.000000;0.679829
8999.000000;0.679047
8998.000000;0.678515
8997.000000;0.678341
8996.000000;0.678544
8995.000000;0.678961
8994.000000;0.679331
8993.000000;0.679543
8992.000000;0.679701
8991.000000;0.679892
8990.000000;0.679970
8989.000000;0.679687
8988.000000;0.679024
8987.000000;0.678256
8986.000000;0.677679
8985.000000;0.677344
8984.000000;0.677136
8983.000000;0.677025
8982.000000;0.677098
8981.000000;0.677367
8980.000000;0.677693
8979.000000;0.677996
8978.000000;0.678377
8977.000000;0.678917
8976.000000;0.679427
8975.000000;0.679605
8974.000000;0.679420
8973.000000;0.679180
8972.000000;0.679145
8971.000000;0.679237
8970.000000;0.679206
8969.000000;0.678944
8968.000000;0.678496
8967.000000;0.677899
8966.000000;0.677226
8965.000000;0.676747
8964.000000;0.676771
8963.000000;0.677235
8962.000000;0.677631
8961.000000;0.677496
8960.000000;0.676911
8959.000000;0.676389
8958.000000;0.676327
8957.000000;0.676684
8956.000000;0.677157
8955.000000;0.677503
8954.000000;0.677630
8953.000000;0.677503
8952.000000;0.677093
8951.000000;0.676453
8950.000000;0.675789
8949.000000;0.675409
8948.000000;0.675524
8947.000000;0.676035
8946.000000;0.676542
8945.000000;0.676654
8944.000000;0.676344
8943.000000;0.675929
8942.000000;0.675723
8941.000000;0.675754
8940.000000;0.675839
8939.000000;0.675823
8938.000000;0.675719
8937.000000;0.675664
8936.000000;0.675818
8935.000000;0.676239
8934.000000;0.676770
8933.000000;0.677121
8932.000000;0.677113
8931.000000;0.676808
8930.000000;0.676370
8929.000000;0.675877
8928.000000;0.675390
8927.000000;0.675097
8926.000000;0.675218
8925.000000;0.675747
8924.000000;0.676396
8923.000000;0.676812
8922.000000;0.676787
8921.000000;0.676301
8920.000000;0.675537
8919.000000;0.674885
8918.000000;0.674730
8917.000000;0.675090
8916.000000;0.675530
8915.000000;0.675546
8914.000000;0.675040
8913.000000;0.674376
8912.000000;0.674013
8911.000000;0.674133
8910.000000;0.674532
8909.000000;0.674806
8908.000000;0.674711
8907.000000;0.674406
8906.000000;0.674295
8905.000000;0.674574
8904.000000;0.675000
8903.000000;0.675195
8902.000000;0.675096
8901.000000;0.675013
8900.000000;0.675231
8899.000000;0.675685
8898.000000;0.676053
8897.000000;0.676079
8896.000000;0.675768
8895.000000;0.675322
8894.000000;0.674933
8893.000000;0.674651
8892.000000;0.674432
8891.000000;0.674286
8890.000000;0.674322
8889.000000;0.674596
8888.000000;0.674965
8887.000000;0.675169
8886.000000;0.675106
8885.000000;0.674969
8884.000000;0.675095
8883.000000;0.675636
8882.000000;0.676387
8881.000000;0.676926
8880.000000;0.676975
8879.000000;0.676603
8878.000000;0.676067
8877.000000;0.675511
8876.000000;0.674919
8875.000000;0.674343
8874.000000;0.674012
8873.000000;0.674114
8872.000000;0.674559
8871.000000;0.675072
8870.000000;0.675453
8869.000000;0.675655
8868.000000;0.675685
8867.000000;0.675588
8866.000000;0.675496
8865.000000;0.675559
8864.000000;0.675776
8863.000000;0.675996
8862.000000;0.676092
8861.000000;0.676041
8860.000000;0.675864
8859.000000;0.675609
8858.000000;0.675413
8857.000000;0.675429
8856.000000;0.675616
8855.000000;0.675720
8854.000000;0.675567
8853.000000;0.675276
8852.000000;0.675065
8851.000000;0.674952
8850.000000;0.674790
8849.000000;0.674573
8848.000000;0.674496
8847.000000;0.674678
8846.000000;0.674978
8845.000000;0.675192
8844.000000;0.675344
8843.000000;0.675654
8842.000000;0.676259
8841.000000;0.677038
8840.000000;0.677728
8839.000000;0.678097
8838.000000;0.678034
8837.000000;0.677557
8836.000000;0.676844
8835.000000;0.676205
8834.000000;0.675932
8833.000000;0.676114
8832.000000;0.676600
8831.000000;0.677117
8830.000000;0.677428
8829.000000;0.677427
8828.000000;0.677155
8827.000000;0.676786
8826.000000;0.676532
8825.000000;0.676530
8824.000000;0.676770
8823.000000;0.677127
8822.000000;0.677461
8821.000000;0.677713
8820.000000;0.677929
8819.000000;0.678154
8818.000000;0.678308
8817.000000;0.678239
8816.000000;0.677935
8815.000000;0.677623
8814.000000;0.677577
8813.000000;0.677820
8812.000000;0.678115
8811.000000;0.678217
8810.000000;0.678086
8809.000000;0.677857
8808.000000;0.677736
8807.000000;0.677932
8806.000000;0.678520
8805.000000;0.679271
8804.000000;0.679701
8803.000000;0.679465
8802.000000;0.678713
8801.000000;0.677992
8800.000000;0.677790
8799.000000;0.678216
8798.000000;0.679044
8797.000000;0.679945
8796.000000;0.680645
8795.000000;0.681002
8794.000000;0.681029
8793.000000;0.680879
8792.000000;0.680763
8791.000000;0.680839
8790.000000;0.681086
8789.000000;0.681284
8788.000000;0.681178
8787.000000;0.680748
8786.000000;0.680315
8785.000000;0.680297
8784.000000;0.680857
8783.000000;0.681800
8782.000000;0.682750
8781.000000;0.683370
8780.000000;0.683491
8779.000000;0.683198
8778.000000;0.682822
8777.000000;0.682733
8776.000000;0.683022
8775.000000;0.683418
8774.000000;0.683588
8773.000000;0.683509
8772.000000;0.683491
8771.000000;0.683827
8770.000000;0.684495
8769.000000;0.685221
8768.000000;0.685775
8767.000000;0.686123
8766.000000;0.686305
8765.000000;0.686287
8764.000000;0.686016
8763.000000;0.685608
8762.000000;0.685343
8761.000000;0.685448
8760.000000;0.685963
8759.000000;0.686824
8758.000000;0.687946
8757.000000;0.689112
8756.000000;0.689882
8755.000000;0.689835
8754.000000;0.689004
8753.000000;0.687955
8752.000000;0.687363
8751.000000;0.687496
8750.000000;0.688144
8749.000000;0.688934
8748.000000;0.689635
8747.000000;0.690186
8746.000000;0.690554
8745.000000;0.690650
8744.000000;0.690410
8743.000000;0.689917
8742.000000;0.689439
8741.000000;0.689280
8740.000000;0.689555
8739.000000;0.690117
8738.000000;0.690721
8737.000000;0.691225
8736.000000;0.691617
8735.000000;0.691871
8734.000000;0.691918
8733.000000;0.691773
8732.000000;0.691622
8731.000000;0.691673
8730.000000;0.691968
8729.000000;0.692392
8728.000000;0.692836
8727.000000;0.693248
8726.000000;0.693546
8725.000000;0.693633
8724.000000;0.693595
8723.000000;0.693774
8722.000000;0.694493
8721.000000;0.695664
8720.000000;0.696734
8719.000000;0.697090
8718.000000;0.696579
8717.000000;0.695698
8716.000000;0.695248
8715.000000;0.695705
8714.000000;0.696834
8713.000000;0.697921
8712.000000;0.698397
8711.000000;0.698213
8710.000000;0.697663
8709.000000;0.697028
8708.000000;0.696495
8707.000000;0.696274
8706.000000;0.696533
8705.000000;0.697186
8704.000000;0.697899
8703.000000;0.698396
8702.000000;0.698667
8701.000000;0.698845
8700.000000;0.698982
8699.000000;0.699066
8698.000000;0.699174
8697.000000;0.699467
8696.000000;0.699992
8695.000000;0.700561
8694.000000;0.700905
8693.000000;0.700973
8692.000000;0.701005
8691.000000;0.701244
8690.000000;0.701613
8689.000000;0.701804
8688.000000;0.701683
8687.000000;0.701466
8686.000000;0.701379
8685.000000;0.701315
8684.000000;0.701024
8683.000000;0.700589
8682.000000;0.700471
8681.000000;0.701003
8680.000000;0.701971
8679.000000;0.702804
8678.000000;0.703113
8677.000000;0.702994
8676.000000;0.702841
8675.000000;0.702922
8674.000000;0.703144
8673.000000;0.703251
8672.000000;0.703192
8671.000000;0.703167
8670.000000;0.703273
8669.000000;0.703326
8668.000000;0.703179
8667.000000;0.703046
8666.000000;0.703259
8665.000000;0.703780
8664.000000;0.704214
8663.000000;0.704298
8662.000000;0.704099
8661.000000;0.703733
8660.000000;0.703240
8659.000000;0.702802
8658.000000;0.702757
8657.000000;0.703202
8656.000000;0.703824
8655.000000;0.704295
8654.000000;0.704615
8653.000000;0.704871
8652.000000;0.704921
8651.000000;0.704622
8650.000000;0.704210
8649.000000;0.704108
8648.000000;0.704394
8647.000000;0.704773
8646.000000;0.705060
8645.000000;0.705406
8644.000000;0.705965
8643.000000;0.706583
8642.000000;0.706980
8641.000000;0.707099
8640.000000;0.707120
8639.000000;0.707185
8638.000000;0.707222
8637.000000;0.707065
8636.000000;0.706702
8635.000000;0.706331
8634.000000;0.706185
8633.000000;0.706336
8632.000000;0.706714
8631.000000;0.707218
8630.000000;0.707695
8629.000000;0.707879
8628.000000;0.707566
8627.000000;0.706930
8626.000000;0.706448
8625.000000;0.706383
8624.000000;0.706497
8623.000000;0.706425
8622.000000;0.706190
8621.000000;0.706133
8620.000000;0.706439
8619.000000;0.706946
8618.000000;0.707414
8617.000000;0.707757
8616.000000;0.707974
8615.000000;0.708035
8614.000000;0.707918
8613.000000;0.707701
8612.000000;0.707526
8611.000000;0.707483
8610.000000;0.707520
8609.000000;0.707495
8608.000000;0.707349
8607.000000;0.707249
8606.000000;0.707440
8605.000000;0.707922
8604.000000;0.708392
8603.000000;0.708561
8602.000000;0.708433
8601.000000;0.708172
8600.000000;0.707880
8599.000000;0.707635
8598.000000;0.707612
8597.000000;0.707941
8596.000000;0.708486
8595.000000;0.708929
8594.000000;0.709060
8593.000000;0.708880
8592.000000;0.708506
8591.000000;0.708131
8590.000000;0.707999
8589.000000;0.708228
8588.000000;0.708668
8587.000000;0.709046
8586.000000;0.709201
8585.000000;0.709084
8584.000000;0.708633
8583.000000;0.707879
8582.000000;0.707128
8581.000000;0.706790
8580.000000;0.706973
8579.000000;0.707383
8578.000000;0.707684
8577.000000;0.707795
8576.000000;0.707839
8575.000000;0.707943
8574.000000;0.708128
8573.000000;0.708299
8572.000000;0.708320
8571.000000;0.708195
8570.000000;0.708142
8569.000000;0.708355
8568.000000;0.708732
8567.000000;0.709015
8566.000000;0.709148
8565.000000;0.709306
8564.000000;0.709572
8563.000000;0.709772
8562.000000;0.709703
8561.000000;0.709354
8560.000000;0.708861
8559.000000;0.708417
8558.000000;0.708231
8557.000000;0.708405
8556.000000;0.708776
8555.000000;0.709032
8554.000000;0.709055
8553.000000;0.709027
8552.000000;0.709152
8551.000000;0.709420
8550.000000;0.709677
8549.000000;0.709783
8548.000000;0.709669
8547.000000;0.709388
8546.000000;0.709163
8545.000000;0.709218
8544.000000;0.709490
8543.000000;0.709666
8542.000000;0.709567
8541.000000;0.709320
8540.000000;0.709094
8539.000000;0.708875
8538.000000;0.708650
8537.000000;0.708592
8536.000000;0.708878
8535.000000;0.709403
8534.000000;0.709856
8533.000000;0.710036
8532.000000;0.709965
8531.000000;0.709773
8530.000000;0.709625
8529.000000;0.709696
8528.000000;0.710038
8527.000000;0.710464
8526.000000;0.710693
8525.000000;0.710650
8524.000000;0.710557
8523.000000;0.710683
8522.000000;0.711036
8521.000000;0.711331
8520.000000;0.711273
8519.000000;0.710889
8518.000000;0.710542
8517.000000;0.710522
8516.000000;0.710691
8515.000000;0.710662
8514.000000;0.710303
8513.000000;0.709869
8512.000000;0.709593
8511.000000;0.709387
8510.000000;0.709086
8509.000000;0.708800
8508.000000;0.708824
8507.000000;0.709262
8506.000000;0.709923
8505.000000;0.710532
8504.000000;0.710911
8503.000000;0.711011
8502.000000;0.710907
8501.000000;0.710728
8500.000000;0.710510
8499.000000;0.710163
8498.000000;0.709697
8497.000000;0.709387
8496.000000;0.709520
8495.000000;0.710016
8494.000000;0.710472
8493.000000;0.710601
8492.000000;0.710479
8491.000000;0.710340
8490.000000;0.710273
8489.000000;0.710171
8488.000000;0.709922
8487.000000;0.709570
8486.000000;0.709355
8485.000000;0.709558
8484.000000;0.710215
8483.000000;0.710975
8482.000000;0.711347
8481.000000;0.711141
8480.000000;0.710602
8479.000000;0.710104
8478.000000;0.709825
8477.000000;0.709747
8476.000000;0.709813
8475.000000;0.709971
8474.000000;0.710117
8473.000000;0.710149
8472.000000;0.710067
8471.000000;0.709979
8470.000000;0.710000
8469.000000;0.710185
8468.000000;0.710517
8467.000000;0.710889
8466.000000;0.711116
8465.000000;0.711049
8464.000000;0.710720
8463.000000;0.710334
8462.000000;0.710087
8461.000000;0.710035
8460.000000;0.710151
8459.000000;0.710421
8458.000000;0.710802
8457.000000;0.711138
8456.000000;0.711272
8455.000000;0.711277
8454.000000;0.711453
8453.000000;0.712007
8452.000000;0.712785
8451.000000;0.713405
8450.000000;0.713590
8449.000000;0.713315
8448.000000;0.712703
8447.000000;0.711947
8446.000000;0.711306
8445.000000;0.711037
8444.000000;0.711236
8443.000000;0.711799
8442.000000;0.712555
8441.000000;0.713322
8440.000000;0.713856
8439.000000;0.713906
8438.000000;0.713466
8437.000000;0.712844
8436.000000;0.712382
8435.000000;0.712126
8434.000000;0.711897
8433.000000;0.711593
8432.000000;0.711305
8431.000000;0.711175
8430.000000;0.711273
8429.000000;0.711600
8428.000000;0.712073
8427.000000;0.712468
8426.000000;0.712535
8425.000000;0.712238
8424.000000;0.711830
8423.000000;0.711607
8422.000000;0.711650
8421.000000;0.711843
8420.000000;0.712074
8419.000000;0.712335
8418.000000;0.712665
8417.000000;0.713059
8416.000000;0.713445
8415.000000;0.713711
8414.000000;0.713785
8413.000000;0.713723
8412.000000;0.713693
8411.000000;0.713805
8410.000000;0.713979
8409.000000;0.714029
8408.000000;0.713895
8407.000000;0.713725
8406.000000;0.713704
8405.000000;0.713844
8404.000000;0.713980
8403.000000;0.713963
8402.000000;0.713813
8401.000000;0.713678
8400.000000;0.713667
8399.000000;0.713754
8398.000000;0.713837
8397.000000;0.713872
8396.000000;0.713923
8395.000000;0.714093
8394.000000;0.714407
8393.000000;0.714763
8392.000000;0.715002
8391.000000;0.715031
8390.000000;0.714903
8389.000000;0.714773
8388.000000;0.714763
8387.000000;0.714834
8386.000000;0.714818
8385.000000;0.714586
8384.000000;0.714191
8383.000000;0.713845
8382.000000;0.713745
8381.000000;0.713910
8380.000000;0.714159
8379.000000;0.714256
8378.000000;0.714114
8377.000000;0.713905
8376.000000;0.713912
8375.000000;0.714236
8374.000000;0.714648
8373.000000;0.714809
8372.000000;0.714614
8371.000000;0.714296
8370.000000;0.714190
8369.000000;0.714446
8368.000000;0.714938
8367.000000;0.715380
8366.000000;0.715520
8365.000000;0.715341
8364.000000;0.715110
8363.000000;0.715160
8362.000000;0.715540
8361.000000;0.715974
8360.000000;0.716186
8359.000000;0.716191
8358.000000;0.716179
8357.000000;0.716232
8356.000000;0.716271
8355.000000;0.716218
8354.000000;0.716072
8353.000000;0.715858
8352.000000;0.715655
8351.000000;0.715633
8350.000000;0.715894
8349.000000;0.716281
8348.000000;0.716489
8347.000000;0.716407
8346.000000;0.716213
8345.000000;0.716085
8344.000000;0.715995
8343.000000;0.715842
8342.000000;0.715657
8341.000000;0.715526
8340.000000;0.715448
8339.000000;0.715384
8338.000000;0.715379
8337.000000;0.715505
8336.000000;0.715708
8335.000000;0.715813
8334.000000;0.715683
8333.000000;0.715300
8332.000000;0.714765
8331.000000;0.714286
8330.000000;0.714117
8329.000000;0.714402
8328.000000;0.715063
8327.000000;0.715874
8326.000000;0.716639
8325.000000;0.717257
8324.000000;0.717686
8323.000000;0.717917
8322.000000;0.717972
8321.000000;0.717864
8320.000000;0.717580
8319.000000;0.717134
8318.000000;0.716614
8317.000000;0.716155
8316.000000;0.715905
8315.000000;0.715992
8314.000000;0.716413
8313.000000;0.716910
8312.000000;0.717114
8311.000000;0.716905
8310.000000;0.716539
8309.000000;0.716322
8308.000000;0.716256
8307.000000;0.716158
8306.000000;0.716011
8305.000000;0.715992
8304.000000;0.716208
8303.000000;0.716569
8302.000000;0.716949
8301.000000;0.717305
8300.000000;0.717587
8299.000000;0.717703
8298.000000;0.717629
8297.000000;0.717463
8296.000000;0.717323
8295.000000;0.717254
8294.000000;0.717255
8293.000000;0.717306
8292.000000;0.717351
8291.000000;0.717335
8290.000000;0.717293
8289.000000;0.717302
8288.000000;0.717353
8287.000000;0.717360
8286.000000;0.717346
8285.000000;0.717476
8284.000000;0.717835
8283.000000;0.718251
8282.000000;0.718440
8281.000000;0.718286
8280.000000;0.717915
8279.000000;0.717542
8278.000000;0.717305
8277.000000;0.717221
8276.000000;0.717214
8275.000000;0.717196
8274.000000;0.717180
8273.000000;0.717287
8272.000000;0.717601
8271.000000;0.718023
8270.000000;0.718319
8269.000000;0.718356
8268.000000;0.718243
8267.000000;0.718192
8266.000000;0.718262
8265.000000;0.718269
8264.000000;0.718020
8263.000000;0.717586
8262.000000;0.717285
8261.000000;0.717356
8260.000000;0.717697
8259.000000;0.717971
8258.000000;0.717926
8257.000000;0.717605
8256.000000;0.717277
8255.000000;0.717223
8254.000000;0.717544
8253.000000;0.718118
8252.000000;0.718726
8251.000000;0.719205
8250.000000;0.719486
8249.000000;0.719520
8248.000000;0.719288
8247.000000;0.718939
8246.000000;0.718783
8245.000000;0.719024
8244.000000;0.719552
8243.000000;0.720080
8242.000000;0.720427
8241.000000;0.720573
8240.000000;0.720526
8239.000000;0.720315
8238.000000;0.720060
8237.000000;0.719901
8236.000000;0.719839
8235.000000;0.719793
8234.000000;0.719797
8233.000000;0.719955
8232.000000;0.720193
8231.000000;0.720234
8230.000000;0.719937
8229.000000;0.719508
8228.000000;0.719273
8227.000000;0.719328
8226.000000;0.719490
8225.000000;0.719529
8224.000000;0.719346
8223.000000;0.719028
8222.000000;0.718792
8221.000000;0.718848
8220.000000;0.719214
8219.000000;0.719716
8218.000000;0.720169
8217.000000;0.720503
8216.000000;0.720672
8215.000000;0.720593
8214.000000;0.720278
8213.000000;0.719948
8212.000000;0.719854
8211.000000;0.720018
8210.000000;0.720259
8209.000000;0.720454
8208.000000;0.720641
8207.000000;0.720887
8206.000000;0.721145
8205.000000;0.721322
8204.000000;0.721401
8203.000000;0.721455
8202.000000;0.721560
8201.000000;0.721694
8200.000000;0.721728
8199.000000;0.721514
8198.000000;0.721053
8197.000000;0.720545
8196.000000;0.720256
8195.000000;0.720325
8194.000000;0.720710
8193.000000;0.721265
8192.000000;0.721785
8191.000000;0.722050
8190.000000;0.721943
8189.000000;0.721587
8188.000000;0.721255
8187.000000;0.721085
8186.000000;0.720973
8185.000000;0.720795
8184.000000;0.720641
8183.000000;0.720703
8182.000000;0.720965
8181.000000;0.721157
8180.000000;0.721066
8179.000000;0.720795
8178.000000;0.720651
8177.000000;0.720820
8176.000000;0.721216
8175.000000;0.721604
8174.000000;0.721812
8173.000000;0.721849
8172.000000;0.721882
8171.000000;0.722070
8170.000000;0.722369
8169.000000;0.722525
8168.000000;0.722331
8167.000000;0.721883
8166.000000;0.721494
8165.000000;0.721365
8164.000000;0.721436
8163.000000;0.721539
8162.000000;0.721593
8161.000000;0.721612
8160.000000;0.721634
8159.000000;0.721726
8158.000000;0.721954
8157.000000;0.722288
8156.000000;0.722589
8155.000000;0.722787
8154.000000;0.722974
8153.000000;0.723225
8152.000000;0.723422
8151.000000;0.723385
8150.000000;0.723135
8149.000000;0.722857
8148.000000;0.722666
8147.000000;0.722554
8146.000000;0.722557
8145.000000;0.722795
8144.000000;0.723267
8143.000000;0.723766
8142.000000;0.724092
8141.000000;0.724249
8140.000000;0.724352
8139.000000;0.724445
8138.000000;0.724520
8137.000000;0.724613
8136.000000;0.724748
8135.000000;0.724822
8134.000000;0.724676
8133.000000;0.724306
8132.000000;0.723916
8131.000000;0.723719
8130.000000;0.723766
8129.000000;0.723980
8128.000000;0.724281
8127.000000;0.724578
8126.000000;0.724704
8125.000000;0.724482
8124.000000;0.723929
8123.000000;0.723348
8122.000000;0.723111
8121.000000;0.723333
8120.000000;0.723789
8119.000000;0.724172
8118.000000;0.724382
8117.000000;0.724540
8116.000000;0.724782
8115.000000;0.725103
8114.000000;0.725393
8113.000000;0.725561
8112.000000;0.725606
8111.000000;0.725606
8110.000000;0.725655
8109.000000;0.725791
8108.000000;0.725956
8107.000000;0.726039
8106.000000;0.725962
8105.000000;0.725735
8104.000000;0.725474
8103.000000;0.725316
8102.000000;0.725316
8101.000000;0.725392
8100.000000;0.725441
8099.000000;0.725477
8098.000000;0.725608
8097.000000;0.725848
8096.000000;0.726047
8095.000000;0.726041
8094.000000;0.725838
8093.000000;0.725599
8092.000000;0.725493
8091.000000;0.725608
8090.000000;0.725920
8089.000000;0.726287
8088.000000;0.726530
8087.000000;0.726611
8086.000000;0.726680
8085.000000;0.726867
8084.000000;0.727085
8083.000000;0.727123
8082.000000;0.726897
8081.000000;0.726516
8080.000000;0.726141
8079.000000;0.725903
8078.000000;0.725902
8077.000000;0.726148
8076.000000;0.726472
8075.000000;0.726628
8074.000000;0.726537
8073.000000;0.726354
8072.000000;0.726292
8071.000000;0.726444
8070.000000;0.726763
8069.000000;0.727120
8068.000000;0.727354
8067.000000;0.727385
8066.000000;0.727331
8065.000000;0.727423
8064.000000;0.727761
8063.000000;0.728198
8062.000000;0.728470
8061.000000;0.728413
8060.000000;0.728048
8059.000000;0.727562
8058.000000;0.727222
8057.000000;0.727203
8056.000000;0.727451
8055.000000;0.727759
8054.000000;0.727978
8053.000000;0.728103
8052.000000;0.728174
8051.000000;0.728216
8050.000000;0.728285
8049.000000;0.728436
8048.000000;0.728615
8047.000000;0.728690
8046.000000;0.728653
8045.000000;0.728641
8044.000000;0.728715
8043.000000;0.728753
8042.000000;0.728644
8041.000000;0.728470
8040.000000;0.728371
8039.000000;0.728351
8038.000000;0.728338
8037.000000;0.728363
8036.000000;0.728499
8035.000000;0.728702
8034.000000;0.728853
8033.000000;0.728930
8032.000000;0.729007
8031.000000;0.729080
8030.000000;0.729052
8029.000000;0.728910
8028.000000;0.728785
8027.000000;0.728796
8026.000000;0.728903
8025.000000;0.728977
8024.000000;0.728947
8023.000000;0.728849
8022.000000;0.728764
8021.000000;0.728735
8020.000000;0.728744
8019.000000;0.728763
8018.000000;0.728834
8017.000000;0.729048
8016.000000;0.729401
8015.000000;0.729712
8014.000000;0.729777
8013.000000;0.729603
8012.000000;0.729393
8011.000000;0.729326
8010.000000;0.729426
8009.000000;0.729645
8008.000000;0.729958
8007.000000;0.730329
8006.000000;0.730683
8005.000000;0.730963
8004.000000;0.731172
8003.000000;0.731282
8002.000000;0.731188
8001.000000;0.730863
8000.000000;0.730512
7999.000000;0.730479
7998.000000;0.730933
7997.000000;0.731711
7996.000000;0.732483
7995.000000;0.733021
7994.000000;0.733282
7993.000000;0.733326
7992.000000;0.733222
7991.000000;0.733025
7990.000000;0.732759
7989.000000;0.732414
7988.000000;0.732020
7987.000000;0.731711
7986.000000;0.731642
7985.000000;0.731796
7984.000000;0.731973
7983.000000;0.732018
7982.000000;0.732020
7981.000000;0.732172
7980.000000;0.732488
7979.000000;0.732758
7978.000000;0.732814
7977.000000;0.732704
7976.000000;0.732584
7975.000000;0.732509
7974.000000;0.732410
7973.000000;0.732248
7972.000000;0.732091
7971.000000;0.732063
7970.000000;0.732216
7969.000000;0.732432
7968.000000;0.732452
7967.000000;0.732087
7966.000000;0.731485
7965.000000;0.731111
7964.000000;0.731372
7963.000000;0.732253
7962.000000;0.733354
7961.000000;0.734241
7960.000000;0.734695
7959.000000;0.734680
7958.000000;0.734254
7957.000000;0.733606
7956.000000;0.733066
7955.000000;0.732913
7954.000000;0.733136
7953.000000;0.733459
7952.000000;0.733621
7951.000000;0.733606
7950.000000;0.733592
7949.000000;0.733727
7948.000000;0.733982
7947.000000;0.734224
7946.000000;0.734375
7945.000000;0.734482
7944.000000;0.734630
7943.000000;0.734816
7942.000000;0.734931
7941.000000;0.734888
7940.000000;0.734756
7939.000000;0.734722
7938.000000;0.734883
7937.000000;0.735110
7936.000000;0.735193
7935.000000;0.735104
7934.000000;0.735063
7933.000000;0.735296
7932.000000;0.735773
7931.000000;0.736226
7930.000000;0.736403
7929.000000;0.736270
7928.000000;0.736002
7927.000000;0.735835
7926.000000;0.735904
7925.000000;0.736170
7924.000000;0.736476
7923.000000;0.736694
7922.000000;0.736829
7921.000000;0.736927
7920.000000;0.736964
7919.000000;0.736884
7918.000000;0.736745
7917.000000;0.736690
7916.000000;0.736738
7915.000000;0.736699
7914.000000;0.736388
7913.000000;0.735893
7912.000000;0.735536
7911.000000;0.735584
7910.000000;0.736034
7909.000000;0.736652
7908.000000;0.737171
7907.000000;0.737444
7906.000000;0.737492
7905.000000;0.737437
7904.000000;0.737367
7903.000000;0.737267
7902.000000;0.737092
7901.000000;0.736883
7900.000000;0.736778
7899.000000;0.736894
7898.000000;0.737223
7897.000000;0.737637
7896.000000;0.737978
7895.000000;0.738150
7894.000000;0.738164
7893.000000;0.738093
7892.000000;0.737999
7891.000000;0.737904
7890.000000;0.737849
7889.000000;0.737906
7888.000000;0.738101
7887.000000;0.738342
7886.000000;0.738513
7885.000000;0.738635
7884.000000;0.738868
7883.000000;0.739284
7882.000000;0.739732
7881.000000;0.739966
7880.000000;0.739915
7879.000000;0.739740
7878.000000;0.739640
7877.000000;0.739659
7876.000000;0.739721
7875.000000;0.739786
7874.000000;0.739913
7873.000000;0.740156
7872.000000;0.740443
7871.000000;0.740602
7870.000000;0.740523
7869.000000;0.740288
7868.000000;0.740128
7867.000000;0.740234
7866.000000;0.740595
7865.000000;0.741022
7864.000000;0.741321
7863.000000;0.741438
7862.000000;0.741450
7861.000000;0.741448
7860.000000;0.741456
7859.000000;0.741467
7858.000000;0.741510
7857.000000;0.741646
7856.000000;0.741879
7855.000000;0.742110
7854.000000;0.742216
7853.000000;0.742180
7852.000000;0.742099
7851.000000;0.742048
7850.000000;0.742003
7849.000000;0.741928
7848.000000;0.741888
7847.000000;0.741975
7846.000000;0.742137
7845.000000;0.742210
7844.000000;0.742142
7843.000000;0.742095
7842.000000;0.742234
7841.000000;0.742514
7840.000000;0.742747
7839.000000;0.742853
7838.000000;0.742918
7837.000000;0.743033
7836.000000;0.743193
7835.000000;0.743355
7834.000000;0.743509
7833.000000;0.743665
7832.000000;0.743840
7831.000000;0.744062
7830.000000;0.744311
7829.000000;0.744459
7828.000000;0.744380
7827.000000;0.744150
7826.000000;0.744017
7825.000000;0.744133
7824.000000;0.744396
7823.000000;0.744622
7822.000000;0.744776
7821.000000;0.744930
7820.000000;0.745099
7819.000000;0.745227
7818.000000;0.745286
7817.000000;0.745295
7816.000000;0.745268
7815.000000;0.745263
7814.000000;0.745425
7813.000000;0.745855
7812.000000;0.746423
7811.000000;0.746830
7810.000000;0.746905
7809.000000;0.746745
7808.000000;0.746569
7807.000000;0.746499
7806.000000;0.746513
7805.000000;0.746545
7804.000000;0.746546
7803.000000;0.746513
7802.000000;0.746491
7801.000000;0.746540
7800.000000;0.746680
7799.000000;0.746883
7798.000000;0.747108
7797.000000;0.747328
7796.000000;0.747516
7795.000000;0.747651
7794.000000;0.747715
7793.000000;0.747687
7792.000000;0.747563
7791.000000;0.747454
7790.000000;0.747583
7789.000000;0.748071
7788.000000;0.748746
7787.000000;0.749258
7786.000000;0.749426
7785.000000;0.749366
7784.000000;0.749286
7783.000000;0.749277
7782.000000;0.749348
7781.000000;0.749525
7780.000000;0.749800
7779.000000;0.750071
7778.000000;0.750233
7777.000000;0.750308
7776.000000;0.750391
7775.000000;0.750516
7774.000000;0.750655
7773.000000;0.750831
7772.000000;0.751098
7771.000000;0.751423
7770.000000;0.751652
7769.000000;0.751653
7768.000000;0.751424
7767.000000;0.751077
7766.000000;0.750761
7765.000000;0.750628
7764.000000;0.750776
7763.000000;0.751163
7762.000000;0.751591
7761.000000;0.751840
7760.000000;0.751846
7759.000000;0.751732
7758.000000;0.751680
7757.000000;0.751762
7756.000000;0.751915
7755.000000;0.752042
7754.000000;0.752121
7753.000000;0.752209
7752.000000;0.752369
7751.000000;0.752611
7750.000000;0.752910
7749.000000;0.753248
7748.000000;0.753609
7747.000000;0.753930
7746.000000;0.754108
7745.000000;0.754083
7744.000000;0.753928
7743.000000;0.753830
7742.000000;0.753942
7741.000000;0.754239
7740.000000;0.754538
7739.000000;0.754692
7738.000000;0.754725
7737.000000;0.754780
7736.000000;0.754934
7735.000000;0.755129
7734.000000;0.755286
7733.000000;0.755416
7732.000000;0.755600
7731.000000;0.755874
7730.000000;0.756193
7729.000000;0.756506
7728.000000;0.756818
7727.000000;0.757169
7726.000000;0.757551
7725.000000;0.757875
7724.000000;0.758046
7723.000000;0.758070
7722.000000;0.758074
7721.000000;0.758187
7720.000000;0.758412
7719.000000;0.758628
7718.000000;0.758717
7717.000000;0.758673
7716.000000;0.758595
7715.000000;0.758610
7714.000000;0.758785
7713.000000;0.759088
7712.000000;0.759398
7711.000000;0.759593
7710.000000;0.759658
7709.000000;0.759701
7708.000000;0.759860
7707.000000;0.760195
7706.000000;0.760653
7705.000000;0.761121
7704.000000;0.761474
7703.000000;0.761635
7702.000000;0.761628
7701.000000;0.761572
7700.000000;0.761614
7699.000000;0.761831
7698.000000;0.762195
7697.000000;0.762606
7696.000000;0.762960
7695.000000;0.763190
7694.000000;0.763281
7693.000000;0.763267
7692.000000;0.763215
7691.000000;0.763206
7690.000000;0.763297
7689.000000;0.763470
7688.000000;0.763643
7687.000000;0.763751
7686.000000;0.763828
7685.000000;0.763966
7684.000000;0.764191
7683.000000;0.764427
7682.000000;0.764587
7681.000000;0.764672
7680.000000;0.764741
7679.000000;0.764861
7678.000000;0.765093
7677.000000;0.765471
7676.000000;0.765923
7675.000000;0.766257
7674.000000;0.766336
7673.000000;0.766268
7672.000000;0.766328
7671.000000;0.766670
7670.000000;0.767185
7669.000000;0.767665
7668.000000;0.768010
7667.000000;0.768219
7666.000000;0.768293
7665.000000;0.768256
7664.000000;0.768227
7663.000000;0.768320
7662.000000;0.768475
7661.000000;0.768531
7660.000000;0.768487
7659.000000;0.768561
7658.000000;0.768920
7657.000000;0.769445
7656.000000;0.769882
7655.000000;0.770150
7654.000000;0.770379
7653.000000;0.770681
7652.000000;0.771001
7651.000000;0.771219
7650.000000;0.771302
7649.000000;0.771306
7648.000000;0.771325
7647.000000;0.771449
7646.000000;0.771704
7645.000000;0.772004
7644.000000;0.772216
7643.000000;0.772331
7642.000000;0.772498
7641.000000;0.772835
7640.000000;0.773266
7639.000000;0.773609
7638.000000;0.773807
7637.000000;0.773970
7636.000000;0.774214
7635.000000;0.774526
7634.000000;0.774821
7633.000000;0.775075
7632.000000;0.775345
7631.000000;0.775683
7630.000000;0.776051
7629.000000;0.776351
7628.000000;0.776524
7627.000000;0.776617
7626.000000;0.776741
7625.000000;0.776956
7624.000000;0.777237
7623.000000;0.777525
7622.000000;0.777785
7621.000000;0.778007
7620.000000;0.778197
7619.000000;0.778414
7618.000000;0.778766
7617.000000;0.779296
7616.000000;0.779868
7615.000000;0.780237
7614.000000;0.780273
7613.000000;0.780114
7612.000000;0.780057
7611.000000;0.780306
7610.000000;0.780811
7609.000000;0.781369
7608.000000;0.781829
7607.000000;0.782199
7606.000000;0.782546
7605.000000;0.782868
7604.000000;0.783117
7603.000000;0.783288
7602.000000;0.783427
7601.000000;0.783550
7600.000000;0.783648
7599.000000;0.783760
7598.000000;0.783965
7597.000000;0.784252
7596.000000;0.784511
7595.000000;0.784694
7594.000000;0.784905
7593.000000;0.785241
7592.000000;0.785634
7591.000000;0.785939
7590.000000;0.786157
7589.000000;0.786431
7588.000000;0.786832
7587.000000;0.787267
7586.000000;0.787641
7585.000000;0.787998
7584.000000;0.788457
7583.000000;0.789035
7582.000000;0.789600
7581.000000;0.789984
7580.000000;0.790138
7579.000000;0.790176
7578.000000;0.790277
7577.000000;0.790520
7576.000000;0.790823
7575.000000;0.791076
7574.000000;0.791292
7573.000000;0.791568
7572.000000;0.791928
7571.000000;0.792311
7570.000000;0.792712
7569.000000;0.793223
7568.000000;0.793875
7567.000000;0.794514
7566.000000;0.794935
7565.000000;0.795092
7564.000000;0.795131
7563.000000;0.795226
7562.000000;0.795474
7561.000000;0.795903
7560.000000;0.796495
7559.000000;0.797149
7558.000000;0.797696
7557.000000;0.798020
7556.000000;0.798169
7555.000000;0.798295
7554.000000;0.798500
7553.000000;0.798753
7552.000000;0.798991
7551.000000;0.799242
7550.000000;0.799635
7549.000000;0.800257
7548.000000;0.801044
7547.000000;0.801809
7546.000000;0.802379
7545.000000;0.802722
7544.000000;0.802949
7543.000000;0.803217
7542.000000;0.803597
7541.000000;0.804036
7540.000000;0.804445
7539.000000;0.804803
7538.000000;0.805155
7537.000000;0.805507
7536.000000;0.805790
7535.000000;0.805930
7534.000000;0.805941
7533.000000;0.805909
7532.000000;0.805925
7531.000000;0.806056
7530.000000;0.806331
7529.000000;0.806747
7528.000000;0.807291
7527.000000;0.807968
7526.000000;0.808746
7525.000000;0.809489
7524.000000;0.809994
7523.000000;0.810185
7522.000000;0.810233
7521.000000;0.810409
7520.000000;0.810839
7519.000000;0.811426
7518.000000;0.811974
7517.000000;0.812351
7516.000000;0.812553
7515.000000;0.812708
7514.000000;0.812991
7513.000000;0.813506
7512.000000;0.814202
7511.000000;0.814940
7510.000000;0.815610
7509.000000;0.816178
7508.000000;0.816631
7507.000000;0.816969
7506.000000;0.817234
7505.000000;0.817518
7504.000000;0.817916
7503.000000;0.818469
7502.000000;0.819116
7501.000000;0.819699
7500.000000;0.820065
7499.000000;0.820240
7498.000000;0.820424
7497.000000;0.820781
7496.000000;0.821251
7495.000000;0.821640
7494.000000;0.821875
7493.000000;0.822091
7492.000000;0.822475
7491.000000;0.823093
7490.000000;0.823836
7489.000000;0.824527
7488.000000;0.824994
7487.000000;0.825242
7486.000000;0.825444
7485.000000;0.825751
7484.000000;0.826146
7483.000000;0.826535
7482.000000;0.826915
7481.000000;0.827357
7480.000000;0.827866
7479.000000;0.828380
7478.000000;0.828877
7477.000000;0.829373
7476.000000;0.829824
7475.000000;0.830148
7474.000000;0.830350
7473.000000;0.830514
7472.000000;0.830669
7471.000000;0.830810
7470.000000;0.831034
7469.000000;0.831503
7468.000000;0.832192
7467.000000;0.832855
7466.000000;0.833307
7465.000000;0.833633
7464.000000;0.834010
7463.000000;0.834464
7462.000000;0.834916
7461.000000;0.835377
7460.000000;0.835929
7459.000000;0.836566
7458.000000;0.837187
7457.000000;0.837720
7456.000000;0.838173
7455.000000;0.838571
7454.000000;0.838934
7453.000000;0.839306
7452.000000;0.839721
7451.000000;0.840151
7450.000000;0.840565
7449.000000;0.840982
7448.000000;0.841421
7447.000000;0.841799
7446.000000;0.842002
7445.000000;0.842047
7444.000000;0.842119
7443.000000;0.842429
7442.000000;0.843050
7441.000000;0.843880
7440.000000;0.844707
7439.000000;0.845332
7438.000000;0.845683
7437.000000;0.845840
7436.000000;0.845952
7435.000000;0.846148
7434.000000;0.846514
7433.000000;0.847075
7432.000000;0.847736
7431.000000;0.848318
7430.000000;0.848729
7429.000000;0.849057
7428.000000;0.849447
7427.000000;0.849903
7426.000000;0.850308
7425.000000;0.850589
7424.000000;0.850795
7423.000000;0.851005
7422.000000;0.851266
7421.000000;0.851612
7420.000000;0.852085
7419.000000;0.852685
7418.000000;0.853345
7417.000000;0.853952
7416.000000;0.854402
7415.000000;0.854673
7414.000000;0.854870
7413.000000;0.855187
7412.000000;0.855729
7411.000000;0.856386
7410.000000;0.856922
7409.000000;0.857193
7408.000000;0.857253
7407.000000;0.857286
7406.000000;0.857468
7405.000000;0.857867
7404.000000;0.858398
7403.000000;0.858888
7402.000000;0.859246
7401.000000;0.859561
7400.000000;0.860006
7399.000000;0.860637
7398.000000;0.861327
7397.000000;0.861892
7396.000000;0.862250
7395.000000;0.862468
7394.000000;0.862680
7393.000000;0.862962
7392.000000;0.863283
7391.000000;0.863601
7390.000000;0.863945
7389.000000;0.864356
7388.000000;0.864763
7387.000000;0.865018
7386.000000;0.865105
7385.000000;0.865202
7384.000000;0.865465
7383.000000;0.865850
7382.000000;0.866236
7381.000000;0.866629
7380.000000;0.867107
7379.000000;0.867606
7378.000000;0.867966
7377.000000;0.868202
7376.000000;0.868534
7375.000000;0.869095
7374.000000;0.869704
7373.000000;0.870040
7372.000000;0.870010
7371.000000;0.869874
7370.000000;0.870009
7369.000000;0.870587
7368.000000;0.871437
7367.000000;0.872237
7366.000000;0.872844
7365.000000;0.873369
7364.000000;0.873918
7363.000000;0.874434
7362.000000;0.874855
7361.000000;0.875279
7360.000000;0.875795
7359.000000;0.876234
7358.000000;0.876355
7357.000000;0.876256
7356.000000;0.876338
7355.000000;0.876809
7354.000000;0.877443
7353.000000;0.877917
7352.000000;0.878210
7351.000000;0.878538
7350.000000;0.879047
7349.000000;0.879683
7348.000000;0.880258
7347.000000;0.880574
7346.000000;0.880608
7345.000000;0.880593
7344.000000;0.880766
7343.000000;0.881049
7342.000000;0.881177
7341.000000;0.881180
7340.000000;0.881435
7339.000000;0.882118
7338.000000;0.882898
7337.000000;0.883402
7336.000000;0.883739
7335.000000;0.884296
7334.000000;0.885208
7333.000000;0.886277
7332.000000;0.887269
7331.000000;0.888022
7330.000000;0.888433
7329.000000;0.888608
7328.000000;0.888901
7327.000000;0.889527
7326.000000;0.890232
7325.000000;0.890634
7324.000000;0.890790
7323.000000;0.891083
7322.000000;0.891678
7321.000000;0.892396
7320.000000;0.893101
7319.000000;0.893897
7318.000000;0.894873
7317.000000;0.895924
7316.000000;0.896900
7315.000000;0.897746
7314.000000;0.898428
7313.000000;0.898940
7312.000000;0.899420
7311.000000;0.900033
7310.000000;0.900705
7309.000000;0.901235
7308.000000;0.901693
7307.000000;0.902392
7306.000000;0.903390
7305.000000;0.904321
7304.000000;0.904919
7303.000000;0.905421
7302.000000;0.906220
7301.000000;0.907338
7300.000000;0.908466
7299.000000;0.909384
7298.000000;0.910087
7297.000000;0.910622
7296.000000;0.911075
7295.000000;0.911655
7294.000000;0.912527
7293.000000;0.913553
7292.000000;0.914419
7291.000000;0.915053
7290.000000;0.915727
7289.000000;0.916698
7288.000000;0.917926
7287.000000;0.919188
7286.000000;0.920359
7285.000000;0.921498
7284.000000;0.922729
7283.000000;0.924096
7282.000000;0.925525
7281.000000;0.926885
7280.000000;0.928068
7279.000000;0.929034
7278.000000;0.929824
7277.000000;0.930554
7276.000000;0.931407
7275.000000;0.932541
7274.000000;0.933950
7273.000000;0.935468
7272.000000;0.936926
7271.000000;0.938256
7270.000000;0.939464
7269.000000;0.940581
7268.000000;0.941680
7267.000000;0.942858
7266.000000;0.944140
7265.000000;0.945465
7264.000000;0.946810
7263.000000;0.948232
7262.000000;0.949745
7261.000000;0.951256
7260.000000;0.952719
7259.000000;0.954236
7258.000000;0.955899
7257.000000;0.957609
7256.000000;0.959167
7255.000000;0.960529
7254.000000;0.961835
7253.000000;0.963235
7252.000000;0.964770
7251.000000;0.966413
7250.000000;0.968111
7249.000000;0.969811
7248.000000;0.971504
7247.000000;0.973220
7246.000000;0.974916
7245.000000;0.976489
7244.000000;0.977992
7243.000000;0.979697
7242.000000;0.981786
7241.000000;0.984038
7240.000000;0.986050
7239.000000;0.987769
7238.000000;0.989544
7237.000000;0.991638
7236.000000;0.993919
7235.000000;0.996106
7234.000000;0.998179
7233.000000;1.000397
7232.000000;1.002935
7231.000000;1.005631
7230.000000;1.008133
7229.000000;1.010311
7228.000000;1.012446
7227.000000;1.014952
7226.000000;1.017917
7225.000000;1.021044
7224.000000;1.024037
7223.000000;1.026907
7222.000000;1.029847
7221.000000;1.032932
7220.000000;1.036043
7219.000000;1.039038
7218.000000;1.041879
7217.000000;1.044620
7216.000000;1.047365
7215.000000;1.050205
7214.000000;1.053125
7213.000000;1.056015
7212.000000;1.058853
7211.000000;1.061839
7210.000000;1.065202
7209.000000;1.068901
7208.000000;1.072646
7207.000000;1.076220
7206.000000;1.079623
7205.000000;1.082962
7204.000000;1.086339
7203.000000;1.089876
7202.000000;1.093692
7201.000000;1.097777
7200.000000;1.101960
7199.000000;1.106026
7198.000000;1.109830
7197.000000;1.113347
7196.000000;1.116748
7195.000000;1.120385
7194.000000;1.124538
7193.000000;1.129127
7192.000000;1.133813
7191.000000;1.138372
7190.000000;1.142805
7189.000000;1.147112
7188.000000;1.151241
7187.000000;1.155320
7186.000000;1.159621
7185.000000;1.164123
7184.000000;1.168359
7183.000000;1.171996
7182.000000;1.175388
7181.000000;1.179279
7180.000000;1.183987
7179.000000;1.189156
7178.000000;1.194292
7177.000000;1.199253
7176.000000;1.204163
7175.000000;1.209130
7174.000000;1.214168
7173.000000;1.219213
7172.000000;1.224112
7171.000000;1.228711
7170.000000;1.233048
7169.000000;1.237391
7168.000000;1.242049
7167.000000;1.247168
7166.000000;1.252667
7165.000000;1.258283
7164.000000;1.263722
7163.000000;1.268932
7162.000000;1.274174
7161.000000;1.279660
7160.000000;1.285163
7159.000000;1.290198
7158.000000;1.294648
7157.000000;1.298980
7156.000000;1.303741
7155.000000;1.309074
7154.000000;1.314793
7153.000000;1.320727
7152.000000;1.326749
7151.000000;1.332651
7150.000000;1.338259
7149.000000;1.343629
7148.000000;1.348904
7147.000000;1.354070
7146.000000;1.359044
7145.000000;1.363980
7144.000000;1.369203
7143.000000;1.374785
7142.000000;1.380416
7141.000000;1.385852
7140.000000;1.391207
7139.000000;1.396621
7138.000000;1.401893
7137.000000;1.406803
7136.000000;1.411643
7135.000000;1.417026
7134.000000;1.423152
7133.000000;1.429566
7132.000000;1.435690
7131.000000;1.441304
7130.000000;1.446412
7129.000000;1.451044
7128.000000;1.455473
7127.000000;1.460356
7126.000000;1.466272
7125.000000;1.473114
7124.000000;1.480165
7123.000000;1.486726
7122.000000;1.492490
7121.000000;1.497446
7120.000000;1.501763
7119.000000;1.505836
7118.000000;1.510089
7117.000000;1.514597
7116.000000;1.519053
7115.000000;1.523266
7114.000000;1.527474
7113.000000;1.532032
7112.000000;1.536982
7111.000000;1.542119
7110.000000;1.547327
7109.000000;1.552592
7108.000000;1.557741
7107.000000;1.562499
7106.000000;1.566879
7105.000000;1.571272
7104.000000;1.575987
7103.000000;1.580818
7102.000000;1.585266
7101.000000;1.589134
7100.000000;1.592730
7099.000000;1.596485
7098.000000;1.600519
7097.000000;1.604704
7096.000000;1.609050
7095.000000;1.613785
7094.000000;1.619008
7093.000000;1.624421
7092.000000;1.629546
7091.000000;1.634207
7090.000000;1.638622
7089.000000;1.642981
7088.000000;1.647136
7087.000000;1.650859
7086.000000;1.654342
7085.000000;1.658157
7084.000000;1.662605
7083.000000;1.667271
7082.000000;1.671429
7081.000000;1.674836
7080.000000;1.677909
7079.000000;1.681150
7078.000000;1.684618
7077.000000;1.688038
7076.000000;1.691174
7075.000000;1.693946
7074.000000;1.696445
7073.000000;1.699040
7072.000000;1.702206
7071.000000;1.705931
7070.000000;1.709472
7069.000000;1.712121
7068.000000;1.714119
7067.000000;1.716416
7066.000000;1.719564
7065.000000;1.723284
7064.000000;1.727128
7063.000000;1.730997
7062.000000;1.734741
7061.000000;1.737765
7060.000000;1.739564
7059.000000;1.740506
7058.000000;1.741590
7057.000000;1.743530
7056.000000;1.746367
7055.000000;1.749758
7054.000000;1.753251
7053.000000;1.756383
7052.000000;1.758938
7051.000000;1.761216
7050.000000;1.763720
7049.000000;1.766487
7048.000000;1.768995
7047.000000;1.770872
7046.000000;1.772394
7045.000000;1.774086
7044.000000;1.776080
7043.000000;1.778151
7042.000000;1.780177
7041.000000;1.782226
7040.000000;1.784266
7039.000000;1.786169
7038.000000;1.788039
7037.000000;1.790236
7036.000000;1.792868
7035.000000;1.795510
7034.000000;1.797696
7033.000000;1.799514
7032.000000;1.801357
7031.000000;1.803208
7030.000000;1.804656
7029.000000;1.805676
7028.000000;1.806932
7027.000000;1.809029
7026.000000;1.811639
7025.000000;1.813730
7024.000000;1.814679
7023.000000;1.814856
7022.000000;1.815105
7021.000000;1.815936
7020.000000;1.817319
7019.000000;1.818962
7018.000000;1.820618
7017.000000;1.822228
7016.000000;1.823896
7015.000000;1.825716
7014.000000;1.827587
7013.000000;1.829264
7012.000000;1.830560
7011.000000;1.831457
7010.000000;1.832082
7009.000000;1.832713
7008.000000;1.833678
7007.000000;1.835062
7006.000000;1.836562
7005.000000;1.837803
7004.000000;1.838724
7003.000000;1.839452
7002.000000;1.839996
7001.000000;1.840407
7000.000000;1.841099
6999.000000;1.842502
6998.000000;1.844344
6997.000000;1.845739
6996.000000;1.846290
6995.000000;1.846696
6994.000000;1.847897
6993.000000;1.849917
6992.000000;1.851863
6991.000000;1.852898
6990.000000;1.852921
6989.000000;1.852431
6988.000000;1.852022
6987.000000;1.852004
6986.000000;1.852295
6985.000000;1.852617
6984.000000;1.852839
6983.000000;1.853127
6982.000000;1.853729
6981.000000;1.854736
6980.000000;1.855995
6979.000000;1.857114
6978.000000;1.857680
6977.000000;1.857743
6976.000000;1.858052
6975.000000;1.859303
6974.000000;1.861041
6973.000000;1.861847
6972.000000;1.860938
6971.000000;1.859058
6970.000000;1.857448
6969.000000;1.856585
6968.000000;1.856339
6967.000000;1.856809
6966.000000;1.858228
6965.000000;1.860173
6964.000000;1.861610
6963.000000;1.861963
6962.000000;1.861708
6961.000000;1.861754
6960.000000;1.862554
6959.000000;1.863852
6958.000000;1.864903
6957.000000;1.864899
6956.000000;1.863566
6955.000000;1.861549
6954.000000;1.859956
6953.000000;1.859390
6952.000000;1.859549
6951.000000;1.859736
6950.000000;1.859564
6949.000000;1.859119
6948.000000;1.858746
6947.000000;1.858798
6946.000000;1.859372
6945.000000;1.860214
6944.000000;1.861006
6943.000000;1.861778
6942.000000;1.862824
6941.000000;1.864153
6940.000000;1.865291
6939.000000;1.865753
6938.000000;1.865507
6937.000000;1.864795
6936.000000;1.863707
6935.000000;1.862218
6934.000000;1.860620
6933.000000;1.859570
6932.000000;1.859543
6931.000000;1.860363
6930.000000;1.861461
6929.000000;1.862539
6928.000000;1.863663
6927.000000;1.864613
6926.000000;1.864550
6925.000000;1.862888
6924.000000;1.860373
6923.000000;1.858604
6922.000000;1.858356
6921.000000;1.858935
6920.000000;1.859374
6919.000000;1.859615
6918.000000;1.859974
6917.000000;1.860009
6916.000000;1.858918
6915.000000;1.856995
6914.000000;1.855705
6913.000000;1.856054
6912.000000;1.857529
6911.000000;1.858940
6910.000000;1.859749
6909.000000;1.860120
6908.000000;1.860094
6907.000000;1.859420
6906.000000;1.858109
6905.000000;1.856616
6904.000000;1.855404
6903.000000;1.854681
6902.000000;1.854662
6901.000000;1.855641
6900.000000;1.857524
6899.000000;1.859445
6898.000000;1.860264
6897.000000;1.859587
6896.000000;1.858105
6895.000000;1.856842
6894.000000;1.856261
6893.000000;1.856234
6892.000000;1.856587
6891.000000;1.857141
6890.000000;1.857229
6889.000000;1.855866
6888.000000;1.852935
6887.000000;1.849826
6886.000000;1.848278
6885.000000;1.848632
6884.000000;1.849631
6883.000000;1.849952
6882.000000;1.849523
6881.000000;1.849149
6880.000000;1.849303
6879.000000;1.849668
6878.000000;1.849641
6877.000000;1.848864
6876.000000;1.847330
6875.000000;1.845351
6874.000000;1.843551
6873.000000;1.842698
6872.000000;1.843262
6871.000000;1.845079
6870.000000;1.847359
6869.000000;1.849009
6868.000000;1.849134
6867.000000;1.847590
6866.000000;1.845237
6865.000000;1.843551
6864.000000;1.843632
6863.000000;1.845264
6862.000000;1.846900
6861.000000;1.846876
6860.000000;1.844894
6859.000000;1.842231
6858.000000;1.840446
6857.000000;1.840003
6856.000000;1.840133
6855.000000;1.839792
6854.000000;1.838540
6853.000000;1.836649
6852.000000;1.834751
6851.000000;1.833484
6850.000000;1.833189
6849.000000;1.833615
6848.000000;1.833951
6847.000000;1.833421
6846.000000;1.832002
6845.000000;1.830481
6844.000000;1.829693
6843.000000;1.829780
6842.000000;1.830253
6841.000000;1.830582
6840.000000;1.830483
6839.000000;1.829682
6838.000000;1.827867
6837.000000;1.825194
6836.000000;1.822576
6835.000000;1.820998
6834.000000;1.820489
6833.000000;1.820099
6832.000000;1.818974
6831.000000;1.817169
6830.000000;1.815380
6829.000000;1.814193
6828.000000;1.813754
6827.000000;1.813823
6826.000000;1.813890
6825.000000;1.813399
6824.000000;1.812122
6823.000000;1.810299
6822.000000;1.808366
6821.000000;1.806674
6820.000000;1.805407
6819.000000;1.804442
6818.000000;1.803191
6817.000000;1.800996
6816.000000;1.797921
6815.000000;1.794854
6814.000000;1.792572
6813.000000;1.791012
6812.000000;1.789649
6811.000000;1.788176
6810.000000;1.786518
6809.000000;1.784557
6808.000000;1.782364
6807.000000;1.780443
6806.000000;1.779197
6805.000000;1.778254
6804.000000;1.776828
6803.000000;1.774740
6802.000000;1.772586
6801.000000;1.770888
6800.000000;1.769559
6799.000000;1.768274
6798.000000;1.766891
6797.000000;1.765317
6796.000000;1.763405
6795.000000;1.761250
6794.000000;1.759291
6793.000000;1.757794
6792.000000;1.756447
6791.000000;1.754729
6790.000000;1.752569
6789.000000;1.750423
6788.000000;1.748712
6787.000000;1.747356
6786.000000;1.745863
6785.000000;1.743842
6784.000000;1.741399
6783.000000;1.738991
6782.000000;1.736874
6781.000000;1.734837
6780.000000;1.732619
6779.000000;1.730412
6778.000000;1.728600
6777.000000;1.727063
6776.000000;1.725125
6775.000000;1.722312
6774.000000;1.718920
6773.000000;1.715709
6772.000000;1.713241
6771.000000;1.711591
6770.000000;1.710458
6769.000000;1.709374
6768.000000;1.707973
6767.000000;1.706230
6766.000000;1.704368
6765.000000;1.702486
6764.000000;1.700413
6763.000000;1.698040
6762.000000;1.695634
6761.000000;1.693641
6760.000000;1.692184
6759.000000;1.690867
6758.000000;1.689093
6757.000000;1.686609
6756.000000;1.683750
6755.000000;1.681104
6754.000000;1.678896
6753.000000;1.676763
6752.000000;1.674244
6751.000000;1.671383
6750.000000;1.668649
6749.000000;1.666354
6748.000000;1.664387
6747.000000;1.662492
6746.000000;1.660532
6745.000000;1.658432
6744.000000;1.656181
6743.000000;1.654009
6742.000000;1.652313
6741.000000;1.651140
6740.000000;1.649916
6739.000000;1.647958
6738.000000;1.645250
6737.000000;1.642496
6736.000000;1.640334
6735.000000;1.638643
6734.000000;1.636682
6733.000000;1.633919
6732.000000;1.630621
6731.000000;1.627562
6730.000000;1.625203
6729.000000;1.623321
6728.000000;1.621455
6727.000000;1.619488
6726.000000;1.617614
6725.000000;1.615907
6724.000000;1.614220
6723.000000;1.612490
6722.000000;1.610847
6721.000000;1.609342
6720.000000;1.607761
6719.000000;1.605812
6718.000000;1.603350
6717.000000;1.600415
6716.000000;1.597219
6715.000000;1.594149
6714.000000;1.591548
6713.000000;1.589406
6712.000000;1.587385
6711.000000;1.585248
6710.000000;1.583119
6709.000000;1.581242
6708.000000;1.579622
6707.000000;1.577991
6706.000000;1.576047
6705.000000;1.573647
6704.000000;1.570906
6703.000000;1.568190
6702.000000;1.565846
6701.000000;1.563882
6700.000000;1.562030
6699.000000;1.560123
6698.000000;1.558231
6697.000000;1.556436
6696.000000;1.554590
6695.000000;1.552617
6694.000000;1.550688
6693.000000;1.548952
6692.000000;1.547294
6691.000000;1.545469
6690.000000;1.543414
6689.000000;1.541216
6688.000000;1.538913
6687.000000;1.536524
6686.000000;1.534229
6685.000000;1.532291
6684.000000;1.530730
6683.000000;1.529207
6682.000000;1.527275
6681.000000;1.524736
6680.000000;1.521795
6679.000000;1.518976
6678.000000;1.516808
6677.000000;1.515468
6676.000000;1.514632
6675.000000;1.513689
6674.000000;1.512130
6673.000000;1.509826
6672.000000;1.507048
6671.000000;1.504258
6670.000000;1.501792
6669.000000;1.499684
6668.000000;1.497806
6667.000000;1.496134
6666.000000;1.494735
6665.000000;1.493486
6664.000000;1.492029
6663.000000;1.490146
6662.000000;1.488047
6661.000000;1.486115
6660.000000;1.484456
6659.000000;1.482829
6658.000000;1.480967
6657.000000;1.478818
6656.000000;1.476538
6655.000000;1.474386
6654.000000;1.472575
6653.000000;1.471099
6652.000000;1.469665
6651.000000;1.467906
6650.000000;1.465685
6649.000000;1.463167
6648.000000;1.460679
6647.000000;1.458530
6646.000000;1.456863
6645.000000;1.455541
6644.000000;1.454188
6643.000000;1.452470
6642.000000;1.450345
6641.000000;1.448028
6640.000000;1.445765
6639.000000;1.443739
6638.000000;1.442086
6637.000000;1.440852
6636.000000;1.439897
6635.000000;1.438950
6634.000000;1.437766
6633.000000;1.436218
6632.000000;1.434298
6631.000000;1.432137
6630.000000;1.429986
6629.000000;1.428036
6628.000000;1.426241
6627.000000;1.424392
6626.000000;1.422355
6625.000000;1.420189
6624.000000;1.418035
6623.000000;1.416007
6622.000000;1.414192
6621.000000;1.412687
6620.000000;1.411544
6619.000000;1.410680
6618.000000;1.409837
6617.000000;1.408669
6616.000000;1.406981
6615.000000;1.404918
6614.000000;1.402874
6613.000000;1.401118
6612.000000;1.399585
6611.000000;1.398065
6610.000000;1.396495
6609.000000;1.394962
6608.000000;1.393485
6607.000000;1.391948
6606.000000;1.390259
6605.000000;1.388447
6604.000000;1.386569
6603.000000;1.384637
6602.000000;1.382708
6601.000000;1.380942
6600.000000;1.379457
6599.000000;1.378133
6598.000000;1.376660
6597.000000;1.374835
6596.000000;1.372821
6595.000000;1.371020
6594.000000;1.369668
6593.000000;1.368604
6592.000000;1.367503
6591.000000;1.366260
6590.000000;1.365025
6589.000000;1.363875
6588.000000;1.362654
6587.000000;1.361183
6586.000000;1.359504
6585.000000;1.357798
6584.000000;1.356188
6583.000000;1.354725
6582.000000;1.353446
6581.000000;1.352290
6580.000000;1.351020
6579.000000;1.349427
6578.000000;1.347582
6577.000000;1.345771
6576.000000;1.344173
6575.000000;1.342735
6574.000000;1.341343
6573.000000;1.339975
6572.000000;1.338641
6571.000000;1.337320
6570.000000;1.335999
6569.000000;1.334733
6568.000000;1.333588
6567.000000;1.332569
6566.000000;1.331608
6565.000000;1.330608
6564.000000;1.329476
6563.000000;1.328170
6562.000000;1.326713
6561.000000;1.325149
6560.000000;1.323521
6559.000000;1.321913
6558.000000;1.320455
6557.000000;1.319201
6556.000000;1.318031
6555.000000;1.316748
6554.000000;1.315286
6553.000000;1.313742
6552.000000;1.312239
6551.000000;1.310839
6550.000000;1.309578
6549.000000;1.308471
6548.000000;1.307452
6547.000000;1.306395
6546.000000;1.305221
6545.000000;1.303953
6544.000000;1.302653
6543.000000;1.301379
6542.000000;1.300175
6541.000000;1.299039
6540.000000;1.297879
6539.000000;1.296600
6538.000000;1.295226
6537.000000;1.293884
6536.000000;1.292642
6535.000000;1.291445
6534.000000;1.290211
6533.000000;1.288907
6532.000000;1.287521
6531.000000;1.286040
6530.000000;1.284533
6529.000000;1.283169
6528.000000;1.282087
6527.000000;1.281254
6526.000000;1.280492
6525.000000;1.279616
6524.000000;1.278520
6523.000000;1.277205
6522.000000;1.275762
6521.000000;1.274331
6520.000000;1.273012
6519.000000;1.271810
6518.000000;1.270662
6517.000000;1.269511
6516.000000;1.268353
6515.000000;1.267214
6514.000000;1.266108
6513.000000;1.264997
6512.000000;1.263831
6511.000000;1.262653
6510.000000;1.261599
6509.000000;1.260725
6508.000000;1.259869
6507.000000;1.258807
6506.000000;1.257562
6505.000000;1.256435
6504.000000;1.255642
6503.000000;1.255014
6502.000000;1.254160
6501.000000;1.252889
6500.000000;1.251401
6499.000000;1.250028
6498.000000;1.248897
6497.000000;1.247864
6496.000000;1.246721
6495.000000;1.245426
6494.000000;1.244116
6493.000000;1.242948
6492.000000;1.241963
6491.000000;1.241100
6490.000000;1.240297
6489.000000;1.239528
6488.000000;1.238747
6487.000000;1.237873
6486.000000;1.236870
6485.000000;1.235807
6484.000000;1.234808
6483.000000;1.233949
6482.000000;1.233213
6481.000000;1.232501
6480.000000;1.231678
6479.000000;1.230640
6478.000000;1.229423
6477.000000;1.228206
6476.000000;1.227178
6475.000000;1.226362
6474.000000;1.225614
6473.000000;1.224799
6472.000000;1.223914
6471.000000;1.223017
6470.000000;1.222077
6469.000000;1.220979
6468.000000;1.219689
6467.000000;1.218344
6466.000000;1.217144
6465.000000;1.216163
6464.000000;1.215326
6463.000000;1.214528
6462.000000;1.213716
6461.000000;1.212861
6460.000000;1.211922
6459.000000;1.210910
6458.000000;1.209929
6457.000000;1.209097
6456.000000;1.208419
6455.000000;1.207790
6454.000000;1.207084
6453.000000;1.206218
6452.000000;1.205152
6451.000000;1.203917
6450.000000;1.202659
6449.000000;1.201565
6448.000000;1.200701
6447.000000;1.199958
6446.000000;1.199205
6445.000000;1.198462
6444.000000;1.197847
6443.000000;1.197373
6442.000000;1.196852
6441.000000;1.196064
6440.000000;1.194970
6439.000000;1.193754
6438.000000;1.192641
6437.000000;1.191720
6436.000000;1.190930
6435.000000;1.190156
6434.000000;1.189330
6433.000000;1.188457
6432.000000;1.187602
6431.000000;1.186846
6430.000000;1.186221
6429.000000;1.185672
6428.000000;1.185093
6427.000000;1.184415
6426.000000;1.183657
6425.000000;1.182881
6424.000000;1.182114
6423.000000;1.181345
6422.000000;1.180568
6421.000000;1.179802
6420.000000;1.179066
6419.000000;1.178343
6418.000000;1.177604
6417.000000;1.176838
6416.000000;1.176042
6415.000000;1.175192
6414.000000;1.174265
6413.000000;1.173297
6412.000000;1.172391
6411.000000;1.171625
6410.000000;1.170957
6409.000000;1.170275
6408.000000;1.169535
6407.000000;1.168812
6406.000000;1.168201
6405.000000;1.167710
6404.000000;1.167249
6403.000000;1.166705
6402.000000;1.165989
6401.000000;1.165091
6400.000000;1.164134
6399.000000;1.163313
6398.000000;1.162707
6397.000000;1.162172
6396.000000;1.161482
6395.000000;1.160586
6394.000000;1.159642
6393.000000;1.158814
6392.000000;1.158122
6391.000000;1.157490
6390.000000;1.156855
6389.000000;1.156198
6388.000000;1.155522
6387.000000;1.154854
6386.000000;1.154209
6385.000000;1.153550
6384.000000;1.152833
6383.000000;1.152105
6382.000000;1.151490
6381.000000;1.151022
6380.000000;1.150571
6379.000000;1.149973
6378.000000;1.149208
6377.000000;1.148392
6376.000000;1.147611
6375.000000;1.146843
6374.000000;1.146026
6373.000000;1.145170
6372.000000;1.144392
6371.000000;1.143828
6370.000000;1.143499
6369.000000;1.143247
6368.000000;1.142861
6367.000000;1.142266
6366.000000;1.141552
6365.000000;1.140829
6364.000000;1.140122
6363.000000;1.139414
6362.000000;1.138709
6361.000000;1.138001
6360.000000;1.137256
6359.000000;1.136489
6358.000000;1.135787
6357.000000;1.135236
6356.000000;1.134832
6355.000000;1.134522
6354.000000;1.134251
6353.000000;1.133929
6352.000000;1.133426
6351.000000;1.132685
6350.000000;1.131802
6349.000000;1.130924
6348.000000;1.130115
6347.000000;1.129376
6346.000000;1.128731
6345.000000;1.128189
6344.000000;1.127669
6343.000000;1.127086
6342.000000;1.126493
6341.000000;1.126030
6340.000000;1.125706
6339.000000;1.125358
6338.000000;1.124849
6337.000000;1.124240
6336.000000;1.123695
6335.000000;1.123284
6334.000000;1.122927
6333.000000;1.122502
6332.000000;1.121966
6331.000000;1.121381
6330.000000;1.120846
6329.000000;1.120392
6328.000000;1.119947
6327.000000;1.119404
6326.000000;1.118744
6325.000000;1.118055
6324.000000;1.117452
6323.000000;1.116969
6322.000000;1.116542
6321.000000;1.116076
6320.000000;1.115528
6319.000000;1.114951
6318.000000;1.114430
6317.000000;1.113965
6316.000000;1.113450
6315.000000;1.112804
6314.000000;1.112093
6313.000000;1.111477
6312.000000;1.111044
6311.000000;1.110748
6310.000000;1.110485
6309.000000;1.110179
6308.000000;1.109796
6307.000000;1.109338
6306.000000;1.108845
6305.000000;1.108374
6304.000000;1.107939
6303.000000;1.107515
6302.000000;1.107100
6301.000000;1.106722
6300.000000;1.106393
6299.000000;1.106078
6298.000000;1.105743
6297.000000;1.105395
6296.000000;1.105036
6295.000000;1.104618
6294.000000;1.104069
6293.000000;1.103394
6292.000000;1.102712
6291.000000;1.102182
6290.000000;1.101864
6289.000000;1.101664
6288.000000;1.101411
6287.000000;1.100997
6286.000000;1.100441
6285.000000;1.099841
6284.000000;1.099309
6283.000000;1.098927
6282.000000;1.098697
6281.000000;1.098498
6280.000000;1.098172
6279.000000;1.097673
6278.000000;1.097116
6277.000000;1.096629
6276.000000;1.096233
6275.000000;1.095882
6274.000000;1.095562
6273.000000;1.095265
6272.000000;1.094924
6271.000000;1.094460
6270.000000;1.093892
6269.000000;1.093313
6268.000000;1.092789
6267.000000;1.092349
6266.000000;1.092039
6265.000000;1.091876
6264.000000;1.091762
6263.000000;1.091546
6262.000000;1.091182
6261.000000;1.090753
6260.000000;1.090331
6259.000000;1.089907
6258.000000;1.089485
6257.000000;1.089112
6256.000000;1.088792
6255.000000;1.088467
6254.000000;1.088141
6253.000000;1.087900
6252.000000;1.087746
6251.000000;1.087507
6250.000000;1.087026
6249.000000;1.086401
6248.000000;1.085885
6247.000000;1.085592
6246.000000;1.085399
6245.000000;1.085132
6244.000000;1.084739
6243.000000;1.084253
6242.000000;1.083716
6241.000000;1.083198
6240.000000;1.082798
6239.000000;1.082559
6238.000000;1.082382
6237.000000;1.082127
6236.000000;1.081774
6235.000000;1.081440
6234.000000;1.081223
6233.000000;1.081064
6232.000000;1.080812
6231.000000;1.080402
6230.000000;1.079951
6229.000000;1.079642
6228.000000;1.079539
6227.000000;1.079517
6226.000000;1.079391
6225.000000;1.079094
6224.000000;1.078715
6223.000000;1.078385
6222.000000;1.078143
6221.000000;1.077927
6220.000000;1.077652
6219.000000;1.077305
6218.000000;1.076960
6217.000000;1.076728
6216.000000;1.076664
6215.000000;1.076693
6214.000000;1.076645
6213.000000;1.076383
6212.000000;1.075926
6211.000000;1.075429
6210.000000;1.075020
6209.000000;1.074692
6208.000000;1.074352
6207.000000;1.073964
6206.000000;1.073582
6205.000000;1.073263
6204.000000;1.072979
6203.000000;1.072657
6202.000000;1.072279
6201.000000;1.071915
6200.000000;1.071642
6199.000000;1.071464
6198.000000;1.071321
6197.000000;1.071149
6196.000000;1.070931
6195.000000;1.070664
6194.000000;1.070323
6193.000000;1.069893
6192.000000;1.069442
6191.000000;1.069107
6190.000000;1.068958
6189.000000;1.068906
6188.000000;1.068786
6187.000000;1.068535
6186.000000;1.068229
6185.000000;1.067938
6184.000000;1.067639
6183.000000;1.067286
6182.000000;1.066928
6181.000000;1.066672
6180.000000;1.066560
6179.000000;1.066529
6178.000000;1.066486
6177.000000;1.066378
6176.000000;1.066187
6175.000000;1.065917
6174.000000;1.065608
6173.000000;1.065323
6172.000000;1.065107
6171.000000;1.064940
6170.000000;1.064749
6169.000000;1.064468
6168.000000;1.064107
6167.000000;1.063776
6166.000000;1.063600
6165.000000;1.063596
6164.000000;1.063643
6163.000000;1.063603
6162.000000;1.063447
6161.000000;1.063244
6160.000000;1.063034
6159.000000;1.062788
6158.000000;1.062470
6157.000000;1.062102
6156.000000;1.061747
6155.000000;1.061450
6154.000000;1.061237
6153.000000;1.061109
6152.000000;1.061035
6151.000000;1.060954
6150.000000;1.060827
6149.000000;1.060676
6148.000000;1.060552
6147.000000;1.060469
6146.000000;1.060381
6145.000000;1.060225
6144.000000;1.059992
6143.000000;1.059746
6142.000000;1.059570
6141.000000;1.059484
6140.000000;1.059431
6139.000000;1.059336
6138.000000;1.059191
6137.000000;1.059045
6136.000000;1.058939
6135.000000;1.058859
6134.000000;1.058756
6133.000000;1.058587
6132.000000;1.058333
6131.000000;1.058021
6130.000000;1.057727
6129.000000;1.057533
6128.000000;1.057452
6127.000000;1.057400
6126.000000;1.057266
6125.000000;1.057016
6124.000000;1.056700
6123.000000;1.056394
6122.000000;1.056130
6121.000000;1.055910
6120.000000;1.055719
6119.000000;1.055540
6118.000000;1.055354
6117.000000;1.055162
6116.000000;1.054980
6115.000000;1.054810
6114.000000;1.054633
6113.000000;1.054452
6112.000000;1.054321
6111.000000;1.054279
6110.000000;1.054279
6109.000000;1.054240
6108.000000;1.054152
6107.000000;1.054085
6106.000000;1.054069
6105.000000;1.054045
6104.000000;1.053960
6103.000000;1.053853
6102.000000;1.053783
6101.000000;1.053738
6100.000000;1.053679
6099.000000;1.053627
6098.000000;1.053612
6097.000000;1.053574
6096.000000;1.053394
6095.000000;1.053047
6094.000000;1.052629
6093.000000;1.052237
6092.000000;1.051905
6091.000000;1.051669
6090.000000;1.051606
6089.000000;1.051727
6088.000000;1.051907
6087.000000;1.051966
6086.000000;1.051816
6085.000000;1.051512
6084.000000;1.051214
6083.000000;1.051104
6082.000000;1.051258
6081.000000;1.051529
6080.000000;1.051630
6079.000000;1.051387
6078.000000;1.050918
6077.000000;1.050508
6076.000000;1.050350
6075.000000;1.050419
6074.000000;1.050545
6073.000000;1.050563
6072.000000;1.050418
6071.000000;1.050200
6070.000000;1.050056
6069.000000;1.050039
6068.000000;1.050059
6067.000000;1.050020
6066.000000;1.049946
6065.000000;1.049943
6064.000000;1.050051
6063.000000;1.050210
6062.000000;1.050330
6061.000000;1.050338
6060.000000;1.050179
6059.000000;1.049854
6058.000000;1.049466
6057.000000;1.049158
6056.000000;1.048996
6055.000000;1.048942
6054.000000;1.048940
6053.000000;1.048977
6052.000000;1.049040
6051.000000;1.049099
6050.000000;1.049127
6049.000000;1.049128
6048.000000;1.049119
6047.000000;1.049112
6046.000000;1.049115
6045.000000;1.049127
6044.000000;1.049117
6043.000000;1.049035
6042.000000;1.048859
6041.000000;1.048608
6040.000000;1.048314
6039.000000;1.048024
6038.000000;1.047814
6037.000000;1.047756
6036.000000;1.047848
6035.000000;1.048002
6034.000000;1.048122
6033.000000;1.048187
6032.000000;1.048223
6031.000000;1.048247
6030.000000;1.048242
6029.000000;1.048192
6028.000000;1.048097
6027.000000;1.047971
6026.000000;1.047840
6025.000000;1.047765
6024.000000;1.047810
6023.000000;1.047973
6022.000000;1.048153
6021.000000;1.048222
6020.000000;1.048155
6019.000000;1.048042
6018.000000;1.047965
6017.000000;1.047901
6016.000000;1.047806
6015.000000;1.047743
6014.000000;1.047844
6013.000000;1.048121
6012.000000;1.048403
6011.000000;1.048511
6010.000000;1.048435
6009.000000;1.048314
6008.000000;1.048265
6007.000000;1.048299
6006.000000;1.048368
6005.000000;1.048439
6004.000000;1.048520
6003.000000;1.048643
6002.000000;1.048801
6001.000000;1.048913
6000.000000;1.048876
5999.000000;1.048699
5998.000000;1.048534
5997.000000;1.048540
5996.000000;1.048738
5995.000000;1.049037
5994.000000;1.049350
5993.000000;1.049617
5992.000000;1.049767
5991.000000;1.049741
5990.000000;1.049558
5989.000000;1.049330
5988.000000;1.049169
5987.000000;1.049134
5986.000000;1.049241
5985.000000;1.049465
5984.000000;1.049738
5983.000000;1.049992
5982.000000;1.050222
5981.000000;1.050461
5980.000000;1.050702
5979.000000;1.050885
5978.000000;1.050970
5977.000000;1.051003
5976.000000;1.051058
5975.000000;1.051158
5974.000000;1.051260
5973.000000;1.051319
5972.000000;1.051351
5971.000000;1.051428
5970.000000;1.051607
5969.000000;1.051865
5968.000000;1.052126
5967.000000;1.052350
5966.000000;1.052552
5965.000000;1.052729
5964.000000;1.052826
5963.000000;1.052836
5962.000000;1.052870
5961.000000;1.053067
5960.000000;1.053427
5959.000000;1.053820
5958.000000;1.054136
5957.000000;1.054384
5956.000000;1.054620
5955.000000;1.054862
5954.000000;1.055107
5953.000000;1.055361
5952.000000;1.055620
5951.000000;1.055850
5950.000000;1.056023
5949.000000;1.056152
5948.000000;1.056257
5947.000000;1.056331
5946.000000;1.056367
5945.000000;1.056409
5944.000000;1.056547
5943.000000;1.056835
5942.000000;1.057230
5941.000000;1.057603
5940.000000;1.057841
5939.000000;1.057948
5938.000000;1.058046
5937.000000;1.058261
5936.000000;1.058619
5935.000000;1.059050
5934.000000;1.059486
5933.000000;1.059896
5932.000000;1.060250
5931.000000;1.060503
5930.000000;1.060639
5929.000000;1.060704
5928.000000;1.060776
5927.000000;1.060908
5926.000000;1.061120
5925.000000;1.061414
5924.000000;1.061772
5923.000000;1.062149
5922.000000;1.062481
5921.000000;1.062714
5920.000000;1.062841
5919.000000;1.062912
5918.000000;1.063003
5917.000000;1.063163
5916.000000;1.063378
5915.000000;1.063592
5914.000000;1.063750
5913.000000;1.063835
5912.000000;1.063877
5911.000000;1.063934
5910.000000;1.064041
5909.000000;1.064148
5908.000000;1.064151
5907.000000;1.064006
5906.000000;1.063816
5905.000000;1.063752
5904.000000;1.063902
5903.000000;1.064208
5902.000000;1.064534
5901.000000;1.064784
5900.000000;1.064940
5899.000000;1.065042
5898.000000;1.065138
5897.000000;1.065251
5896.000000;1.065381
5895.000000;1.065516
5894.000000;1.065637
5893.000000;1.065704
5892.000000;1.065676
5891.000000;1.065569
5890.000000;1.065470
5889.000000;1.065468
5888.000000;1.065571
5887.000000;1.065723
5886.000000;1.065876
5885.000000;1.066022
5884.000000;1.066174
5883.000000;1.066342
5882.000000;1.066538
5881.000000;1.066755
5880.000000;1.066969
5879.000000;1.067172
5878.000000;1.067404
5877.000000;1.067723
5876.000000;1.068131
5875.000000;1.068558
5874.000000;1.068903
5873.000000;1.069110
5872.000000;1.069209
5871.000000;1.069318
5870.000000;1.069574
5869.000000;1.070013
5868.000000;1.070528
5867.000000;1.070964
5866.000000;1.071254
5865.000000;1.071430
5864.000000;1.071558
5863.000000;1.071696
5862.000000;1.071907
5861.000000;1.072219
5860.000000;1.072585
5859.000000;1.072917
5858.000000;1.073201
5857.000000;1.073503
5856.000000;1.073869
5855.000000;1.074266
5854.000000;1.074645
5853.000000;1.075001
5852.000000;1.075341
5851.000000;1.075633
5850.000000;1.075861
5849.000000;1.076081
5848.000000;1.076376
5847.000000;1.076755
5846.000000;1.077134
5845.000000;1.077436
5844.000000;1.077668
5843.000000;1.077909
5842.000000;1.078241
5841.000000;1.078698
5840.000000;1.079257
5839.000000;1.079839
5838.000000;1.080359
5837.000000;1.080797
5836.000000;1.081220
5835.000000;1.081702
5834.000000;1.082226
5833.000000;1.082684
5832.000000;1.082993
5831.000000;1.083186
5830.000000;1.083378
5829.000000;1.083663
5828.000000;1.084063
5827.000000;1.084558
5826.000000;1.085128
5825.000000;1.085743
5824.000000;1.086374
5823.000000;1.087002
5822.000000;1.087617
5821.000000;1.088184
5820.000000;1.088653
5819.000000;1.089015
5818.000000;1.089342
5817.000000;1.089737
5816.000000;1.090253
5815.000000;1.090845
5814.000000;1.091400
5813.000000;1.091805
5812.000000;1.092055
5811.000000;1.092275
5810.000000;1.092640
5809.000000;1.093214
5808.000000;1.093898
5807.000000;1.094531
5806.000000;1.095034
5805.000000;1.095441
5804.000000;1.095850
5803.000000;1.096356
5802.000000;1.097000
5801.000000;1.097727
5800.000000;1.098414
5799.000000;1.098982
5798.000000;1.099463
5797.000000;1.099954
5796.000000;1.100521
5795.000000;1.101160
5794.000000;1.101818
5793.000000;1.102415
5792.000000;1.102911
5791.000000;1.103382
5790.000000;1.103971
5789.000000;1.104707
5788.000000;1.105403
5787.000000;1.105849
5786.000000;1.106063
5785.000000;1.106294
5784.000000;1.106746
5783.000000;1.107414
5782.000000;1.108180
5781.000000;1.108958
5780.000000;1.109694
5779.000000;1.110317
5778.000000;1.110794
5777.000000;1.111206
5776.000000;1.111683
5775.000000;1.112259
5774.000000;1.112849
5773.000000;1.113371
5772.000000;1.113860
5771.000000;1.114420
5770.000000;1.115108
5769.000000;1.115872
5768.000000;1.116606
5767.000000;1.117246
5766.000000;1.117822
5765.000000;1.118404
5764.000000;1.119010
5763.000000;1.119588
5762.000000;1.120091
5761.000000;1.120559
5760.000000;1.121081
5759.000000;1.121672
5758.000000;1.122231
5757.000000;1.122648
5756.000000;1.122936
5755.000000;1.123223
5754.000000;1.123628
5753.000000;1.124162
5752.000000;1.124758
5751.000000;1.125345
5750.000000;1.125900
5749.000000;1.126454
5748.000000;1.127077
5747.000000;1.127817
5746.000000;1.128624
5745.000000;1.129358
5744.000000;1.129919
5743.000000;1.130382
5742.000000;1.130922
5741.000000;1.131640
5740.000000;1.132474
5739.000000;1.133291
5738.000000;1.134009
5737.000000;1.134615
5736.000000;1.135129
5735.000000;1.135597
5734.000000;1.136090
5733.000000;1.136666
5732.000000;1.137327
5731.000000;1.138042
5730.000000;1.138787
5729.000000;1.139539
5728.000000;1.140256
5727.000000;1.140912
5726.000000;1.141538
5725.000000;1.142202
5724.000000;1.142947
5723.000000;1.143750
5722.000000;1.144539
5721.000000;1.145244
5720.000000;1.145839
5719.000000;1.146364
5718.000000;1.146899
5717.000000;1.147495
5716.000000;1.148135
5715.000000;1.148755
5714.000000;1.149325
5713.000000;1.149879
5712.000000;1.150478
5711.000000;1.151140
5710.000000;1.151810
5709.000000;1.152427
5708.000000;1.153027
5707.000000;1.153720
5706.000000;1.154554
5705.000000;1.155421
5704.000000;1.156170
5703.000000;1.156786
5702.000000;1.157401
5701.000000;1.158140
5700.000000;1.159001
5699.000000;1.159896
5698.000000;1.160743
5697.000000;1.161503
5696.000000;1.162192
5695.000000;1.162868
5694.000000;1.163569
5693.000000;1.164234
5692.000000;1.164788
5691.000000;1.165256
5690.000000;1.165759
5689.000000;1.166389
5688.000000;1.167120
5687.000000;1.167894
5686.000000;1.168700
5685.000000;1.169526
5684.000000;1.170315
5683.000000;1.171036
5682.000000;1.171727
5681.000000;1.172424
5680.000000;1.173080
5679.000000;1.173650
5678.000000;1.174179
5677.000000;1.174747
5676.000000;1.175370
5675.000000;1.176018
5674.000000;1.176710
5673.000000;1.177479
5672.000000;1.178299
5671.000000;1.179110
5670.000000;1.179908
5669.000000;1.180706
5668.000000;1.181454
5667.000000;1.182073
5666.000000;1.182601
5665.000000;1.183179
5664.000000;1.183874
5663.000000;1.184608
5662.000000;1.185278
5661.000000;1.185890
5660.000000;1.186515
5659.000000;1.187177
5658.000000;1.187842
5657.000000;1.188493
5656.000000;1.189154
5655.000000;1.189845
5654.000000;1.190526
5653.000000;1.191097
5652.000000;1.191480
5651.000000;1.191728
5650.000000;1.192032
5649.000000;1.192573
5648.000000;1.193350
5647.000000;1.194182
5646.000000;1.194890
5645.000000;1.195454
5644.000000;1.195985
5643.000000;1.196586
5642.000000;1.197280
5641.000000;1.198030
5640.000000;1.198787
5639.000000;1.199496
5638.000000;1.200086
5637.000000;1.200527
5636.000000;1.200888
5635.000000;1.201327
5634.000000;1.201933
5633.000000;1.202616
5632.000000;1.203189
5631.000000;1.203588
5630.000000;1.203942
5629.000000;1.204389
5628.000000;1.204906
5627.000000;1.205381
5626.000000;1.205795
5625.000000;1.206233
5624.000000;1.206738
5623.000000;1.207253
5622.000000;1.207720
5621.000000;1.208160
5620.000000;1.208615
5619.000000;1.209065
5618.000000;1.209475
5617.000000;1.209868
5616.000000;1.210321
5615.000000;1.210863
5614.000000;1.211420
5613.000000;1.211856
5612.000000;1.212093
5611.000000;1.212186
5610.000000;1.212285
5609.000000;1.212520
5608.000000;1.212922
5607.000000;1.213452
5606.000000;1.214057
5605.000000;1.214682
5604.000000;1.215242
5603.000000;1.215665
5602.000000;1.215946
5601.000000;1.216155
5600.000000;1.216362
5599.000000;1.216605
5598.000000;1.216900
5597.000000;1.217256
5596.000000;1.217640
5595.000000;1.217973
5594.000000;1.218195
5593.000000;1.218314
5592.000000;1.218395
5591.000000;1.218501
5590.000000;1.218668
5589.000000;1.218908
5588.000000;1.219197
5587.000000;1.219474
5586.000000;1.219678
5585.000000;1.219799
5584.000000;1.219909
5583.000000;1.220102
5582.000000;1.220401
5581.000000;1.220734
5580.000000;1.220996
5579.000000;1.221141
5578.000000;1.221214
5577.000000;1.221312
5576.000000;1.221525
5575.000000;1.221871
5574.000000;1.222263
5573.000000;1.222551
5572.000000;1.222657
5571.000000;1.222661
5570.000000;1.222726
5569.000000;1.222920
5568.000000;1.223157
5567.000000;1.223307
5566.000000;1.223337
5565.000000;1.223319
5564.000000;1.223349
5563.000000;1.223471
5562.000000;1.223650
5561.000000;1.223789
5560.000000;1.223836
5559.000000;1.223856
5558.000000;1.223972
5557.000000;1.224204
5556.000000;1.224418
5555.000000;1.224485
5554.000000;1.224423
5553.000000;1.224343
5552.000000;1.224295
5551.000000;1.224242
5550.000000;1.224161
5549.000000;1.224093
5548.000000;1.224087
5547.000000;1.224150
5546.000000;1.224254
5545.000000;1.224381
5544.000000;1.224542
5543.000000;1.224771
5542.000000;1.225083
5541.000000;1.225437
5540.000000;1.225737
5539.000000;1.225901
5538.000000;1.225904
5537.000000;1.225772
5536.000000;1.225570
5535.000000;1.225409
5534.000000;1.225390
5533.000000;1.225503
5532.000000;1.225630
5531.000000;1.225692
5530.000000;1.225735
5529.000000;1.225820
5528.000000;1.225896
5527.000000;1.225865
5526.000000;1.225733
5525.000000;1.225616
5524.000000;1.225600
5523.000000;1.225671
5522.000000;1.225776
5521.000000;1.225896
5520.000000;1.226049
5519.000000;1.226255
5518.000000;1.226507
5517.000000;1.226731
5516.000000;1.226815
5515.000000;1.226728
5514.000000;1.226591
5513.000000;1.226577
5512.000000;1.226732
5511.000000;1.226959
5510.000000;1.227160
5509.000000;1.227328
5508.000000;1.227514
5507.000000;1.227747
5506.000000;1.228032
5505.000000;1.228355
5504.000000;1.228685
5503.000000;1.228982
5502.000000;1.229217
5501.000000;1.229375
5500.000000;1.229457
5499.000000;1.229489
5498.000000;1.229516
5497.000000;1.229524
5496.000000;1.229445
5495.000000;1.229263
5494.000000;1.229085
5493.000000;1.229026
5492.000000;1.229068
5491.000000;1.229108
5490.000000;1.229122
5489.000000;1.229180
5488.000000;1.229312
5487.000000;1.229486
5486.000000;1.229732
5485.000000;1.230164
5484.000000;1.230819
5483.000000;1.231546
5482.000000;1.232140
5481.000000;1.232559
5480.000000;1.232924
5479.000000;1.233330
5478.000000;1.233736
5477.000000;1.234045
5476.000000;1.234230
5475.000000;1.234356
5474.000000;1.234477
5473.000000;1.234596
5472.000000;1.234737
5471.000000;1.234980
5470.000000;1.235378
5469.000000;1.235865
5468.000000;1.236299
5467.000000;1.236617
5466.000000;1.236893
5465.000000;1.237203
5464.000000;1.237536
5463.000000;1.237877
5462.000000;1.238280
5461.000000;1.238773
5460.000000;1.239260
5459.000000;1.239658
5458.000000;1.240095
5457.000000;1.240798
5456.000000;1.241813
5455.000000;1.242941
5454.000000;1.243946
5453.000000;1.244753
5452.000000;1.245460
5451.000000;1.246216
5450.000000;1.247038
5449.000000;1.247732
5448.000000;1.248090
5447.000000;1.248216
5446.000000;1.248475
5445.000000;1.249045
5444.000000;1.249708
5443.000000;1.250232
5442.000000;1.250729
5441.000000;1.251470
5440.000000;1.252495
5439.000000;1.253606
5438.000000;1.254679
5437.000000;1.255762
5436.000000;1.256890
5435.000000;1.258031
5434.000000;1.259181
5433.000000;1.260345
5432.000000;1.261473
5431.000000;1.262527
5430.000000;1.263568
5429.000000;1.264705
5428.000000;1.265985
5427.000000;1.267378
5426.000000;1.268890
5425.000000;1.270564
5424.000000;1.272382
5423.000000;1.274253
5422.000000;1.276142
5421.000000;1.278114
5420.000000;1.280202
5419.000000;1.282268
5418.000000;1.284052
5417.000000;1.285416
5416.000000;1.286490
5415.000000;1.287529
5414.000000;1.288670
5413.000000;1.289868
5412.000000;1.291087
5411.000000;1.292471
5410.000000;1.294215
5409.000000;1.296309
5408.000000;1.298601
5407.000000;1.301064
5406.000000;1.303830
5405.000000;1.306919
5404.000000;1.310126
5403.000000;1.313243
5402.000000;1.316264
5401.000000;1.319248
5400.000000;1.322152
5399.000000;1.324916
5398.000000;1.327566
5397.000000;1.330156
5396.000000;1.332735
5395.000000;1.335410
5394.000000;1.338351
5393.000000;1.341619
5392.000000;1.345074
5391.000000;1.348549
5390.000000;1.352017
5389.000000;1.355536
5388.000000;1.359147
5387.000000;1.362912
5386.000000;1.366912
5385.000000;1.371109
5384.000000;1.375336
5383.000000;1.379577
5382.000000;1.384057
5381.000000;1.388871
5380.000000;1.393760
5379.000000;1.398469
5378.000000;1.403097
5377.000000;1.407924
5376.000000;1.412996
5375.000000;1.418147
5374.000000;1.423351
5373.000000;1.428779
5372.000000;1.434537
5371.000000;1.440611
5370.000000;1.447038
5369.000000;1.453873
5368.000000;1.460972
5367.000000;1.468057
5366.000000;1.475054
5365.000000;1.482154
5364.000000;1.489493
5363.000000;1.496985
5362.000000;1.504556
5361.000000;1.512320
5360.000000;1.520452
5359.000000;1.528998
5358.000000;1.537847
5357.000000;1.546800
5356.000000;1.555677
5355.000000;1.564486
5354.000000;1.573472
5353.000000;1.582874
5352.000000;1.592693
5351.000000;1.602875
5350.000000;1.613555
5349.000000;1.624797
5348.000000;1.636277
5347.000000;1.647623
5346.000000;1.658998
5345.000000;1.670975
5344.000000;1.683806
5343.000000;1.697096
5342.000000;1.710364
5341.000000;1.723597
5340.000000;1.737075
5339.000000;1.751070
5338.000000;1.765849
5337.000000;1.781528
5336.000000;1.797786
5335.000000;1.814100
5334.000000;1.830336
5333.000000;1.846886
5332.000000;1.864170
5331.000000;1.882239
5330.000000;1.900852
5329.000000;1.919684
5328.000000;1.938489
5327.000000;1.957410
5326.000000;1.977089
5325.000000;1.998086
5324.000000;2.020177
5323.000000;2.042546
5322.000000;2.064669
5321.000000;2.086668
5320.000000;2.108827
5319.000000;2.131262
5318.000000;2.154109
5317.000000;2.177522
5316.000000;2.201376
5315.000000;2.225455
5314.000000;2.249920
5313.000000;2.275022
5312.000000;2.300446
5311.000000;2.325616
5310.000000;2.350635
5309.000000;2.376160
5308.000000;2.402390
5307.000000;2.428912
5306.000000;2.455372
5305.000000;2.481474
5304.000000;2.506551
5303.000000;2.530140
5302.000000;2.552868
5301.000000;2.575876
5300.000000;2.599803
5299.000000;2.625207
5298.000000;2.652851
5297.000000;2.681915
5296.000000;2.708950
5295.000000;2.731049
5294.000000;2.749492
5293.000000;2.767608
5292.000000;2.785945
5291.000000;2.802393
5290.000000;2.816220
5289.000000;2.828940
5288.000000;2.841380
5287.000000;2.852539
5286.000000;2.861961
5285.000000;2.871112
5284.000000;2.881658
5283.000000;2.894092
5282.000000;2.907593
5281.000000;2.919743
5280.000000;2.927727
5279.000000;2.931273
5278.000000;2.932516
5277.000000;2.932056
5276.000000;2.928461
5275.000000;2.922954
5274.000000;2.920691
5273.000000;2.925044
5272.000000;2.933697
5271.000000;2.942898
5270.000000;2.952841
5269.000000;2.964686
5268.000000;2.974587
5267.000000;2.976021
5266.000000;2.967411
5265.000000;2.953927
5264.000000;2.943824
5263.000000;2.944479
5262.000000;2.957734
5261.000000;2.975698
5260.000000;2.984435
5259.000000;2.978456
5258.000000;2.967721
5257.000000;2.964167
5256.000000;2.968033
5255.000000;2.970327
5254.000000;2.965575
5253.000000;2.957873
5252.000000;2.954077
5251.000000;2.957095
5250.000000;2.965759
5249.000000;2.976182
5248.000000;2.983049
5247.000000;2.983210
5246.000000;2.978769
5245.000000;2.974706
5244.000000;2.973881
5243.000000;2.975660
5242.000000;2.977584
5241.000000;2.976576
5240.000000;2.970584
5239.000000;2.961154
5238.000000;2.952878
5237.000000;2.948785
5236.000000;2.947614
5235.000000;2.947511
5234.000000;2.950421
5233.000000;2.958698
5232.000000;2.968955
5231.000000;2.974084
5230.000000;2.971200
5229.000000;2.963741
5228.000000;2.956531
5227.000000;2.952681
5226.000000;2.953722
5225.000000;2.958789
5224.000000;2.964034
5223.000000;2.965860
5222.000000;2.964458
5221.000000;2.962179
5220.000000;2.960558
5219.000000;2.961203
5218.000000;2.966767
5217.000000;2.977586
5216.000000;2.988587
5215.000000;2.993263
5214.000000;2.990950
5213.000000;2.986545
5212.000000;2.983905
5211.000000;2.983314
5210.000000;2.983824
5209.000000;2.984138
5208.000000;2.982779
5207.000000;2.980908
5206.000000;2.982184
5205.000000;2.986915
5204.000000;2.989261
5203.000000;2.983908
5202.000000;2.973475
5201.000000;2.964795
5200.000000;2.960840
5199.000000;2.960858
5198.000000;2.965597
5197.000000;2.976941
5196.000000;2.991703
5195.000000;3.000239
5194.000000;2.995592
5193.000000;2.981285
5192.000000;2.966145
5191.000000;2.956112
5190.000000;2.952859
5189.000000;2.955555
5188.000000;2.961978
5187.000000;2.969448
5186.000000;2.975367
5185.000000;2.977619
5184.000000;2.975573
5183.000000;2.970545
5182.000000;2.964730
5181.000000;2.959499
5180.000000;2.955226
5179.000000;2.952756
5178.000000;2.953540
5177.000000;2.957619
5176.000000;2.962692
5175.000000;2.966130
5174.000000;2.966996
5173.000000;2.965152
5172.000000;2.960198
5171.000000;2.953041
5170.000000;2.946957
5169.000000;2.945044
5168.000000;2.947328
5167.000000;2.951406
5166.000000;2.955250
5165.000000;2.958594
5164.000000;2.962097
5163.000000;2.966340
5162.000000;2.971859
5161.000000;2.978154
5160.000000;2.982460
5159.000000;2.982099
5158.000000;2.976477
5157.000000;2.966687
5156.000000;2.956393
5155.000000;2.951125
5154.000000;2.953953
5153.000000;2.962577
5152.000000;2.972162
5151.000000;2.980608
5150.000000;2.987921
5149.000000;2.990916
5148.000000;2.984424
5147.000000;2.969387
5146.000000;2.953997
5145.000000;2.945033
5144.000000;2.942491
5143.000000;2.943034
5142.000000;2.945038
5141.000000;2.948307
5140.000000;2.951643
5139.000000;2.954018
5138.000000;2.956124
5137.000000;2.958219
5136.000000;2.958886
5135.000000;2.957914
5134.000000;2.957963
5133.000000;2.961241
5132.000000;2.966173
5131.000000;2.969025
5130.000000;2.967381
5129.000000;2.961045
5128.000000;2.952087
5127.000000;2.944760
5126.000000;2.942901
5125.000000;2.946308
5124.000000;2.951158
5123.000000;2.955205
5122.000000;2.959822
5121.000000;2.965095
5120.000000;2.967532
5119.000000;2.966170
5118.000000;2.965665
5117.000000;2.968758
5116.000000;2.970653
5115.000000;2.965887
5114.000000;2.957601
5113.000000;2.953595
5112.000000;2.955864
5111.000000;2.959220
5110.000000;2.958650
5109.000000;2.953972
5108.000000;2.947651
5107.000000;2.942499
5106.000000;2.941606
5105.000000;2.946893
5104.000000;2.956441
5103.000000;2.965004
5102.000000;2.968555
5101.000000;2.967054
5100.000000;2.962679
5099.000000;2.957746
5098.000000;2.953885
5097.000000;2.951315
5096.000000;2.949411
5095.000000;2.948521
5094.000000;2.949739
5093.000000;2.952063
5092.000000;2.951905
5091.000000;2.947613
5090.000000;2.942425
5089.000000;2.940341
5088.000000;2.941266
5087.000000;2.942147
5086.000000;2.940949
5085.000000;2.937713
5084.000000;2.934000
5083.000000;2.933370
5082.000000;2.939326
5081.000000;2.949912
5080.000000;2.957132
5079.000000;2.955940
5078.000000;2.951140
5077.000000;2.950163
5076.000000;2.952949
5075.000000;2.954232
5074.000000;2.953197
5073.000000;2.953855
5072.000000;2.956657
5071.000000;2.956807
5070.000000;2.951361
5069.000000;2.942907
5068.000000;2.935554
5067.000000;2.931615
5066.000000;2.932285
5065.000000;2.937560
5064.000000;2.944245
5063.000000;2.947217
5062.000000;2.944751
5061.000000;2.939999
5060.000000;2.936106
5059.000000;2.933288
5058.000000;2.931367
5057.000000;2.931485
5056.000000;2.933768
5055.000000;2.936178
5054.000000;2.937052
5053.000000;2.936582
5052.000000;2.934942
5051.000000;2.931650
5050.000000;2.928034
5049.000000;2.927400
5048.000000;2.930864
5047.000000;2.934766
5046.000000;2.934079
5045.000000;2.927861
5044.000000;2.919937
5043.000000;2.915091
5042.000000;2.915752
5041.000000;2.921017
5040.000000;2.927387
5039.000000;2.931173
5038.000000;2.931324
5037.000000;2.929613
5036.000000;2.928225
5035.000000;2.928105
5034.000000;2.929022
5033.000000;2.929541
5032.000000;2.926734
5031.000000;2.917799
5030.000000;2.903745
5029.000000;2.890448
5028.000000;2.884411
5027.000000;2.887690
5026.000000;2.896485
5025.000000;2.904338
5024.000000;2.907780
5023.000000;2.908735
5022.000000;2.910781
5021.000000;2.913910
5020.000000;2.914293
5019.000000;2.909995
5018.000000;2.904542
5017.000000;2.902120
5016.000000;2.901640
5015.000000;2.898749
5014.000000;2.892860
5013.000000;2.888513
5012.000000;2.889082
5011.000000;2.892410
5010.000000;2.893608
5009.000000;2.890235
5008.000000;2.883332
5007.000000;2.875332
5006.000000;2.869163
5005.000000;2.868150
5004.000000;2.873764
5003.000000;2.882723
5002.000000;2.887936
5001.000000;2.884160
5000.000000;2.873657
4999.000000;2.863890
4998.000000;2.859509
4997.000000;2.858475
4996.000000;2.855267
4995.000000;2.847179
4994.000000;2.837102
4993.000000;2.830545
4992.000000;2.830529
4991.000000;2.835045
4990.000000;2.838457
4989.000000;2.835792
4988.000000;2.827110
4987.000000;2.817187
4986.000000;2.810568
4985.000000;2.808169
4984.000000;2.808555
4983.000000;2.810530
4982.000000;2.813056
4981.000000;2.814041
4980.000000;2.811919
4979.000000;2.808093
4978.000000;2.805014
4977.000000;2.801894
4976.000000;2.794966
4975.000000;2.782955
4974.000000;2.770174
4973.000000;2.762655
4972.000000;2.762659
4971.000000;2.767309
4970.000000;2.771205
4969.000000;2.770447
4968.000000;2.765570
4967.000000;2.760744
4966.000000;2.759130
4965.000000;2.759155
4964.000000;2.756505
4963.000000;2.749989
4962.000000;2.743304
4961.000000;2.740236
4960.000000;2.740248
4959.000000;2.739707
4958.000000;2.736224
4957.000000;2.730594
4956.000000;2.725285
4955.000000;2.722358
4954.000000;2.721956
4953.000000;2.721705
4952.000000;2.718675
4951.000000;2.712919
4950.000000;2.707752
4949.000000;2.705604
4948.000000;2.705088
4947.000000;2.703066
4946.000000;2.698460
4945.000000;2.692763
4944.000000;2.687646
4943.000000;2.683473
4942.000000;2.679579
4941.000000;2.674975
4940.000000;2.669326
4939.000000;2.663670
4938.000000;2.659304
4937.000000;2.655847
4936.000000;2.651598
4935.000000;2.646140
4934.000000;2.641270
4933.000000;2.638784
4932.000000;2.638399
4931.000000;2.638367
4930.000000;2.637142
4929.000000;2.633695
4928.000000;2.627525
4927.000000;2.619690
4926.000000;2.612653
4925.000000;2.607779
4924.000000;2.603906
4923.000000;2.599341
4922.000000;2.594091
4921.000000;2.589087
4920.000000;2.584634
4919.000000;2.580949
4918.000000;2.578911
4917.000000;2.578684
4916.000000;2.578426
4915.000000;2.576092
4914.000000;2.572030
4913.000000;2.568187
4912.000000;2.565367
4911.000000;2.562704
4910.000000;2.559314
4909.000000;2.555063
4908.000000;2.549974
4907.000000;2.544202
4906.000000;2.538545
4905.000000;2.533849
4904.000000;2.530045
4903.000000;2.526524
4902.000000;2.523118
4901.000000;2.520003
4900.000000;2.517196
4899.000000;2.514932
4898.000000;2.513721
4897.000000;2.513015
4896.000000;2.510789
4895.000000;2.505837
4894.000000;2.499732
4893.000000;2.494904
4892.000000;2.491444
4891.000000;2.487427
4890.000000;2.481928
4889.000000;2.475948
4888.000000;2.470564
4887.000000;2.466052
4886.000000;2.462714
4885.000000;2.460798
4884.000000;2.459230
4883.000000;2.455963
4882.000000;2.450371
4881.000000;2.444113
4880.000000;2.438976
4879.000000;2.435083
4878.000000;2.431905
4877.000000;2.429849
4876.000000;2.429616
4875.000000;2.430498
4874.000000;2.430353
4873.000000;2.427271
4872.000000;2.421046
4871.000000;2.413295
4870.000000;2.406295
4869.000000;2.401433
4868.000000;2.398451
4867.000000;2.396153
4866.000000;2.393851
4865.000000;2.391846
4864.000000;2.390559
4863.000000;2.389633
4862.000000;2.388047
4861.000000;2.384883
4860.000000;2.379909
4859.000000;2.373773
4858.000000;2.367751
4857.000000;2.363010
4856.000000;2.359844
4855.000000;2.357617
4854.000000;2.355477
4853.000000;2.352965
4852.000000;2.349912
4851.000000;2.346154
4850.000000;2.341538
4849.000000;2.336057
4848.000000;2.330007
4847.000000;2.324078
4846.000000;2.319077
4845.000000;2.315285
4844.000000;2.312238
4843.000000;2.309375
4842.000000;2.306730
4841.000000;2.304647
4840.000000;2.302987
4839.000000;2.301071
4838.000000;2.298358
4837.000000;2.294826
4836.000000;2.290747
4835.000000;2.286439
4834.000000;2.282207
4833.000000;2.278215
4832.000000;2.274407
4831.000000;2.270771
4830.000000;2.267534
4829.000000;2.264753
4828.000000;2.261936
4827.000000;2.258545
4826.000000;2.254714
4825.000000;2.251049
4824.000000;2.247836
4823.000000;2.244924
4822.000000;2.242217
4821.000000;2.239661
4820.000000;2.236758
4819.000000;2.232808
4818.000000;2.227919
4817.000000;2.223251
4816.000000;2.219860
4815.000000;2.217587
4814.000000;2.215392
4813.000000;2.212514
4812.000000;2.208986
4811.000000;2.205186
4810.000000;2.201330
4809.000000;2.197535
4808.000000;2.194054
4807.000000;2.191142
4806.000000;2.188649
4805.000000;2.185933
4804.000000;2.182426
4803.000000;2.178375
4802.000000;2.174756
4801.000000;2.172261
4800.000000;2.170402
4799.000000;2.167863
4798.000000;2.163806
4797.000000;2.158701
4796.000000;2.153823
4795.000000;2.150117
4794.000000;2.147605
4793.000000;2.145653
4792.000000;2.143592
4791.000000;2.141050
4790.000000;2.137898
4789.000000;2.134203
4788.000000;2.130323
4787.000000;2.126836
4786.000000;2.124062
4785.000000;2.121658
4784.000000;2.118927
4783.000000;2.115563
4782.000000;2.111897
4781.000000;2.108404
4780.000000;2.105239
4779.000000;2.102331
4778.000000;2.099634
4777.000000;2.097124
4776.000000;2.094687
4775.000000;2.092183
4774.000000;2.089501
4773.000000;2.086572
4772.000000;2.083511
4771.000000;2.080768
4770.000000;2.078764
4769.000000;2.077191
4768.000000;2.074984
4767.000000;2.071335
4766.000000;2.066606
4765.000000;2.061958
4764.000000;2.058229
4763.000000;2.055515
4762.000000;2.053599
4761.000000;2.052270
4760.000000;2.051169
4759.000000;2.049732
4758.000000;2.047557
4757.000000;2.044733
4756.000000;2.041651
4755.000000;2.038547
4754.000000;2.035376
4753.000000;2.032095
4752.000000;2.028908
4751.000000;2.026093
4750.000000;2.023552
4749.000000;2.020708
4748.000000;2.017048
4747.000000;2.012784
4746.000000;2.008792
4745.000000;2.005868
4744.000000;2.004091
4743.000000;2.002805
4742.000000;2.001056
4741.000000;1.998178
4740.000000;1.994298
4739.000000;1.990360
4738.000000;1.987370
4737.000000;1.985470
4736.000000;1.983909
4735.000000;1.981997
4734.000000;1.979799
4733.000000;1.977704
4732.000000;1.975612
4731.000000;1.972957
4730.000000;1.969501
4729.000000;1.965750
4728.000000;1.962502
4727.000000;1.960183
4726.000000;1.958656
4725.000000;1.957452
4724.000000;1.956063
4723.000000;1.954107
4722.000000;1.951412
4721.000000;1.948138
4720.000000;1.944814
4719.000000;1.942067
4718.000000;1.940124
4717.000000;1.938578
4716.000000;1.936785
4715.000000;1.934458
4714.000000;1.931775
4713.000000;1.928971
4712.000000;1.926057
4711.000000;1.923021
4710.000000;1.920109
4709.000000;1.917776
4708.000000;1.916324
4707.000000;1.915540
4706.000000;1.914655
4705.000000;1.912792
4704.000000;1.909675
4703.000000;1.905905
4702.000000;1.902423
4701.000000;1.899777
4700.000000;1.897936
4699.000000;1.896553
4698.000000;1.895122
4697.000000;1.893135
4696.000000;1.890523
4695.000000;1.887903
4694.000000;1.885971
4693.000000;1.884676
4692.000000;1.883362
4691.000000;1.881694
4690.000000;1.879970
4689.000000;1.878462
4688.000000;1.876983
4687.000000;1.875306
4686.000000;1.873516
4685.000000;1.871660
4684.000000;1.869489
4683.000000;1.866933
4682.000000;1.864493
4681.000000;1.862713
4680.000000;1.861496
4679.000000;1.860253
4678.000000;1.858564
4677.000000;1.856403
4676.000000;1.853930
4675.000000;1.851425
4674.000000;1.849263
4673.000000;1.847599
4672.000000;1.846161
4671.000000;1.844570
4670.000000;1.842779
4669.000000;1.840978
4668.000000;1.839258
4667.000000;1.837655
4666.000000;1.836352
4665.000000;1.835461
4664.000000;1.834658
4663.000000;1.833359
4662.000000;1.831334
4661.000000;1.828950
4660.000000;1.826810
4659.000000;1.825245
4658.000000;1.824081
4657.000000;1.822799
4656.000000;1.821074
4655.000000;1.819237
4654.000000;1.817932
4653.000000;1.817186
4652.000000;1.816139
4651.000000;1.814020
4650.000000;1.811148
4649.000000;1.808573
4648.000000;1.806915
4647.000000;1.805952
4646.000000;1.805177
4645.000000;1.804281
4644.000000;1.803083
4643.000000;1.801450
4642.000000;1.799445
4641.000000;1.797319
4640.000000;1.795281
4639.000000;1.793421
4638.000000;1.791820
4637.000000;1.790469
4636.000000;1.789163
4635.000000;1.787739
4634.000000;1.786428
4633.000000;1.785657
4632.000000;1.785445
4631.000000;1.785254
4630.000000;1.784511
4629.000000;1.783095
4628.000000;1.781299
4627.000000;1.779488
4626.000000;1.777803
4625.000000;1.776042
4624.000000;1.773889
4623.000000;1.771445
4622.000000;1.769410
4621.000000;1.768400
4620.000000;1.768171
4619.000000;1.767880
4618.000000;1.767085
4617.000000;1.766102
4616.000000;1.765309
4615.000000;1.764587
4614.000000;1.763667
4613.000000;1.762630
4612.000000;1.761741
4611.000000;1.760989
4610.000000;1.760124
4609.000000;1.759008
4608.000000;1.757703
4607.000000;1.756277
4606.000000;1.754757
4605.000000;1.753248
4604.000000;1.751947
4603.000000;1.751016
4602.000000;1.750448
4601.000000;1.750010
4600.000000;1.749316
4599.000000;1.748116
4598.000000;1.746566
4597.000000;1.745078
4596.000000;1.743862
4595.000000;1.742805
4594.000000;1.741835
4593.000000;1.741118
4592.000000;1.740734
4591.000000;1.740373
4590.000000;1.739649
4589.000000;1.738571
4588.000000;1.737456
4587.000000;1.736443
4586.000000;1.735372
4585.000000;1.734144
4584.000000;1.732950
4583.000000;1.732086
4582.000000;1.731692
4581.000000;1.731694
4580.000000;1.731846
4579.000000;1.731778
4578.000000;1.731188
4577.000000;1.730104
4576.000000;1.728873
4575.000000;1.727847
4574.000000;1.727118
4573.000000;1.726539
4572.000000;1.725861
4571.000000;1.724843
4570.000000;1.723459
4569.000000;1.722106
4568.000000;1.721403
4567.000000;1.721568
4566.000000;1.722081
4565.000000;1.722154
4564.000000;1.721484
4563.000000;1.720366
4562.000000;1.719158
4561.000000;1.717967
4560.000000;1.716866
4559.000000;1.716042
4558.000000;1.715514
4557.000000;1.714988
4556.000000;1.714243
4555.000000;1.713499
4554.000000;1.713136
4553.000000;1.713164
4552.000000;1.713209
4551.000000;1.712936
4550.000000;1.712218
4549.000000;1.711016
4548.000000;1.709466
4547.000000;1.708092
4546.000000;1.707513
4545.000000;1.707752
4544.000000;1.708101
4543.000000;1.707882
4542.000000;1.707165
4541.000000;1.706566
4540.000000;1.706495
4539.000000;1.706815
4538.000000;1.707127
4537.000000;1.707154
4536.000000;1.706863
4535.000000;1.706406
4534.000000;1.705972
4533.000000;1.705660
4532.000000;1.705453
4531.000000;1.705311
4530.000000;1.705208
4529.000000;1.705071
4528.000000;1.704774
4527.000000;1.704229
4526.000000;1.703413
4525.000000;1.702355
4524.000000;1.701233
4523.000000;1.700467
4522.000000;1.700449
4521.000000;1.701060
4520.000000;1.701652
4519.000000;1.701651
4518.000000;1.701068
4517.000000;1.700330
4516.000000;1.699806
4515.000000;1.699634
4514.000000;1.699792
4513.000000;1.700114
4512.000000;1.700300
4511.000000;1.700096
4510.000000;1.699460
4509.000000;1.698535
4508.000000;1.697586
4507.000000;1.697018
4506.000000;1.697204
4505.000000;1.698089
4504.000000;1.699103
4503.000000;1.699641
4502.000000;1.699567
4501.000000;1.699122
4500.000000;1.698541
4499.000000;1.697976
4498.000000;1.697611
4497.000000;1.697573
4496.000000;1.697789
4495.000000;1.698123
4494.000000;1.698565
4493.000000;1.699094
4492.000000;1.699506
4491.000000;1.699620
4490.000000;1.699517
4489.000000;1.699322
4488.000000;1.698911
4487.000000;1.698195
4486.000000;1.697552
4485.000000;1.697526
4484.000000;1.698142
4483.000000;1.698916
4482.000000;1.699607
4481.000000;1.700475
4480.000000;1.701626
4479.000000;1.702567
4478.000000;1.702786
4477.000000;1.702449
4476.000000;1.702114
4475.000000;1.701981
4474.000000;1.701911
4473.000000;1.702050
4472.000000;1.702865
4471.000000;1.704419
4470.000000;1.706050
4469.000000;1.707075
4468.000000;1.707597
4467.000000;1.708241
4466.000000;1.709273
4465.000000;1.710341
4464.000000;1.711039
4463.000000;1.711332
4462.000000;1.711369
4461.000000;1.711236
4460.000000;1.711116
4459.000000;1.711341
4458.000000;1.712005
4457.000000;1.712760
4456.000000;1.713349
4455.000000;1.714161
4454.000000;1.715828
4453.000000;1.718297
4452.000000;1.720707
4451.000000;1.722294
4450.000000;1.723111
4449.000000;1.723747
4448.000000;1.724688
4447.000000;1.726066
4446.000000;1.727695
4445.000000;1.729155
4444.000000;1.730078
4443.000000;1.730568
4442.000000;1.731147
4441.000000;1.732147
4440.000000;1.733439
4439.000000;1.734883
4438.000000;1.736661
4437.000000;1.738874
4436.000000;1.741107
4435.000000;1.742827
4434.000000;1.744073
4433.000000;1.745384
4432.000000;1.747093
4431.000000;1.749026
4430.000000;1.750849
4429.000000;1.752448
4428.000000;1.753891
4427.000000;1.755263
4426.000000;1.756602
4425.000000;1.757944
4424.000000;1.759436
4423.000000;1.761417
4422.000000;1.764156
4421.000000;1.767383
4420.000000;1.770299
4419.000000;1.772307
4418.000000;1.773605
4417.000000;1.774897
4416.000000;1.776682
4415.000000;1.779014
4414.000000;1.781700
4413.000000;1.784442
4412.000000;1.786924
4411.000000;1.789061
4410.000000;1.791054
4409.000000;1.793055
4408.000000;1.795016
4407.000000;1.797073
4406.000000;1.799680
4405.000000;1.802906
4404.000000;1.805930
4403.000000;1.807866
4402.000000;1.809037
4401.000000;1.810721
4400.000000;1.813541
4399.000000;1.816762
4398.000000;1.819368
4397.000000;1.821298
4396.000000;1.823252
4395.000000;1.825635
4394.000000;1.828167
4393.000000;1.830432
4392.000000;1.832440
4391.000000;1.834558
4390.000000;1.837117
4389.000000;1.840192
4388.000000;1.843673
4387.000000;1.847377
4386.000000;1.851072
4385.000000;1.854515
4384.000000;1.857575
4383.000000;1.860241
4382.000000;1.862388
4381.000000;1.863716
4380.000000;1.864242
4379.000000;1.864715
4378.000000;1.866077
4377.000000;1.868467
4376.000000;1.871195
4375.000000;1.873763
4374.000000;1.876443
4373.000000;1.879631
4372.000000;1.883148
4371.000000;1.886537
4370.000000;1.889548
4369.000000;1.891915
4368.000000;1.893232
4367.000000;1.893665
4366.000000;1.894286
4365.000000;1.895934
4364.000000;1.898189
4363.000000;1.900229
4362.000000;1.902341
4361.000000;1.905588
4360.000000;1.909940
4359.000000;1.913727
4358.000000;1.915470
4357.000000;1.915664
4356.000000;1.916093
4355.000000;1.917751
4354.000000;1.920030
4353.000000;1.921809
4352.000000;1.922922
4351.000000;1.924340
4350.000000;1.927017
4349.000000;1.930831
4348.000000;1.934850
4347.000000;1.938475
4346.000000;1.941822
4345.000000;1.944934
4344.000000;1.947389
4343.000000;1.949178
4342.000000;1.951313
4341.000000;1.954612
4340.000000;1.958281
4339.000000;1.960581
4338.000000;1.960870
4337.000000;1.960348
4336.000000;1.960665
4335.000000;1.962494
4334.000000;1.965435
4333.000000;1.968640
4332.000000;1.971343
4331.000000;1.973235
4330.000000;1.974657
4329.000000;1.976346
4328.000000;1.978781
4327.000000;1.981684
4326.000000;1.984108
4325.000000;1.985176
4324.000000;1.985232
4323.000000;1.986184
4322.000000;1.989875
4321.000000;1.995737
4320.000000;2.000782
4319.000000;2.002730
4318.000000;2.002633
4317.000000;2.003406
4316.000000;2.006345
4315.000000;2.010094
4314.000000;2.012692
4313.000000;2.013700
4312.000000;2.014096
4311.000000;2.014638
4310.000000;2.014936
4309.000000;2.014105
4308.000000;2.012257
4307.000000;2.011421
4306.000000;2.014265
4305.000000;2.021386
4304.000000;2.030359
4303.000000;2.037916
4302.000000;2.042635
4301.000000;2.045006
4300.000000;2.045958
4299.000000;2.046652
4298.000000;2.048772
4297.000000;2.053222
4296.000000;2.058648
4295.000000;2.062734
4294.000000;2.064989
4293.000000;2.066829
4292.000000;2.069170
4291.000000;2.071714
4290.000000;2.074500
4289.000000;2.078197
4288.000000;2.082452
4287.000000;2.085725
4286.000000;2.087464
4285.000000;2.088982
4284.000000;2.091451
4283.000000;2.094406
4282.000000;2.097105
4281.000000;2.100010
4280.000000;2.103814
4279.000000;2.108259
4278.000000;2.112840
4277.000000;2.117442
4276.000000;2.121553
4275.000000;2.124010
4274.000000;2.124472
4273.000000;2.124470
4272.000000;2.125940
4271.000000;2.129041
4270.000000;2.132455
4269.000000;2.135723
4268.000000;2.140026
4267.000000;2.146053
4266.000000;2.152101
4265.000000;2.155537
4264.000000;2.156338
4263.000000;2.158116
4262.000000;2.164777
4261.000000;2.176442
4260.000000;2.189015
4259.000000;2.198161
4258.000000;2.203149
4257.000000;2.205744
4256.000000;2.207040
4255.000000;2.206518
4254.000000;2.203240
4253.000000;2.197868
4252.000000;2.193643
4251.000000;2.194601
4250.000000;2.201852
4249.000000;2.211748
4248.000000;2.218798
4247.000000;2.221234
4246.000000;2.222452
4245.000000;2.226296
4244.000000;2.233161
4243.000000;2.241489
4242.000000;2.250417
4241.000000;2.259434
4240.000000;2.267414
4239.000000;2.273581
4238.000000;2.278224
4237.000000;2.281647
4236.000000;2.283664
4235.000000;2.285066
4234.000000;2.287741
4233.000000;2.291932
4232.000000;2.295355
4231.000000;2.296432
4230.000000;2.296559
4229.000000;2.297954
4228.000000;2.301488
4227.000000;2.307814
4226.000000;2.317637
4225.000000;2.328642
4224.000000;2.335221
4223.000000;2.335005
4222.000000;2.332777
4221.000000;2.333952
4220.000000;2.337374
4219.000000;2.338343
4218.000000;2.337098
4217.000000;2.338650
4216.000000;2.345221
4215.000000;2.354441
4214.000000;2.363427
4213.000000;2.370714
4212.000000;2.374127
4211.000000;2.372552
4210.000000;2.369829
4209.000000;2.369772
4208.000000;2.369451
4207.000000;2.364273
4206.000000;2.358196
4205.000000;2.360136
4204.000000;2.370596
4203.000000;2.379303
4202.000000;2.379316
4201.000000;2.377257
4200.000000;2.383328
4199.000000;2.398531
4198.000000;2.415378
4197.000000;2.426461
4196.000000;2.429229
4195.000000;2.425785
4194.000000;2.422793
4193.000000;2.428046
4192.000000;2.441371
4191.000000;2.450601
4190.000000;2.444107
4189.000000;2.427529
4188.000000;2.417629
4187.000000;2.423720
4186.000000;2.442043
4185.000000;2.463418
4184.000000;2.481467
4183.000000;2.492324
4182.000000;2.492396
4181.000000;2.481981
4180.000000;2.468679
4179.000000;2.461495
4178.000000;2.460806
4177.000000;2.461843
4176.000000;2.463588
4175.000000;2.467422
4174.000000;2.474642
4173.000000;2.484185
4172.000000;2.494346
4171.000000;2.506960
4170.000000;2.522098
4169.000000;2.534404
4168.000000;2.542333
4167.000000;2.552028
4166.000000;2.560992
4165.000000;2.550686
4164.000000;2.513891
4163.000000;2.474328
4162.000000;2.459494
4161.000000;2.472428
4160.000000;2.496041
4159.000000;2.515151
4158.000000;2.532814
4157.000000;2.559365
4156.000000;2.585492
4155.000000;2.587346
4154.000000;2.563067
4153.000000;2.533988
4152.000000;2.513361
4151.000000;2.502596
4150.000000;2.508849
4149.000000;2.542317
4148.000000;2.596017
4147.000000;2.641583
4146.000000;2.648871
4145.000000;2.619710
4144.000000;2.581392
4143.000000;2.553816
4142.000000;2.542895
4141.000000;2.541254
4140.000000;2.531563
4139.000000;2.505234
4138.000000;2.475683
4137.000000;2.461681
4136.000000;2.467723
4135.000000;2.477366
4134.000000;2.467968
4133.000000;2.442223
4132.000000;2.419477
4131.000000;2.411099
4130.000000;2.422926
4129.000000;2.460074
4128.000000;2.524742
4127.000000;2.612329
4126.000000;2.696873
4125.000000;2.731217
4124.000000;2.711687
4123.000000;2.680129
4122.000000;2.675439
4121.000000;2.712116
4120.000000;2.769240
4119.000000;2.803697
4118.000000;2.782513
4117.000000;2.704929
4116.000000;2.609861
4115.000000;2.547353
4114.000000;2.545297
4113.000000;2.600495
4112.000000;2.660319
4111.000000;2.655640
4110.000000;2.604877
4109.000000;2.556962
4108.000000;2.534275
4107.000000;2.538739
4106.000000;2.562686
4105.000000;2.594460
4104.000000;2.607317
4103.000000;2.585808
4102.000000;2.563815
4101.000000;2.582980
4100.000000;2.628535
4099.000000;2.643304
4098.000000;2.613023
4097.000000;2.570591
4096.000000;2.548133
4095.000000;2.551544
4094.000000;2.568009
4093.000000;2.592819
4092.000000;2.630984
4091.000000;2.676617
4090.000000;2.706345
4089.000000;2.682917
4088.000000;2.606829
4087.000000;2.501645
4086.000000;2.403092
4085.000000;2.355634
4084.000000;2.363328
4083.000000;2.401466
4082.000000;2.448219
4081.000000;2.481005
4080.000000;2.475821
4079.000000;2.439538
4078.000000;2.408832
4077.000000;2.428775
4076.000000;2.523630
4075.000000;2.664935
4074.000000;2.774429
4073.000000;2.875268
4072.000000;3.051638
4071.000000;2.986165
4070.000000;2.769709
4069.000000;2.650824
4068.000000;2.605250
4067.000000;2.605316
4066.000000;2.627148
4065.000000;2.654853
4064.000000;2.673340
4063.000000;2.667744
4062.000000;2.643188
4061.000000;2.602620
4060.000000;2.527566
4059.000000;2.429756
4058.000000;2.353502
4057.000000;2.320266
4056.000000;2.322796
4055.000000;2.342267
4054.000000;2.360841
4053.000000;2.369533
4052.000000;2.375440
4051.000000;2.394986
4050.000000;2.412628
4049.000000;2.397862
4048.000000;2.372510
4047.000000;2.351232
4046.000000;2.354704
4045.000000;2.431781
4044.000000;2.595638
4043.000000;2.775770
4042.000000;2.828227
4041.000000;2.822687
4040.000000;2.929877
4039.000000;3.096040
4038.000000;3.004144
4037.000000;2.883076
4036.000000;2.859985
4035.000000;2.888223
4034.000000;3.070574
4033.000000;3.661698
4032.000000;3.017136
4031.000000;2.699789
4030.000000;2.565107
4029.000000;2.527466
4028.000000;2.599256
4027.000000;2.811874
4026.000000;3.181061
4025.000000;3.291409
4024.000000;2.947513
4023.000000;2.709180
4022.000000;2.632609
4021.000000;2.681416
4020.000000;2.807992
4019.000000;2.957354
4018.000000;3.097369
4017.000000;3.236755
4016.000000;3.411093
4015.000000;3.702864
4014.000000;3.561125
4013.000000;2.979807
4012.000000;2.642472
4011.000000;2.474858
4010.000000;2.424793
4009.000000;2.455855
4008.000000;2.513820
4007.000000;2.535614
4006.000000;2.496878
4005.000000;2.430983
4004.000000;2.385532
4003.000000;2.390429
4002.000000;2.439007
4001.000000;2.640761
4000.000000;3.022987
3999.000000;2.716056
3998.000000;2.505501
3997.000000;2.521318
3996.000000;2.587468
3995.000000;2.581794
3994.000000;2.491634
3993.000000;2.426954
3992.000000;2.425419
3991.000000;2.495511
3990.000000;2.628961
3989.000000;2.776851
3988.000000;2.801489
3987.000000;2.829105
3986.000000;3.275155
3985.000000;3.050882
3984.000000;2.613687
3983.000000;2.453012
3982.000000;2.412027
3981.000000;2.457530
3980.000000;2.562464
3979.000000;2.673151
3978.000000;2.707875
3977.000000;2.663119
3976.000000;2.605675
3975.000000;2.584055
3974.000000;2.604172
3973.000000;2.618645
3972.000000;2.610205
3971.000000;2.596145
3970.000000;2.574078
3969.000000;2.568541
3968.000000;2.598938
3967.000000;2.654128
3966.000000;2.709725
3965.000000;2.721454
3964.000000;2.660849
3963.000000;2.585742
3962.000000;2.550396
3961.000000;2.561186
3960.000000;2.568182
3959.000000;2.570388
3958.000000;2.620745
3957.000000;2.852604
3956.000000;3.260447
3955.000000;2.823610
3954.000000;2.591737
3953.000000;2.536965
3952.000000;2.601979
3951.000000;2.830422
3950.000000;3.023942
3949.000000;2.825608
3948.000000;2.654546
3947.000000;2.569853
3946.000000;2.565939
3945.000000;2.661110
3944.000000;2.837176
3943.000000;3.133329
3942.000000;3.536253
3941.000000;3.753609
3940.000000;3.431318
3939.000000;3.098745
3938.000000;2.959290
3937.000000;2.942991
3936.000000;2.915426
3935.000000;3.030662
3934.000000;3.421824
3933.000000;2.915207
3932.000000;2.658095
3931.000000;2.635818
3930.000000;2.742792
3929.000000;2.877854
3928.000000;2.787925
3927.000000;2.757226
3926.000000;2.854583
3925.000000;2.873688
3924.000000;2.789357
3923.000000;2.741295
3922.000000;2.758220
3921.000000;2.816774
3920.000000;2.901006
3919.000000;3.006383
3918.000000;3.075548
3917.000000;3.022385
3916.000000;2.928077
3915.000000;2.854318
3914.000000;2.787409
3913.000000;2.727608
3912.000000;2.702833
3911.000000;2.736803
3910.000000;2.824267
3909.000000;2.927769
3908.000000;3.003214
3907.000000;3.037404
3906.000000;3.062621
3905.000000;3.132463
3904.000000;3.435071
3903.000000;3.733260
3902.000000;3.260411
3901.000000;3.035221
3900.000000;2.928606
3899.000000;2.970082
3898.000000;3.248263
3897.000000;3.260411
3896.000000;2.985516
3895.000000;2.923950
3894.000000;2.945050
3893.000000;2.906103
3892.000000;2.822956
3891.000000;2.779943
3890.000000;2.790550
3889.000000;2.829543
3888.000000;2.874937
3887.000000;2.904195
3886.000000;2.950495
3885.000000;3.132104
3884.000000;3.334009
3883.000000;3.140487
3882.000000;2.900193
3881.000000;2.769024
3880.000000;2.727103
3879.000000;2.747687
3878.000000;2.812861
3877.000000;3.019731
3876.000000;3.563572
3875.000000;3.349093
3874.000000;3.103031
3873.000000;3.049194
3872.000000;3.022254
3871.000000;3.157997
3870.000000;3.582300
3869.000000;3.491787
3868.000000;3.130245
3867.000000;3.121962
3866.000000;3.532049
3865.000000;3.757051
3864.000000;3.145348
3863.000000;3.016793
3862.000000;3.061006
3861.000000;3.259291
3860.000000;3.135879
3859.000000;2.869655
3858.000000;2.772920
3857.000000;2.739765
3856.000000;2.729213
3855.000000;2.762037
3854.000000;2.854017
3853.000000;2.895282
3852.000000;2.859664
3851.000000;2.941555
3850.000000;3.212350
3849.000000;3.097923
3848.000000;2.867669
3847.000000;2.785955
3846.000000;2.763715
3845.000000;2.788589
3844.000000;2.693412
3843.000000;2.615732
3842.000000;2.679682
3841.000000;2.757977
3840.000000;2.819337
3839.000000;2.801585
3838.000000;2.758094
3837.000000;2.723480
3836.000000;2.771654
3835.000000;2.853700
3834.000000;2.639097
3833.000000;2.444611
3832.000000;2.441755
3831.000000;2.553441
3830.000000;2.721825
3829.000000;2.830855
3828.000000;2.867703
3827.000000;2.933112
3826.000000;3.167246
3825.000000;3.734951
3824.000000;3.311962
3823.000000;2.999533
3822.000000;2.889933
3821.000000;2.862610
3820.000000;2.971609
3819.000000;3.204897
3818.000000;3.465666
3817.000000;3.375730
3816.000000;3.170143
3815.000000;3.049024
3814.000000;3.037623
3813.000000;3.095517
3812.000000;3.038104
3811.000000;2.941120
3810.000000;2.908135
3809.000000;2.893048
3808.000000;2.881568
3807.000000;2.871847
3806.000000;2.831223
3805.000000;2.761797
3804.000000;2.712340
3803.000000;2.691805
3802.000000;2.672315
3801.000000;2.614550
3800.000000;2.549590
3799.000000;2.537350
3798.000000;2.602766
3797.000000;2.755509
3796.000000;2.941949
3795.000000;3.011808
3794.000000;2.972392
3793.000000;2.927596
3792.000000;2.899518
3791.000000;2.910005
3790.000000;2.993352
3789.000000;3.130389
3788.000000;3.459774
3787.000000;3.467212
3786.000000;2.998894
3785.000000;2.827767
3784.000000;2.782563
3783.000000;2.804479
3782.000000;2.892120
3781.000000;3.033403
3780.000000;3.118526
3779.000000;3.035562
3778.000000;2.966282
3777.000000;2.944285
3776.000000;2.936113
3775.000000;2.947057
3774.000000;2.972157
3773.000000;3.013636
3772.000000;2.975967
3771.000000;2.933469
3770.000000;2.985494
3769.000000;3.292822
3768.000000;3.989065
3767.000000;3.840766
3766.000000;4.251409
3765.000000;3.449873
3764.000000;3.096809
3763.000000;3.014914
3762.000000;3.015895
3761.000000;3.104610
3760.000000;3.238097
3759.000000;3.348890
3758.000000;3.330457
3757.000000;3.262998
3756.000000;3.200206
3755.000000;3.229168
3754.000000;3.236043
3753.000000;3.061509
3752.000000;2.871597
3751.000000;2.831272
3750.000000;2.846164
3749.000000;2.581232
3748.000000;2.356979
3747.000000;2.361610
3746.000000;2.584906
3745.000000;3.021864
3744.000000;3.261459
3743.000000;2.923628
3742.000000;2.705499
3741.000000;2.640873
3740.000000;2.634573
3739.000000;2.919915
3738.000000;3.255970
3737.000000;2.845899
3736.000000;2.788271
3735.000000;2.836582
3734.000000;2.934598
3733.000000;3.041268
3732.000000;3.036611
3731.000000;3.034153
3730.000000;3.045525
3729.000000;3.024398
3728.000000;2.930843
3727.000000;2.852942
3726.000000;2.857589
3725.000000;2.929798
3724.000000;2.869776
3723.000000;2.751506
3722.000000;2.699016
3721.000000;2.838009
3720.000000;3.182584
3719.000000;2.944692
3718.000000;2.766474
3717.000000;2.831796
3716.000000;3.003958
3715.000000;3.170419
3714.000000;3.237119
3713.000000;3.193641
3712.000000;2.997524
3711.000000;2.871425
3710.000000;2.810669
3709.000000;2.755155
3708.000000;2.720350
3707.000000;2.780328
3706.000000;2.988794
3705.000000;3.290782
3704.000000;3.362585
3703.000000;3.302030
3702.000000;3.501618
3701.000000;3.670507
3700.000000;3.508268
3699.000000;3.479166
3698.000000;3.376523
3697.000000;3.178003
3696.000000;3.055439
3695.000000;2.978762
3694.000000;2.875727
3693.000000;2.815327
3692.000000;2.885583
3691.000000;3.018925
3690.000000;3.049861
3689.000000;3.054167
3688.000000;3.091092
3687.000000;3.145251
3686.000000;3.267450
3685.000000;3.230728
3684.000000;3.039749
3683.000000;2.953889
3682.000000;3.010824
3681.000000;3.220560
3680.000000;3.409748
3679.000000;3.375214
3678.000000;3.222949
3677.000000;3.027420
3676.000000;2.917831
3675.000000;2.896762
3674.000000;2.959632
3673.000000;3.076444
3672.000000;3.163441
3671.000000;3.118227
3670.000000;3.087559
3669.000000;3.316089
3668.000000;3.249562
3667.000000;2.934677
3666.000000;2.839081
3665.000000;2.879978
3664.000000;2.863832
3663.000000;2.730442
3662.000000;2.651952
3661.000000;2.644641
3660.000000;2.666956
3659.000000;2.690296
3658.000000;2.705482
3657.000000;2.733433
3656.000000;2.814979
3655.000000;2.972418
3654.000000;3.380598
3653.000000;3.642852
3652.000000;3.388565
3651.000000;3.588384
3650.000000;3.239506
3649.000000;3.016655
3648.000000;3.013717
3647.000000;3.070689
3646.000000;3.204667
3645.000000;2.942171
3644.000000;2.772761
3643.000000;2.855647
3642.000000;3.035253
3641.000000;3.148483
3640.000000;3.066843
3639.000000;2.962384
3638.000000;2.920599
3637.000000;2.928828
3636.000000;2.996329
3635.000000;3.057860
3634.000000;3.041320
3633.000000;2.996341
3632.000000;2.961702
3631.000000;2.960532
3630.000000;3.032416
3629.000000;3.112544
3628.000000;3.160956
3627.000000;3.343915
3626.000000;3.605654
3625.000000;3.520345
3624.000000;3.332061
3623.000000;3.541966
3622.000000;3.545787
3621.000000;3.277274
3620.000000;3.678797
3619.000000;3.910147
3618.000000;3.345314
3617.000000;3.192120
3616.000000;3.121389
3615.000000;3.156475
3614.000000;3.267911
3613.000000;3.242800
3612.000000;3.075589
3611.000000;2.961113
3610.000000;2.948521
3609.000000;2.912285
3608.000000;2.851511
3607.000000;2.832288
3606.000000;3.030311
3605.000000;3.448884
3604.000000;3.015135
3603.000000;2.849381
3602.000000;2.864225
3601.000000;2.889299
3600.000000;3.014832
3599.000000;3.191938
3598.000000;3.036601
3597.000000;2.835101
3596.000000;2.804110
3595.000000;2.839353
3594.000000;2.842880
3593.000000;2.824106
3592.000000;2.854297
3591.000000;3.001431
3590.000000;3.410285
3589.000000;3.261973
3588.000000;2.952809
3587.000000;2.912255
3586.000000;2.962736
3585.000000;3.061885
3584.000000;3.113973
3583.000000;3.028500
3582.000000;2.881047
3581.000000;2.773632
3580.000000;2.723577
3579.000000;2.694805
3578.000000;2.682383
3577.000000;2.707679
3576.000000;2.769268
3575.000000;2.823834
3574.000000;2.841857
3573.000000;2.844616
3572.000000;2.873599
3571.000000;2.961631
3570.000000;3.146970
3569.000000;3.664626
3568.000000;3.777638
3567.000000;3.213461
3566.000000;3.031731
3565.000000;2.932446
3564.000000;2.879282
3563.000000;2.984627
3562.000000;2.973628
3561.000000;2.712498
3560.000000;2.622854
3559.000000;2.706932
3558.000000;2.875098
3557.000000;2.949648
3556.000000;3.101957
3555.000000;3.726985
3554.000000;3.692451
3553.000000;3.207258
3552.000000;2.793846
3551.000000;2.566890
3550.000000;2.480710
3549.000000;2.474498
3548.000000;2.525428
3547.000000;2.572732
3546.000000;2.555587
3545.000000;2.510961
3544.000000;2.500415
3543.000000;2.514732
3542.000000;2.569007
3541.000000;2.681792
3540.000000;2.731491
3539.000000;2.734055
3538.000000;2.819199
3537.000000;2.990103
3536.000000;3.228634
3535.000000;3.319288
3534.000000;3.131829
3533.000000;3.095826
3532.000000;3.301072
3531.000000;3.072823
3530.000000;2.831665
3529.000000;2.807588
3528.000000;2.904690
3527.000000;3.074904
3526.000000;3.004507
3525.000000;2.769399
3524.000000;2.668563
3523.000000;2.747528
3522.000000;3.140521
3521.000000;3.356000
3520.000000;2.935381
3519.000000;3.044375
3518.000000;3.513351
3517.000000;3.192175
3516.000000;2.980263
3515.000000;3.058642
3514.000000;3.190515
3513.000000;3.242858
3512.000000;3.526796
3511.000000;3.643104
3510.000000;3.258663
3509.000000;3.054211
3508.000000;2.894602
3507.000000;2.820271
3506.000000;2.856510
3505.000000;3.011931
3504.000000;3.275883
3503.000000;3.611754
3502.000000;4.549701
3501.000000;3.627395
3500.000000;3.246622
3499.000000;3.082485
3498.000000;2.919214
3497.000000;2.828813
3496.000000;2.809864
3495.000000;2.791518
3494.000000;2.785128
3493.000000;2.873664
3492.000000;3.196886
3491.000000;3.902288
3490.000000;3.442141
3489.000000;3.062237
3488.000000;2.836757
3487.000000;2.731830
3486.000000;2.726845
3485.000000;2.811619
3484.000000;3.132863
3483.000000;3.238120
3482.000000;2.922601
3481.000000;2.862912
3480.000000;2.938529
3479.000000;3.025467
3478.000000;2.963157
3477.000000;2.799935
3476.000000;2.674824
3475.000000;2.599578
3474.000000;2.575869
3473.000000;2.626595
3472.000000;2.795374
3471.000000;3.126356
3470.000000;3.378918
3469.000000;3.441959
3468.000000;3.422074
3467.000000;3.178158
3466.000000;3.049197
3465.000000;2.999274
3464.000000;3.091942
3463.000000;3.375835
3462.000000;3.304213
3461.000000;3.042645
3460.000000;2.984880
3459.000000;3.055229
3458.000000;3.092335
3457.000000;3.125670
3456.000000;3.217437
3455.000000;2.992613
3454.000000;2.765939
3453.000000;2.690118
3452.000000;2.716988
3451.000000;2.817486
3450.000000;2.928627
3449.000000;3.019378
3448.000000;3.061285
3447.000000;3.019936
3446.000000;2.965339
3445.000000;2.968907
3444.000000;3.110960
3443.000000;3.262026
3442.000000;3.058718
3441.000000;2.951856
3440.000000;3.010544
3439.000000;3.170876
3438.000000;3.245713
3437.000000;3.097754
3436.000000;2.937318
3435.000000;2.835826
3434.000000;2.770913
3433.000000;2.731557
3432.000000;2.731915
3431.000000;2.773947
3430.000000;2.849607
3429.000000;2.981575
3428.000000;3.183328
3427.000000;3.114872
3426.000000;2.936389
3425.000000;2.894944
3424.000000;3.012464
3423.000000;3.465745
3422.000000;3.642343
3421.000000;3.842314
3420.000000;3.402463
3419.000000;2.942346
3418.000000;2.744813
3417.000000;2.660719
3416.000000;2.659942
3415.000000;2.831813
3414.000000;3.339410
3413.000000;3.058564
3412.000000;2.824040
3411.000000;2.855900
3410.000000;3.000800
3409.000000;3.022703
3408.000000;2.914994
3407.000000;2.875129
3406.000000;2.836769
3405.000000;2.785812
3404.000000;2.764228
3403.000000;2.743240
3402.000000;2.692796
3401.000000;2.630230
3400.000000;2.609347
3399.000000;2.671803
3398.000000;2.844189
3397.000000;3.459948
3396.000000;3.256596
3395.000000;2.888876
3394.000000;2.804098
3393.000000;2.753852
3392.000000;2.746410
3391.000000;2.802608
3390.000000;2.883818
3389.000000;2.874009
3388.000000;2.805380
3387.000000;2.773224
3386.000000;3.034125
3385.000000;3.767021
3384.000000;2.848331
3383.000000;2.715129
3382.000000;2.746762
3381.000000;2.887245
3380.000000;3.246681
3379.000000;3.690778
3378.000000;3.245900
3377.000000;3.150122
3376.000000;3.232457
3375.000000;3.302135
3374.000000;3.389134
3373.000000;3.183080
3372.000000;2.987444
3371.000000;2.972834
3370.000000;3.042414
3369.000000;3.139996
3368.000000;3.210912
3367.000000;3.168673
3366.000000;3.234631
3365.000000;3.791133
3364.000000;3.441812
3363.000000;3.245734
3362.000000;3.314689
3361.000000;3.520467
3360.000000;3.520584
3359.000000;3.171551
3358.000000;3.008232
3357.000000;3.006829
3356.000000;3.015237
3355.000000;2.897866
3354.000000;2.836477
3353.000000;2.845084
3352.000000;2.841595
3351.000000;2.803531
3350.000000;2.793793
3349.000000;2.862657
3348.000000;3.186291
3347.000000;3.429724
3346.000000;3.006535
3345.000000;2.829502
3344.000000;2.796034
3343.000000;2.842195
3342.000000;2.947901
3341.000000;3.091046
3340.000000;3.277956
3339.000000;3.197771
3338.000000;3.014299
3337.000000;3.011733
3336.000000;3.195322
3335.000000;3.149320
3334.000000;2.935210
3333.000000;2.861559
3332.000000;2.921531
3331.000000;3.209766
3330.000000;3.197513
3329.000000;2.832208
3328.000000;2.766518
3327.000000;2.857295
3326.000000;3.149223
3325.000000;3.100546
3324.000000;2.757469
3323.000000;2.606191
3322.000000;2.547794
3321.000000;2.571804
3320.000000;2.673238
3319.000000;2.856913
3318.000000;3.083254
3317.000000;3.298682
3316.000000;3.495602
3315.000000;3.502028
3314.000000;3.324957
3313.000000;3.167249
3312.000000;3.071953
3311.000000;3.033597
3310.000000;3.033825
3309.000000;3.047205
3308.000000;2.975828
3307.000000;2.856430
3306.000000;2.801343
3305.000000;2.816659
3304.000000;2.901097
3303.000000;3.100945
3302.000000;3.328647
3301.000000;3.176332
3300.000000;2.995151
3299.000000;2.940860
3298.000000;2.990001
3297.000000;3.255328
3296.000000;3.502255
3295.000000;3.196428
3294.000000;3.127479
3293.000000;3.132692
3292.000000;3.083117
3291.000000;3.091422
3290.000000;3.713843
3289.000000;3.165142
3288.000000;2.847296
3287.000000;2.842297
3286.000000;2.944597
3285.000000;3.029068
3284.000000;3.031448
3283.000000;2.977088
3282.000000;2.877533
3281.000000;2.819529
3280.000000;2.829835
3279.000000;2.901605
3278.000000;3.008289
3277.000000;3.068559
3276.000000;3.082999
3275.000000;3.153048
3274.000000;2.975101
3273.000000;2.673610
3272.000000;2.518100
3271.000000;2.484082
3270.000000;2.572083
3269.000000;2.814335
3268.000000;3.294572
3267.000000;3.153686
3266.000000;2.906750
3265.000000;2.918163
3264.000000;3.057316
3263.000000;3.564500
3262.000000;3.033330
3261.000000;2.726620
3260.000000;2.654067
3259.000000;2.677761
3258.000000;2.731659
3257.000000;2.780806
3256.000000;2.885928
3255.000000;3.110556
3254.000000;3.667423
3253.000000;3.175921
3252.000000;2.840228
3251.000000;2.681171
3250.000000;2.643155
3249.000000;2.713516
3248.000000;2.985239
3247.000000;3.505688
3246.000000;3.188187
3245.000000;3.078816
3244.000000;3.190645
3243.000000;3.279543
3242.000000;3.274069
3241.000000;3.286880
3240.000000;3.108835
3239.000000;2.934498
3238.000000;2.883095
3237.000000;2.853406
3236.000000;2.773144
3235.000000;2.712005
3234.000000;2.729095
3233.000000;2.791837
3232.000000;2.821039
3231.000000;2.843008
3230.000000;2.918117
3229.000000;3.066550
3228.000000;3.321557
3227.000000;3.106183
3226.000000;2.867699
3225.000000;2.840756
3224.000000;3.047282
3223.000000;3.521782
3222.000000;3.584087
3221.000000;3.638486
3220.000000;3.396379
3219.000000;3.334550
3218.000000;3.390222
3217.000000;3.275754
3216.000000;3.038278
3215.000000;2.909579
3214.000000;2.893097
3213.000000;2.917312
3212.000000;2.940929
3211.000000;2.963333
3210.000000;2.944075
3209.000000;2.857988
3208.000000;2.784735
3207.000000;2.761430
3206.000000;2.770403
3205.000000;2.835909
3204.000000;2.986447
3203.000000;3.683077
3202.000000;3.094548
3201.000000;2.807061
3200.000000;2.760140
3199.000000;2.887393
3198.000000;3.097771
3197.000000;2.980463
3196.000000;2.840080
3195.000000;2.788696
3194.000000;2.810175
3193.000000;2.937243
3192.000000;3.205101
3191.000000;3.320788
3190.000000;3.111819
3189.000000;2.958366
3188.000000;2.868130
3187.000000;2.858262
3186.000000;2.909794
3185.000000;2.980850
3184.000000;2.990410
3183.000000;2.905617
3182.000000;2.816890
3181.000000;2.787585
3180.000000;2.808777
3179.000000;2.843983
3178.000000;2.890657
3177.000000;2.876752
3176.000000;2.786099
3175.000000;2.753432
3174.000000;2.804765
3173.000000;2.899627
3172.000000;2.992511
3171.000000;3.049003
3170.000000;2.993522
3169.000000;2.865596
3168.000000;2.811534
3167.000000;2.884138
3166.000000;3.090426
3165.000000;3.425763
3164.000000;3.708888
3163.000000;3.804505
3162.000000;3.532150
3161.000000;3.631032
3160.000000;3.582136
3159.000000;3.194346
3158.000000;3.232142
3157.000000;3.092666
3156.000000;2.851911
3155.000000;2.796927
3154.000000;2.909459
3153.000000;3.034712
3152.000000;2.947449
3151.000000;2.869832
3150.000000;2.837660
3149.000000;2.823129
3148.000000;2.853252
3147.000000;2.919307
3146.000000;2.874773
3145.000000;2.810782
3144.000000;2.888558
3143.000000;3.108720
3142.000000;3.203209
3141.000000;3.172518
3140.000000;3.341938
3139.000000;3.812895
3138.000000;4.827043
3137.000000;3.893267
3136.000000;3.277571
3135.000000;2.915131
3134.000000;2.706369
3133.000000;2.614078
3132.000000;2.632395
3131.000000;2.753935
3130.000000;2.938063
3129.000000;3.055624
3128.000000;3.006323
3127.000000;2.878223
3126.000000;2.775351
3125.000000;2.744443
3124.000000;2.801432
3123.000000;2.938311
3122.000000;3.060755
3121.000000;3.080904
3120.000000;3.197981
3119.000000;3.590384
3118.000000;4.088890
3117.000000;3.445467
3116.000000;3.091585
3115.000000;3.018260
3114.000000;3.077056
3113.000000;3.143845
3112.000000;3.404714
3111.000000;3.323505
3110.000000;2.935262
3109.000000;2.867650
3108.000000;2.979576
3107.000000;3.209319
3106.000000;3.183193
3105.000000;3.153185
3104.000000;3.435373
3103.000000;3.382154
3102.000000;3.138254
3101.000000;3.057670
3100.000000;3.000821
3099.000000;2.976813
3098.000000;3.041663
3097.000000;3.225109
3096.000000;3.431905
3095.000000;3.233116
3094.000000;2.970901
3093.000000;2.803010
3092.000000;2.723820
3091.000000;2.733658
3090.000000;2.835332
3089.000000;3.048391
3088.000000;3.298084
3087.000000;3.162153
3086.000000;3.016837
3085.000000;3.011047
3084.000000;3.064374
3083.000000;3.158865
3082.000000;3.321551
3081.000000;3.357578
3080.000000;3.316895
3079.000000;3.226088
3078.000000;3.060397
3077.000000;3.028527
3076.000000;3.134350
3075.000000;3.101118
3074.000000;2.949588
3073.000000;2.874883
3072.000000;2.891484
3071.000000;2.891298
3070.000000;2.861953
3069.000000;2.961398
3068.000000;3.396089
3067.000000;3.513337
3066.000000;3.227770
3065.000000;3.319211
3064.000000;3.278642
3063.000000;3.204761
3062.000000;3.370361
3061.000000;3.281906
3060.000000;3.040379
3059.000000;2.942487
3058.000000;2.905229
3057.000000;2.895984
3056.000000;3.128722
3055.000000;3.461425
3054.000000;2.963130
3053.000000;2.833406
3052.000000;2.965261
3051.000000;3.549265
3050.000000;3.408522
3049.000000;2.984091
3048.000000;2.828552
3047.000000;2.747806
3046.000000;2.757118
3045.000000;2.826856
3044.000000;2.974355
3043.000000;3.293522
3042.000000;3.859181
3041.000000;3.713225
3040.000000;3.372786
3039.000000;3.100093
3038.000000;3.131442
3037.000000;3.495090
3036.000000;3.193232
3035.000000;2.937841
3034.000000;2.908622
3033.000000;2.980816
3032.000000;3.076033
3031.000000;3.182634
3030.000000;3.347876
3029.000000;3.197431
3028.000000;2.922204
3027.000000;2.832273
3026.000000;2.904804
3025.000000;3.204687
3024.000000;3.636125
3023.000000;3.335556
3022.000000;3.064571
3021.000000;2.905566
3020.000000;2.809857
3019.000000;2.787386
3018.000000;2.798862
3017.000000;2.822384
3016.000000;2.892572
3015.000000;3.030596
3014.000000;3.074908
3013.000000;3.139988
3012.000000;3.488803
3011.000000;3.042252
3010.000000;2.805222
3009.000000;2.804045
3008.000000;2.974524
3007.000000;3.162291
3006.000000;3.140293
3005.000000;3.147699
3004.000000;3.230211
3003.000000;3.264425
3002.000000;3.177862
3001.000000;3.144418
3000.000000;3.289961
2999.000000;3.637809
2998.000000;3.416751
2997.000000;3.200326
2996.000000;3.499930
2995.000000;3.623737
2994.000000;3.210872
2993.000000;3.162261
2992.000000;3.364409
2991.000000;3.493748
2990.000000;3.529736
2989.000000;4.152079
2988.000000;3.322931
2987.000000;3.033999
2986.000000;3.021387
2985.000000;3.104490
2984.000000;3.196757
2983.000000;3.451352
2982.000000;3.103995
2981.000000;2.789386
2980.000000;2.689470
2979.000000;2.698428
2978.000000;2.786670
2977.000000;2.919446
2976.000000;2.996875
2975.000000;2.932475
2974.000000;2.850337
2973.000000;2.832632
2972.000000;2.914304
2971.000000;2.970702
2970.000000;2.872139
2969.000000;2.873042
2968.000000;3.124473
2967.000000;3.607847
2966.000000;3.564057
2965.000000;3.476646
2964.000000;3.477754
2963.000000;3.341461
2962.000000;3.085504
2961.000000;2.885242
2960.000000;2.816408
2959.000000;2.904199
2958.000000;3.193501
2957.000000;3.500748
2956.000000;3.299351
2955.000000;3.078355
2954.000000;3.066478
2953.000000;3.334908
2952.000000;3.081796
2951.000000;2.750717
2950.000000;2.701937
2949.000000;2.809604
2948.000000;2.952772
2947.000000;3.014172
2946.000000;3.088091
2945.000000;3.140713
2944.000000;3.178022
2943.000000;3.090686
2942.000000;2.855637
2941.000000;2.678519
2940.000000;2.611250
2939.000000;2.659428
2938.000000;2.807028
2937.000000;2.934749
2936.000000;2.911878
2935.000000;2.857089
2934.000000;2.848157
2933.000000;2.892987
2932.000000;2.948292
2931.000000;2.940410
2930.000000;2.874900
2929.000000;2.769800
2928.000000;2.672954
2927.000000;2.650370
2926.000000;2.734813
2925.000000;2.998316
2924.000000;3.317595
2923.000000;3.169243
2922.000000;3.089052
2921.000000;3.110822
2920.000000;3.336918
2919.000000;3.188797
2918.000000;2.781652
2917.000000;2.628605
2916.000000;2.636347
2915.000000;2.793311
2914.000000;3.115627
2913.000000;3.245590
2912.000000;3.177470
2911.000000;3.322161
2910.000000;3.312702
2909.000000;3.225876
2908.000000;3.441811
2907.000000;3.947450
2906.000000;3.918980
2905.000000;3.365896
2904.000000;2.994148
2903.000000;2.821160
2902.000000;2.783115
2901.000000;2.869544
2900.000000;3.160281
2899.000000;3.395200
2898.000000;3.138182
2897.000000;3.086358
2896.000000;3.084101
2895.000000;3.017000
2894.000000;2.978187
2893.000000;2.981350
2892.000000;2.977825
2891.000000;3.010574
2890.000000;3.170965
2889.000000;3.574780
2888.000000;3.295819
2887.000000;2.938055
2886.000000;2.825953
2885.000000;2.933244
2884.000000;3.413900
2883.000000;3.395235
2882.000000;3.147098
2881.000000;2.898066
2880.000000;2.720424
2879.000000;2.696895
2878.000000;2.779155
2877.000000;2.873904
2876.000000;2.857731
2875.000000;2.874232
2874.000000;3.005187
2873.000000;3.114345
2872.000000;3.159975
2871.000000;3.471771
2870.000000;4.008901
2869.000000;3.411087
2868.000000;3.134812
2867.000000;3.047983
2866.000000;3.070285
2865.000000;3.103773
2864.000000;3.109127
2863.000000;3.196560
2862.000000;3.229297
2861.000000;3.120380
2860.000000;3.130476
2859.000000;3.104218
2858.000000;2.929279
2857.000000;2.846726
2856.000000;2.830733
2855.000000;2.840336
2854.000000;2.893631
2853.000000;3.096086
2852.000000;3.682345
2851.000000;3.414152
2850.000000;3.072742
2849.000000;2.934644
2848.000000;2.894859
2847.000000;2.990564
2846.000000;2.989926
2845.000000;2.805031
2844.000000;2.712303
2843.000000;2.741164
2842.000000;2.859322
2841.000000;3.020979
2840.000000;3.169959
2839.000000;3.237763
2838.000000;3.214331
2837.000000;3.252409
2836.000000;3.271800
2835.000000;3.065878
2834.000000;2.960339
2833.000000;3.120176
2832.000000;3.091272
2831.000000;2.787249
2830.000000;2.642060
2829.000000;2.639836
2828.000000;2.758568
2827.000000;2.996925
2826.000000;3.304749
2825.000000;3.554535
2824.000000;3.568544
2823.000000;3.498035
2822.000000;3.423076
2821.000000;3.163567
2820.000000;2.967602
2819.000000;2.939873
2818.000000;3.020066
2817.000000;3.055322
2816.000000;2.979843
2815.000000;2.924340
2814.000000;2.910805
2813.000000;2.865723
2812.000000;2.805374
2811.000000;2.826014
2810.000000;2.911947
2809.000000;2.999125
2808.000000;3.036162
2807.000000;3.217016
2806.000000;3.629705
2805.000000;3.116815
2804.000000;2.875172
2803.000000;2.868884
2802.000000;2.884999
2801.000000;2.887895
2800.000000;2.930225
2799.000000;3.088019
2798.000000;3.361329
2797.000000;3.450748
2796.000000;3.150438
2795.000000;2.957535
2794.000000;2.914861
2793.000000;3.041791
2792.000000;3.277669
2791.000000;3.199605
2790.000000;3.067633
2789.000000;3.161286
2788.000000;3.450276
2787.000000;3.339852
2786.000000;3.112346
2785.000000;3.136640
2784.000000;3.318102
2783.000000;3.362878
2782.000000;3.181245
2781.000000;3.105313
2780.000000;3.090732
2779.000000;3.160134
2778.000000;3.519179
2777.000000;3.642891
2776.000000;3.236357
2775.000000;2.962302
2774.000000;2.804364
2773.000000;2.774765
2772.000000;2.840854
2771.000000;2.915301
2770.000000;2.894150
2769.000000;2.806545
2768.000000;2.763228
2767.000000;2.842651
2766.000000;3.087948
2765.000000;3.362747
2764.000000;3.187035
2763.000000;2.934066
2762.000000;2.850698
2761.000000;2.899962
2760.000000;2.949838
2759.000000;2.964563
2758.000000;3.079001
2757.000000;3.102441
2756.000000;2.919381
2755.000000;2.846692
2754.000000;2.900998
2753.000000;2.932573
2752.000000;2.910166
2751.000000;2.913049
2750.000000;2.884333
2749.000000;2.827431
2748.000000;2.793383
2747.000000;2.751481
2746.000000;2.731663
2745.000000;2.781995
2744.000000;2.830108
2743.000000;2.827685
2742.000000;2.857428
2741.000000;3.011400
2740.000000;3.318082
2739.000000;3.340560
2738.000000;3.125877
2737.000000;3.124460
2736.000000;3.560890
2735.000000;3.634798
2734.000000;3.534103
2733.000000;3.635596
2732.000000;3.157166
2731.000000;3.179743
2730.000000;3.112232
2729.000000;2.831517
2728.000000;2.712665
2727.000000;2.681085
2726.000000;2.724400
2725.000000;2.824920
2724.000000;2.972248
2723.000000;3.069307
2722.000000;2.985208
2721.000000;2.853555
2720.000000;2.796609
2719.000000;2.810507
2718.000000;2.891347
2717.000000;2.994441
2716.000000;3.226973
2715.000000;3.306218
2714.000000;2.910865
2713.000000;2.761262
2712.000000;2.767352
2711.000000;2.840688
2710.000000;2.907650
2709.000000;2.894983
2708.000000;2.888009
2707.000000;2.875482
2706.000000;2.856586
2705.000000;2.922204
2704.000000;3.022621
2703.000000;2.922144
2702.000000;2.793682
2701.000000;2.783295
2700.000000;2.863253
2699.000000;2.974739
2698.000000;3.066637
2697.000000;3.196844
2696.000000;3.523969
2695.000000;3.912030
2694.000000;3.708924
2693.000000;3.626998
2692.000000;3.469653
2691.000000;3.381965
2690.000000;3.383018
2689.000000;3.084987
2688.000000;2.808279
2687.000000;2.669311
2686.000000;2.625197
2685.000000;2.663119
2684.000000;2.800626
2683.000000;2.992497
2682.000000;3.454872
2681.000000;3.564430
2680.000000;2.974987
2679.000000;2.886895
2678.000000;2.988461
2677.000000;3.200240
2676.000000;3.372858
2675.000000;3.245492
2674.000000;3.062107
2673.000000;2.923621
2672.000000;2.888561
2671.000000;2.926097
2670.000000;3.000023
2669.000000;3.004786
2668.000000;2.979261
2667.000000;2.991013
2666.000000;3.279221
2665.000000;3.543472
2664.000000;3.021907
2663.000000;2.883842
2662.000000;3.000383
2661.000000;3.425599
2660.000000;3.346812
2659.000000;2.961195
2658.000000;2.879094
2657.000000;2.891497
2656.000000;2.989469
2655.000000;3.117396
2654.000000;3.398430
2653.000000;3.579558
2652.000000;3.154762
2651.000000;3.008337
2650.000000;3.085771
2649.000000;3.192211
2648.000000;3.032145
2647.000000;2.840571
2646.000000;2.783481
2645.000000;2.850376
2644.000000;3.018994
2643.000000;3.190616
2642.000000;3.261128
2641.000000;3.367272
2640.000000;3.420491
2639.000000;3.194341
2638.000000;3.066684
2637.000000;3.113364
2636.000000;3.187685
2635.000000;3.071469
2634.000000;2.960406
2633.000000;2.951963
2632.000000;2.951434
2631.000000;2.937025
2630.000000;2.994107
2629.000000;3.377458
2628.000000;3.502326
2627.000000;3.125967
2626.000000;3.227294
2625.000000;3.205926
2624.000000;2.944377
2623.000000;2.801204
2622.000000;2.751297
2621.000000;2.809763
2620.000000;2.969483
2619.000000;3.213638
2618.000000;3.427657
2617.000000;3.530290
2616.000000;3.408830
2615.000000;3.136723
2614.000000;2.930671
2613.000000;2.828976
2612.000000;2.787814
2611.000000;2.808988
2610.000000;2.876961
2609.000000;3.130688
2608.000000;3.728783
2607.000000;3.603987
2606.000000;3.215780
2605.000000;2.850279
2604.000000;2.683863
2603.000000;2.676220
2602.000000;2.725677
2601.000000;2.781055
2600.000000;3.063108
2599.000000;3.271514
2598.000000;2.843313
2597.000000;2.743187
2596.000000;2.832924
2595.000000;2.886055
2594.000000;2.793181
2593.000000;2.733236
2592.000000;2.821950
2591.000000;2.939426
2590.000000;2.967180
2589.000000;2.916743
2588.000000;3.057561
2587.000000;3.610072
2586.000000;3.033821
2585.000000;2.748310
2584.000000;2.707745
2583.000000;2.795994
2582.000000;3.026707
2581.000000;2.931010
2580.000000;2.807808
2579.000000;2.860805
2578.000000;3.196538
2577.000000;3.872947
2576.000000;3.233497
2575.000000;3.463955
2574.000000;3.876767
2573.000000;3.119829
2572.000000;3.074292
2571.000000;3.143404
2570.000000;3.104246
2569.000000;3.042693
2568.000000;3.056847
2567.000000;3.052031
2566.000000;2.884568
2565.000000;2.738534
2564.000000;2.691192
2563.000000;2.738946
2562.000000;2.880565
2561.000000;3.100833
2560.000000;3.297970
2559.000000;3.285391
2558.000000;3.133032
2557.000000;3.081157
2556.000000;3.156101
2555.000000;3.313078
2554.000000;3.617818
2553.000000;3.455021
2552.000000;3.067877
2551.000000;2.942213
2550.000000;2.976602
2549.000000;3.111640
2548.000000;3.178158
2547.000000;3.057950
2546.000000;2.976247
2545.000000;2.989248
2544.000000;3.054618
2543.000000;3.073419
2542.000000;3.062201
2541.000000;3.151821
2540.000000;3.170042
2539.000000;3.081999
2538.000000;3.057615
2537.000000;2.961947
2536.000000;2.914532
2535.000000;3.034124
2534.000000;3.020595
2533.000000;2.844504
2532.000000;2.765457
2531.000000;2.801617
2530.000000;2.897716
2529.000000;3.069402
2528.000000;3.376911
2527.000000;3.114132
2526.000000;2.804374
2525.000000;2.711641
2524.000000;2.747921
2523.000000;2.964637
2522.000000;3.239941
2521.000000;3.030230
2520.000000;2.861658
2519.000000;2.776782
2518.000000;2.714734
2517.000000;2.720501
2516.000000;2.857777
2515.000000;3.220023
2514.000000;3.187774
2513.000000;2.941377
2512.000000;2.906355
2511.000000;2.931697
2510.000000;2.965758
2509.000000;2.950900
2508.000000;2.912891
2507.000000;2.885700
2506.000000;2.881520
2505.000000;2.927823
2504.000000;3.020253
2503.000000;3.125924
2502.000000;3.288169
2501.000000;3.333760
2500.000000;3.083147
2499.000000;2.929616
2498.000000;2.902890
2497.000000;2.924219
2496.000000;3.157542
2495.000000;3.396971
2494.000000;2.920226
2493.000000;2.732282
2492.000000;2.753076
2491.000000;2.872128
2490.000000;2.951556
2489.000000;2.945859
2488.000000;3.108910
2487.000000;3.233403
2486.000000;2.993590
2485.000000;2.836296
2484.000000;2.963304
2483.000000;3.516504
2482.000000;3.024993
2481.000000;2.727171
2480.000000;2.686495
2479.000000;2.686481
2478.000000;2.698220
2477.000000;2.738861
2476.000000;2.900633
2475.000000;3.225459
2474.000000;3.590089
2473.000000;3.633618
2472.000000;3.889266
2471.000000;3.812888
2470.000000;3.290605
2469.000000;3.164787
2468.000000;3.212891
2467.000000;3.290415
2466.000000;3.215377
2465.000000;3.066827
2464.000000;2.986976
2463.000000;2.958795
2462.000000;2.989604
2461.000000;3.027076
2460.000000;3.063281
2459.000000;3.028248
2458.000000;3.032473
2457.000000;3.309722
2456.000000;2.988390
2455.000000;2.679607
2454.000000;2.616228
2453.000000;2.645010
2452.000000;2.677069
2451.000000;2.695071
2450.000000;2.747218
2449.000000;2.919389
2448.000000;3.286911
2447.000000;3.157744
2446.000000;2.966753
2445.000000;2.966209
2444.000000;3.014226
2443.000000;3.121790
2442.000000;3.350734
2441.000000;3.689876
2440.000000;3.444835
2439.000000;3.060445
2438.000000;2.881486
2437.000000;2.863875
2436.000000;3.026621
2435.000000;3.190159
2434.000000;3.042342
2433.000000;2.956816
2432.000000;3.040498
2431.000000;3.309461
2430.000000;3.533153
2429.000000;3.368563
2428.000000;3.264505
2427.000000;3.211063
2426.000000;3.113750
2425.000000;2.952804
2424.000000;2.832900
2423.000000;2.863266
2422.000000;2.948696
2421.000000;2.854414
2420.000000;2.779830
2419.000000;2.794795
2418.000000;2.825447
2417.000000;2.828478
2416.000000;2.824646
2415.000000;2.860679
2414.000000;2.926002
2413.000000;3.082165
2412.000000;3.365616
2411.000000;3.258280
2410.000000;3.129203
2409.000000;3.162794
2408.000000;3.191568
2407.000000;3.337375
2406.000000;3.340425
2405.000000;3.285255
2404.000000;3.425545
2403.000000;3.424328
2402.000000;3.203832
2401.000000;3.041320
2400.000000;2.957314
2399.000000;2.889286
2398.000000;2.821023
2397.000000;2.792263
2396.000000;2.852119
2395.000000;3.090466
2394.000000;3.457002
2393.000000;3.443646
2392.000000;3.709968
2391.000000;3.904753
2390.000000;3.566221
2389.000000;3.517939
2388.000000;3.421739
2387.000000;3.482585
2386.000000;3.478346
2385.000000;3.323558
2384.000000;3.244192
2383.000000;3.146290
2382.000000;3.171425
2381.000000;3.335310
2380.000000;3.315177
2379.000000;3.218522
2378.000000;3.256162
2377.000000;3.332976
2376.000000;3.358700
2375.000000;3.337385
2374.000000;3.274097
2373.000000;3.240319
2372.000000;3.293003
2371.000000;3.510031
2370.000000;4.072366
2369.000000;3.716906
2368.000000;3.653561
2367.000000;3.997771
2366.000000;3.527320
2365.000000;3.224576
2364.000000;3.126692
2363.000000;3.150416
2362.000000;3.241488
2361.000000;3.317112
2360.000000;3.332566
2359.000000;3.310318
2358.000000;3.287153
2357.000000;3.272503
2356.000000;3.298030
2355.000000;3.383945
2354.000000;3.393331
2353.000000;3.308510
2352.000000;3.300099
2351.000000;3.422988
2350.000000;3.539136
2349.000000;3.419125
2348.000000;3.334749
2347.000000;3.385110
2346.000000;3.532979
2345.000000;3.592157
2344.000000;3.480278
2343.000000;3.346194
2342.000000;3.251320
2341.000000;3.213912
2340.000000;3.381994
2339.000000;4.038037
2338.000000;3.329876
2337.000000;3.152808
2336.000000;3.210481
2335.000000;3.576849
2334.000000;3.759476
2333.000000;3.222424
2332.000000;3.130997
2331.000000;3.204180
2330.000000;3.431264
2329.000000;3.674790
2328.000000;3.622021
2327.000000;3.412067
2326.000000;3.239851
2325.000000;3.181940
2324.000000;3.251162
2323.000000;3.296391
2322.000000;3.204825
2321.000000;3.130263
2320.000000;3.112687
2319.000000;3.169338
2318.000000;3.351225
2317.000000;3.465441
2316.000000;3.356431
2315.000000;3.230451
2314.000000;3.052179
2313.000000;2.952228
2312.000000;2.972750
2311.000000;3.170322
2310.000000;3.669460
2309.000000;3.342319
2308.000000;3.045629
2307.000000;2.976684
2306.000000;3.040145
2305.000000;3.269380
2304.000000;3.669696
2303.000000;3.493972
2302.000000;3.191328
2301.000000;3.075252
2300.000000;3.056371
2299.000000;3.219731
2298.000000;3.592880
2297.000000;3.254932
2296.000000;2.998087
2295.000000;2.913104
2294.000000;2.818268
2293.000000;2.768759
2292.000000;2.818291
2291.000000;3.025805
2290.000000;3.389899
2289.000000;3.063381
2288.000000;2.907110
2287.000000;2.934461
2286.000000;2.938650
2285.000000;2.901481
2284.000000;2.937189
2283.000000;3.021010
2282.000000;3.101840
2281.000000;3.161057
2280.000000;3.139659
2279.000000;3.000249
2278.000000;2.885181
2277.000000;2.885828
2276.000000;3.165007
2275.000000;3.548090
2274.000000;3.075156
2273.000000;2.838352
2272.000000;2.720599
2271.000000;2.678824
2270.000000;2.722513
2269.000000;2.858213
2268.000000;3.100054
2267.000000;3.433605
2266.000000;3.155186
2265.000000;2.850192
2264.000000;2.723883
2263.000000;2.721479
2262.000000;2.799032
2261.000000;2.865407
2260.000000;2.890197
2259.000000;2.914209
2258.000000;2.981023
2257.000000;3.142776
2256.000000;3.348269
2255.000000;3.288164
2254.000000;3.065181
2253.000000;2.830812
2252.000000;2.707942
2251.000000;2.719699
2250.000000;2.854034
2249.000000;3.108854
2248.000000;3.339980
2247.000000;3.171288
2246.000000;2.949469
2245.000000;2.843493
2244.000000;2.840110
2243.000000;2.905186
2242.000000;2.880234
2241.000000;2.784671
2240.000000;2.776812
2239.000000;2.873034
2238.000000;3.172104
2237.000000;3.222080
2236.000000;2.855811
2235.000000;2.723689
2234.000000;2.741803
2233.000000;2.848381
2232.000000;2.981159
2231.000000;3.093244
2230.000000;3.127499
2229.000000;3.066930
2228.000000;3.070306
2227.000000;3.158293
2226.000000;3.257664
2225.000000;3.161980
2224.000000;2.952514
2223.000000;2.890368
2222.000000;2.991010
2221.000000;3.375245
2220.000000;3.597162
2219.000000;3.307985
2218.000000;3.459433
2217.000000;3.529548
2216.000000;3.125791
2215.000000;2.919042
2214.000000;2.899523
2213.000000;2.995312
2212.000000;3.210087
2211.000000;3.426829
2210.000000;3.146257
2209.000000;2.973395
2208.000000;2.968311
2207.000000;3.125895
2206.000000;3.607545
2205.000000;3.517095
2204.000000;3.297755
2203.000000;3.257991
2202.000000;3.066328
2201.000000;2.850411
2200.000000;2.778814
2199.000000;2.854807
2198.000000;3.022263
2197.000000;3.080472
2196.000000;3.050412
2195.000000;3.108602
2194.000000;3.182480
2193.000000;3.122827
2192.000000;3.082742
2191.000000;3.180626
2190.000000;3.217734
2189.000000;3.137971
2188.000000;3.091144
2187.000000;3.012427
2186.000000;2.920799
2185.000000;2.818827
2184.000000;2.726257
2183.000000;2.707705
2182.000000;2.774852
2181.000000;2.905627
2180.000000;3.050557
2179.000000;3.169114
2178.000000;3.409529
2177.000000;4.112623
2176.000000;3.725525
2175.000000;4.070148
2174.000000;3.568223
2173.000000;3.293001
2172.000000;3.168523
2171.000000;3.086922
2170.000000;3.054889
2169.000000;2.953722
2168.000000;2.817625
2167.000000;2.796883
2166.000000;2.890210
2165.000000;3.257101
2164.000000;3.316905
2163.000000;3.014405
2162.000000;2.930012
2161.000000;2.812897
2160.000000;2.728278
2159.000000;2.736104
2158.000000;2.821584
2157.000000;2.904554
2156.000000;2.970347
2155.000000;3.056149
2154.000000;3.134115
2153.000000;3.190591
2152.000000;3.228086
2151.000000;3.123509
2150.000000;2.918613
2149.000000;2.755940
2148.000000;2.680466
2147.000000;2.696786
2146.000000;2.807620
2145.000000;3.026558
2144.000000;3.421067
2143.000000;3.617837
2142.000000;3.291497
2141.000000;3.436568
2140.000000;3.217574
2139.000000;2.865058
2138.000000;2.757451
2137.000000;2.754629
2136.000000;2.853400
2135.000000;3.080603
2134.000000;3.659276
2133.000000;3.110904
2132.000000;2.825023
2131.000000;2.788069
2130.000000;2.862643
2129.000000;3.021745
2128.000000;3.144710
2127.000000;3.064627
2126.000000;2.976850
2125.000000;3.014254
2124.000000;3.180092
2123.000000;3.369790
2122.000000;3.181631
2121.000000;3.033327
2120.000000;3.059080
2119.000000;3.160804
2118.000000;3.352171
2117.000000;3.622358
2116.000000;3.356332
2115.000000;3.236994
2114.000000;3.276150
2113.000000;3.356930
2112.000000;3.329574
2111.000000;3.201028
2110.000000;3.078105
2109.000000;2.969595
2108.000000;2.888839
2107.000000;2.838237
2106.000000;2.811626
2105.000000;2.806189
2104.000000;2.819870
2103.000000;2.872352
2102.000000;2.979372
2101.000000;3.119389
2100.000000;3.160484
2099.000000;3.075410
2098.000000;3.094229
2097.000000;3.261770
2096.000000;3.451839
2095.000000;3.308770
2094.000000;2.980385
2093.000000;2.825274
2092.000000;2.760249
2091.000000;2.719758
2090.000000;2.692427
2089.000000;2.699615
2088.000000;2.733770
2087.000000;2.748074
2086.000000;2.731134
2085.000000;2.728385
2084.000000;2.756859
2083.000000;2.841288
2082.000000;3.034626
2081.000000;3.343018
2080.000000;3.490549
2079.000000;3.475592
2078.000000;3.551996
2077.000000;3.810254
2076.000000;3.455945
2075.000000;3.179867
2074.000000;3.108753
2073.000000;3.194766
2072.000000;3.675244
2071.000000;3.384672
2070.000000;2.987760
2069.000000;2.881656
2068.000000;2.940154
2067.000000;3.117371
2066.000000;3.270097
2065.000000;3.526035
2064.000000;3.556118
2063.000000;3.101250
2062.000000;2.980186
2061.000000;2.982648
2060.000000;3.232036
2059.000000;3.251301
2058.000000;2.941708
2057.000000;2.876585
2056.000000;2.896933
2055.000000;3.007397
2054.000000;3.168314
2053.000000;3.968337
2052.000000;3.385031
2051.000000;2.966752
2050.000000;2.850026
2049.000000;2.827485
2048.000000;2.860421
2047.000000;2.894265
2046.000000;2.941243
2045.000000;3.034151
2044.000000;3.124697
2043.000000;3.139863
2042.000000;3.175212
2041.000000;3.320273
2040.000000;3.402579
2039.000000;3.163017
2038.000000;3.165909
2037.000000;3.478236
2036.000000;3.105229
2035.000000;2.780520
2034.000000;2.711154
2033.000000;2.768657
2032.000000;2.931786
2031.000000;3.205108
2030.000000;3.508747
2029.000000;3.813611
2028.000000;3.542277
2027.000000;3.206993
2026.000000;3.085797
2025.000000;3.019508
2024.000000;2.954432
2023.000000;2.913880
2022.000000;2.937981
2021.000000;3.018766
2020.000000;3.126261
2019.000000;3.138574
2018.000000;3.066337
2017.000000;2.992714
2016.000000;2.940728
2015.000000;3.005158
2014.000000;3.226288
2013.000000;3.517175
2012.000000;3.551309
2011.000000;3.766877
2010.000000;4.200815
2009.000000;3.376315
2008.000000;3.265356
2007.000000;3.228087
2006.000000;3.144405
2005.000000;3.022939
2004.000000;2.902215
2003.000000;2.783901
2002.000000;2.705827
2001.000000;2.716668
2000.000000;2.846217
1999.000000;3.139351
1998.000000;3.539274
1997.000000;3.496781
1996.000000;3.737989
1995.000000;3.784336
1994.000000;3.521840
1993.000000;3.540377
1992.000000;3.342364
1991.000000;3.011230
1990.000000;2.810953
1989.000000;2.764336
1988.000000;2.887165
1987.000000;3.154806
1986.000000;3.065119
1985.000000;2.878744
1984.000000;2.865576
1983.000000;3.083664
1982.000000;3.574107
1981.000000;3.325354
1980.000000;3.072949
1979.000000;3.031675
1978.000000;3.211340
1977.000000;3.087205
1976.000000;2.812236
1975.000000;2.743407
1974.000000;2.775243
1973.000000;2.857739
1972.000000;2.972403
1971.000000;3.069641
1970.000000;3.031902
1969.000000;2.980511
1968.000000;3.050553
1967.000000;3.274137
1966.000000;3.503560
1965.000000;3.275655
1964.000000;2.975818
1963.000000;2.885974
1962.000000;2.952649
1961.000000;2.895759
1960.000000;2.758916
1959.000000;2.709906
1958.000000;2.726126
1957.000000;2.805555
1956.000000;2.992927
1955.000000;3.403011
1954.000000;3.565042
1953.000000;3.284226
1952.000000;3.174229
1951.000000;3.035380
1950.000000;2.950228
1949.000000;2.990625
1948.000000;3.126038
1947.000000;3.092130
1946.000000;2.999455
1945.000000;3.030935
1944.000000;3.364097
1943.000000;3.533501
1942.000000;3.191378
1941.000000;3.121559
1940.000000;3.142405
1939.000000;3.141812
1938.000000;3.132075
1937.000000;3.174784
1936.000000;3.328941
1935.000000;3.607184
1934.000000;3.800113
1933.000000;3.834051
1932.000000;3.695821
1931.000000;3.432559
1930.000000;3.335933
1929.000000;3.386027
1928.000000;3.341032
1927.000000;3.077146
1926.000000;2.878365
1925.000000;2.836575
1924.000000;2.971587
1923.000000;3.150726
1922.000000;3.066634
1921.000000;2.894308
1920.000000;2.800343
1919.000000;2.835129
1918.000000;3.087726
1917.000000;3.424574
1916.000000;3.221789
1915.000000;3.066686
1914.000000;2.979245
1913.000000;2.920236
1912.000000;2.924026
1911.000000;2.933160
1910.000000;2.887135
1909.000000;2.791989
1908.000000;2.689714
1907.000000;2.641169
1906.000000;2.680366
1905.000000;2.802253
1904.000000;2.910661
1903.000000;2.893035
1902.000000;2.828324
1901.000000;2.849180
1900.000000;3.009452
1899.000000;3.208509
1898.000000;3.256846
1897.000000;3.252029
1896.000000;3.197080
1895.000000;3.067970
1894.000000;3.006539
1893.000000;3.036180
1892.000000;3.220236
1891.000000;3.680920
1890.000000;3.142649
1889.000000;2.913901
1888.000000;2.964513
1887.000000;3.099637
1886.000000;3.153443
1885.000000;3.019633
1884.000000;2.895704
1883.000000;2.858296
1882.000000;2.913821
1881.000000;3.037763
1880.000000;3.142167
1879.000000;3.021815
1878.000000;2.822458
1877.000000;2.754692
1876.000000;2.829743
1875.000000;3.005230
1874.000000;3.105447
1873.000000;3.108491
1872.000000;3.216944
1871.000000;3.299855
1870.000000;3.196966
1869.000000;3.154719
1868.000000;3.226703
1867.000000;3.369474
1866.000000;3.536934
1865.000000;3.478150
1864.000000;3.343584
1863.000000;3.277399
1862.000000;3.145119
1861.000000;2.932417
1860.000000;2.773730
1859.000000;2.724233
1858.000000;2.772410
1857.000000;2.879308
1856.000000;2.976482
1855.000000;2.976178
1854.000000;2.890292
1853.000000;2.830797
1852.000000;2.859992
1851.000000;3.006907
1850.000000;3.070325
1849.000000;2.893724
1848.000000;2.809975
1847.000000;2.847801
1846.000000;2.957301
1845.000000;3.050747
1844.000000;3.068215
1843.000000;3.168017
1842.000000;3.390565
1841.000000;3.388243
1840.000000;3.259003
1839.000000;3.179591
1838.000000;3.085484
1837.000000;3.025608
1836.000000;3.045188
1835.000000;3.145906
1834.000000;3.491546
1833.000000;3.644898
1832.000000;3.246834
1831.000000;3.117720
1830.000000;3.286675
1829.000000;4.135019
1828.000000;3.339891
1827.000000;3.051500
1826.000000;2.858278
1825.000000;2.694401
1824.000000;2.667555
1823.000000;2.756345
1822.000000;3.032911
1821.000000;3.449467
1820.000000;3.238863
1819.000000;3.407182
1818.000000;3.335684
1817.000000;2.874443
1816.000000;2.740706
1815.000000;2.760707
1814.000000;2.912243
1813.000000;3.289803
1812.000000;3.698380
1811.000000;3.429032
1810.000000;3.288190
1809.000000;3.194484
1808.000000;3.145376
1807.000000;3.211287
1806.000000;3.333940
1805.000000;3.467523
1804.000000;3.585238
1803.000000;3.335033
1802.000000;3.065662
1801.000000;3.000622
1800.000000;3.130106
1799.000000;3.559280
1798.000000;3.483557
1797.000000;3.059865
1796.000000;2.947342
1795.000000;2.949371
1794.000000;2.996103
1793.000000;2.997648
1792.000000;2.951924
1791.000000;2.973544
1790.000000;3.079308
1789.000000;3.206973
1788.000000;3.214271
1787.000000;3.201584
1786.000000;3.229418
1785.000000;3.251012
1784.000000;3.142450
1783.000000;2.986732
1782.000000;2.917388
1781.000000;3.059550
1780.000000;3.767183
1779.000000;3.409377
1778.000000;3.249174
1777.000000;3.696160
1776.000000;3.385865
1775.000000;3.033692
1774.000000;2.937282
1773.000000;2.925863
1772.000000;3.009958
1771.000000;3.232502
1770.000000;3.352422
1769.000000;3.357288
1768.000000;3.352777
1767.000000;3.210099
1766.000000;3.186180
1765.000000;3.189062
1764.000000;3.124429
1763.000000;3.134229
1762.000000;3.478277
1761.000000;3.722121
1760.000000;3.173696
1759.000000;2.949699
1758.000000;2.902542
1757.000000;3.034260
1756.000000;3.214743
1755.000000;3.154607
1754.000000;3.078447
1753.000000;3.128530
1752.000000;3.235455
1751.000000;3.117702
1750.000000;3.025939
1749.000000;3.158514
1748.000000;3.526385
1747.000000;3.774258
1746.000000;3.576493
1745.000000;3.415569
1744.000000;3.220079
1743.000000;3.058602
1742.000000;2.960493
1741.000000;2.877229
1740.000000;2.775670
1739.000000;2.747085
1738.000000;2.845759
1737.000000;3.028308
1736.000000;3.288977
1735.000000;3.178736
1734.000000;2.945541
1733.000000;2.984814
1732.000000;3.093757
1731.000000;3.086874
1730.000000;3.103250
1729.000000;3.046046
1728.000000;2.867883
1727.000000;2.746121
1726.000000;2.741272
1725.000000;2.904143
1724.000000;3.277809
1723.000000;3.425160
1722.000000;3.292457
1721.000000;3.287820
1720.000000;3.180560
1719.000000;2.995809
1718.000000;2.986599
1717.000000;3.194275
1716.000000;3.360253
1715.000000;3.308954
1714.000000;3.274009
1713.000000;3.210527
1712.000000;3.105932
1711.000000;3.153572
1710.000000;3.456434
1709.000000;3.480658
1708.000000;3.181441
1707.000000;2.988110
1706.000000;2.869490
1705.000000;2.896756
1704.000000;3.010700
1703.000000;3.097681
1702.000000;3.130541
1701.000000;3.210620
1700.000000;3.557060
1699.000000;3.060661
1698.000000;2.643366
1697.000000;2.537912
1696.000000;2.598811
1695.000000;2.736786
1694.000000;2.837789
1693.000000;2.909949
1692.000000;2.979232
1691.000000;2.997690
1690.000000;2.954089
1689.000000;2.897000
1688.000000;2.870108
1687.000000;2.869452
1686.000000;2.908968
1685.000000;3.064295
1684.000000;3.384282
1683.000000;3.484005
1682.000000;3.213370
1681.000000;2.984382
1680.000000;2.994318
1679.000000;3.192294
1678.000000;3.384197
1677.000000;3.791467
1676.000000;4.053199
1675.000000;3.634345
1674.000000;2.980342
1673.000000;2.671233
1672.000000;2.598807
1671.000000;2.637375
1670.000000;2.735230
1669.000000;2.827649
1668.000000;2.875657
1667.000000;2.883708
1666.000000;2.923360
1665.000000;3.020924
1664.000000;3.002897
1663.000000;2.856829
1662.000000;2.778673
1661.000000;2.770788
1660.000000;2.773978
1659.000000;2.777788
1658.000000;2.808153
1657.000000;2.866347
1656.000000;2.900265
1655.000000;2.848006
1654.000000;2.778398
1653.000000;2.798285
1652.000000;2.810922
1651.000000;2.576350
1650.000000;2.419097
1649.000000;2.487234
1648.000000;2.696272
1647.000000;2.967774
1646.000000;3.282562
1645.000000;3.485307
1644.000000;3.302630
1643.000000;3.005204
1642.000000;2.846130
1641.000000;2.815108
1640.000000;2.874279
1639.000000;2.971085
1638.000000;3.021877
1637.000000;3.076273
1636.000000;3.272037
1635.000000;3.543124
1634.000000;3.439258
1633.000000;3.101315
1632.000000;2.879092
1631.000000;2.800976
1630.000000;2.815732
1629.000000;2.919137
1628.000000;3.108641
1627.000000;3.234534
1626.000000;3.245643
1625.000000;3.183452
1624.000000;3.027438
1623.000000;2.905783
1622.000000;2.905122
1621.000000;2.975536
1620.000000;3.142725
1619.000000;3.480114
1618.000000;3.294801
1617.000000;3.119083
1616.000000;3.183626
1615.000000;3.185192
1614.000000;3.151577
1613.000000;3.202223
1612.000000;3.415308
1611.000000;3.574242
1610.000000;3.309016
1609.000000;3.204977
1608.000000;3.450625
1607.000000;3.948321
1606.000000;3.513835
1605.000000;3.145125
1604.000000;2.900830
1603.000000;2.767526
1602.000000;2.763524
1601.000000;2.865031
1600.000000;3.042014
1599.000000;3.309849
1598.000000;3.417927
1597.000000;3.152134
1596.000000;3.035128
1595.000000;3.025443
1594.000000;3.001752
1593.000000;2.958999
1592.000000;2.966540
1591.000000;3.072919
1590.000000;3.172289
1589.000000;3.204858
1588.000000;3.173439
1587.000000;3.087121
1586.000000;3.052203
1585.000000;3.083111
1584.000000;3.159713
1583.000000;3.424136
1582.000000;3.894244
1581.000000;3.711425
1580.000000;3.547873
1579.000000;3.374196
1578.000000;3.254591
1577.000000;3.185796
1576.000000;3.100878
1575.000000;3.091361
1574.000000;3.139541
1573.000000;3.220761
1572.000000;3.239806
1571.000000;3.207142
1570.000000;3.172267
1569.000000;3.259141
1568.000000;3.496227
1567.000000;3.467724
1566.000000;3.436928
1565.000000;3.601053
1564.000000;3.844761
1563.000000;3.666355
1562.000000;3.376199
1561.000000;3.243486
1560.000000;3.489548
1559.000000;3.454293
1558.000000;3.307970
1557.000000;3.800797
1556.000000;3.265462
1555.000000;3.064760
1554.000000;3.267777
1553.000000;3.073935
1552.000000;2.793987
1551.000000;2.697615
1550.000000;2.751948
1549.000000;2.974197
1548.000000;3.220753
1547.000000;3.103073
1546.000000;2.921066
1545.000000;2.828454
1544.000000;2.826531
1543.000000;3.015112
1542.000000;3.381799
1541.000000;3.090559
1540.000000;2.942772
1539.000000;3.096962
1538.000000;3.195250
1537.000000;3.176434
1536.000000;3.332965
1535.000000;3.696713
1534.000000;3.563905
1533.000000;3.261644
1532.000000;3.244313
1531.000000;3.295383
1530.000000;3.361268
1529.000000;3.630087
1528.000000;3.117346
1527.000000;2.824776
1526.000000;2.792269
1525.000000;2.961832
1524.000000;3.301136
1523.000000;3.112995
1522.000000;2.923763
1521.000000;2.940647
1520.000000;2.992250
1519.000000;3.020425
1518.000000;3.336966
1517.000000;3.587482
1516.000000;3.185283
1515.000000;3.075520
1514.000000;3.068144
1513.000000;3.044783
1512.000000;3.110628
1511.000000;3.455617
1510.000000;3.483873
1509.000000;3.347787
1508.000000;3.393931
1507.000000;3.343123
1506.000000;3.297950
1505.000000;3.112984
1504.000000;2.913538
1503.000000;3.096583
1502.000000;3.412441
1501.000000;3.150373
1500.000000;3.107445
1499.000000;3.138347
1498.000000;3.241635
1497.000000;3.277716
1496.000000;3.265499
1495.000000;3.618633
1494.000000;3.328116
1493.000000;2.962677
1492.000000;2.901450
1491.000000;2.926291
1490.000000;2.965447
1489.000000;2.969837
1488.000000;2.939781
1487.000000;2.928822
1486.000000;2.950840
1485.000000;3.050246
1484.000000;3.183811
1483.000000;3.485093
1482.000000;3.847164
1481.000000;3.242796
1480.000000;3.040549
1479.000000;3.073340
1478.000000;3.264647
1477.000000;3.298064
1476.000000;3.060107
1475.000000;2.973656
1474.000000;3.060459
1473.000000;3.176467
1472.000000;2.949822
1471.000000;2.742960
1470.000000;2.653151
1469.000000;2.709961
1468.000000;2.919199
1467.000000;3.141817
1466.000000;3.646718
1465.000000;3.454997
1464.000000;2.961142
1463.000000;2.871442
1462.000000;2.961725
1461.000000;3.125837
1460.000000;3.158108
1459.000000;3.051725
1458.000000;2.899621
1457.000000;2.832109
1456.000000;2.871487
1455.000000;3.029425
1454.000000;3.142146
1453.000000;2.900999
1452.000000;2.749830
1451.000000;2.686579
1450.000000;2.663176
1449.000000;2.712987
1448.000000;2.811467
1447.000000;2.870323
1446.000000;2.860589
1445.000000;2.917426
1444.000000;3.017592
1443.000000;2.955207
1442.000000;2.863148
1441.000000;2.847223
1440.000000;2.871467
1439.000000;2.908521
1438.000000;2.911986
1437.000000;2.906890
1436.000000;2.894993
1435.000000;2.798757
1434.000000;2.703047
1433.000000;2.665896
1432.000000;2.669887
1431.000000;2.705865
1430.000000;2.805995
1429.000000;3.001799
1428.000000;3.326709
1427.000000;3.753120
1426.000000;3.673517
1425.000000;3.470809
1424.000000;3.168965
1423.000000;2.992865
1422.000000;2.959721
1421.000000;2.862782
1420.000000;2.652674
1419.000000;2.554427
1418.000000;2.664351
1417.000000;2.908999
1416.000000;2.897125
1415.000000;2.747144
1414.000000;2.735999
1413.000000;2.765782
1412.000000;2.767490
1411.000000;2.744723
1410.000000;2.706516
1409.000000;2.708963
1408.000000;2.859759
1407.000000;3.286326
1406.000000;3.376808
1405.000000;3.149354
1404.000000;3.186464
1403.000000;3.422283
1402.000000;3.337366
1401.000000;3.066911
1400.000000;2.982276
1399.000000;3.013062
1398.000000;3.184441
1397.000000;3.414633
1396.000000;3.315856
1395.000000;3.541231
1394.000000;3.433271
1393.000000;2.885458
1392.000000;2.687145
1391.000000;2.623574
1390.000000;2.672757
1389.000000;2.811488
1388.000000;3.171262
1387.000000;3.299006
1386.000000;2.843666
1385.000000;2.706530
1384.000000;2.763436
1383.000000;2.952175
1382.000000;3.110025
1381.000000;3.125655
1380.000000;3.136456
1379.000000;3.208931
1378.000000;3.381274
1377.000000;3.456489
1376.000000;3.291726
1375.000000;3.138486
1374.000000;3.055338
1373.000000;3.014866
1372.000000;3.021248
1371.000000;3.059947
1370.000000;3.037687
1369.000000;2.967198
1368.000000;2.922455
1367.000000;2.971834
1366.000000;3.081261
1365.000000;3.043752
1364.000000;2.986220
1363.000000;3.131783
1362.000000;3.555398
1361.000000;3.800627
1360.000000;3.600351
1359.000000;3.549154
1358.000000;3.381264
1357.000000;3.137882
1356.000000;2.928116
1355.000000;2.767208
1354.000000;2.656883
1353.000000;2.623773
1352.000000;2.665766
1351.000000;2.787183
1350.000000;2.932545
1349.000000;3.029464
1348.000000;3.380509
1347.000000;3.281741
1346.000000;2.856453
1345.000000;2.703432
1344.000000;2.671861
1343.000000;2.737808
1342.000000;2.941407
1341.000000;3.149675
1340.000000;3.074960
1339.000000;2.993959
1338.000000;2.881576
1337.000000;2.750882
1336.000000;2.701962
1335.000000;2.768056
1334.000000;2.993622
1333.000000;3.279366
1332.000000;3.146452
1331.000000;2.976610
1330.000000;2.963717
1329.000000;3.030212
1328.000000;3.064023
1327.000000;3.148970
1326.000000;3.181326
1325.000000;2.978718
1324.000000;2.898700
1323.000000;3.003931
1322.000000;3.201749
1321.000000;3.087772
1320.000000;2.893747
1319.000000;2.827070
1318.000000;2.937663
1317.000000;3.357993
1316.000000;3.256334
1315.000000;2.942258
1314.000000;2.858681
1313.000000;2.850777
1312.000000;2.913427
1311.000000;3.023541
1310.000000;3.059870
1309.000000;2.986719
1308.000000;2.960226
1307.000000;3.103232
1306.000000;3.199606
1305.000000;3.016086
1304.000000;2.826637
1303.000000;2.716118
1302.000000;2.700899
1301.000000;2.742144
1300.000000;2.826364
1299.000000;2.934141
1298.000000;3.004355
1297.000000;3.036353
1296.000000;3.088862
1295.000000;3.182281
1294.000000;3.185038
1293.000000;3.168294
1292.000000;3.328869
1291.000000;3.383805
1290.000000;3.157650
1289.000000;3.039874
1288.000000;2.986421
1287.000000;2.962894
1286.000000;2.995950
1285.000000;3.035167
1284.000000;2.937491
1283.000000;2.802447
1282.000000;2.764651
1281.000000;2.777994
1280.000000;2.737714
1279.000000;2.720526
1278.000000;2.780953
1277.000000;2.835330
1276.000000;2.888496
1275.000000;3.040488
1274.000000;3.347567
1273.000000;3.702532
1272.000000;3.941663
1271.000000;3.427028
1270.000000;3.090130
1269.000000;2.910461
1268.000000;2.819874
1267.000000;2.855130
1266.000000;3.004726
1265.000000;3.027625
1264.000000;2.928067
1263.000000;2.904033
1262.000000;2.958909
1261.000000;3.062939
1260.000000;3.143791
1259.000000;3.040076
1258.000000;2.867241
1257.000000;2.814664
1256.000000;2.936878
1255.000000;3.418096
1254.000000;3.408585
1253.000000;2.973318
1252.000000;2.907068
1251.000000;2.925887
1250.000000;3.046507
1249.000000;3.270552
1248.000000;3.624590
1247.000000;3.635311
1246.000000;3.230172
1245.000000;3.075382
1244.000000;3.213072
1243.000000;3.382934
1242.000000;3.144543
1241.000000;3.064925
1240.000000;3.195587
1239.000000;3.376779
1238.000000;3.286401
1237.000000;3.199944
1236.000000;3.398438
1235.000000;3.833290
1234.000000;3.462929
1233.000000;3.717361
1232.000000;3.173619
1231.000000;2.843991
1230.000000;2.746439
1229.000000;2.760917
1228.000000;2.873612
1227.000000;3.061798
1226.000000;3.424479
1225.000000;3.642953
1224.000000;3.220175
1223.000000;3.145343
1222.000000;3.101887
1221.000000;2.845569
1220.000000;2.669211
1219.000000;2.630732
1218.000000;2.720834
1217.000000;2.986697
1216.000000;2.949866
1215.000000;2.756764
1214.000000;2.741274
1213.000000;2.866810
1212.000000;3.158087
1211.000000;3.193586
1210.000000;2.880246
1209.000000;2.744286
1208.000000;2.717609
1207.000000;2.732118
1206.000000;2.727894
1205.000000;2.701426
1204.000000;2.716807
1203.000000;2.878595
1202.000000;3.342700
1201.000000;3.263130
1200.000000;2.919029
