Criado como novo conjunto de dados;"e0108.spp","-4235742.4 Secs"
cm-1;Abs
10000.000000;0.983750
9999.000000;0.983281
9998.000000;0.982105
9997.000000;0.980641
9996.000000;0.979543
9995.000000;0.979121
9994.000000;0.979319
9993.000000;0.979714
9992.000000;0.979987
9991.000000;0.979985
9990.000000;0.979651
9989.000000;0.979042
9988.000000;0.978502
9987.000000;0.978466
9986.000000;0.978943
9985.000000;0.979320
9984.000000;0.978886
9983.000000;0.977591
9982.000000;0.976175
9981.000000;0.975491
9980.000000;0.975703
9979.000000;0.976130
9978.000000;0.975860
9977.000000;0.974517
9976.000000;0.972494
9975.000000;0.970600
9974.000000;0.969571
9973.000000;0.969702
9972.000000;0.970638
9971.000000;0.971499
9970.000000;0.971529
9969.000000;0.970763
9968.000000;0.969894
9967.000000;0.969440
9966.000000;0.969312
9965.000000;0.969274
9964.000000;0.969443
9963.000000;0.970078
9962.000000;0.971059
9961.000000;0.971882
9960.000000;0.972064
9959.000000;0.971330
9958.000000;0.969557
9957.000000;0.966944
9956.000000;0.964210
9955.000000;0.962325
9954.000000;0.961868
9953.000000;0.962657
9952.000000;0.963927
9951.000000;0.964857
9950.000000;0.965066
9949.000000;0.964784
9948.000000;0.964473
9947.000000;0.964232
9946.000000;0.963779
9945.000000;0.963112
9944.000000;0.962822
9943.000000;0.963388
9942.000000;0.964322
9941.000000;0.964497
9940.000000;0.963377
9939.000000;0.961617
9938.000000;0.960328
9937.000000;0.960016
9936.000000;0.960326
9935.000000;0.960571
9934.000000;0.960363
9933.000000;0.959869
9932.000000;0.959551
9931.000000;0.959516
9930.000000;0.959207
9929.000000;0.958051
9928.000000;0.956381
9927.000000;0.955249
9926.000000;0.955242
9925.000000;0.955873
9924.000000;0.956272
9923.000000;0.956137
9922.000000;0.955726
9921.000000;0.955211
9920.000000;0.954528
9919.000000;0.953768
9918.000000;0.953275
9917.000000;0.953293
9916.000000;0.953803
9915.000000;0.954656
9914.000000;0.955584
9913.000000;0.956084
9912.000000;0.955631
9911.000000;0.954223
9910.000000;0.952489
9909.000000;0.951118
9908.000000;0.950335
9907.000000;0.949972
9906.000000;0.949773
9905.000000;0.949507
9904.000000;0.948986
9903.000000;0.948223
9902.000000;0.947452
9901.000000;0.946902
9900.000000;0.946640
9899.000000;0.946655
9898.000000;0.946835
9897.000000;0.946762
9896.000000;0.945898
9895.000000;0.944297
9894.000000;0.942911
9893.000000;0.942761
9892.000000;0.943899
9891.000000;0.945430
9890.000000;0.946467
9889.000000;0.946721
9888.000000;0.946286
9887.000000;0.945439
9886.000000;0.944739
9885.000000;0.944744
9884.000000;0.945362
9883.000000;0.945878
9882.000000;0.945838
9881.000000;0.945547
9880.000000;0.945362
9879.000000;0.944921
9878.000000;0.943553
9877.000000;0.941268
9876.000000;0.938849
9875.000000;0.937084
9874.000000;0.936258
9873.000000;0.936259
9872.000000;0.936731
9871.000000;0.937172
9870.000000;0.937257
9869.000000;0.937125
9868.000000;0.937085
9867.000000;0.937115
9866.000000;0.937028
9865.000000;0.936981
9864.000000;0.937314
9863.000000;0.937910
9862.000000;0.938240
9861.000000;0.938140
9860.000000;0.937987
9859.000000;0.937927
9858.000000;0.937454
9857.000000;0.936150
9856.000000;0.934497
9855.000000;0.933479
9854.000000;0.933531
9853.000000;0.934237
9852.000000;0.934974
9851.000000;0.935511
9850.000000;0.935940
9849.000000;0.936204
9848.000000;0.935824
9847.000000;0.934210
9846.000000;0.931425
9845.000000;0.928588
9844.000000;0.927196
9843.000000;0.927800
9842.000000;0.929425
9841.000000;0.930417
9840.000000;0.929857
9839.000000;0.928151
9838.000000;0.926475
9837.000000;0.925896
9836.000000;0.926785
9835.000000;0.928641
9834.000000;0.930351
9833.000000;0.930824
9832.000000;0.929684
9831.000000;0.927589
9830.000000;0.925895
9829.000000;0.925718
9828.000000;0.926969
9827.000000;0.928287
9826.000000;0.928266
9825.000000;0.926782
9824.000000;0.924895
9823.000000;0.923523
9822.000000;0.922688
9821.000000;0.922047
9820.000000;0.921532
9819.000000;0.921197
9818.000000;0.920909
9817.000000;0.920594
9816.000000;0.920435
9815.000000;0.920447
9814.000000;0.920195
9813.000000;0.919347
9812.000000;0.918270
9811.000000;0.917619
9810.000000;0.917541
9809.000000;0.917713
9808.000000;0.917963
9807.000000;0.918360
9806.000000;0.918815
9805.000000;0.919102
9804.000000;0.919251
9803.000000;0.919492
9802.000000;0.919762
9801.000000;0.919695
9800.000000;0.919122
9799.000000;0.918235
9798.000000;0.917297
9797.000000;0.916580
9796.000000;0.916503
9795.000000;0.917249
9794.000000;0.918137
9793.000000;0.917912
9792.000000;0.915956
9791.000000;0.912932
9790.000000;0.910122
9789.000000;0.908464
9788.000000;0.908202
9787.000000;0.908975
9786.000000;0.909989
9785.000000;0.910527
9784.000000;0.910567
9783.000000;0.910657
9782.000000;0.911022
9781.000000;0.911146
9780.000000;0.910460
9779.000000;0.909139
9778.000000;0.907927
9777.000000;0.907424
9776.000000;0.907742
9775.000000;0.908548
9774.000000;0.909191
9773.000000;0.909094
9772.000000;0.908367
9771.000000;0.907802
9770.000000;0.907902
9769.000000;0.908216
9768.000000;0.908022
9767.000000;0.907411
9766.000000;0.907110
9765.000000;0.907313
9764.000000;0.907334
9763.000000;0.906535
9762.000000;0.905155
9761.000000;0.903976
9760.000000;0.903526
9759.000000;0.903814
9758.000000;0.904570
9757.000000;0.905427
9756.000000;0.905996
9755.000000;0.906031
9754.000000;0.905564
9753.000000;0.904836
9752.000000;0.904110
9751.000000;0.903529
9750.000000;0.903034
9749.000000;0.902402
9748.000000;0.901478
9747.000000;0.900460
9746.000000;0.899814
9745.000000;0.899792
9744.000000;0.900067
9743.000000;0.899975
9742.000000;0.899189
9741.000000;0.898078
9740.000000;0.897323
9739.000000;0.897181
9738.000000;0.897270
9737.000000;0.897182
9736.000000;0.897144
9735.000000;0.897728
9734.000000;0.898888
9733.000000;0.899680
9732.000000;0.899284
9731.000000;0.898058
9730.000000;0.897137
9729.000000;0.897104
9728.000000;0.897484
9727.000000;0.897536
9726.000000;0.897083
9725.000000;0.896369
9724.000000;0.895453
9723.000000;0.894138
9722.000000;0.892365
9721.000000;0.890391
9720.000000;0.888625
9719.000000;0.887451
9718.000000;0.887108
9717.000000;0.887541
9716.000000;0.888388
9715.000000;0.889288
9714.000000;0.890183
9713.000000;0.891212
9712.000000;0.892307
9711.000000;0.893044
9710.000000;0.892947
9709.000000;0.891932
9708.000000;0.890483
9707.000000;0.889366
9706.000000;0.889070
9705.000000;0.889439
9704.000000;0.889918
9703.000000;0.890212
9702.000000;0.890581
9701.000000;0.891335
9700.000000;0.892186
9699.000000;0.892338
9698.000000;0.891286
9697.000000;0.889354
9696.000000;0.887417
9695.000000;0.886224
9694.000000;0.885949
9693.000000;0.886227
9692.000000;0.886547
9691.000000;0.886635
9690.000000;0.886453
9689.000000;0.885914
9688.000000;0.884800
9687.000000;0.883140
9686.000000;0.881509
9685.000000;0.880700
9684.000000;0.881053
9683.000000;0.882226
9682.000000;0.883553
9681.000000;0.884462
9680.000000;0.884622
9679.000000;0.884024
9678.000000;0.883076
9677.000000;0.882415
9676.000000;0.882419
9675.000000;0.882886
9674.000000;0.883211
9673.000000;0.882898
9672.000000;0.881944
9671.000000;0.880879
9670.000000;0.880368
9669.000000;0.880578
9668.000000;0.880904
9667.000000;0.880523
9666.000000;0.879249
9665.000000;0.877682
9664.000000;0.876477
9663.000000;0.875774
9662.000000;0.875419
9661.000000;0.875411
9660.000000;0.875786
9659.000000;0.876184
9658.000000;0.875955
9657.000000;0.874814
9656.000000;0.873244
9655.000000;0.872130
9654.000000;0.872004
9653.000000;0.872589
9652.000000;0.873012
9651.000000;0.872517
9650.000000;0.871117
9649.000000;0.869587
9648.000000;0.868819
9647.000000;0.869168
9646.000000;0.870323
9645.000000;0.871592
9644.000000;0.872348
9643.000000;0.872402
9642.000000;0.872085
9641.000000;0.871900
9640.000000;0.872038
9639.000000;0.872288
9638.000000;0.872391
9637.000000;0.872260
9636.000000;0.871817
9635.000000;0.870919
9634.000000;0.869656
9633.000000;0.868522
9632.000000;0.868045
9631.000000;0.868324
9630.000000;0.869051
9629.000000;0.869806
9628.000000;0.870177
9627.000000;0.869836
9626.000000;0.868859
9625.000000;0.867834
9624.000000;0.867272
9623.000000;0.866971
9622.000000;0.866302
9621.000000;0.865147
9620.000000;0.864149
9619.000000;0.863885
9618.000000;0.864159
9617.000000;0.864308
9616.000000;0.863971
9615.000000;0.863317
9614.000000;0.862661
9613.000000;0.862099
9612.000000;0.861550
9611.000000;0.861003
9610.000000;0.860624
9609.000000;0.860566
9608.000000;0.860695
9607.000000;0.860626
9606.000000;0.860174
9605.000000;0.859688
9604.000000;0.859752
9603.000000;0.860519
9602.000000;0.861464
9601.000000;0.861807
9600.000000;0.861155
9599.000000;0.859804
9598.000000;0.858509
9597.000000;0.857873
9596.000000;0.857804
9595.000000;0.857679
9594.000000;0.857146
9593.000000;0.856617
9592.000000;0.856721
9591.000000;0.857432
9590.000000;0.858092
9589.000000;0.858203
9588.000000;0.857820
9587.000000;0.857160
9586.000000;0.856288
9585.000000;0.855322
9584.000000;0.854552
9583.000000;0.854162
9582.000000;0.854099
9581.000000;0.854314
9580.000000;0.854837
9579.000000;0.855447
9578.000000;0.855632
9577.000000;0.855151
9576.000000;0.854366
9575.000000;0.853777
9574.000000;0.853475
9573.000000;0.853273
9572.000000;0.853072
9571.000000;0.852770
9570.000000;0.852065
9569.000000;0.850789
9568.000000;0.849344
9567.000000;0.848400
9566.000000;0.848205
9565.000000;0.848496
9564.000000;0.849055
9563.000000;0.849955
9562.000000;0.851136
9561.000000;0.852069
9560.000000;0.852124
9559.000000;0.851227
9558.000000;0.850014
9557.000000;0.849307
9556.000000;0.849415
9555.000000;0.849884
9554.000000;0.849883
9553.000000;0.848925
9552.000000;0.847222
9551.000000;0.845418
9550.000000;0.844119
9549.000000;0.843661
9548.000000;0.844061
9547.000000;0.844980
9546.000000;0.845856
9545.000000;0.846234
9544.000000;0.845956
9543.000000;0.845067
9542.000000;0.843760
9541.000000;0.842512
9540.000000;0.841939
9539.000000;0.842221
9538.000000;0.842861
9537.000000;0.843259
9536.000000;0.843383
9535.000000;0.843539
9534.000000;0.843647
9533.000000;0.843196
9532.000000;0.841956
9531.000000;0.840336
9530.000000;0.838951
9529.000000;0.838151
9528.000000;0.838019
9527.000000;0.838494
9526.000000;0.839305
9525.000000;0.840040
9524.000000;0.840450
9523.000000;0.840522
9522.000000;0.840200
9521.000000;0.839343
9520.000000;0.838127
9519.000000;0.837179
9518.000000;0.837033
9517.000000;0.837570
9516.000000;0.838246
9515.000000;0.838719
9514.000000;0.838962
9513.000000;0.838898
9512.000000;0.838323
9511.000000;0.837301
9510.000000;0.836337
9509.000000;0.835967
9508.000000;0.836255
9507.000000;0.836757
9506.000000;0.836926
9505.000000;0.836513
9504.000000;0.835711
9503.000000;0.834985
9502.000000;0.834705
9501.000000;0.834884
9500.000000;0.835271
9499.000000;0.835668
9498.000000;0.836008
9497.000000;0.836117
9496.000000;0.835642
9495.000000;0.834456
9494.000000;0.833005
9493.000000;0.831994
9492.000000;0.831667
9491.000000;0.831605
9490.000000;0.831250
9489.000000;0.830507
9488.000000;0.829723
9487.000000;0.829258
9486.000000;0.829219
9485.000000;0.829495
9484.000000;0.829870
9483.000000;0.830121
9482.000000;0.830183
9481.000000;0.830188
9480.000000;0.830233
9479.000000;0.830148
9478.000000;0.829662
9477.000000;0.828813
9476.000000;0.828026
9475.000000;0.827735
9474.000000;0.827983
9473.000000;0.828419
9472.000000;0.828570
9471.000000;0.828140
9470.000000;0.827216
9469.000000;0.826250
9468.000000;0.825718
9467.000000;0.825719
9466.000000;0.825966
9465.000000;0.826138
9464.000000;0.826108
9463.000000;0.825850
9462.000000;0.825367
9461.000000;0.824813
9460.000000;0.824466
9459.000000;0.824418
9458.000000;0.824462
9457.000000;0.824421
9456.000000;0.824482
9455.000000;0.824978
9454.000000;0.825917
9453.000000;0.826891
9452.000000;0.827409
9451.000000;0.827200
9450.000000;0.826297
9449.000000;0.825022
9448.000000;0.823907
9447.000000;0.823428
9446.000000;0.823665
9445.000000;0.824277
9444.000000;0.824835
9443.000000;0.825160
9442.000000;0.825293
9441.000000;0.825214
9440.000000;0.824693
9439.000000;0.823529
9438.000000;0.821978
9437.000000;0.820774
9436.000000;0.820470
9435.000000;0.820770
9434.000000;0.820797
9433.000000;0.820110
9432.000000;0.819210
9431.000000;0.818850
9430.000000;0.819146
9429.000000;0.819636
9428.000000;0.819994
9427.000000;0.820246
9426.000000;0.820371
9425.000000;0.820140
9424.000000;0.819475
9423.000000;0.818630
9422.000000;0.817844
9421.000000;0.817092
9420.000000;0.816363
9419.000000;0.815916
9418.000000;0.815964
9417.000000;0.816258
9416.000000;0.816292
9415.000000;0.815913
9414.000000;0.815443
9413.000000;0.815139
9412.000000;0.814812
9411.000000;0.814120
9410.000000;0.813088
9409.000000;0.812129
9408.000000;0.811620
9407.000000;0.811674
9406.000000;0.812291
9405.000000;0.813462
9404.000000;0.814986
9403.000000;0.816337
9402.000000;0.816947
9401.000000;0.816609
9400.000000;0.815545
9399.000000;0.814201
9398.000000;0.813087
9397.000000;0.812623
9396.000000;0.812830
9395.000000;0.813181
9394.000000;0.813104
9393.000000;0.812662
9392.000000;0.812418
9391.000000;0.812582
9390.000000;0.812693
9389.000000;0.812311
9388.000000;0.811587
9387.000000;0.810887
9386.000000;0.810243
9385.000000;0.809552
9384.000000;0.809036
9383.000000;0.808988
9382.000000;0.809287
9381.000000;0.809625
9380.000000;0.810059
9379.000000;0.810774
9378.000000;0.811378
9377.000000;0.811126
9376.000000;0.809974
9375.000000;0.808845
9374.000000;0.808560
9373.000000;0.808982
9372.000000;0.809447
9371.000000;0.809579
9370.000000;0.809333
9369.000000;0.808680
9368.000000;0.807718
9367.000000;0.806818
9366.000000;0.806213
9365.000000;0.805653
9364.000000;0.804877
9363.000000;0.804189
9362.000000;0.804080
9361.000000;0.804434
9360.000000;0.804675
9359.000000;0.804635
9358.000000;0.804675
9357.000000;0.804860
9356.000000;0.804659
9355.000000;0.803765
9354.000000;0.802746
9353.000000;0.802441
9352.000000;0.802988
9351.000000;0.803805
9350.000000;0.804301
9349.000000;0.804281
9348.000000;0.803848
9347.000000;0.803319
9346.000000;0.803141
9345.000000;0.803499
9344.000000;0.803966
9343.000000;0.803890
9342.000000;0.803205
9341.000000;0.802559
9340.000000;0.802561
9339.000000;0.803156
9338.000000;0.803840
9337.000000;0.804224
9336.000000;0.804162
9335.000000;0.803572
9334.000000;0.802477
9333.000000;0.801195
9332.000000;0.800210
9331.000000;0.799738
9330.000000;0.799533
9329.000000;0.799196
9328.000000;0.798599
9327.000000;0.797941
9326.000000;0.797473
9325.000000;0.797294
9324.000000;0.797403
9323.000000;0.797811
9322.000000;0.798470
9321.000000;0.799120
9320.000000;0.799369
9319.000000;0.799043
9318.000000;0.798388
9317.000000;0.797812
9316.000000;0.797463
9315.000000;0.797181
9314.000000;0.796828
9313.000000;0.796489
9312.000000;0.796333
9311.000000;0.796406
9310.000000;0.796613
9309.000000;0.796766
9308.000000;0.796597
9307.000000;0.795923
9306.000000;0.794938
9305.000000;0.794205
9304.000000;0.794157
9303.000000;0.794653
9302.000000;0.795179
9301.000000;0.795389
9300.000000;0.795292
9299.000000;0.795011
9298.000000;0.794630
9297.000000;0.794293
9296.000000;0.794193
9295.000000;0.794351
9294.000000;0.794558
9293.000000;0.794584
9292.000000;0.794371
9291.000000;0.793994
9290.000000;0.793572
9289.000000;0.793200
9288.000000;0.792850
9287.000000;0.792338
9286.000000;0.791580
9285.000000;0.790833
9284.000000;0.790463
9283.000000;0.790458
9282.000000;0.790438
9281.000000;0.790215
9280.000000;0.790028
9279.000000;0.790070
9278.000000;0.790134
9277.000000;0.789986
9276.000000;0.789851
9275.000000;0.790161
9274.000000;0.790944
9273.000000;0.791787
9272.000000;0.792315
9271.000000;0.792409
9270.000000;0.792035
9269.000000;0.791214
9268.000000;0.790193
9267.000000;0.789292
9266.000000;0.788545
9265.000000;0.787767
9264.000000;0.787048
9263.000000;0.786837
9262.000000;0.787351
9261.000000;0.788233
9260.000000;0.788979
9259.000000;0.789490
9258.000000;0.789900
9257.000000;0.790079
9256.000000;0.789707
9255.000000;0.788806
9254.000000;0.787875
9253.000000;0.787371
9252.000000;0.787255
9251.000000;0.787123
9250.000000;0.786621
9249.000000;0.785686
9248.000000;0.784498
9247.000000;0.783385
9246.000000;0.782732
9245.000000;0.782836
9244.000000;0.783699
9243.000000;0.784891
9242.000000;0.785716
9241.000000;0.785704
9240.000000;0.785046
9239.000000;0.784430
9238.000000;0.784392
9237.000000;0.784877
9236.000000;0.785499
9235.000000;0.786023
9234.000000;0.786403
9233.000000;0.786478
9232.000000;0.785969
9231.000000;0.784882
9230.000000;0.783674
9229.000000;0.782888
9228.000000;0.782701
9227.000000;0.782896
9226.000000;0.783114
9225.000000;0.783093
9224.000000;0.782837
9223.000000;0.782687
9222.000000;0.783035
9221.000000;0.783818
9220.000000;0.784455
9219.000000;0.784476
9218.000000;0.784080
9217.000000;0.783820
9216.000000;0.783872
9215.000000;0.783872
9214.000000;0.783440
9213.000000;0.782533
9212.000000;0.781323
9211.000000;0.780058
9210.000000;0.779132
9209.000000;0.778928
9208.000000;0.779401
9207.000000;0.780031
9206.000000;0.780380
9205.000000;0.780501
9204.000000;0.780600
9203.000000;0.780576
9202.000000;0.780185
9201.000000;0.779471
9200.000000;0.778733
9199.000000;0.778147
9198.000000;0.777744
9197.000000;0.777643
9196.000000;0.777959
9195.000000;0.778511
9194.000000;0.778965
9193.000000;0.779267
9192.000000;0.779608
9191.000000;0.779932
9190.000000;0.779897
9189.000000;0.779453
9188.000000;0.779085
9187.000000;0.779198
9186.000000;0.779534
9185.000000;0.779505
9184.000000;0.778921
9183.000000;0.778107
9182.000000;0.777402
9181.000000;0.776851
9180.000000;0.776354
9179.000000;0.775888
9178.000000;0.775523
9177.000000;0.775369
9176.000000;0.775485
9175.000000;0.775731
9174.000000;0.775783
9173.000000;0.775444
9172.000000;0.774882
9171.000000;0.774409
9170.000000;0.774084
9169.000000;0.773714
9168.000000;0.773203
9167.000000;0.772716
9166.000000;0.772466
9165.000000;0.772488
9164.000000;0.772665
9163.000000;0.772838
9162.000000;0.772905
9161.000000;0.772916
9160.000000;0.773049
9159.000000;0.773392
9158.000000;0.773803
9157.000000;0.774078
9156.000000;0.774167
9155.000000;0.774056
9154.000000;0.773615
9153.000000;0.772866
9152.000000;0.772301
9151.000000;0.772511
9150.000000;0.773399
9149.000000;0.774110
9148.000000;0.773958
9147.000000;0.773135
9146.000000;0.772302
9145.000000;0.771813
9144.000000;0.771627
9143.000000;0.771677
9142.000000;0.771857
9141.000000;0.771836
9140.000000;0.771354
9139.000000;0.770717
9138.000000;0.770547
9137.000000;0.770958
9136.000000;0.771386
9135.000000;0.771376
9134.000000;0.771167
9133.000000;0.771233
9132.000000;0.771578
9131.000000;0.771828
9130.000000;0.771817
9129.000000;0.771715
9128.000000;0.771638
9127.000000;0.771485
9126.000000;0.771192
9125.000000;0.770864
9124.000000;0.770592
9123.000000;0.770334
9122.000000;0.770068
9121.000000;0.769858
9120.000000;0.769703
9119.000000;0.769452
9118.000000;0.769011
9117.000000;0.768518
9116.000000;0.768213
9115.000000;0.768193
9114.000000;0.768361
9113.000000;0.768535
9112.000000;0.768558
9111.000000;0.768371
9110.000000;0.768051
9109.000000;0.767720
9108.000000;0.767385
9107.000000;0.766956
9106.000000;0.766455
9105.000000;0.766099
9104.000000;0.766075
9103.000000;0.766354
9102.000000;0.766799
9101.000000;0.767377
9100.000000;0.768096
9099.000000;0.768793
9098.000000;0.769124
9097.000000;0.768819
9096.000000;0.767914
9095.000000;0.766776
9094.000000;0.765905
9093.000000;0.765614
9092.000000;0.765794
9091.000000;0.766031
9090.000000;0.766022
9089.000000;0.765815
9088.000000;0.765586
9087.000000;0.765375
9086.000000;0.765196
9085.000000;0.765234
9084.000000;0.765618
9083.000000;0.766049
9082.000000;0.765985
9081.000000;0.765299
9080.000000;0.764506
9079.000000;0.764185
9078.000000;0.764401
9077.000000;0.764830
9076.000000;0.765240
9075.000000;0.765601
9074.000000;0.765825
9073.000000;0.765683
9072.000000;0.765051
9071.000000;0.764112
9070.000000;0.763283
9069.000000;0.762949
9068.000000;0.763204
9067.000000;0.763758
9066.000000;0.764170
9065.000000;0.764241
9064.000000;0.764142
9063.000000;0.764076
9062.000000;0.763951
9061.000000;0.763545
9060.000000;0.762928
9059.000000;0.762494
9058.000000;0.762543
9057.000000;0.762974
9056.000000;0.763424
9055.000000;0.763564
9054.000000;0.763227
9053.000000;0.762457
9052.000000;0.761558
9051.000000;0.761000
9050.000000;0.761039
9049.000000;0.761423
9048.000000;0.761560
9047.000000;0.761092
9046.000000;0.760279
9045.000000;0.759794
9044.000000;0.760093
9043.000000;0.760954
9042.000000;0.761645
9041.000000;0.761607
9040.000000;0.760999
9039.000000;0.760506
9038.000000;0.760608
9037.000000;0.761121
9036.000000;0.761499
9035.000000;0.761477
9034.000000;0.761271
9033.000000;0.761195
9032.000000;0.761273
9031.000000;0.761291
9030.000000;0.761109
9029.000000;0.760797
9028.000000;0.760496
9027.000000;0.760249
9026.000000;0.759954
9025.000000;0.759434
9024.000000;0.758586
9023.000000;0.757560
9022.000000;0.756812
9021.000000;0.756844
9020.000000;0.757754
9019.000000;0.759046
9018.000000;0.759988
9017.000000;0.760229
9016.000000;0.760044
9015.000000;0.759937
9014.000000;0.760042
9013.000000;0.760004
9012.000000;0.759461
9011.000000;0.758531
9010.000000;0.757740
9009.000000;0.757532
9008.000000;0.757963
9007.000000;0.758854
9006.000000;0.759989
9005.000000;0.761078
9004.000000;0.761709
9003.000000;0.761605
9002.000000;0.760926
9001.000000;0.760129
9000.000000;0.759473
8999.000000;0.758850
8998.000000;0.758145
8997.000000;0.757536
8996.000000;0.757276
8995.000000;0.757316
8994.000000;0.757392
8993.000000;0.757442
8992.000000;0.757699
8991.000000;0.758302
8990.000000;0.758962
8989.000000;0.759196
8988.000000;0.758848
8987.000000;0.758210
8986.000000;0.757592
8985.000000;0.756928
8984.000000;0.755957
8983.000000;0.754754
8982.000000;0.753874
8981.000000;0.753864
8980.000000;0.754730
8979.000000;0.756010
8978.000000;0.757239
8977.000000;0.758168
8976.000000;0.758655
8975.000000;0.758654
8974.000000;0.758353
8973.000000;0.758079
8972.000000;0.757921
8971.000000;0.757659
8970.000000;0.757184
8969.000000;0.756751
8968.000000;0.756587
8967.000000;0.756473
8966.000000;0.756025
8965.000000;0.755309
8964.000000;0.754839
8963.000000;0.754939
8962.000000;0.755382
8961.000000;0.755706
8960.000000;0.755672
8959.000000;0.755336
8958.000000;0.754962
8957.000000;0.754962
8956.000000;0.755650
8955.000000;0.756785
8954.000000;0.757532
8953.000000;0.757170
8952.000000;0.755871
8951.000000;0.754583
8950.000000;0.754113
8949.000000;0.754484
8948.000000;0.755174
8947.000000;0.755749
8946.000000;0.756096
8945.000000;0.756185
8944.000000;0.755916
8943.000000;0.755305
8942.000000;0.754673
8941.000000;0.754465
8940.000000;0.754849
8939.000000;0.755541
8938.000000;0.756054
8937.000000;0.756083
8936.000000;0.755714
8935.000000;0.755346
8934.000000;0.755361
8933.000000;0.755736
8932.000000;0.755974
8931.000000;0.755582
8930.000000;0.754651
8929.000000;0.753831
8928.000000;0.753636
8927.000000;0.753939
8926.000000;0.754230
8925.000000;0.754201
8924.000000;0.753924
8923.000000;0.753624
8922.000000;0.753511
8921.000000;0.753742
8920.000000;0.754301
8919.000000;0.754904
8918.000000;0.755204
8917.000000;0.755110
8916.000000;0.754774
8915.000000;0.754320
8914.000000;0.753748
8913.000000;0.753088
8912.000000;0.752445
8911.000000;0.751908
8910.000000;0.751551
8909.000000;0.751518
8908.000000;0.751903
8907.000000;0.752568
8906.000000;0.753265
8905.000000;0.753925
8904.000000;0.754601
8903.000000;0.755149
8902.000000;0.755260
8901.000000;0.754859
8900.000000;0.754234
8899.000000;0.753662
8898.000000;0.753158
8897.000000;0.752724
8896.000000;0.752563
8895.000000;0.752821
8894.000000;0.753264
8893.000000;0.753443
8892.000000;0.753149
8891.000000;0.752565
8890.000000;0.752042
8889.000000;0.751815
8888.000000;0.751856
8887.000000;0.751930
8886.000000;0.751886
8885.000000;0.751946
8884.000000;0.752491
8883.000000;0.753492
8882.000000;0.754361
8881.000000;0.754576
8880.000000;0.754240
8879.000000;0.753779
8878.000000;0.753304
8877.000000;0.752648
8876.000000;0.751937
8875.000000;0.751675
8874.000000;0.752122
8873.000000;0.752914
8872.000000;0.753507
8871.000000;0.753782
8870.000000;0.753975
8869.000000;0.754153
8868.000000;0.754055
8867.000000;0.753513
8866.000000;0.752833
8865.000000;0.752592
8864.000000;0.753081
8863.000000;0.754010
8862.000000;0.754775
8861.000000;0.754998
8860.000000;0.754800
8859.000000;0.754607
8858.000000;0.754719
8857.000000;0.755056
8856.000000;0.755252
8855.000000;0.754987
8854.000000;0.754275
8853.000000;0.753454
8852.000000;0.752863
8851.000000;0.752529
8850.000000;0.752230
8849.000000;0.751827
8848.000000;0.751445
8847.000000;0.751304
8846.000000;0.751466
8845.000000;0.751819
8844.000000;0.752232
8843.000000;0.752667
8842.000000;0.753170
8841.000000;0.753806
8840.000000;0.754541
8839.000000;0.755186
8838.000000;0.755520
8837.000000;0.755523
8836.000000;0.755386
8835.000000;0.755287
8834.000000;0.755222
8833.000000;0.755091
8832.000000;0.754848
8831.000000;0.754498
8830.000000;0.754077
8829.000000;0.753723
8828.000000;0.753655
8827.000000;0.753940
8826.000000;0.754350
8825.000000;0.754584
8824.000000;0.754584
8823.000000;0.754524
8822.000000;0.754512
8821.000000;0.754490
8820.000000;0.754399
8819.000000;0.754322
8818.000000;0.754369
8817.000000;0.754530
8816.000000;0.754699
8815.000000;0.754827
8814.000000;0.754994
8813.000000;0.755319
8812.000000;0.755787
8811.000000;0.756165
8810.000000;0.756149
8809.000000;0.755660
8808.000000;0.754998
8807.000000;0.754674
8806.000000;0.755048
8805.000000;0.756051
8804.000000;0.757171
8803.000000;0.757774
8802.000000;0.757630
8801.000000;0.757204
8800.000000;0.757243
8799.000000;0.757983
8798.000000;0.758890
8797.000000;0.759317
8796.000000;0.759229
8795.000000;0.759058
8794.000000;0.758984
8793.000000;0.758723
8792.000000;0.758096
8791.000000;0.757463
8790.000000;0.757340
8789.000000;0.757743
8788.000000;0.758163
8787.000000;0.758142
8786.000000;0.757705
8785.000000;0.757232
8784.000000;0.757075
8783.000000;0.757365
8782.000000;0.758024
8781.000000;0.758821
8780.000000;0.759464
8779.000000;0.759766
8778.000000;0.759753
8777.000000;0.759571
8776.000000;0.759337
8775.000000;0.759116
8774.000000;0.758993
8773.000000;0.759066
8772.000000;0.759336
8771.000000;0.759707
8770.000000;0.760089
8769.000000;0.760443
8768.000000;0.760699
8767.000000;0.760761
8766.000000;0.760635
8765.000000;0.760465
8764.000000;0.760378
8763.000000;0.760417
8762.000000;0.760650
8761.000000;0.761196
8760.000000;0.762007
8759.000000;0.762781
8758.000000;0.763292
8757.000000;0.763692
8756.000000;0.764259
8755.000000;0.764948
8754.000000;0.765447
8753.000000;0.765632
8752.000000;0.765690
8751.000000;0.765771
8750.000000;0.765806
8749.000000;0.765751
8748.000000;0.765741
8747.000000;0.765876
8746.000000;0.766040
8745.000000;0.766081
8744.000000;0.765975
8743.000000;0.765737
8742.000000;0.765355
8741.000000;0.764960
8740.000000;0.764819
8739.000000;0.765004
8738.000000;0.765230
8737.000000;0.765224
8736.000000;0.765114
8735.000000;0.765256
8734.000000;0.765776
8733.000000;0.766451
8732.000000;0.766938
8731.000000;0.766975
8730.000000;0.766531
8729.000000;0.765982
8728.000000;0.765971
8727.000000;0.766822
8726.000000;0.768140
8725.000000;0.769234
8724.000000;0.769871
8723.000000;0.770343
8722.000000;0.770825
8721.000000;0.771067
8720.000000;0.770808
8719.000000;0.770213
8718.000000;0.769707
8717.000000;0.769587
8716.000000;0.769941
8715.000000;0.770743
8714.000000;0.771774
8713.000000;0.772566
8712.000000;0.772699
8711.000000;0.772232
8710.000000;0.771672
8709.000000;0.771437
8708.000000;0.771443
8707.000000;0.771328
8706.000000;0.771015
8705.000000;0.770864
8704.000000;0.771227
8703.000000;0.772024
8702.000000;0.772882
8701.000000;0.773565
8700.000000;0.774079
8699.000000;0.774421
8698.000000;0.774506
8697.000000;0.774360
8696.000000;0.774160
8695.000000;0.773975
8694.000000;0.773714
8693.000000;0.773446
8692.000000;0.773513
8691.000000;0.774060
8690.000000;0.774702
8689.000000;0.774954
8688.000000;0.774903
8687.000000;0.775104
8686.000000;0.775805
8685.000000;0.776590
8684.000000;0.776868
8683.000000;0.776498
8682.000000;0.775850
8681.000000;0.775452
8680.000000;0.775656
8679.000000;0.776466
8678.000000;0.777538
8677.000000;0.778411
8676.000000;0.778852
8675.000000;0.778943
8674.000000;0.778856
8673.000000;0.778628
8672.000000;0.778222
8671.000000;0.777677
8670.000000;0.777133
8669.000000;0.776735
8668.000000;0.776575
8667.000000;0.776671
8666.000000;0.776981
8665.000000;0.777438
8664.000000;0.777971
8663.000000;0.778468
8662.000000;0.778801
8661.000000;0.778939
8660.000000;0.778993
8659.000000;0.779086
8658.000000;0.779216
8657.000000;0.779346
8656.000000;0.779551
8655.000000;0.779931
8654.000000;0.780394
8653.000000;0.780657
8652.000000;0.780497
8651.000000;0.779924
8650.000000;0.779149
8649.000000;0.778483
8648.000000;0.778219
8647.000000;0.778453
8646.000000;0.779001
8645.000000;0.779568
8644.000000;0.779998
8643.000000;0.780269
8642.000000;0.780325
8641.000000;0.780064
8640.000000;0.779539
8639.000000;0.779019
8638.000000;0.778792
8637.000000;0.778948
8636.000000;0.779337
8635.000000;0.779693
8634.000000;0.779854
8633.000000;0.779959
8632.000000;0.780341
8631.000000;0.781089
8630.000000;0.781804
8629.000000;0.781992
8628.000000;0.781635
8627.000000;0.781182
8626.000000;0.780979
8625.000000;0.780941
8624.000000;0.780812
8623.000000;0.780533
8622.000000;0.780263
8621.000000;0.780202
8620.000000;0.780482
8619.000000;0.781092
8618.000000;0.781841
8617.000000;0.782478
8616.000000;0.782901
8615.000000;0.783161
8614.000000;0.783254
8613.000000;0.783076
8612.000000;0.782603
8611.000000;0.781986
8610.000000;0.781413
8609.000000;0.781021
8608.000000;0.780942
8607.000000;0.781243
8606.000000;0.781776
8605.000000;0.782265
8604.000000;0.782630
8603.000000;0.783039
8602.000000;0.783533
8601.000000;0.783858
8600.000000;0.783807
8599.000000;0.783573
8598.000000;0.783524
8597.000000;0.783747
8596.000000;0.783987
8595.000000;0.783986
8594.000000;0.783733
8593.000000;0.783405
8592.000000;0.783208
8591.000000;0.783243
8590.000000;0.783431
8589.000000;0.783590
8588.000000;0.783626
8587.000000;0.783607
8586.000000;0.783608
8585.000000;0.783605
8584.000000;0.783572
8583.000000;0.783568
8582.000000;0.783622
8581.000000;0.783639
8580.000000;0.783523
8579.000000;0.783321
8578.000000;0.783131
8577.000000;0.782967
8576.000000;0.782831
8575.000000;0.782812
8574.000000;0.782983
8573.000000;0.783241
8572.000000;0.783406
8571.000000;0.783411
8570.000000;0.783306
8569.000000;0.783149
8568.000000;0.783031
8567.000000;0.783090
8566.000000;0.783330
8565.000000;0.783474
8564.000000;0.783237
8563.000000;0.782732
8562.000000;0.782409
8561.000000;0.782550
8560.000000;0.783000
8559.000000;0.783422
8558.000000;0.783632
8557.000000;0.783601
8556.000000;0.783312
8555.000000;0.782823
8554.000000;0.782402
8553.000000;0.782401
8552.000000;0.782927
8551.000000;0.783691
8550.000000;0.784243
8549.000000;0.784346
8548.000000;0.784144
8547.000000;0.783966
8546.000000;0.783975
8545.000000;0.784044
8544.000000;0.783979
8543.000000;0.783817
8542.000000;0.783830
8541.000000;0.784207
8540.000000;0.784814
8539.000000;0.785292
8538.000000;0.785371
8537.000000;0.785065
8536.000000;0.784593
8535.000000;0.784178
8534.000000;0.783927
8533.000000;0.783857
8532.000000;0.783932
8531.000000;0.784064
8530.000000;0.784126
8529.000000;0.784032
8528.000000;0.783787
8527.000000;0.783444
8526.000000;0.783078
8525.000000;0.782865
8524.000000;0.783096
8523.000000;0.783908
8522.000000;0.784982
8521.000000;0.785713
8520.000000;0.785799
8519.000000;0.785542
8518.000000;0.785407
8517.000000;0.785408
8516.000000;0.785140
8515.000000;0.784383
8514.000000;0.783464
8513.000000;0.782916
8512.000000;0.782921
8511.000000;0.783203
8510.000000;0.783411
8509.000000;0.783464
8508.000000;0.783502
8507.000000;0.783641
8506.000000;0.783880
8505.000000;0.784201
8504.000000;0.784611
8503.000000;0.785021
8502.000000;0.785186
8501.000000;0.784947
8500.000000;0.784507
8499.000000;0.784314
8498.000000;0.784599
8497.000000;0.785121
8496.000000;0.785453
8495.000000;0.785417
8494.000000;0.785168
8493.000000;0.784937
8492.000000;0.784831
8491.000000;0.784847
8490.000000;0.784920
8489.000000;0.784935
8488.000000;0.784772
8487.000000;0.784417
8486.000000;0.784007
8485.000000;0.783719
8484.000000;0.783619
8483.000000;0.783639
8482.000000;0.783681
8481.000000;0.783754
8480.000000;0.783970
8479.000000;0.784387
8478.000000;0.784859
8477.000000;0.785130
8476.000000;0.785111
8475.000000;0.784989
8474.000000;0.785021
8473.000000;0.785251
8472.000000;0.785466
8471.000000;0.785415
8470.000000;0.785043
8469.000000;0.784554
8468.000000;0.784269
8467.000000;0.784368
8466.000000;0.784731
8465.000000;0.785091
8464.000000;0.785346
8463.000000;0.785595
8462.000000;0.785840
8461.000000;0.785846
8460.000000;0.785448
8459.000000;0.784887
8458.000000;0.784611
8457.000000;0.784770
8456.000000;0.785078
8455.000000;0.785194
8454.000000;0.785041
8453.000000;0.784732
8452.000000;0.784398
8451.000000;0.784208
8450.000000;0.784385
8449.000000;0.784970
8448.000000;0.785610
8447.000000;0.785801
8446.000000;0.785407
8445.000000;0.784859
8444.000000;0.784737
8443.000000;0.785205
8442.000000;0.785928
8441.000000;0.786464
8440.000000;0.786631
8439.000000;0.786484
8438.000000;0.786121
8437.000000;0.785637
8436.000000;0.785208
8435.000000;0.785030
8434.000000;0.785140
8433.000000;0.785396
8432.000000;0.785651
8431.000000;0.785861
8430.000000;0.786003
8429.000000;0.786010
8428.000000;0.785862
8427.000000;0.785614
8426.000000;0.785281
8425.000000;0.784827
8424.000000;0.784377
8423.000000;0.784254
8422.000000;0.784626
8421.000000;0.785230
8420.000000;0.785654
8419.000000;0.785832
8418.000000;0.786018
8417.000000;0.786331
8416.000000;0.786576
8415.000000;0.786570
8414.000000;0.786379
8413.000000;0.786149
8412.000000;0.785943
8411.000000;0.785858
8410.000000;0.786085
8409.000000;0.786603
8408.000000;0.787015
8407.000000;0.786927
8406.000000;0.786473
8405.000000;0.786229
8404.000000;0.786597
8403.000000;0.787403
8402.000000;0.788136
8401.000000;0.788431
8400.000000;0.788290
8399.000000;0.787940
8398.000000;0.787590
8397.000000;0.787300
8396.000000;0.787055
8395.000000;0.786926
8394.000000;0.787076
8393.000000;0.787541
8392.000000;0.788079
8391.000000;0.788355
8390.000000;0.788275
8389.000000;0.788033
8388.000000;0.787846
8387.000000;0.787754
8386.000000;0.787713
8385.000000;0.787704
8384.000000;0.787671
8383.000000;0.787480
8382.000000;0.787100
8381.000000;0.786771
8380.000000;0.786811
8379.000000;0.787219
8378.000000;0.787608
8377.000000;0.787642
8376.000000;0.787437
8375.000000;0.787412
8374.000000;0.787749
8373.000000;0.788146
8372.000000;0.788160
8371.000000;0.787694
8370.000000;0.787083
8369.000000;0.786737
8368.000000;0.786798
8367.000000;0.787151
8366.000000;0.787623
8365.000000;0.788113
8364.000000;0.788559
8363.000000;0.788872
8362.000000;0.788935
8361.000000;0.788683
8360.000000;0.788214
8359.000000;0.787790
8358.000000;0.787633
8357.000000;0.787684
8356.000000;0.787672
8355.000000;0.787477
8354.000000;0.787327
8353.000000;0.787487
8352.000000;0.787866
8351.000000;0.788109
8350.000000;0.788106
8349.000000;0.788148
8348.000000;0.788489
8347.000000;0.788941
8346.000000;0.789106
8345.000000;0.788896
8344.000000;0.788592
8343.000000;0.788412
8342.000000;0.788257
8341.000000;0.787945
8340.000000;0.787521
8339.000000;0.787219
8338.000000;0.787239
8337.000000;0.787655
8336.000000;0.788404
8335.000000;0.789216
8334.000000;0.789661
8333.000000;0.789464
8332.000000;0.788799
8331.000000;0.788127
8330.000000;0.787762
8329.000000;0.787707
8328.000000;0.787878
8327.000000;0.788260
8326.000000;0.788767
8325.000000;0.789167
8324.000000;0.789289
8323.000000;0.789219
8322.000000;0.789159
8321.000000;0.789179
8320.000000;0.789230
8319.000000;0.789315
8318.000000;0.789464
8317.000000;0.789594
8316.000000;0.789593
8315.000000;0.789535
8314.000000;0.789616
8313.000000;0.789823
8312.000000;0.789882
8311.000000;0.789654
8310.000000;0.789379
8309.000000;0.789365
8308.000000;0.789541
8307.000000;0.789566
8306.000000;0.789317
8305.000000;0.789051
8304.000000;0.789033
8303.000000;0.789184
8302.000000;0.789214
8301.000000;0.788989
8300.000000;0.788660
8299.000000;0.788468
8298.000000;0.788531
8297.000000;0.788788
8296.000000;0.789093
8295.000000;0.789314
8294.000000;0.789380
8293.000000;0.789286
8292.000000;0.789103
8291.000000;0.788999
8290.000000;0.789166
8289.000000;0.789618
8288.000000;0.790084
8287.000000;0.790222
8286.000000;0.789986
8285.000000;0.789675
8284.000000;0.789581
8283.000000;0.789685
8282.000000;0.789806
8281.000000;0.789921
8280.000000;0.790156
8279.000000;0.790486
8278.000000;0.790650
8277.000000;0.790420
8276.000000;0.789852
8275.000000;0.789209
8274.000000;0.788746
8273.000000;0.788608
8272.000000;0.788820
8271.000000;0.789242
8270.000000;0.789601
8269.000000;0.789690
8268.000000;0.789557
8267.000000;0.789445
8266.000000;0.789532
8265.000000;0.789788
8264.000000;0.790068
8263.000000;0.790272
8262.000000;0.790409
8261.000000;0.790530
8260.000000;0.790655
8259.000000;0.790736
8258.000000;0.790699
8257.000000;0.790526
8256.000000;0.790275
8255.000000;0.790028
8254.000000;0.789828
8253.000000;0.789696
8252.000000;0.789671
8251.000000;0.789779
8250.000000;0.789991
8249.000000;0.790212
8248.000000;0.790347
8247.000000;0.790376
8246.000000;0.790400
8245.000000;0.790590
8244.000000;0.791005
8243.000000;0.791452
8242.000000;0.791619
8241.000000;0.791433
8240.000000;0.791189
8239.000000;0.791232
8238.000000;0.791572
8237.000000;0.791920
8236.000000;0.792049
8235.000000;0.791967
8234.000000;0.791778
8233.000000;0.791548
8232.000000;0.791363
8231.000000;0.791346
8230.000000;0.791498
8229.000000;0.791657
8228.000000;0.791725
8227.000000;0.791839
8226.000000;0.792161
8225.000000;0.792560
8224.000000;0.792702
8223.000000;0.792479
8222.000000;0.792206
8221.000000;0.792284
8220.000000;0.792761
8219.000000;0.793303
8218.000000;0.793552
8217.000000;0.793414
8216.000000;0.793011
8215.000000;0.792491
8214.000000;0.791947
8213.000000;0.791480
8212.000000;0.791201
8211.000000;0.791117
8210.000000;0.791098
8209.000000;0.791041
8208.000000;0.791042
8207.000000;0.791318
8206.000000;0.791917
8205.000000;0.792599
8204.000000;0.793083
8203.000000;0.793341
8202.000000;0.793543
8201.000000;0.793743
8200.000000;0.793768
8199.000000;0.793467
8198.000000;0.792966
8197.000000;0.792545
8196.000000;0.792295
8195.000000;0.792053
8194.000000;0.791729
8193.000000;0.791522
8192.000000;0.791668
8191.000000;0.792030
8190.000000;0.792175
8189.000000;0.791932
8188.000000;0.791682
8187.000000;0.791914
8186.000000;0.792605
8185.000000;0.793258
8184.000000;0.793539
8183.000000;0.793619
8182.000000;0.793801
8181.000000;0.794041
8180.000000;0.794048
8179.000000;0.793745
8178.000000;0.793395
8177.000000;0.793252
8176.000000;0.793289
8175.000000;0.793331
8174.000000;0.793327
8173.000000;0.793370
8172.000000;0.793514
8171.000000;0.793696
8170.000000;0.793851
8169.000000;0.793980
8168.000000;0.794077
8167.000000;0.794063
8166.000000;0.793890
8165.000000;0.793646
8164.000000;0.793486
8163.000000;0.793439
8162.000000;0.793407
8161.000000;0.793368
8160.000000;0.793464
8159.000000;0.793798
8158.000000;0.794223
8157.000000;0.794468
8156.000000;0.794445
8155.000000;0.794324
8154.000000;0.794308
8153.000000;0.794435
8152.000000;0.794592
8151.000000;0.794626
8150.000000;0.794455
8149.000000;0.794176
8148.000000;0.794053
8147.000000;0.794256
8146.000000;0.794607
8145.000000;0.794720
8144.000000;0.794472
8143.000000;0.794167
8142.000000;0.794127
8141.000000;0.794321
8140.000000;0.794516
8139.000000;0.794652
8138.000000;0.794840
8137.000000;0.795083
8136.000000;0.795235
8135.000000;0.795261
8134.000000;0.795338
8133.000000;0.795613
8132.000000;0.795989
8131.000000;0.796223
8130.000000;0.796166
8129.000000;0.795857
8128.000000;0.795468
8127.000000;0.795183
8126.000000;0.795077
8125.000000;0.795055
8124.000000;0.794960
8123.000000;0.794750
8122.000000;0.794555
8121.000000;0.794562
8120.000000;0.794892
8119.000000;0.795524
8118.000000;0.796265
8117.000000;0.796807
8116.000000;0.796958
8115.000000;0.796852
8114.000000;0.796829
8113.000000;0.797054
8112.000000;0.797331
8111.000000;0.797314
8110.000000;0.796869
8109.000000;0.796189
8108.000000;0.795633
8107.000000;0.795456
8106.000000;0.795650
8105.000000;0.796004
8104.000000;0.796363
8103.000000;0.796782
8102.000000;0.797335
8101.000000;0.797816
8100.000000;0.797844
8099.000000;0.797356
8098.000000;0.796809
8097.000000;0.796723
8096.000000;0.797104
8095.000000;0.797489
8094.000000;0.797488
8093.000000;0.797119
8092.000000;0.796637
8091.000000;0.796226
8090.000000;0.795955
8089.000000;0.795879
8088.000000;0.796047
8087.000000;0.796441
8086.000000;0.796987
8085.000000;0.797614
8084.000000;0.798255
8083.000000;0.798802
8082.000000;0.799101
8081.000000;0.799049
8080.000000;0.798710
8079.000000;0.798333
8078.000000;0.798183
8077.000000;0.798280
8076.000000;0.798345
8075.000000;0.798103
8074.000000;0.797637
8073.000000;0.797340
8072.000000;0.797495
8071.000000;0.797993
8070.000000;0.798527
8069.000000;0.798928
8068.000000;0.799179
8067.000000;0.799214
8066.000000;0.798928
8065.000000;0.798438
8064.000000;0.798108
8063.000000;0.798183
8062.000000;0.798479
8061.000000;0.798602
8060.000000;0.798418
8059.000000;0.798166
8058.000000;0.798112
8057.000000;0.798274
8056.000000;0.798523
8055.000000;0.798796
8054.000000;0.799092
8053.000000;0.799313
8052.000000;0.799274
8051.000000;0.798904
8050.000000;0.798354
8049.000000;0.797882
8048.000000;0.797655
8047.000000;0.797684
8046.000000;0.797902
8045.000000;0.798265
8044.000000;0.798760
8043.000000;0.799320
8042.000000;0.799781
8041.000000;0.799973
8040.000000;0.799902
8039.000000;0.799790
8038.000000;0.799888
8037.000000;0.800224
8036.000000;0.800564
8035.000000;0.800627
8034.000000;0.800346
8033.000000;0.799932
8032.000000;0.799673
8031.000000;0.799670
8030.000000;0.799766
8029.000000;0.799743
8028.000000;0.799581
8027.000000;0.799446
8026.000000;0.799449
8025.000000;0.799500
8024.000000;0.799475
8023.000000;0.799416
8022.000000;0.799472
8021.000000;0.799675
8020.000000;0.799873
8019.000000;0.799916
8018.000000;0.799813
8017.000000;0.799713
8016.000000;0.799766
8015.000000;0.800042
8014.000000;0.800496
8013.000000;0.800978
8012.000000;0.801299
8011.000000;0.801360
8010.000000;0.801235
8009.000000;0.801102
8008.000000;0.801049
8007.000000;0.800927
8006.000000;0.800477
8005.000000;0.799689
8004.000000;0.798978
8003.000000;0.798866
8002.000000;0.799456
8001.000000;0.800335
8000.000000;0.801043
7999.000000;0.801488
7998.000000;0.801820
7997.000000;0.802069
7996.000000;0.802154
7995.000000;0.802135
7994.000000;0.802184
7993.000000;0.802294
7992.000000;0.802268
7991.000000;0.802068
7990.000000;0.801939
7989.000000;0.802071
7988.000000;0.802318
7987.000000;0.802403
7986.000000;0.802282
7985.000000;0.802148
7984.000000;0.802159
7983.000000;0.802322
7982.000000;0.802572
7981.000000;0.802816
7980.000000;0.802914
7979.000000;0.802772
7978.000000;0.802479
7977.000000;0.802257
7976.000000;0.802267
7975.000000;0.802523
7974.000000;0.802936
7973.000000;0.803340
7972.000000;0.803498
7971.000000;0.803249
7970.000000;0.802713
7969.000000;0.802233
7968.000000;0.802058
7967.000000;0.802138
7966.000000;0.802266
7965.000000;0.802337
7964.000000;0.802419
7963.000000;0.802623
7962.000000;0.802994
7961.000000;0.803494
7960.000000;0.804010
7959.000000;0.804382
7958.000000;0.804478
7957.000000;0.804300
7956.000000;0.804003
7955.000000;0.803803
7954.000000;0.803846
7953.000000;0.804118
7952.000000;0.804421
7951.000000;0.804488
7950.000000;0.804188
7949.000000;0.803678
7948.000000;0.803291
7947.000000;0.803232
7946.000000;0.803431
7945.000000;0.803717
7944.000000;0.804067
7943.000000;0.804566
7942.000000;0.805138
7941.000000;0.805502
7940.000000;0.805473
7939.000000;0.805217
7938.000000;0.805053
7937.000000;0.805063
7936.000000;0.805061
7935.000000;0.804934
7934.000000;0.804864
7933.000000;0.805121
7932.000000;0.805724
7931.000000;0.806364
7930.000000;0.806664
7929.000000;0.806490
7928.000000;0.806059
7927.000000;0.805763
7926.000000;0.805816
7925.000000;0.806083
7924.000000;0.806270
7923.000000;0.806279
7922.000000;0.806277
7921.000000;0.806418
7920.000000;0.806648
7919.000000;0.806848
7918.000000;0.807025
7917.000000;0.807249
7916.000000;0.807497
7915.000000;0.807671
7914.000000;0.807723
7913.000000;0.807644
7912.000000;0.807399
7911.000000;0.807001
7910.000000;0.806615
7909.000000;0.806452
7908.000000;0.806555
7907.000000;0.806792
7906.000000;0.807021
7905.000000;0.807152
7904.000000;0.807087
7903.000000;0.806770
7902.000000;0.806359
7901.000000;0.806158
7900.000000;0.806304
7899.000000;0.806608
7898.000000;0.806823
7897.000000;0.806939
7896.000000;0.807097
7895.000000;0.807302
7894.000000;0.807387
7893.000000;0.807294
7892.000000;0.807228
7891.000000;0.807443
7890.000000;0.807934
7889.000000;0.808423
7888.000000;0.808632
7887.000000;0.808522
7886.000000;0.808277
7885.000000;0.808108
7884.000000;0.808102
7883.000000;0.808235
7882.000000;0.808445
7881.000000;0.808692
7880.000000;0.808958
7879.000000;0.809250
7878.000000;0.809586
7877.000000;0.809946
7876.000000;0.810240
7875.000000;0.810377
7874.000000;0.810366
7873.000000;0.810306
7872.000000;0.810258
7871.000000;0.810189
7870.000000;0.810062
7869.000000;0.809936
7868.000000;0.809895
7867.000000;0.809906
7866.000000;0.809824
7865.000000;0.809583
7864.000000;0.809338
7863.000000;0.809337
7862.000000;0.809646
7861.000000;0.810049
7860.000000;0.810245
7859.000000;0.810141
7858.000000;0.809918
7857.000000;0.809827
7856.000000;0.809966
7855.000000;0.810258
7854.000000;0.810589
7853.000000;0.810897
7852.000000;0.811149
7851.000000;0.811303
7850.000000;0.811325
7849.000000;0.811245
7848.000000;0.811138
7847.000000;0.811072
7846.000000;0.811068
7845.000000;0.811125
7844.000000;0.811247
7843.000000;0.811448
7842.000000;0.811736
7841.000000;0.812110
7840.000000;0.812564
7839.000000;0.813062
7838.000000;0.813495
7837.000000;0.813708
7836.000000;0.813613
7835.000000;0.813275
7834.000000;0.812873
7833.000000;0.812583
7832.000000;0.812498
7831.000000;0.812614
7830.000000;0.812844
7829.000000;0.813057
7828.000000;0.813167
7827.000000;0.813203
7826.000000;0.813233
7825.000000;0.813264
7824.000000;0.813255
7823.000000;0.813249
7822.000000;0.813359
7821.000000;0.813611
7820.000000;0.813870
7819.000000;0.813988
7818.000000;0.813953
7817.000000;0.813848
7816.000000;0.813739
7815.000000;0.813694
7814.000000;0.813829
7813.000000;0.814203
7812.000000;0.814691
7811.000000;0.815077
7810.000000;0.815276
7809.000000;0.815362
7808.000000;0.815403
7807.000000;0.815398
7806.000000;0.815394
7805.000000;0.815518
7804.000000;0.815804
7803.000000;0.816100
7802.000000;0.816237
7801.000000;0.816241
7800.000000;0.816275
7799.000000;0.816413
7798.000000;0.816571
7797.000000;0.816649
7796.000000;0.816644
7795.000000;0.816612
7794.000000;0.816579
7793.000000;0.816534
7792.000000;0.816467
7791.000000;0.816391
7790.000000;0.816354
7789.000000;0.816423
7788.000000;0.816643
7787.000000;0.817011
7786.000000;0.817463
7785.000000;0.817881
7784.000000;0.818113
7783.000000;0.818055
7782.000000;0.817783
7781.000000;0.817564
7780.000000;0.817641
7779.000000;0.817995
7778.000000;0.818345
7777.000000;0.818424
7776.000000;0.818220
7775.000000;0.817963
7774.000000;0.817908
7773.000000;0.818140
7772.000000;0.818534
7771.000000;0.818870
7770.000000;0.819025
7769.000000;0.819067
7768.000000;0.819141
7767.000000;0.819287
7766.000000;0.819420
7765.000000;0.819473
7764.000000;0.819479
7763.000000;0.819477
7762.000000;0.819450
7761.000000;0.819421
7760.000000;0.819534
7759.000000;0.819918
7758.000000;0.820510
7757.000000;0.821101
7756.000000;0.821547
7755.000000;0.821843
7754.000000;0.821994
7753.000000;0.821956
7752.000000;0.821734
7751.000000;0.821439
7750.000000;0.821187
7749.000000;0.821011
7748.000000;0.820937
7747.000000;0.821026
7746.000000;0.821272
7745.000000;0.821544
7744.000000;0.821744
7743.000000;0.821951
7742.000000;0.822300
7741.000000;0.822747
7740.000000;0.823119
7739.000000;0.823380
7738.000000;0.823697
7737.000000;0.824153
7736.000000;0.824552
7735.000000;0.824611
7734.000000;0.824309
7733.000000;0.823926
7732.000000;0.823761
7731.000000;0.823889
7730.000000;0.824155
7729.000000;0.824357
7728.000000;0.824398
7727.000000;0.824342
7726.000000;0.824346
7725.000000;0.824511
7724.000000;0.824788
7723.000000;0.825034
7722.000000;0.825152
7721.000000;0.825191
7720.000000;0.825278
7719.000000;0.825472
7718.000000;0.825697
7717.000000;0.825834
7716.000000;0.825899
7715.000000;0.826074
7714.000000;0.826525
7713.000000;0.827194
7712.000000;0.827836
7711.000000;0.828243
7710.000000;0.828402
7709.000000;0.828414
7708.000000;0.828340
7707.000000;0.828164
7706.000000;0.827875
7705.000000;0.827548
7704.000000;0.827348
7703.000000;0.827436
7702.000000;0.827819
7701.000000;0.828287
7700.000000;0.828571
7699.000000;0.828618
7698.000000;0.828648
7697.000000;0.828875
7696.000000;0.829254
7695.000000;0.829555
7694.000000;0.829641
7693.000000;0.829577
7692.000000;0.829505
7691.000000;0.829514
7690.000000;0.829659
7689.000000;0.829972
7688.000000;0.830409
7687.000000;0.830842
7686.000000;0.831173
7685.000000;0.831418
7684.000000;0.831634
7683.000000;0.831787
7682.000000;0.831769
7681.000000;0.831550
7680.000000;0.831271
7679.000000;0.831160
7678.000000;0.831357
7677.000000;0.831806
7676.000000;0.832293
7675.000000;0.832597
7674.000000;0.832644
7673.000000;0.832546
7672.000000;0.832482
7671.000000;0.832536
7670.000000;0.832655
7669.000000;0.832780
7668.000000;0.832963
7667.000000;0.833290
7666.000000;0.833714
7665.000000;0.834057
7664.000000;0.834224
7663.000000;0.834334
7662.000000;0.834571
7661.000000;0.834950
7660.000000;0.835316
7659.000000;0.835549
7658.000000;0.835660
7657.000000;0.835711
7656.000000;0.835752
7655.000000;0.835855
7654.000000;0.836109
7653.000000;0.836513
7652.000000;0.836922
7651.000000;0.837169
7650.000000;0.837198
7649.000000;0.837079
7648.000000;0.836951
7647.000000;0.836972
7646.000000;0.837224
7645.000000;0.837624
7644.000000;0.837976
7643.000000;0.838186
7642.000000;0.838337
7641.000000;0.838533
7640.000000;0.838775
7639.000000;0.839041
7638.000000;0.839386
7637.000000;0.839818
7636.000000;0.840184
7635.000000;0.840323
7634.000000;0.840312
7633.000000;0.840379
7632.000000;0.840602
7631.000000;0.840848
7630.000000;0.841024
7629.000000;0.841225
7628.000000;0.841562
7627.000000;0.841989
7626.000000;0.842381
7625.000000;0.842698
7624.000000;0.842973
7623.000000;0.843222
7622.000000;0.843462
7621.000000;0.843766
7620.000000;0.844188
7619.000000;0.844644
7618.000000;0.844968
7617.000000;0.845100
7616.000000;0.845154
7615.000000;0.845268
7614.000000;0.845438
7613.000000;0.845551
7612.000000;0.845563
7611.000000;0.845587
7610.000000;0.845784
7609.000000;0.846183
7608.000000;0.846649
7607.000000;0.847033
7606.000000;0.847290
7605.000000;0.847442
7604.000000;0.847483
7603.000000;0.847416
7602.000000;0.847347
7601.000000;0.847441
7600.000000;0.847748
7599.000000;0.848127
7598.000000;0.848384
7597.000000;0.848475
7596.000000;0.848550
7595.000000;0.848817
7594.000000;0.849373
7593.000000;0.850116
7592.000000;0.850804
7591.000000;0.851226
7590.000000;0.851355
7589.000000;0.851347
7588.000000;0.851392
7587.000000;0.851593
7586.000000;0.851950
7585.000000;0.852417
7584.000000;0.852937
7583.000000;0.853445
7582.000000;0.853870
7581.000000;0.854153
7580.000000;0.854293
7579.000000;0.854387
7578.000000;0.854557
7577.000000;0.854832
7576.000000;0.855128
7575.000000;0.855399
7574.000000;0.855710
7573.000000;0.856107
7572.000000;0.856491
7571.000000;0.856747
7570.000000;0.856965
7569.000000;0.857355
7568.000000;0.857945
7567.000000;0.858514
7566.000000;0.858886
7565.000000;0.859132
7564.000000;0.859409
7563.000000;0.859728
7562.000000;0.859995
7561.000000;0.860200
7560.000000;0.860423
7559.000000;0.860705
7558.000000;0.861046
7557.000000;0.861472
7556.000000;0.861990
7555.000000;0.862481
7554.000000;0.862769
7553.000000;0.862812
7552.000000;0.862755
7551.000000;0.862775
7550.000000;0.862952
7549.000000;0.863309
7548.000000;0.863856
7547.000000;0.864560
7546.000000;0.865302
7545.000000;0.865934
7544.000000;0.866350
7543.000000;0.866521
7542.000000;0.866522
7541.000000;0.866530
7540.000000;0.866746
7539.000000;0.867233
7538.000000;0.867853
7537.000000;0.868383
7536.000000;0.868697
7535.000000;0.868831
7534.000000;0.868894
7533.000000;0.868980
7532.000000;0.869142
7531.000000;0.869431
7530.000000;0.869889
7529.000000;0.870486
7528.000000;0.871096
7527.000000;0.871574
7526.000000;0.871878
7525.000000;0.872087
7524.000000;0.872289
7523.000000;0.872491
7522.000000;0.872678
7521.000000;0.872914
7520.000000;0.873302
7519.000000;0.873845
7518.000000;0.874417
7517.000000;0.874897
7516.000000;0.875297
7515.000000;0.875716
7514.000000;0.876204
7513.000000;0.876682
7512.000000;0.877015
7511.000000;0.877134
7510.000000;0.877141
7509.000000;0.877260
7508.000000;0.877655
7507.000000;0.878270
7506.000000;0.878877
7505.000000;0.879320
7504.000000;0.879655
7503.000000;0.880036
7502.000000;0.880483
7501.000000;0.880852
7500.000000;0.881012
7499.000000;0.881019
7498.000000;0.881094
7497.000000;0.881447
7496.000000;0.882117
7495.000000;0.882938
7494.000000;0.883657
7493.000000;0.884138
7492.000000;0.884473
7491.000000;0.884846
7490.000000;0.885301
7489.000000;0.885711
7488.000000;0.885988
7487.000000;0.886234
7486.000000;0.886584
7485.000000;0.886980
7484.000000;0.887241
7483.000000;0.887347
7482.000000;0.887515
7481.000000;0.887947
7480.000000;0.888590
7479.000000;0.889221
7478.000000;0.889688
7477.000000;0.890017
7476.000000;0.890328
7475.000000;0.890722
7474.000000;0.891208
7473.000000;0.891683
7472.000000;0.892010
7471.000000;0.892187
7470.000000;0.892383
7469.000000;0.892752
7468.000000;0.893242
7467.000000;0.893693
7466.000000;0.894061
7465.000000;0.894443
7464.000000;0.894893
7463.000000;0.895336
7462.000000;0.895692
7461.000000;0.895983
7460.000000;0.896274
7459.000000;0.896586
7458.000000;0.896918
7457.000000;0.897285
7456.000000;0.897692
7455.000000;0.898117
7454.000000;0.898564
7453.000000;0.899073
7452.000000;0.899636
7451.000000;0.900171
7450.000000;0.900611
7449.000000;0.900977
7448.000000;0.901301
7447.000000;0.901554
7446.000000;0.901705
7445.000000;0.901828
7444.000000;0.902077
7443.000000;0.902559
7442.000000;0.903246
7441.000000;0.903981
7440.000000;0.904567
7439.000000;0.904886
7438.000000;0.904998
7437.000000;0.905087
7436.000000;0.905287
7435.000000;0.905605
7434.000000;0.905987
7433.000000;0.906400
7432.000000;0.906812
7431.000000;0.907182
7430.000000;0.907537
7429.000000;0.907971
7428.000000;0.908494
7427.000000;0.908951
7426.000000;0.909200
7425.000000;0.909317
7424.000000;0.909495
7423.000000;0.909815
7422.000000;0.910218
7421.000000;0.910680
7420.000000;0.911255
7419.000000;0.911940
7418.000000;0.912627
7417.000000;0.913239
7416.000000;0.913781
7415.000000;0.914237
7414.000000;0.914523
7413.000000;0.914653
7412.000000;0.914815
7411.000000;0.915178
7410.000000;0.915686
7409.000000;0.916149
7408.000000;0.916497
7407.000000;0.916838
7406.000000;0.917283
7405.000000;0.917799
7404.000000;0.918261
7403.000000;0.918568
7402.000000;0.918701
7401.000000;0.918726
7400.000000;0.918762
7399.000000;0.918895
7398.000000;0.919126
7397.000000;0.919416
7396.000000;0.919774
7395.000000;0.920232
7394.000000;0.920728
7393.000000;0.921131
7392.000000;0.921424
7391.000000;0.921785
7390.000000;0.922371
7389.000000;0.923063
7388.000000;0.923550
7387.000000;0.923675
7386.000000;0.923619
7385.000000;0.923668
7384.000000;0.923916
7383.000000;0.924264
7382.000000;0.924656
7381.000000;0.925167
7380.000000;0.925832
7379.000000;0.926497
7378.000000;0.926935
7377.000000;0.927082
7376.000000;0.927107
7375.000000;0.927252
7374.000000;0.927619
7373.000000;0.928099
7372.000000;0.928494
7371.000000;0.928736
7370.000000;0.928960
7369.000000;0.929373
7368.000000;0.930030
7367.000000;0.930764
7366.000000;0.931334
7365.000000;0.931629
7364.000000;0.931713
7363.000000;0.931771
7362.000000;0.932027
7361.000000;0.932623
7360.000000;0.933472
7359.000000;0.934264
7358.000000;0.934712
7357.000000;0.934812
7356.000000;0.934836
7355.000000;0.935097
7354.000000;0.935713
7353.000000;0.936548
7352.000000;0.937352
7351.000000;0.937952
7350.000000;0.938349
7349.000000;0.938673
7348.000000;0.939029
7347.000000;0.939409
7346.000000;0.939751
7345.000000;0.940047
7344.000000;0.940314
7343.000000;0.940513
7342.000000;0.940565
7341.000000;0.940480
7340.000000;0.940425
7339.000000;0.940599
7338.000000;0.941049
7337.000000;0.941647
7336.000000;0.942221
7335.000000;0.942705
7334.000000;0.943166
7333.000000;0.943697
7332.000000;0.944271
7331.000000;0.944767
7330.000000;0.945160
7329.000000;0.945639
7328.000000;0.946396
7327.000000;0.947323
7326.000000;0.948053
7325.000000;0.948380
7324.000000;0.948505
7323.000000;0.948775
7322.000000;0.949280
7321.000000;0.949833
7320.000000;0.950273
7319.000000;0.950643
7318.000000;0.951077
7317.000000;0.951663
7316.000000;0.952445
7315.000000;0.953417
7314.000000;0.954460
7313.000000;0.955345
7312.000000;0.955897
7311.000000;0.956156
7310.000000;0.956327
7309.000000;0.956589
7308.000000;0.956976
7307.000000;0.957457
7306.000000;0.958032
7305.000000;0.958713
7304.000000;0.959454
7303.000000;0.960167
7302.000000;0.960825
7301.000000;0.961531
7300.000000;0.962454
7299.000000;0.963631
7298.000000;0.964833
7297.000000;0.965692
7296.000000;0.966027
7295.000000;0.966037
7294.000000;0.966163
7293.000000;0.966731
7292.000000;0.967690
7291.000000;0.968733
7290.000000;0.969634
7289.000000;0.970426
7288.000000;0.971277
7287.000000;0.972282
7286.000000;0.973392
7285.000000;0.974491
7284.000000;0.975487
7283.000000;0.976357
7282.000000;0.977144
7281.000000;0.977945
7280.000000;0.978821
7279.000000;0.979725
7278.000000;0.980539
7277.000000;0.981249
7276.000000;0.981990
7275.000000;0.982884
7274.000000;0.983876
7273.000000;0.984797
7272.000000;0.985608
7271.000000;0.986468
7270.000000;0.987574
7269.000000;0.988966
7268.000000;0.990515
7267.000000;0.992013
7266.000000;0.993271
7265.000000;0.994226
7264.000000;0.995029
7263.000000;0.995977
7262.000000;0.997290
7261.000000;0.998944
7260.000000;1.000716
7259.000000;1.002364
7258.000000;1.003748
7257.000000;1.004837
7256.000000;1.005730
7255.000000;1.006642
7254.000000;1.007787
7253.000000;1.009231
7252.000000;1.010883
7251.000000;1.012625
7250.000000;1.014396
7249.000000;1.016151
7248.000000;1.017803
7247.000000;1.019279
7246.000000;1.020613
7245.000000;1.021915
7244.000000;1.023273
7243.000000;1.024724
7242.000000;1.026294
7241.000000;1.028000
7240.000000;1.029825
7239.000000;1.031721
7238.000000;1.033655
7237.000000;1.035605
7236.000000;1.037546
7235.000000;1.039456
7234.000000;1.041337
7233.000000;1.043248
7232.000000;1.045292
7231.000000;1.047530
7230.000000;1.049911
7229.000000;1.052311
7228.000000;1.054632
7227.000000;1.056867
7226.000000;1.059083
7225.000000;1.061345
7224.000000;1.063647
7223.000000;1.065926
7222.000000;1.068159
7221.000000;1.070430
7220.000000;1.072869
7219.000000;1.075501
7218.000000;1.078201
7217.000000;1.080827
7216.000000;1.083368
7215.000000;1.085906
7214.000000;1.088461
7213.000000;1.090987
7212.000000;1.093526
7211.000000;1.096254
7210.000000;1.099289
7209.000000;1.102515
7208.000000;1.105674
7207.000000;1.108605
7206.000000;1.111367
7205.000000;1.114168
7204.000000;1.117234
7203.000000;1.120688
7202.000000;1.124428
7201.000000;1.128131
7200.000000;1.131489
7199.000000;1.134497
7198.000000;1.137431
7197.000000;1.140520
7196.000000;1.143741
7195.000000;1.146989
7194.000000;1.150331
7193.000000;1.153962
7192.000000;1.157917
7191.000000;1.161969
7190.000000;1.165861
7189.000000;1.169564
7188.000000;1.173249
7187.000000;1.177052
7186.000000;1.180936
7185.000000;1.184781
7184.000000;1.188568
7183.000000;1.192425
7182.000000;1.196521
7181.000000;1.200890
7180.000000;1.205354
7179.000000;1.209649
7178.000000;1.213677
7177.000000;1.217582
7176.000000;1.221575
7175.000000;1.225728
7174.000000;1.229973
7173.000000;1.234250
7172.000000;1.238554
7171.000000;1.242851
7170.000000;1.247066
7169.000000;1.251222
7168.000000;1.255517
7167.000000;1.260173
7166.000000;1.265218
7165.000000;1.270471
7164.000000;1.275699
7163.000000;1.280710
7162.000000;1.285383
7161.000000;1.289736
7160.000000;1.293959
7159.000000;1.298275
7158.000000;1.302746
7157.000000;1.307255
7156.000000;1.311659
7155.000000;1.315926
7154.000000;1.320160
7153.000000;1.324567
7152.000000;1.329350
7151.000000;1.334524
7150.000000;1.339848
7149.000000;1.345024
7148.000000;1.349980
7147.000000;1.354873
7146.000000;1.359839
7145.000000;1.364857
7144.000000;1.369848
7143.000000;1.374786
7142.000000;1.379644
7141.000000;1.384347
7140.000000;1.388872
7139.000000;1.393341
7138.000000;1.397934
7137.000000;1.402719
7136.000000;1.407630
7135.000000;1.412586
7134.000000;1.417538
7133.000000;1.422423
7132.000000;1.427159
7131.000000;1.431757
7130.000000;1.436387
7129.000000;1.441266
7128.000000;1.446462
7127.000000;1.451813
7126.000000;1.457072
7125.000000;1.462076
7124.000000;1.466790
7123.000000;1.471274
7122.000000;1.475696
7121.000000;1.480326
7120.000000;1.485313
7119.000000;1.490428
7118.000000;1.495196
7117.000000;1.499416
7116.000000;1.503466
7115.000000;1.507910
7114.000000;1.512884
7113.000000;1.518019
7112.000000;1.522872
7111.000000;1.527306
7110.000000;1.531519
7109.000000;1.535843
7108.000000;1.540519
7107.000000;1.545476
7106.000000;1.550274
7105.000000;1.554439
7104.000000;1.557965
7103.000000;1.561357
7102.000000;1.565124
7101.000000;1.569314
7100.000000;1.573606
7099.000000;1.577736
7098.000000;1.581730
7097.000000;1.585758
7096.000000;1.589919
7095.000000;1.594177
7094.000000;1.598414
7093.000000;1.602434
7092.000000;1.605982
7091.000000;1.608908
7090.000000;1.611430
7089.000000;1.614136
7088.000000;1.617591
7087.000000;1.621894
7086.000000;1.626651
7085.000000;1.631326
7084.000000;1.635537
7083.000000;1.639133
7082.000000;1.642266
7081.000000;1.645425
7080.000000;1.649083
7079.000000;1.653127
7078.000000;1.656881
7077.000000;1.659882
7076.000000;1.662401
7075.000000;1.664900
7074.000000;1.667303
7073.000000;1.669275
7072.000000;1.671143
7071.000000;1.673949
7070.000000;1.678338
7069.000000;1.683701
7068.000000;1.688654
7067.000000;1.692258
7066.000000;1.694638
7065.000000;1.696598
7064.000000;1.698886
7063.000000;1.701751
7062.000000;1.704901
7061.000000;1.707809
7060.000000;1.710150
7059.000000;1.712045
7058.000000;1.713924
7057.000000;1.716150
7056.000000;1.718709
7055.000000;1.721178
7054.000000;1.723059
7053.000000;1.724352
7052.000000;1.725804
7051.000000;1.728343
7050.000000;1.732137
7049.000000;1.736302
7048.000000;1.739700
7047.000000;1.741958
7046.000000;1.743581
7045.000000;1.745178
7044.000000;1.746859
7043.000000;1.748417
7042.000000;1.749822
7041.000000;1.751342
7040.000000;1.753237
7039.000000;1.755541
7038.000000;1.758098
7037.000000;1.760643
7036.000000;1.762782
7035.000000;1.764129
7034.000000;1.764713
7033.000000;1.765165
7032.000000;1.766273
7031.000000;1.768289
7030.000000;1.770777
7029.000000;1.773123
7028.000000;1.775046
7027.000000;1.776597
7026.000000;1.777934
7025.000000;1.779241
7024.000000;1.780673
7023.000000;1.782170
7022.000000;1.783506
7021.000000;1.784694
7020.000000;1.786156
7019.000000;1.788183
7018.000000;1.790382
7017.000000;1.792068
7016.000000;1.793193
7015.000000;1.794418
7014.000000;1.796104
7013.000000;1.797676
7012.000000;1.798326
7011.000000;1.798074
7010.000000;1.797758
7009.000000;1.798084
7008.000000;1.799072
7007.000000;1.800388
7006.000000;1.801808
7005.000000;1.803228
7004.000000;1.804531
7003.000000;1.805722
7002.000000;1.807079
7001.000000;1.808935
7000.000000;1.811244
6999.000000;1.813412
6998.000000;1.814678
6997.000000;1.814745
6996.000000;1.814070
6995.000000;1.813505
6994.000000;1.813611
6993.000000;1.814245
6992.000000;1.814806
6991.000000;1.814904
6990.000000;1.814798
6989.000000;1.815244
6988.000000;1.816932
6987.000000;1.819872
6986.000000;1.823087
6985.000000;1.824999
6984.000000;1.824616
6983.000000;1.822537
6982.000000;1.820500
6981.000000;1.819772
6980.000000;1.820244
6979.000000;1.821195
6978.000000;1.822422
6977.000000;1.824055
6976.000000;1.825571
6975.000000;1.825976
6974.000000;1.825207
6973.000000;1.824569
6972.000000;1.825237
6971.000000;1.826834
6970.000000;1.828016
6969.000000;1.828155
6968.000000;1.827867
6967.000000;1.828031
6966.000000;1.828907
6965.000000;1.830182
6964.000000;1.831354
6963.000000;1.831998
6962.000000;1.832103
6961.000000;1.832213
6960.000000;1.832807
6959.000000;1.833530
6958.000000;1.833530
6957.000000;1.832637
6956.000000;1.831680
6955.000000;1.831452
6954.000000;1.831870
6953.000000;1.832454
6952.000000;1.833127
6951.000000;1.834042
6950.000000;1.834880
6949.000000;1.834932
6948.000000;1.833969
6947.000000;1.832663
6946.000000;1.831932
6945.000000;1.831943
6944.000000;1.831936
6943.000000;1.831110
6942.000000;1.829673
6941.000000;1.828754
6940.000000;1.829073
6939.000000;1.830001
6938.000000;1.830332
6937.000000;1.829861
6936.000000;1.829607
6935.000000;1.830396
6934.000000;1.831889
6933.000000;1.833241
6932.000000;1.834086
6931.000000;1.834435
6930.000000;1.834166
6929.000000;1.833311
6928.000000;1.832520
6927.000000;1.832467
6926.000000;1.832846
6925.000000;1.832600
6924.000000;1.831294
6923.000000;1.829718
6922.000000;1.828951
6921.000000;1.829285
6920.000000;1.830253
6919.000000;1.831239
6918.000000;1.831816
6917.000000;1.831811
6916.000000;1.831399
6915.000000;1.830969
6914.000000;1.830673
6913.000000;1.830269
6912.000000;1.829606
6911.000000;1.829049
6910.000000;1.829093
6909.000000;1.829645
6908.000000;1.830070
6907.000000;1.830043
6906.000000;1.830009
6905.000000;1.830556
6904.000000;1.831571
6903.000000;1.832290
6902.000000;1.832158
6901.000000;1.831402
6900.000000;1.830676
6899.000000;1.830360
6898.000000;1.830372
6897.000000;1.830431
6896.000000;1.830250
6895.000000;1.829611
6894.000000;1.828549
6893.000000;1.827495
6892.000000;1.826987
6891.000000;1.827175
6890.000000;1.827769
6889.000000;1.828427
6888.000000;1.828918
6887.000000;1.828845
6886.000000;1.827696
6885.000000;1.825528
6884.000000;1.823354
6883.000000;1.822429
6882.000000;1.823139
6881.000000;1.824764
6880.000000;1.826216
6879.000000;1.826852
6878.000000;1.826649
6877.000000;1.825934
6876.000000;1.825115
6875.000000;1.824517
6874.000000;1.824264
6873.000000;1.824240
6872.000000;1.824159
6871.000000;1.823732
6870.000000;1.822899
6869.000000;1.821964
6868.000000;1.821431
6867.000000;1.821557
6866.000000;1.822089
6865.000000;1.822485
6864.000000;1.822378
6863.000000;1.821810
6862.000000;1.821076
6861.000000;1.820417
6860.000000;1.819801
6859.000000;1.818974
6858.000000;1.817826
6857.000000;1.816668
6856.000000;1.816030
6855.000000;1.816174
6854.000000;1.816915
6853.000000;1.817856
6852.000000;1.818541
6851.000000;1.818424
6850.000000;1.817133
6849.000000;1.815063
6848.000000;1.813399
6847.000000;1.813080
6846.000000;1.813734
6845.000000;1.813990
6844.000000;1.812939
6843.000000;1.811125
6842.000000;1.809947
6841.000000;1.810226
6840.000000;1.811387
6839.000000;1.811934
6838.000000;1.810763
6837.000000;1.808092
6836.000000;1.805145
6835.000000;1.802995
6834.000000;1.801790
6833.000000;1.800973
6832.000000;1.800013
6831.000000;1.798853
6830.000000;1.797827
6829.000000;1.797268
6828.000000;1.797126
6827.000000;1.796931
6826.000000;1.796266
6825.000000;1.795277
6824.000000;1.794471
6823.000000;1.793941
6822.000000;1.793121
6821.000000;1.791508
6820.000000;1.789304
6819.000000;1.787086
6818.000000;1.785170
6817.000000;1.783617
6816.000000;1.782552
6815.000000;1.781968
6814.000000;1.781378
6813.000000;1.780190
6812.000000;1.778441
6811.000000;1.776686
6810.000000;1.775177
6809.000000;1.773633
6808.000000;1.771903
6807.000000;1.770328
6806.000000;1.769214
6805.000000;1.768353
6804.000000;1.767356
6803.000000;1.766152
6802.000000;1.764880
6801.000000;1.763530
6800.000000;1.762006
6799.000000;1.760324
6798.000000;1.758472
6797.000000;1.756317
6796.000000;1.753964
6795.000000;1.751992
6794.000000;1.750890
6793.000000;1.750331
6792.000000;1.749410
6791.000000;1.747647
6790.000000;1.745395
6789.000000;1.743203
6788.000000;1.741171
6787.000000;1.739148
6786.000000;1.737175
6785.000000;1.735397
6784.000000;1.733748
6783.000000;1.732067
6782.000000;1.730444
6781.000000;1.729087
6780.000000;1.727861
6779.000000;1.726305
6778.000000;1.724250
6777.000000;1.722149
6776.000000;1.720579
6775.000000;1.719513
6774.000000;1.718310
6773.000000;1.716409
6772.000000;1.713857
6771.000000;1.711149
6770.000000;1.708704
6769.000000;1.706606
6768.000000;1.704740
6767.000000;1.703002
6766.000000;1.701311
6765.000000;1.699549
6764.000000;1.697638
6763.000000;1.695725
6762.000000;1.694096
6761.000000;1.692781
6760.000000;1.691336
6759.000000;1.689260
6758.000000;1.686607
6757.000000;1.683953
6756.000000;1.681679
6755.000000;1.679534
6754.000000;1.677088
6753.000000;1.674406
6752.000000;1.671990
6751.000000;1.670132
6750.000000;1.668601
6749.000000;1.666985
6748.000000;1.665112
6747.000000;1.663110
6746.000000;1.661244
6745.000000;1.659726
6744.000000;1.658508
6743.000000;1.657216
6742.000000;1.655457
6741.000000;1.653278
6740.000000;1.651136
6739.000000;1.649329
6738.000000;1.647677
6737.000000;1.645882
6736.000000;1.643993
6735.000000;1.642322
6734.000000;1.640977
6733.000000;1.639691
6732.000000;1.638058
6731.000000;1.635847
6730.000000;1.633194
6729.000000;1.630580
6728.000000;1.628483
6727.000000;1.626861
6726.000000;1.625094
6725.000000;1.622652
6724.000000;1.619753
6723.000000;1.617130
6722.000000;1.615191
6721.000000;1.613692
6720.000000;1.612238
6719.000000;1.610809
6718.000000;1.609606
6717.000000;1.608566
6716.000000;1.607260
6715.000000;1.605279
6714.000000;1.602628
6713.000000;1.599750
6712.000000;1.597190
6711.000000;1.595188
6710.000000;1.593549
6709.000000;1.591909
6708.000000;1.590125
6707.000000;1.588311
6706.000000;1.586527
6705.000000;1.584638
6704.000000;1.582554
6703.000000;1.580532
6702.000000;1.578988
6701.000000;1.577970
6700.000000;1.576923
6699.000000;1.575107
6698.000000;1.572322
6697.000000;1.569174
6696.000000;1.566553
6695.000000;1.564811
6694.000000;1.563536
6693.000000;1.562126
6692.000000;1.560488
6691.000000;1.558942
6690.000000;1.557533
6689.000000;1.555783
6688.000000;1.553317
6687.000000;1.550535
6686.000000;1.548298
6685.000000;1.546970
6684.000000;1.546053
6683.000000;1.544817
6682.000000;1.543075
6681.000000;1.541161
6680.000000;1.539323
6679.000000;1.537449
6678.000000;1.535357
6677.000000;1.533131
6676.000000;1.531044
6675.000000;1.529262
6674.000000;1.527703
6673.000000;1.526140
6672.000000;1.524361
6671.000000;1.522321
6670.000000;1.520210
6669.000000;1.518340
6668.000000;1.516849
6667.000000;1.515526
6666.000000;1.514011
6665.000000;1.512177
6664.000000;1.510247
6663.000000;1.508524
6662.000000;1.507061
6661.000000;1.505641
6660.000000;1.504026
6659.000000;1.502198
6658.000000;1.500379
6657.000000;1.498814
6656.000000;1.497494
6655.000000;1.496094
6654.000000;1.494255
6653.000000;1.491983
6652.000000;1.489707
6651.000000;1.487889
6650.000000;1.486591
6649.000000;1.485457
6648.000000;1.484109
6647.000000;1.482480
6646.000000;1.480778
6645.000000;1.479224
6644.000000;1.477864
6643.000000;1.476600
6642.000000;1.475284
6641.000000;1.473802
6640.000000;1.472121
6639.000000;1.470325
6638.000000;1.468574
6637.000000;1.466958
6636.000000;1.465374
6635.000000;1.463598
6634.000000;1.461525
6633.000000;1.459314
6632.000000;1.457260
6631.000000;1.455524
6630.000000;1.454042
6629.000000;1.452657
6628.000000;1.451282
6627.000000;1.449939
6626.000000;1.448661
6625.000000;1.447418
6624.000000;1.446085
6623.000000;1.444503
6622.000000;1.442618
6621.000000;1.440598
6620.000000;1.438766
6619.000000;1.437342
6618.000000;1.436255
6617.000000;1.435220
6616.000000;1.433999
6615.000000;1.432572
6614.000000;1.431074
6613.000000;1.429601
6612.000000;1.428114
6611.000000;1.426510
6610.000000;1.424778
6609.000000;1.423032
6608.000000;1.421402
6607.000000;1.419913
6606.000000;1.418498
6605.000000;1.417109
6604.000000;1.415763
6603.000000;1.414500
6602.000000;1.413361
6601.000000;1.412389
6600.000000;1.411565
6599.000000;1.410708
6598.000000;1.409516
6597.000000;1.407825
6596.000000;1.405815
6595.000000;1.403891
6594.000000;1.402332
6593.000000;1.401070
6592.000000;1.399796
6591.000000;1.398265
6590.000000;1.396533
6589.000000;1.394898
6588.000000;1.393612
6587.000000;1.392610
6586.000000;1.391535
6585.000000;1.390073
6584.000000;1.388261
6583.000000;1.386444
6582.000000;1.384951
6581.000000;1.383841
6580.000000;1.382937
6579.000000;1.382029
6578.000000;1.381016
6577.000000;1.379900
6576.000000;1.378704
6575.000000;1.377416
6574.000000;1.376000
6573.000000;1.374467
6572.000000;1.372911
6571.000000;1.371459
6570.000000;1.370168
6569.000000;1.368970
6568.000000;1.367737
6567.000000;1.366406
6566.000000;1.365030
6565.000000;1.363710
6564.000000;1.362496
6563.000000;1.361342
6562.000000;1.360176
6561.000000;1.358999
6560.000000;1.357898
6559.000000;1.356936
6558.000000;1.356033
6557.000000;1.354996
6556.000000;1.353734
6555.000000;1.352394
6554.000000;1.351239
6553.000000;1.350363
6552.000000;1.349562
6551.000000;1.348540
6550.000000;1.347184
6549.000000;1.345616
6548.000000;1.344026
6547.000000;1.342552
6546.000000;1.341286
6545.000000;1.340275
6544.000000;1.339428
6543.000000;1.338504
6542.000000;1.337298
6541.000000;1.335832
6540.000000;1.334327
6539.000000;1.333009
6538.000000;1.331963
6537.000000;1.331124
6536.000000;1.330325
6535.000000;1.329398
6534.000000;1.328319
6533.000000;1.327259
6532.000000;1.326418
6531.000000;1.325777
6530.000000;1.325083
6529.000000;1.324093
6528.000000;1.322796
6527.000000;1.321385
6526.000000;1.320082
6525.000000;1.319000
6524.000000;1.318107
6523.000000;1.317248
6522.000000;1.316238
6521.000000;1.315003
6520.000000;1.313638
6519.000000;1.312316
6518.000000;1.311144
6517.000000;1.310120
6516.000000;1.309172
6515.000000;1.308194
6514.000000;1.307090
6513.000000;1.305860
6512.000000;1.304641
6511.000000;1.303611
6510.000000;1.302819
6509.000000;1.302132
6508.000000;1.301358
6507.000000;1.300426
6506.000000;1.299426
6505.000000;1.298495
6504.000000;1.297693
6503.000000;1.296976
6502.000000;1.296253
6501.000000;1.295423
6500.000000;1.294383
6499.000000;1.293099
6498.000000;1.291708
6497.000000;1.290486
6496.000000;1.289611
6495.000000;1.288968
6494.000000;1.288257
6493.000000;1.287289
6492.000000;1.286148
6491.000000;1.285049
6490.000000;1.284133
6489.000000;1.283399
6488.000000;1.282773
6487.000000;1.282159
6486.000000;1.281467
6485.000000;1.280641
6484.000000;1.279673
6483.000000;1.278605
6482.000000;1.277519
6481.000000;1.276520
6480.000000;1.275658
6479.000000;1.274856
6478.000000;1.273979
6477.000000;1.273010
6476.000000;1.272087
6475.000000;1.271348
6474.000000;1.270759
6473.000000;1.270164
6472.000000;1.269440
6471.000000;1.268580
6470.000000;1.267632
6469.000000;1.266642
6468.000000;1.265646
6467.000000;1.264682
6466.000000;1.263791
6465.000000;1.262985
6464.000000;1.262208
6463.000000;1.261348
6462.000000;1.260344
6461.000000;1.259291
6460.000000;1.258367
6459.000000;1.257647
6458.000000;1.257027
6457.000000;1.256356
6456.000000;1.255581
6455.000000;1.254722
6454.000000;1.253803
6453.000000;1.252860
6452.000000;1.251958
6451.000000;1.251135
6450.000000;1.250359
6449.000000;1.249601
6448.000000;1.248890
6447.000000;1.248246
6446.000000;1.247613
6445.000000;1.246939
6444.000000;1.246247
6443.000000;1.245533
6442.000000;1.244677
6441.000000;1.243603
6440.000000;1.242504
6439.000000;1.241714
6438.000000;1.241337
6437.000000;1.241101
6436.000000;1.240652
6435.000000;1.239881
6434.000000;1.238928
6433.000000;1.237949
6432.000000;1.236992
6431.000000;1.236039
6430.000000;1.235108
6429.000000;1.234285
6428.000000;1.233665
6427.000000;1.233225
6426.000000;1.232771
6425.000000;1.232100
6424.000000;1.231227
6423.000000;1.230369
6422.000000;1.229686
6421.000000;1.229139
6420.000000;1.228622
6419.000000;1.228119
6418.000000;1.227646
6417.000000;1.227129
6416.000000;1.226466
6415.000000;1.225669
6414.000000;1.224845
6413.000000;1.224054
6412.000000;1.223254
6411.000000;1.222400
6410.000000;1.221506
6409.000000;1.220626
6408.000000;1.219826
6407.000000;1.219158
6406.000000;1.218615
6405.000000;1.218112
6404.000000;1.217554
6403.000000;1.216916
6402.000000;1.216234
6401.000000;1.215534
6400.000000;1.214850
6399.000000;1.214255
6398.000000;1.213793
6397.000000;1.213377
6396.000000;1.212847
6395.000000;1.212150
6394.000000;1.211393
6393.000000;1.210702
6392.000000;1.210084
6391.000000;1.209458
6390.000000;1.208778
6389.000000;1.208071
6388.000000;1.207385
6387.000000;1.206747
6386.000000;1.206146
6385.000000;1.205549
6384.000000;1.204922
6383.000000;1.204270
6382.000000;1.203642
6381.000000;1.203105
6380.000000;1.202679
6379.000000;1.202308
6378.000000;1.201886
6377.000000;1.201340
6376.000000;1.200698
6375.000000;1.200046
6374.000000;1.199418
6373.000000;1.198771
6372.000000;1.198110
6371.000000;1.197556
6370.000000;1.197196
6369.000000;1.196908
6368.000000;1.196428
6367.000000;1.195644
6366.000000;1.194734
6365.000000;1.193987
6364.000000;1.193520
6363.000000;1.193220
6362.000000;1.192897
6361.000000;1.192439
6360.000000;1.191852
6359.000000;1.191201
6358.000000;1.190534
6357.000000;1.189858
6356.000000;1.189172
6355.000000;1.188507
6354.000000;1.187894
6353.000000;1.187305
6352.000000;1.186694
6351.000000;1.186081
6350.000000;1.185528
6349.000000;1.185029
6348.000000;1.184506
6347.000000;1.183950
6346.000000;1.183457
6345.000000;1.183088
6344.000000;1.182732
6343.000000;1.182235
6342.000000;1.181585
6341.000000;1.180910
6340.000000;1.180300
6339.000000;1.179744
6338.000000;1.179216
6337.000000;1.178731
6336.000000;1.178294
6335.000000;1.177893
6334.000000;1.177538
6333.000000;1.177252
6332.000000;1.176975
6331.000000;1.176578
6330.000000;1.176014
6329.000000;1.175401
6328.000000;1.174879
6327.000000;1.174436
6326.000000;1.173936
6325.000000;1.173304
6324.000000;1.172634
6323.000000;1.172085
6322.000000;1.171728
6321.000000;1.171487
6320.000000;1.171197
6319.000000;1.170729
6318.000000;1.170077
6317.000000;1.169368
6316.000000;1.168766
6315.000000;1.168353
6314.000000;1.168088
6313.000000;1.167867
6312.000000;1.167617
6311.000000;1.167338
6310.000000;1.167065
6309.000000;1.166807
6308.000000;1.166519
6307.000000;1.166134
6306.000000;1.165620
6305.000000;1.165016
6304.000000;1.164411
6303.000000;1.163883
6302.000000;1.163445
6301.000000;1.163041
6300.000000;1.162600
6299.000000;1.162087
6298.000000;1.161513
6297.000000;1.160905
6296.000000;1.160299
6295.000000;1.159768
6294.000000;1.159408
6293.000000;1.159241
6292.000000;1.159154
6291.000000;1.158966
6290.000000;1.158579
6289.000000;1.158037
6288.000000;1.157452
6287.000000;1.156921
6286.000000;1.156512
6285.000000;1.156261
6284.000000;1.156130
6283.000000;1.155980
6282.000000;1.155670
6281.000000;1.155181
6280.000000;1.154650
6279.000000;1.154242
6278.000000;1.154005
6277.000000;1.153837
6276.000000;1.153568
6275.000000;1.153094
6274.000000;1.152446
6273.000000;1.151773
6272.000000;1.151237
6271.000000;1.150889
6270.000000;1.150647
6269.000000;1.150376
6268.000000;1.150011
6267.000000;1.149599
6266.000000;1.149234
6265.000000;1.148965
6264.000000;1.148767
6263.000000;1.148578
6262.000000;1.148350
6261.000000;1.148086
6260.000000;1.147824
6259.000000;1.147588
6258.000000;1.147343
6257.000000;1.147021
6256.000000;1.146613
6255.000000;1.146197
6254.000000;1.145834
6253.000000;1.145477
6252.000000;1.145047
6251.000000;1.144598
6250.000000;1.144300
6249.000000;1.144217
6248.000000;1.144184
6247.000000;1.143981
6246.000000;1.143573
6245.000000;1.143101
6244.000000;1.142666
6243.000000;1.142239
6242.000000;1.141781
6241.000000;1.141345
6240.000000;1.141012
6239.000000;1.140790
6238.000000;1.140614
6237.000000;1.140420
6236.000000;1.140172
6235.000000;1.139871
6234.000000;1.139548
6233.000000;1.139223
6232.000000;1.138859
6231.000000;1.138399
6230.000000;1.137892
6229.000000;1.137501
6228.000000;1.137347
6227.000000;1.137365
6226.000000;1.137382
6225.000000;1.137279
6224.000000;1.137052
6223.000000;1.136738
6222.000000;1.136365
6221.000000;1.135962
6220.000000;1.135560
6219.000000;1.135176
6218.000000;1.134833
6217.000000;1.134583
6216.000000;1.134454
6215.000000;1.134368
6214.000000;1.134196
6213.000000;1.133902
6212.000000;1.133587
6211.000000;1.133372
6210.000000;1.133271
6209.000000;1.133216
6208.000000;1.133139
6207.000000;1.132997
6206.000000;1.132743
6205.000000;1.132349
6204.000000;1.131851
6203.000000;1.131341
6202.000000;1.130916
6201.000000;1.130630
6200.000000;1.130480
6199.000000;1.130406
6198.000000;1.130309
6197.000000;1.130122
6196.000000;1.129868
6195.000000;1.129631
6194.000000;1.129464
6193.000000;1.129325
6192.000000;1.129126
6191.000000;1.128822
6190.000000;1.128456
6189.000000;1.128112
6188.000000;1.127840
6187.000000;1.127610
6186.000000;1.127360
6185.000000;1.127067
6184.000000;1.126766
6183.000000;1.126492
6182.000000;1.126236
6181.000000;1.125967
6180.000000;1.125710
6179.000000;1.125545
6178.000000;1.125526
6177.000000;1.125598
6176.000000;1.125621
6175.000000;1.125484
6174.000000;1.125189
6173.000000;1.124838
6172.000000;1.124544
6171.000000;1.124345
6170.000000;1.124194
6169.000000;1.124023
6168.000000;1.123814
6167.000000;1.123599
6166.000000;1.123407
6165.000000;1.123232
6164.000000;1.123057
6163.000000;1.122897
6162.000000;1.122772
6161.000000;1.122648
6160.000000;1.122443
6159.000000;1.122125
6158.000000;1.121777
6157.000000;1.121513
6156.000000;1.121346
6155.000000;1.121181
6154.000000;1.120933
6153.000000;1.120622
6152.000000;1.120333
6151.000000;1.120110
6150.000000;1.119936
6149.000000;1.119785
6148.000000;1.119682
6147.000000;1.119676
6146.000000;1.119792
6145.000000;1.119973
6144.000000;1.120089
6143.000000;1.120020
6142.000000;1.119769
6141.000000;1.119479
6140.000000;1.119301
6139.000000;1.119248
6138.000000;1.119196
6137.000000;1.119026
6136.000000;1.118728
6135.000000;1.118390
6134.000000;1.118112
6133.000000;1.117949
6132.000000;1.117882
6131.000000;1.117838
6130.000000;1.117755
6129.000000;1.117642
6128.000000;1.117545
6127.000000;1.117463
6126.000000;1.117333
6125.000000;1.117122
6124.000000;1.116876
6123.000000;1.116654
6122.000000;1.116440
6121.000000;1.116183
6120.000000;1.115882
6119.000000;1.115599
6118.000000;1.115392
6117.000000;1.115267
6116.000000;1.115189
6115.000000;1.115099
6114.000000;1.114927
6113.000000;1.114656
6112.000000;1.114358
6111.000000;1.114148
6110.000000;1.114073
6109.000000;1.114082
6108.000000;1.114096
6107.000000;1.114086
6106.000000;1.114067
6105.000000;1.114063
6104.000000;1.114073
6103.000000;1.114054
6102.000000;1.113945
6101.000000;1.113743
6100.000000;1.113541
6099.000000;1.113443
6098.000000;1.113435
6097.000000;1.113393
6096.000000;1.113239
6095.000000;1.113021
6094.000000;1.112815
6093.000000;1.112609
6092.000000;1.112360
6091.000000;1.112111
6090.000000;1.111955
6089.000000;1.111906
6088.000000;1.111863
6087.000000;1.111741
6086.000000;1.111574
6085.000000;1.111468
6084.000000;1.111481
6083.000000;1.111574
6082.000000;1.111646
6081.000000;1.111598
6080.000000;1.111396
6079.000000;1.111098
6078.000000;1.110832
6077.000000;1.110714
6076.000000;1.110779
6075.000000;1.110955
6074.000000;1.111099
6073.000000;1.111087
6072.000000;1.110923
6071.000000;1.110766
6070.000000;1.110793
6069.000000;1.111000
6068.000000;1.111186
6067.000000;1.111142
6066.000000;1.110852
6065.000000;1.110468
6064.000000;1.110152
6063.000000;1.109977
6062.000000;1.109958
6061.000000;1.110084
6060.000000;1.110286
6059.000000;1.110445
6058.000000;1.110456
6057.000000;1.110308
6056.000000;1.110056
6055.000000;1.109764
6054.000000;1.109490
6053.000000;1.109316
6052.000000;1.109316
6051.000000;1.109483
6050.000000;1.109710
6049.000000;1.109883
6048.000000;1.109972
6047.000000;1.110015
6046.000000;1.110018
6045.000000;1.109939
6044.000000;1.109761
6043.000000;1.109552
6042.000000;1.109411
6041.000000;1.109380
6040.000000;1.109443
6039.000000;1.109560
6038.000000;1.109682
6037.000000;1.109730
6036.000000;1.109640
6035.000000;1.109452
6034.000000;1.109310
6033.000000;1.109328
6032.000000;1.109457
6031.000000;1.109529
6030.000000;1.109430
6029.000000;1.109215
6028.000000;1.109043
6027.000000;1.109015
6026.000000;1.109101
6025.000000;1.109189
6024.000000;1.109197
6023.000000;1.109131
6022.000000;1.109059
6021.000000;1.109041
6020.000000;1.109074
6019.000000;1.109082
6018.000000;1.108983
6017.000000;1.108777
6016.000000;1.108589
6015.000000;1.108568
6014.000000;1.108743
6013.000000;1.108982
6012.000000;1.109106
6011.000000;1.109039
6010.000000;1.108848
6009.000000;1.108670
6008.000000;1.108645
6007.000000;1.108849
6006.000000;1.109238
6005.000000;1.109638
6004.000000;1.109852
6003.000000;1.109823
6002.000000;1.109673
6001.000000;1.109577
6000.000000;1.109620
5999.000000;1.109788
5998.000000;1.110033
5997.000000;1.110304
5996.000000;1.110526
5995.000000;1.110635
5994.000000;1.110639
5993.000000;1.110643
5992.000000;1.110762
5991.000000;1.111022
5990.000000;1.111331
5989.000000;1.111571
5988.000000;1.111690
5987.000000;1.111720
5986.000000;1.111709
5985.000000;1.111678
5984.000000;1.111661
5983.000000;1.111740
5982.000000;1.111986
5981.000000;1.112364
5980.000000;1.112745
5979.000000;1.113026
5978.000000;1.113203
5977.000000;1.113316
5976.000000;1.113372
5975.000000;1.113363
5974.000000;1.113318
5973.000000;1.113309
5972.000000;1.113390
5971.000000;1.113571
5970.000000;1.113831
5969.000000;1.114136
5968.000000;1.114443
5967.000000;1.114733
5966.000000;1.115030
5965.000000;1.115368
5964.000000;1.115728
5963.000000;1.116045
5962.000000;1.116283
5961.000000;1.116478
5960.000000;1.116691
5959.000000;1.116938
5958.000000;1.117181
5957.000000;1.117394
5956.000000;1.117596
5955.000000;1.117840
5954.000000;1.118148
5953.000000;1.118473
5952.000000;1.118740
5951.000000;1.118928
5950.000000;1.119095
5949.000000;1.119321
5948.000000;1.119629
5947.000000;1.119986
5946.000000;1.120359
5945.000000;1.120736
5944.000000;1.121106
5943.000000;1.121442
5942.000000;1.121711
5941.000000;1.121909
5940.000000;1.122068
5939.000000;1.122259
5938.000000;1.122556
5937.000000;1.122967
5936.000000;1.123403
5935.000000;1.123728
5934.000000;1.123884
5933.000000;1.123945
5932.000000;1.124028
5931.000000;1.124169
5930.000000;1.124310
5929.000000;1.124405
5928.000000;1.124503
5927.000000;1.124720
5926.000000;1.125117
5925.000000;1.125631
5924.000000;1.126121
5923.000000;1.126475
5922.000000;1.126671
5921.000000;1.126774
5920.000000;1.126871
5919.000000;1.127011
5918.000000;1.127179
5917.000000;1.127330
5916.000000;1.127443
5915.000000;1.127551
5914.000000;1.127690
5913.000000;1.127853
5912.000000;1.127997
5911.000000;1.128101
5910.000000;1.128176
5909.000000;1.128217
5908.000000;1.128195
5907.000000;1.128113
5906.000000;1.128043
5905.000000;1.128075
5904.000000;1.128227
5903.000000;1.128432
5902.000000;1.128606
5901.000000;1.128706
5900.000000;1.128736
5899.000000;1.128725
5898.000000;1.128719
5897.000000;1.128765
5896.000000;1.128889
5895.000000;1.129078
5894.000000;1.129269
5893.000000;1.129379
5892.000000;1.129347
5891.000000;1.129183
5890.000000;1.128987
5889.000000;1.128912
5888.000000;1.129079
5887.000000;1.129481
5886.000000;1.129941
5885.000000;1.130217
5884.000000;1.130215
5883.000000;1.130097
5882.000000;1.130124
5881.000000;1.130379
5880.000000;1.130683
5879.000000;1.130823
5878.000000;1.130804
5877.000000;1.130817
5876.000000;1.131007
5875.000000;1.131332
5874.000000;1.131657
5873.000000;1.131905
5872.000000;1.132089
5871.000000;1.132241
5870.000000;1.132367
5869.000000;1.132456
5868.000000;1.132525
5867.000000;1.132619
5866.000000;1.132780
5865.000000;1.132995
5864.000000;1.133219
5863.000000;1.133444
5862.000000;1.133739
5861.000000;1.134166
5860.000000;1.134690
5859.000000;1.135190
5858.000000;1.135581
5857.000000;1.135871
5856.000000;1.136127
5855.000000;1.136410
5854.000000;1.136761
5853.000000;1.137205
5852.000000;1.137741
5851.000000;1.138331
5850.000000;1.138926
5849.000000;1.139474
5848.000000;1.139934
5847.000000;1.140300
5846.000000;1.140629
5845.000000;1.140991
5844.000000;1.141401
5843.000000;1.141815
5842.000000;1.142200
5841.000000;1.142578
5840.000000;1.142975
5839.000000;1.143393
5838.000000;1.143847
5837.000000;1.144385
5836.000000;1.145021
5835.000000;1.145658
5834.000000;1.146162
5833.000000;1.146504
5832.000000;1.146797
5831.000000;1.147163
5830.000000;1.147604
5829.000000;1.148025
5828.000000;1.148369
5827.000000;1.148683
5826.000000;1.149063
5825.000000;1.149554
5824.000000;1.150126
5823.000000;1.150715
5822.000000;1.151270
5821.000000;1.151765
5820.000000;1.152212
5819.000000;1.152658
5818.000000;1.153157
5817.000000;1.153714
5816.000000;1.154275
5815.000000;1.154784
5814.000000;1.155243
5813.000000;1.155703
5812.000000;1.156201
5811.000000;1.156725
5810.000000;1.157246
5809.000000;1.157764
5808.000000;1.158306
5807.000000;1.158894
5806.000000;1.159505
5805.000000;1.160078
5804.000000;1.160567
5803.000000;1.161011
5802.000000;1.161502
5801.000000;1.162085
5800.000000;1.162708
5799.000000;1.163307
5798.000000;1.163904
5797.000000;1.164555
5796.000000;1.165231
5795.000000;1.165818
5794.000000;1.166265
5793.000000;1.166654
5792.000000;1.167097
5791.000000;1.167611
5790.000000;1.168154
5789.000000;1.168721
5788.000000;1.169340
5787.000000;1.169992
5786.000000;1.170616
5785.000000;1.171191
5784.000000;1.171772
5783.000000;1.172412
5782.000000;1.173094
5781.000000;1.173736
5780.000000;1.174262
5779.000000;1.174664
5778.000000;1.175028
5777.000000;1.175490
5776.000000;1.176138
5775.000000;1.176924
5774.000000;1.177703
5773.000000;1.178366
5772.000000;1.178912
5771.000000;1.179408
5770.000000;1.179910
5769.000000;1.180433
5768.000000;1.180968
5767.000000;1.181494
5766.000000;1.182005
5765.000000;1.182530
5764.000000;1.183105
5763.000000;1.183712
5762.000000;1.184261
5761.000000;1.184667
5760.000000;1.184960
5759.000000;1.185285
5758.000000;1.185783
5757.000000;1.186477
5756.000000;1.187258
5755.000000;1.187981
5754.000000;1.188581
5753.000000;1.189112
5752.000000;1.189668
5751.000000;1.190266
5750.000000;1.190824
5749.000000;1.191272
5748.000000;1.191666
5747.000000;1.192148
5746.000000;1.192774
5745.000000;1.193448
5744.000000;1.194025
5743.000000;1.194479
5742.000000;1.194920
5741.000000;1.195473
5740.000000;1.196160
5739.000000;1.196900
5738.000000;1.197590
5737.000000;1.198175
5736.000000;1.198667
5735.000000;1.199114
5734.000000;1.199545
5733.000000;1.199956
5732.000000;1.200341
5731.000000;1.200743
5730.000000;1.201223
5729.000000;1.201803
5728.000000;1.202453
5727.000000;1.203148
5726.000000;1.203896
5725.000000;1.204683
5724.000000;1.205427
5723.000000;1.206033
5722.000000;1.206494
5721.000000;1.206907
5720.000000;1.207400
5719.000000;1.208047
5718.000000;1.208848
5717.000000;1.209742
5716.000000;1.210629
5715.000000;1.211416
5714.000000;1.212063
5713.000000;1.212589
5712.000000;1.213032
5711.000000;1.213430
5710.000000;1.213847
5709.000000;1.214365
5708.000000;1.215015
5707.000000;1.215729
5706.000000;1.216400
5705.000000;1.216993
5704.000000;1.217582
5703.000000;1.218264
5702.000000;1.219054
5701.000000;1.219868
5700.000000;1.220582
5699.000000;1.221117
5698.000000;1.221502
5697.000000;1.221854
5696.000000;1.222315
5695.000000;1.222947
5694.000000;1.223688
5693.000000;1.224398
5692.000000;1.224962
5691.000000;1.225383
5690.000000;1.225765
5689.000000;1.226238
5688.000000;1.226874
5687.000000;1.227660
5686.000000;1.228509
5685.000000;1.229308
5684.000000;1.229966
5683.000000;1.230470
5682.000000;1.230890
5681.000000;1.231337
5680.000000;1.231891
5679.000000;1.232569
5678.000000;1.233330
5677.000000;1.234096
5676.000000;1.234781
5675.000000;1.235331
5674.000000;1.235780
5673.000000;1.236233
5672.000000;1.236776
5671.000000;1.237387
5670.000000;1.237955
5669.000000;1.238395
5668.000000;1.238734
5667.000000;1.239079
5666.000000;1.239528
5665.000000;1.240107
5664.000000;1.240782
5663.000000;1.241484
5662.000000;1.242144
5661.000000;1.242724
5660.000000;1.243231
5659.000000;1.243696
5658.000000;1.244140
5657.000000;1.244561
5656.000000;1.244980
5655.000000;1.245463
5654.000000;1.246066
5653.000000;1.246766
5652.000000;1.247459
5651.000000;1.248068
5650.000000;1.248605
5649.000000;1.249114
5648.000000;1.249581
5647.000000;1.249942
5646.000000;1.250192
5645.000000;1.250433
5644.000000;1.250793
5643.000000;1.251331
5642.000000;1.252025
5641.000000;1.252829
5640.000000;1.253676
5639.000000;1.254457
5638.000000;1.255025
5637.000000;1.255298
5636.000000;1.255344
5635.000000;1.255373
5634.000000;1.255603
5633.000000;1.256099
5632.000000;1.256722
5631.000000;1.257255
5630.000000;1.257619
5629.000000;1.257942
5628.000000;1.258415
5627.000000;1.259085
5626.000000;1.259818
5625.000000;1.260454
5624.000000;1.260929
5623.000000;1.261271
5622.000000;1.261534
5621.000000;1.261784
5620.000000;1.262082
5619.000000;1.262427
5618.000000;1.262744
5617.000000;1.262980
5616.000000;1.263216
5615.000000;1.263611
5614.000000;1.264215
5613.000000;1.264877
5612.000000;1.265365
5611.000000;1.265582
5610.000000;1.265638
5609.000000;1.265749
5608.000000;1.266061
5607.000000;1.266569
5606.000000;1.267163
5605.000000;1.267735
5604.000000;1.268246
5603.000000;1.268700
5602.000000;1.269074
5601.000000;1.269317
5600.000000;1.269414
5599.000000;1.269427
5598.000000;1.269467
5597.000000;1.269605
5596.000000;1.269822
5595.000000;1.270017
5594.000000;1.270092
5593.000000;1.270060
5592.000000;1.270055
5591.000000;1.270192
5590.000000;1.270427
5589.000000;1.270597
5588.000000;1.270614
5587.000000;1.270581
5586.000000;1.270670
5585.000000;1.270941
5584.000000;1.271307
5583.000000;1.271650
5582.000000;1.271919
5581.000000;1.272098
5580.000000;1.272171
5579.000000;1.272138
5578.000000;1.272059
5577.000000;1.272043
5576.000000;1.272172
5575.000000;1.272434
5574.000000;1.272729
5573.000000;1.272950
5572.000000;1.273073
5571.000000;1.273155
5570.000000;1.273250
5569.000000;1.273351
5568.000000;1.273444
5567.000000;1.273570
5566.000000;1.273783
5565.000000;1.274041
5564.000000;1.274229
5563.000000;1.274288
5562.000000;1.274296
5561.000000;1.274362
5560.000000;1.274501
5559.000000;1.274639
5558.000000;1.274705
5557.000000;1.274690
5556.000000;1.274606
5555.000000;1.274470
5554.000000;1.274335
5553.000000;1.274311
5552.000000;1.274502
5551.000000;1.274891
5550.000000;1.275306
5549.000000;1.275527
5548.000000;1.275451
5547.000000;1.275163
5546.000000;1.274847
5545.000000;1.274638
5544.000000;1.274571
5543.000000;1.274614
5542.000000;1.274717
5541.000000;1.274817
5540.000000;1.274881
5539.000000;1.274938
5538.000000;1.275033
5537.000000;1.275139
5536.000000;1.275168
5535.000000;1.275104
5534.000000;1.275056
5533.000000;1.275118
5532.000000;1.275245
5531.000000;1.275333
5530.000000;1.275384
5529.000000;1.275507
5528.000000;1.275739
5527.000000;1.275959
5526.000000;1.276008
5525.000000;1.275863
5524.000000;1.275646
5523.000000;1.275499
5522.000000;1.275502
5521.000000;1.275649
5520.000000;1.275868
5519.000000;1.276043
5518.000000;1.276074
5517.000000;1.275954
5516.000000;1.275790
5515.000000;1.275724
5514.000000;1.275815
5513.000000;1.275995
5512.000000;1.276165
5511.000000;1.276311
5510.000000;1.276492
5509.000000;1.276726
5508.000000;1.276929
5507.000000;1.277005
5506.000000;1.276949
5505.000000;1.276831
5504.000000;1.276699
5503.000000;1.276582
5502.000000;1.276545
5501.000000;1.276681
5500.000000;1.277020
5499.000000;1.277471
5498.000000;1.277874
5497.000000;1.278113
5496.000000;1.278191
5495.000000;1.278207
5494.000000;1.278281
5493.000000;1.278460
5492.000000;1.278696
5491.000000;1.278893
5490.000000;1.278988
5489.000000;1.278972
5488.000000;1.278877
5487.000000;1.278779
5486.000000;1.278784
5485.000000;1.278962
5484.000000;1.279287
5483.000000;1.279685
5482.000000;1.280126
5481.000000;1.280634
5480.000000;1.281200
5479.000000;1.281732
5478.000000;1.282125
5477.000000;1.282348
5476.000000;1.282451
5475.000000;1.282536
5474.000000;1.282698
5473.000000;1.282964
5472.000000;1.283290
5471.000000;1.283636
5470.000000;1.284000
5469.000000;1.284396
5468.000000;1.284833
5467.000000;1.285349
5466.000000;1.286001
5465.000000;1.286782
5464.000000;1.287552
5463.000000;1.288150
5462.000000;1.288549
5461.000000;1.288862
5460.000000;1.289182
5459.000000;1.289483
5458.000000;1.289695
5457.000000;1.289850
5456.000000;1.290109
5455.000000;1.290630
5454.000000;1.291406
5453.000000;1.292276
5452.000000;1.293108
5451.000000;1.293892
5450.000000;1.294645
5449.000000;1.295304
5448.000000;1.295825
5447.000000;1.296325
5446.000000;1.297001
5445.000000;1.297882
5444.000000;1.298769
5443.000000;1.299465
5442.000000;1.300017
5441.000000;1.300641
5440.000000;1.301440
5439.000000;1.302293
5438.000000;1.303041
5437.000000;1.303709
5436.000000;1.304484
5435.000000;1.305485
5434.000000;1.306597
5433.000000;1.307607
5432.000000;1.308483
5431.000000;1.309396
5430.000000;1.310502
5429.000000;1.311773
5428.000000;1.313069
5427.000000;1.314292
5426.000000;1.315464
5425.000000;1.316662
5424.000000;1.317918
5423.000000;1.319191
5422.000000;1.320435
5421.000000;1.321691
5420.000000;1.323095
5419.000000;1.324743
5418.000000;1.326559
5417.000000;1.328340
5416.000000;1.329985
5415.000000;1.331604
5414.000000;1.333361
5413.000000;1.335247
5412.000000;1.337085
5411.000000;1.338786
5410.000000;1.340461
5409.000000;1.342233
5408.000000;1.344079
5407.000000;1.345910
5406.000000;1.347730
5405.000000;1.349623
5404.000000;1.351649
5403.000000;1.353812
5402.000000;1.356095
5401.000000;1.358502
5400.000000;1.361073
5399.000000;1.363849
5398.000000;1.366824
5397.000000;1.369906
5396.000000;1.372950
5395.000000;1.375853
5394.000000;1.378623
5393.000000;1.381351
5392.000000;1.384154
5391.000000;1.387133
5390.000000;1.390356
5389.000000;1.393792
5388.000000;1.397337
5387.000000;1.400942
5386.000000;1.404626
5385.000000;1.408382
5384.000000;1.412165
5383.000000;1.415996
5382.000000;1.419981
5381.000000;1.424147
5380.000000;1.428385
5379.000000;1.432627
5378.000000;1.436987
5377.000000;1.441618
5376.000000;1.446494
5375.000000;1.451458
5374.000000;1.456445
5373.000000;1.461540
5372.000000;1.466817
5371.000000;1.472260
5370.000000;1.477845
5369.000000;1.483587
5368.000000;1.489497
5367.000000;1.495590
5366.000000;1.501915
5365.000000;1.508509
5364.000000;1.515309
5363.000000;1.522182
5362.000000;1.529056
5361.000000;1.535997
5360.000000;1.543167
5359.000000;1.550717
5358.000000;1.558660
5357.000000;1.566858
5356.000000;1.575224
5355.000000;1.583907
5354.000000;1.593088
5353.000000;1.602593
5352.000000;1.611975
5351.000000;1.621162
5350.000000;1.630674
5349.000000;1.640930
5348.000000;1.651615
5347.000000;1.662126
5346.000000;1.672473
5345.000000;1.683303
5344.000000;1.695017
5343.000000;1.707287
5342.000000;1.719580
5341.000000;1.731806
5340.000000;1.744262
5339.000000;1.757261
5338.000000;1.770921
5337.000000;1.785026
5336.000000;1.799126
5335.000000;1.813034
5334.000000;1.827137
5333.000000;1.841960
5332.000000;1.857481
5331.000000;1.873236
5330.000000;1.889128
5329.000000;1.905686
5328.000000;1.923350
5327.000000;1.941842
5326.000000;1.960479
5325.000000;1.978860
5324.000000;1.997071
5323.000000;2.015505
5322.000000;2.034698
5321.000000;2.055009
5320.000000;2.076215
5319.000000;2.097624
5318.000000;2.118788
5317.000000;2.139936
5316.000000;2.161674
5315.000000;2.184498
5314.000000;2.208578
5313.000000;2.233582
5312.000000;2.258636
5311.000000;2.282888
5310.000000;2.306222
5309.000000;2.329081
5308.000000;2.351695
5307.000000;2.374009
5306.000000;2.396330
5305.000000;2.419386
5304.000000;2.443634
5303.000000;2.468879
5302.000000;2.494551
5301.000000;2.520036
5300.000000;2.544963
5299.000000;2.569543
5298.000000;2.594264
5297.000000;2.618761
5296.000000;2.641659
5295.000000;2.662296
5294.000000;2.681772
5293.000000;2.701175
5292.000000;2.719756
5291.000000;2.736135
5290.000000;2.750688
5289.000000;2.765362
5288.000000;2.781280
5287.000000;2.798076
5286.000000;2.815174
5285.000000;2.832206
5284.000000;2.848574
5283.000000;2.863649
5282.000000;2.877226
5281.000000;2.889052
5280.000000;2.898425
5279.000000;2.905124
5278.000000;2.909738
5277.000000;2.912477
5276.000000;2.913535
5275.000000;2.915298
5274.000000;2.921640
5273.000000;2.933252
5272.000000;2.945259
5271.000000;2.951613
5270.000000;2.951023
5269.000000;2.946510
5268.000000;2.941164
5267.000000;2.936789
5266.000000;2.934555
5265.000000;2.934649
5264.000000;2.936297
5263.000000;2.939487
5262.000000;2.945550
5261.000000;2.954284
5260.000000;2.961961
5259.000000;2.964790
5258.000000;2.963352
5257.000000;2.961238
5256.000000;2.960937
5255.000000;2.962996
5254.000000;2.966931
5253.000000;2.970725
5252.000000;2.971516
5251.000000;2.969125
5250.000000;2.966987
5249.000000;2.967831
5248.000000;2.970111
5247.000000;2.970553
5246.000000;2.969170
5245.000000;2.968949
5244.000000;2.971216
5243.000000;2.973919
5242.000000;2.974423
5241.000000;2.972264
5240.000000;2.969029
5239.000000;2.967408
5238.000000;2.970104
5237.000000;2.977054
5236.000000;2.983766
5235.000000;2.985171
5234.000000;2.981227
5233.000000;2.976716
5232.000000;2.976037
5231.000000;2.979399
5230.000000;2.983572
5229.000000;2.985432
5228.000000;2.984226
5227.000000;2.980676
5226.000000;2.975576
5225.000000;2.970572
5224.000000;2.969009
5223.000000;2.973061
5222.000000;2.979303
5221.000000;2.979760
5220.000000;2.970357
5219.000000;2.956921
5218.000000;2.948888
5217.000000;2.949380
5216.000000;2.954583
5215.000000;2.960179
5214.000000;2.964858
5213.000000;2.967784
5212.000000;2.966922
5211.000000;2.962623
5210.000000;2.959253
5209.000000;2.960229
5208.000000;2.964509
5207.000000;2.969710
5206.000000;2.975314
5205.000000;2.980064
5204.000000;2.979774
5203.000000;2.972111
5202.000000;2.961394
5201.000000;2.954891
5200.000000;2.955751
5199.000000;2.961113
5198.000000;2.965844
5197.000000;2.967256
5196.000000;2.966836
5195.000000;2.968063
5194.000000;2.972413
5193.000000;2.977556
5192.000000;2.980368
5191.000000;2.981755
5190.000000;2.985776
5189.000000;2.992696
5188.000000;2.995603
5187.000000;2.987316
5186.000000;2.969811
5185.000000;2.952793
5184.000000;2.944753
5183.000000;2.947751
5182.000000;2.957848
5181.000000;2.968360
5180.000000;2.974468
5179.000000;2.976674
5178.000000;2.978878
5177.000000;2.982919
5176.000000;2.986307
5175.000000;2.985747
5174.000000;2.981808
5173.000000;2.977784
5172.000000;2.975160
5171.000000;2.972800
5170.000000;2.969864
5169.000000;2.967707
5168.000000;2.968483
5167.000000;2.972644
5166.000000;2.978027
5165.000000;2.980966
5164.000000;2.979913
5163.000000;2.977762
5162.000000;2.977937
5161.000000;2.979608
5160.000000;2.978692
5159.000000;2.972812
5158.000000;2.963836
5157.000000;2.955270
5156.000000;2.949157
5155.000000;2.946370
5154.000000;2.946451
5153.000000;2.946724
5152.000000;2.945707
5151.000000;2.946474
5150.000000;2.953396
5149.000000;2.966052
5148.000000;2.978246
5147.000000;2.984198
5146.000000;2.983628
5145.000000;2.979135
5144.000000;2.972766
5143.000000;2.967492
5142.000000;2.967542
5141.000000;2.973651
5140.000000;2.980468
5139.000000;2.982140
5138.000000;2.978932
5137.000000;2.974754
5136.000000;2.970892
5135.000000;2.966402
5134.000000;2.962065
5133.000000;2.959589
5132.000000;2.959062
5131.000000;2.960191
5130.000000;2.963627
5129.000000;2.968876
5128.000000;2.972732
5127.000000;2.972756
5126.000000;2.971217
5125.000000;2.972050
5124.000000;2.974710
5123.000000;2.974481
5122.000000;2.969071
5121.000000;2.961287
5120.000000;2.954843
5119.000000;2.950750
5118.000000;2.948149
5117.000000;2.946237
5116.000000;2.944703
5115.000000;2.944418
5114.000000;2.947454
5113.000000;2.954890
5112.000000;2.964856
5111.000000;2.973850
5110.000000;2.979915
5109.000000;2.983199
5108.000000;2.984327
5107.000000;2.983777
5106.000000;2.982121
5105.000000;2.979329
5104.000000;2.974481
5103.000000;2.968305
5102.000000;2.964674
5101.000000;2.966943
5100.000000;2.973543
5099.000000;2.978957
5098.000000;2.979363
5097.000000;2.975829
5096.000000;2.971612
5095.000000;2.968978
5094.000000;2.969308
5093.000000;2.973341
5092.000000;2.979542
5091.000000;2.983775
5090.000000;2.982543
5089.000000;2.976468
5088.000000;2.969486
5087.000000;2.964921
5086.000000;2.962778
5085.000000;2.960373
5084.000000;2.955206
5083.000000;2.947340
5082.000000;2.939214
5081.000000;2.933376
5080.000000;2.930870
5079.000000;2.931487
5078.000000;2.934053
5077.000000;2.936373
5076.000000;2.937029
5075.000000;2.937784
5074.000000;2.941874
5073.000000;2.948926
5072.000000;2.954149
5071.000000;2.954667
5070.000000;2.953607
5069.000000;2.954508
5068.000000;2.955264
5067.000000;2.951784
5066.000000;2.945352
5065.000000;2.940916
5064.000000;2.939394
5063.000000;2.937020
5062.000000;2.932103
5061.000000;2.927787
5060.000000;2.926778
5059.000000;2.927339
5058.000000;2.926519
5057.000000;2.924666
5056.000000;2.924464
5055.000000;2.927411
5054.000000;2.932940
5053.000000;2.939099
5052.000000;2.942668
5051.000000;2.940596
5050.000000;2.933151
5049.000000;2.924167
5048.000000;2.917128
5047.000000;2.912551
5046.000000;2.909525
5045.000000;2.907841
5044.000000;2.907826
5043.000000;2.909501
5042.000000;2.912921
5041.000000;2.918746
5040.000000;2.927252
5039.000000;2.936922
5038.000000;2.945020
5037.000000;2.949071
5036.000000;2.946992
5035.000000;2.937581
5034.000000;2.922931
5033.000000;2.908750
5032.000000;2.900127
5031.000000;2.897495
5030.000000;2.897493
5029.000000;2.897208
5028.000000;2.896415
5027.000000;2.895912
5026.000000;2.895751
5025.000000;2.895725
5024.000000;2.895893
5023.000000;2.895843
5022.000000;2.894669
5021.000000;2.892504
5020.000000;2.890916
5019.000000;2.890791
5018.000000;2.890689
5017.000000;2.888539
5016.000000;2.884488
5015.000000;2.880671
5014.000000;2.878206
5013.000000;2.875789
5012.000000;2.872076
5011.000000;2.868358
5010.000000;2.867008
5009.000000;2.867516
5008.000000;2.866016
5007.000000;2.860013
5006.000000;2.852416
5005.000000;2.848619
5004.000000;2.850132
5003.000000;2.853115
5002.000000;2.853394
5001.000000;2.851289
5000.000000;2.850337
4999.000000;2.852560
4998.000000;2.856652
4997.000000;2.860482
4996.000000;2.863443
4995.000000;2.865216
4994.000000;2.863808
4993.000000;2.857000
4992.000000;2.845639
4991.000000;2.833730
4990.000000;2.824984
4989.000000;2.820052
4988.000000;2.816719
4987.000000;2.812287
4986.000000;2.806174
4985.000000;2.800645
4984.000000;2.798805
4983.000000;2.801163
4982.000000;2.804270
4981.000000;2.803780
4980.000000;2.798876
4979.000000;2.792667
4978.000000;2.787848
4977.000000;2.783424
4976.000000;2.777207
4975.000000;2.770216
4974.000000;2.765921
4973.000000;2.765455
4972.000000;2.765787
4971.000000;2.763376
4970.000000;2.758381
4969.000000;2.753773
4968.000000;2.751315
4967.000000;2.750307
4966.000000;2.749640
4965.000000;2.749218
4964.000000;2.748987
4963.000000;2.747755
4962.000000;2.744079
4961.000000;2.738207
4960.000000;2.732264
4959.000000;2.728154
4958.000000;2.725722
4957.000000;2.723260
4956.000000;2.719574
4955.000000;2.715196
4954.000000;2.711636
4953.000000;2.709978
4952.000000;2.710095
4951.000000;2.710529
4950.000000;2.709096
4949.000000;2.704649
4948.000000;2.698630
4947.000000;2.693959
4946.000000;2.691766
4945.000000;2.689889
4944.000000;2.685387
4943.000000;2.678244
4942.000000;2.671547
4941.000000;2.668112
4940.000000;2.667729
4939.000000;2.667497
4938.000000;2.664395
4937.000000;2.658008
4936.000000;2.651126
4935.000000;2.647223
4934.000000;2.647007
4933.000000;2.647630
4932.000000;2.645595
4931.000000;2.640295
4930.000000;2.634150
4929.000000;2.629841
4928.000000;2.628282
4927.000000;2.628613
4926.000000;2.628922
4925.000000;2.627285
4924.000000;2.623389
4923.000000;2.619209
4922.000000;2.616820
4921.000000;2.615432
4920.000000;2.611867
4919.000000;2.604495
4918.000000;2.595530
4917.000000;2.588724
4916.000000;2.585853
4915.000000;2.585860
4914.000000;2.586296
4913.000000;2.584964
4912.000000;2.580994
4911.000000;2.575297
4910.000000;2.569785
4909.000000;2.565755
4908.000000;2.563030
4907.000000;2.560579
4906.000000;2.557648
4905.000000;2.554370
4904.000000;2.551727
4903.000000;2.550612
4902.000000;2.550332
4901.000000;2.548365
4900.000000;2.542659
4899.000000;2.534251
4898.000000;2.526352
4897.000000;2.520573
4896.000000;2.515467
4895.000000;2.509281
4894.000000;2.502856
4893.000000;2.498472
4892.000000;2.496702
4891.000000;2.495721
4890.000000;2.493472
4889.000000;2.489502
4888.000000;2.484810
4887.000000;2.480875
4886.000000;2.478779
4885.000000;2.478383
4884.000000;2.478168
4883.000000;2.476440
4882.000000;2.472849
4881.000000;2.468307
4880.000000;2.463794
4879.000000;2.459959
4878.000000;2.457377
4877.000000;2.456134
4876.000000;2.455197
4875.000000;2.453169
4874.000000;2.449904
4873.000000;2.446631
4872.000000;2.444306
4871.000000;2.442634
4870.000000;2.440921
4869.000000;2.438991
4868.000000;2.436751
4867.000000;2.433624
4866.000000;2.429193
4865.000000;2.424111
4864.000000;2.419714
4863.000000;2.416719
4862.000000;2.414638
4861.000000;2.412403
4860.000000;2.409407
4859.000000;2.405973
4858.000000;2.402889
4857.000000;2.400523
4856.000000;2.398504
4855.000000;2.396220
4854.000000;2.393235
4853.000000;2.389084
4852.000000;2.383346
4851.000000;2.376653
4850.000000;2.371041
4849.000000;2.368204
4848.000000;2.367495
4847.000000;2.366505
4846.000000;2.363787
4845.000000;2.360144
4844.000000;2.356899
4843.000000;2.354100
4842.000000;2.351199
4841.000000;2.348520
4840.000000;2.346852
4839.000000;2.345891
4838.000000;2.344172
4837.000000;2.340647
4836.000000;2.335685
4835.000000;2.330479
4834.000000;2.326013
4833.000000;2.322710
4832.000000;2.320372
4831.000000;2.318091
4830.000000;2.314875
4829.000000;2.310721
4828.000000;2.306641
4827.000000;2.303436
4826.000000;2.300846
4825.000000;2.298095
4824.000000;2.294908
4823.000000;2.291676
4822.000000;2.288840
4821.000000;2.286466
4820.000000;2.284368
4819.000000;2.282367
4818.000000;2.280389
4817.000000;2.278398
4816.000000;2.276201
4815.000000;2.273261
4814.000000;2.268977
4813.000000;2.263436
4812.000000;2.257785
4811.000000;2.253536
4810.000000;2.251356
4809.000000;2.250546
4808.000000;2.249673
4807.000000;2.247722
4806.000000;2.244695
4805.000000;2.241222
4804.000000;2.237862
4803.000000;2.234840
4802.000000;2.232238
4801.000000;2.230079
4800.000000;2.228117
4799.000000;2.225770
4798.000000;2.222564
4797.000000;2.218654
4796.000000;2.214713
4795.000000;2.211298
4794.000000;2.208442
4793.000000;2.205806
4792.000000;2.202984
4791.000000;2.199718
4790.000000;2.196153
4789.000000;2.192956
4788.000000;2.190814
4787.000000;2.189634
4786.000000;2.188462
4785.000000;2.186442
4784.000000;2.183679
4783.000000;2.180837
4782.000000;2.178084
4781.000000;2.174889
4780.000000;2.170834
4779.000000;2.166252
4778.000000;2.161923
4777.000000;2.158423
4776.000000;2.155842
4775.000000;2.153836
4774.000000;2.151798
4773.000000;2.149238
4772.000000;2.146204
4771.000000;2.143225
4770.000000;2.140710
4769.000000;2.138538
4768.000000;2.136405
4767.000000;2.134371
4766.000000;2.132728
4765.000000;2.131344
4764.000000;2.129498
4763.000000;2.126552
4762.000000;2.122710
4761.000000;2.118984
4760.000000;2.116352
4759.000000;2.114923
4758.000000;2.113805
4757.000000;2.111832
4756.000000;2.108607
4755.000000;2.104836
4754.000000;2.101559
4753.000000;2.099030
4752.000000;2.096484
4751.000000;2.093061
4750.000000;2.088872
4749.000000;2.084966
4748.000000;2.082261
4747.000000;2.080713
4746.000000;2.079526
4745.000000;2.077973
4744.000000;2.075789
4743.000000;2.072925
4742.000000;2.069388
4741.000000;2.065534
4740.000000;2.062200
4739.000000;2.060057
4738.000000;2.058790
4737.000000;2.057244
4736.000000;2.054549
4735.000000;2.050880
4734.000000;2.047125
4733.000000;2.044087
4732.000000;2.042072
4731.000000;2.040850
4730.000000;2.039772
4729.000000;2.038175
4728.000000;2.035957
4727.000000;2.033603
4726.000000;2.031423
4725.000000;2.029080
4724.000000;2.026301
4723.000000;2.023746
4722.000000;2.022448
4721.000000;2.022345
4720.000000;2.021991
4719.000000;2.020060
4718.000000;2.016720
4717.000000;2.013123
4716.000000;2.009982
4715.000000;2.007174
4714.000000;2.004426
4713.000000;2.001767
4712.000000;1.999250
4711.000000;1.996742
4710.000000;1.994191
4709.000000;1.991800
4708.000000;1.989724
4707.000000;1.987803
4706.000000;1.985798
4705.000000;1.983744
4704.000000;1.981871
4703.000000;1.980260
4702.000000;1.978762
4701.000000;1.977242
4700.000000;1.975705
4699.000000;1.974088
4698.000000;1.972097
4697.000000;1.969439
4696.000000;1.966269
4695.000000;1.963232
4694.000000;1.960891
4693.000000;1.959179
4692.000000;1.957603
4691.000000;1.955928
4690.000000;1.954393
4689.000000;1.953133
4688.000000;1.951737
4687.000000;1.949721
4686.000000;1.947272
4685.000000;1.945126
4684.000000;1.943648
4683.000000;1.942380
4682.000000;1.940645
4681.000000;1.938376
4680.000000;1.936111
4679.000000;1.934301
4678.000000;1.932908
4677.000000;1.931619
4676.000000;1.930231
4675.000000;1.928733
4674.000000;1.927170
4673.000000;1.925567
4672.000000;1.923942
4671.000000;1.922282
4670.000000;1.920483
4669.000000;1.918398
4668.000000;1.916034
4667.000000;1.913703
4666.000000;1.911830
4665.000000;1.910521
4664.000000;1.909316
4663.000000;1.907536
4662.000000;1.904969
4661.000000;1.902143
4660.000000;1.899834
4659.000000;1.898359
4658.000000;1.897420
4657.000000;1.896503
4656.000000;1.895272
4655.000000;1.893585
4654.000000;1.891385
4653.000000;1.888797
4652.000000;1.886291
4651.000000;1.884476
4650.000000;1.883573
4649.000000;1.883117
4648.000000;1.882331
4647.000000;1.880849
4646.000000;1.878988
4645.000000;1.877329
4644.000000;1.876159
4643.000000;1.875347
4642.000000;1.874546
4641.000000;1.873351
4640.000000;1.871415
4639.000000;1.868746
4638.000000;1.865928
4637.000000;1.863764
4636.000000;1.862580
4635.000000;1.861961
4634.000000;1.861252
4633.000000;1.860161
4632.000000;1.858815
4631.000000;1.857420
4630.000000;1.856094
4629.000000;1.854892
4628.000000;1.853751
4627.000000;1.852411
4626.000000;1.850621
4625.000000;1.848465
4624.000000;1.846347
4623.000000;1.844629
4622.000000;1.843350
4621.000000;1.842267
4620.000000;1.841085
4619.000000;1.839668
4618.000000;1.838153
4617.000000;1.836823
4616.000000;1.835776
4615.000000;1.834777
4614.000000;1.833594
4613.000000;1.832397
4612.000000;1.831559
4611.000000;1.831076
4610.000000;1.830459
4609.000000;1.829322
4608.000000;1.827882
4607.000000;1.826699
4606.000000;1.826072
4605.000000;1.825793
4604.000000;1.825349
4603.000000;1.824220
4602.000000;1.822221
4601.000000;1.819807
4600.000000;1.817919
4599.000000;1.817241
4598.000000;1.817551
4597.000000;1.817935
4596.000000;1.817673
4595.000000;1.816771
4594.000000;1.815629
4593.000000;1.814400
4592.000000;1.812856
4591.000000;1.810800
4590.000000;1.808466
4589.000000;1.806503
4588.000000;1.805537
4587.000000;1.805640
4586.000000;1.806176
4585.000000;1.806225
4584.000000;1.805289
4583.000000;1.803640
4582.000000;1.802024
4581.000000;1.801055
4580.000000;1.800823
4579.000000;1.800873
4578.000000;1.800513
4577.000000;1.799308
4576.000000;1.797435
4575.000000;1.795583
4574.000000;1.794394
4573.000000;1.793982
4572.000000;1.793979
4571.000000;1.793967
4570.000000;1.793768
4569.000000;1.793337
4568.000000;1.792586
4567.000000;1.791478
4566.000000;1.790227
4565.000000;1.789140
4564.000000;1.788220
4563.000000;1.787131
4562.000000;1.785715
4561.000000;1.784368
4560.000000;1.783656
4559.000000;1.783573
4558.000000;1.783458
4557.000000;1.782694
4556.000000;1.781332
4555.000000;1.779933
4554.000000;1.778992
4553.000000;1.778620
4552.000000;1.778576
4551.000000;1.778415
4550.000000;1.777751
4549.000000;1.776616
4548.000000;1.775532
4547.000000;1.775018
4546.000000;1.775040
4545.000000;1.775098
4544.000000;1.774808
4543.000000;1.774234
4542.000000;1.773625
4541.000000;1.773018
4540.000000;1.772237
4539.000000;1.771204
4538.000000;1.770138
4537.000000;1.769402
4536.000000;1.769127
4535.000000;1.769027
4534.000000;1.768648
4533.000000;1.767850
4532.000000;1.766901
4531.000000;1.766044
4530.000000;1.765188
4529.000000;1.764201
4528.000000;1.763353
4527.000000;1.763086
4526.000000;1.763337
4525.000000;1.763463
4524.000000;1.762985
4523.000000;1.762177
4522.000000;1.761696
4521.000000;1.761767
4520.000000;1.761951
4519.000000;1.761672
4518.000000;1.760852
4517.000000;1.760016
4516.000000;1.759793
4515.000000;1.760276
4514.000000;1.760859
4513.000000;1.760820
4512.000000;1.760095
4511.000000;1.759349
4510.000000;1.759198
4509.000000;1.759543
4508.000000;1.759828
4507.000000;1.759763
4506.000000;1.759559
4505.000000;1.759469
4504.000000;1.759394
4503.000000;1.759078
4502.000000;1.758525
4501.000000;1.758047
4500.000000;1.757927
4499.000000;1.758140
4498.000000;1.758404
4497.000000;1.758394
4496.000000;1.757915
4495.000000;1.756980
4494.000000;1.755847
4493.000000;1.754932
4492.000000;1.754599
4491.000000;1.754937
4490.000000;1.755738
4489.000000;1.756644
4488.000000;1.757295
4487.000000;1.757418
4486.000000;1.756951
4485.000000;1.756113
4484.000000;1.755241
4483.000000;1.754521
4482.000000;1.754000
4481.000000;1.753854
4480.000000;1.754383
4479.000000;1.755573
4478.000000;1.756883
4477.000000;1.757704
4476.000000;1.757952
4475.000000;1.757966
4474.000000;1.757962
4473.000000;1.757874
4472.000000;1.757728
4471.000000;1.757783
4470.000000;1.758187
4469.000000;1.758743
4468.000000;1.759194
4467.000000;1.759557
4466.000000;1.760025
4465.000000;1.760680
4464.000000;1.761441
4463.000000;1.762228
4462.000000;1.763042
4461.000000;1.763939
4460.000000;1.764971
4459.000000;1.766101
4458.000000;1.767172
4457.000000;1.768007
4456.000000;1.768559
4455.000000;1.768887
4454.000000;1.769087
4453.000000;1.769404
4452.000000;1.770253
4451.000000;1.771821
4450.000000;1.773715
4449.000000;1.775371
4448.000000;1.776814
4447.000000;1.778616
4446.000000;1.780956
4445.000000;1.783222
4444.000000;1.784811
4443.000000;1.785894
4442.000000;1.786994
4441.000000;1.788183
4440.000000;1.789265
4439.000000;1.790502
4438.000000;1.792489
4437.000000;1.795256
4436.000000;1.797952
4435.000000;1.799625
4434.000000;1.800045
4433.000000;1.799728
4432.000000;1.799474
4431.000000;1.799993
4430.000000;1.801602
4429.000000;1.804011
4428.000000;1.806521
4427.000000;1.808590
4426.000000;1.810176
4425.000000;1.811631
4424.000000;1.813465
4423.000000;1.816103
4422.000000;1.819478
4421.000000;1.822791
4420.000000;1.825132
4419.000000;1.826530
4418.000000;1.827999
4417.000000;1.830286
4416.000000;1.832967
4415.000000;1.835117
4414.000000;1.836590
4413.000000;1.838108
4412.000000;1.840206
4411.000000;1.842680
4410.000000;1.845172
4409.000000;1.847815
4408.000000;1.850940
4407.000000;1.854446
4406.000000;1.857869
4405.000000;1.861021
4404.000000;1.864217
4403.000000;1.867754
4402.000000;1.871380
4401.000000;1.874477
4400.000000;1.876639
4399.000000;1.877957
4398.000000;1.878864
4397.000000;1.879871
4396.000000;1.881380
4395.000000;1.883507
4394.000000;1.886057
4393.000000;1.888814
4392.000000;1.891864
4391.000000;1.895438
4390.000000;1.899375
4389.000000;1.903041
4388.000000;1.905941
4387.000000;1.908210
4386.000000;1.910300
4385.000000;1.912453
4384.000000;1.914757
4383.000000;1.917467
4382.000000;1.920741
4381.000000;1.924080
4380.000000;1.926577
4379.000000;1.927916
4378.000000;1.928787
4377.000000;1.930117
4376.000000;1.932211
4375.000000;1.934772
4374.000000;1.937495
4373.000000;1.940397
4372.000000;1.943625
4371.000000;1.947120
4370.000000;1.950562
4369.000000;1.953703
4368.000000;1.956757
4367.000000;1.960234
4366.000000;1.964133
4365.000000;1.967449
4364.000000;1.969002
4363.000000;1.968872
4362.000000;1.968542
4361.000000;1.969333
4360.000000;1.971021
4359.000000;1.972361
4358.000000;1.972865
4357.000000;1.973604
4356.000000;1.976042
4355.000000;1.980297
4354.000000;1.984800
4353.000000;1.987724
4352.000000;1.988740
4351.000000;1.989143
4350.000000;1.990275
4349.000000;1.992242
4348.000000;1.994230
4347.000000;1.995634
4346.000000;1.996513
4345.000000;1.997268
4344.000000;1.998333
4343.000000;2.000034
4342.000000;2.002227
4341.000000;2.004156
4340.000000;2.005291
4339.000000;2.006279
4338.000000;2.008360
4337.000000;2.011765
4336.000000;2.015448
4335.000000;2.018670
4334.000000;2.021937
4333.000000;2.025808
4332.000000;2.029719
4331.000000;2.032772
4330.000000;2.034969
4329.000000;2.036802
4328.000000;2.038099
4327.000000;2.038244
4326.000000;2.037405
4325.000000;2.036539
4324.000000;2.036076
4323.000000;2.035604
4322.000000;2.035093
4321.000000;2.035328
4320.000000;2.036734
4319.000000;2.038829
4318.000000;2.041452
4317.000000;2.045558
4316.000000;2.051659
4315.000000;2.057894
4314.000000;2.061031
4313.000000;2.059803
4312.000000;2.056223
4311.000000;2.053323
4310.000000;2.052776
4309.000000;2.054864
4308.000000;2.059271
4307.000000;2.064834
4306.000000;2.069393
4305.000000;2.071470
4304.000000;2.072113
4303.000000;2.073943
4302.000000;2.078163
4301.000000;2.083268
4300.000000;2.086960
4299.000000;2.088697
4298.000000;2.089750
4297.000000;2.091219
4296.000000;2.092798
4295.000000;2.093500
4294.000000;2.093393
4293.000000;2.094357
4292.000000;2.098618
4291.000000;2.106496
4290.000000;2.115374
4289.000000;2.121126
4288.000000;2.121697
4287.000000;2.118842
4286.000000;2.115633
4285.000000;2.113800
4284.000000;2.114092
4283.000000;2.117247
4282.000000;2.122984
4281.000000;2.128785
4280.000000;2.131876
4279.000000;2.132849
4278.000000;2.135365
4277.000000;2.141806
4276.000000;2.150543
4275.000000;2.157765
4274.000000;2.161262
4273.000000;2.161948
4272.000000;2.162661
4271.000000;2.166134
4270.000000;2.172782
4269.000000;2.179653
4268.000000;2.183012
4267.000000;2.182965
4266.000000;2.183767
4265.000000;2.188377
4264.000000;2.194628
4263.000000;2.198566
4262.000000;2.200396
4261.000000;2.204040
4260.000000;2.210980
4259.000000;2.217618
4258.000000;2.219556
4257.000000;2.216568
4256.000000;2.211911
4255.000000;2.209001
4254.000000;2.210290
4253.000000;2.216819
4252.000000;2.226783
4251.000000;2.236274
4250.000000;2.243215
4249.000000;2.249025
4248.000000;2.255116
4247.000000;2.259776
4246.000000;2.259939
4245.000000;2.255468
4244.000000;2.249272
4243.000000;2.243856
4242.000000;2.240475
4241.000000;2.240661
4240.000000;2.245660
4239.000000;2.254972
4238.000000;2.267638
4237.000000;2.283896
4236.000000;2.303330
4235.000000;2.321993
4234.000000;2.333466
4233.000000;2.334039
4232.000000;2.326072
4231.000000;2.315481
4230.000000;2.307691
4229.000000;2.306104
4228.000000;2.310864
4227.000000;2.317323
4226.000000;2.318764
4225.000000;2.314132
4224.000000;2.311109
4223.000000;2.318770
4222.000000;2.338575
4221.000000;2.362258
4220.000000;2.377796
4219.000000;2.380617
4218.000000;2.378153
4217.000000;2.380264
4216.000000;2.389136
4215.000000;2.397716
4214.000000;2.397203
4213.000000;2.388116
4212.000000;2.379005
4211.000000;2.375473
4210.000000;2.376068
4209.000000;2.377306
4208.000000;2.378638
4207.000000;2.380040
4206.000000;2.379378
4205.000000;2.376972
4204.000000;2.377775
4203.000000;2.386403
4202.000000;2.402565
4201.000000;2.421077
4200.000000;2.437018
4199.000000;2.447707
4198.000000;2.448449
4197.000000;2.436825
4196.000000;2.422036
4195.000000;2.419829
4194.000000;2.436983
4193.000000;2.463347
4192.000000;2.481283
4191.000000;2.483308
4190.000000;2.474785
4189.000000;2.462863
4188.000000;2.452419
4187.000000;2.450691
4186.000000;2.465378
4185.000000;2.494479
4184.000000;2.521304
4183.000000;2.527428
4182.000000;2.514091
4181.000000;2.498356
4180.000000;2.491401
4179.000000;2.492097
4178.000000;2.495020
4177.000000;2.497113
4176.000000;2.499963
4175.000000;2.509057
4174.000000;2.528180
4173.000000;2.552378
4172.000000;2.566614
4171.000000;2.558183
4170.000000;2.533593
4169.000000;2.515758
4168.000000;2.522328
4167.000000;2.550361
4166.000000;2.578242
4165.000000;2.586584
4164.000000;2.582407
4163.000000;2.589328
4162.000000;2.615583
4161.000000;2.644502
4160.000000;2.657065
4159.000000;2.656062
4158.000000;2.651366
4157.000000;2.637536
4156.000000;2.606595
4155.000000;2.568763
4154.000000;2.544471
4153.000000;2.545334
4152.000000;2.568509
4151.000000;2.601449
4150.000000;2.625583
4149.000000;2.622543
4148.000000;2.591488
4147.000000;2.555235
4146.000000;2.539764
4145.000000;2.553519
4144.000000;2.582598
4143.000000;2.604276
4142.000000;2.611264
4141.000000;2.606728
4140.000000;2.587508
4139.000000;2.556102
4138.000000;2.529804
4137.000000;2.530925
4136.000000;2.566481
4135.000000;2.608271
4134.000000;2.606597
4133.000000;2.558082
4132.000000;2.512707
4131.000000;2.508496
4130.000000;2.549537
4129.000000;2.613202
4128.000000;2.666675
4127.000000;2.687064
4126.000000;2.677246
4125.000000;2.673240
4124.000000;2.713208
4123.000000;2.799665
4122.000000;2.870320
4121.000000;2.838674
4120.000000;2.733197
4119.000000;2.645011
4118.000000;2.613931
4117.000000;2.622112
4116.000000;2.613518
4115.000000;2.567638
4114.000000;2.514813
4113.000000;2.479129
4112.000000;2.479673
4111.000000;2.523550
4110.000000;2.577644
4109.000000;2.580426
4108.000000;2.534385
4107.000000;2.472933
4106.000000;2.419424
4105.000000;2.407176
4104.000000;2.449173
4103.000000;2.525735
4102.000000;2.591760
4101.000000;2.608322
4100.000000;2.589289
4099.000000;2.561774
4098.000000;2.528084
4097.000000;2.490838
4096.000000;2.467954
4095.000000;2.478071
4094.000000;2.513719
4093.000000;2.543529
4092.000000;2.546222
4091.000000;2.532088
4090.000000;2.530614
4089.000000;2.557301
4088.000000;2.577568
4087.000000;2.551014
4086.000000;2.516891
4085.000000;2.508661
4084.000000;2.529436
4083.000000;2.583093
4082.000000;2.658392
4081.000000;2.697673
4080.000000;2.669613
4079.000000;2.660879
4078.000000;2.735762
4077.000000;2.833438
4076.000000;2.779031
4075.000000;2.654039
4074.000000;2.597656
4073.000000;2.617538
4072.000000;2.679232
4071.000000;2.712433
4070.000000;2.680820
4069.000000;2.617249
4068.000000;2.558662
4067.000000;2.516014
4066.000000;2.482591
4065.000000;2.460820
4064.000000;2.459679
4063.000000;2.482605
4062.000000;2.536321
4061.000000;2.607061
4060.000000;2.634912
4059.000000;2.604003
4058.000000;2.590292
4057.000000;2.644809
4056.000000;2.744765
4055.000000;2.840900
4054.000000;2.916396
4053.000000;2.823811
4052.000000;2.620890
4051.000000;2.480896
4050.000000;2.418628
4049.000000;2.421551
4048.000000;2.430812
4047.000000;2.380268
4046.000000;2.332177
4045.000000;2.355070
4044.000000;2.443184
4043.000000;2.542480
4042.000000;2.570309
4041.000000;2.519504
4040.000000;2.459115
4039.000000;2.426723
4038.000000;2.396305
4037.000000;2.335248
4036.000000;2.278334
4035.000000;2.281386
4034.000000;2.359877
4033.000000;2.486049
4032.000000;2.575252
4031.000000;2.541082
4030.000000;2.495068
4029.000000;2.494943
4028.000000;2.493021
4027.000000;2.481723
4026.000000;2.482822
4025.000000;2.486003
4024.000000;2.506564
4023.000000;2.587661
4022.000000;2.750787
4021.000000;2.878619
4020.000000;2.849713
4019.000000;2.732809
4018.000000;2.583371
4017.000000;2.471872
4016.000000;2.412677
4015.000000;2.393340
4014.000000;2.403528
4013.000000;2.439727
4012.000000;2.498929
4011.000000;2.569995
4010.000000;2.638376
4009.000000;2.679400
4008.000000;2.685866
4007.000000;2.668922
4006.000000;2.640796
4005.000000;2.647347
4004.000000;2.694494
4003.000000;2.716490
4002.000000;2.676850
4001.000000;2.625007
4000.000000;2.575799
3999.000000;2.525567
3998.000000;2.527038
3997.000000;2.602583
3996.000000;2.669520
3995.000000;2.630728
3994.000000;2.509023
3993.000000;2.384682
3992.000000;2.312174
3991.000000;2.298181
3990.000000;2.340294
3989.000000;2.454239
3988.000000;2.672922
3987.000000;2.945738
3986.000000;2.969779
3985.000000;2.733261
3984.000000;2.592690
3983.000000;2.639937
3982.000000;2.872877
3981.000000;3.216738
3980.000000;3.353710
3979.000000;3.030699
3978.000000;2.869328
3977.000000;2.809725
3976.000000;2.791565
3975.000000;2.783030
3974.000000;2.757160
3973.000000;2.753828
3972.000000;2.826952
3971.000000;2.984834
3970.000000;3.052538
3969.000000;2.887694
3968.000000;2.720174
3967.000000;2.613378
3966.000000;2.538622
3965.000000;2.470973
3964.000000;2.415803
3963.000000;2.397852
3962.000000;2.425432
3961.000000;2.474356
3960.000000;2.512030
3959.000000;2.526586
3958.000000;2.532680
3957.000000;2.556810
3956.000000;2.606469
3955.000000;2.664676
3954.000000;2.616746
3953.000000;2.489494
3952.000000;2.425597
3951.000000;2.446877
3950.000000;2.524485
3949.000000;2.609181
3948.000000;2.670443
3947.000000;2.732325
3946.000000;2.810488
3945.000000;2.817430
3944.000000;2.796410
3943.000000;2.839519
3942.000000;3.328068
3941.000000;3.414114
3940.000000;2.801469
3939.000000;2.641404
3938.000000;2.596299
3937.000000;2.665778
3936.000000;2.844830
3935.000000;2.995094
3934.000000;2.928576
3933.000000;3.060140
3932.000000;3.174869
3931.000000;2.748556
3930.000000;2.588071
3929.000000;2.577109
3928.000000;2.598069
3927.000000;2.594088
3926.000000;2.571713
3925.000000;2.582599
3924.000000;2.608382
3923.000000;2.595090
3922.000000;2.584022
3921.000000;2.619833
3920.000000;2.692742
3919.000000;2.795290
3918.000000;2.918819
3917.000000;3.012306
3916.000000;2.970243
3915.000000;2.865213
3914.000000;2.820512
3913.000000;2.830368
3912.000000;2.875715
3911.000000;2.936691
3910.000000;2.917771
3909.000000;2.859331
3908.000000;2.873658
3907.000000;2.871600
3906.000000;2.761399
3905.000000;2.719983
3904.000000;2.805867
3903.000000;3.022295
3902.000000;3.726524
3901.000000;3.274193
3900.000000;3.044852
3899.000000;3.095343
3898.000000;3.312714
3897.000000;3.481325
3896.000000;3.187270
3895.000000;3.186687
3894.000000;3.440545
3893.000000;3.040905
3892.000000;2.871134
3891.000000;2.963603
3890.000000;3.180357
3889.000000;3.334797
3888.000000;3.106252
3887.000000;2.884248
3886.000000;2.856362
3885.000000;3.017487
3884.000000;3.620404
3883.000000;3.249251
3882.000000;2.983825
3881.000000;3.081464
3880.000000;3.267029
3879.000000;3.880979
3878.000000;3.563282
3877.000000;3.088970
3876.000000;2.939394
3875.000000;3.051243
3874.000000;3.354666
3873.000000;3.356449
3872.000000;3.508263
3871.000000;3.428757
3870.000000;3.397956
3869.000000;3.837673
3868.000000;3.369214
3867.000000;3.044226
3866.000000;2.952408
3865.000000;3.022231
3864.000000;3.117149
3863.000000;2.960676
3862.000000;2.848255
3861.000000;2.913747
3860.000000;3.153497
3859.000000;3.470454
3858.000000;3.643904
3857.000000;3.750855
3856.000000;3.719447
3855.000000;3.460277
3854.000000;3.341835
3853.000000;3.507168
3852.000000;3.790663
3851.000000;3.159036
3850.000000;2.882774
3849.000000;2.815350
3848.000000;2.873867
3847.000000;3.056384
3846.000000;3.290532
3845.000000;3.293038
3844.000000;3.149166
3843.000000;3.186965
3842.000000;3.340281
3841.000000;3.620824
3840.000000;3.402144
3839.000000;2.863399
3838.000000;2.699439
3837.000000;2.660007
3836.000000;2.696534
3835.000000;2.791658
3834.000000;2.874584
3833.000000;2.866568
3832.000000;2.856503
3831.000000;2.908191
3830.000000;2.956070
3829.000000;2.968269
3828.000000;3.000586
3827.000000;3.018428
3826.000000;2.965343
3825.000000;2.879661
3824.000000;2.793448
3823.000000;2.757034
3822.000000;2.757569
3821.000000;2.746781
3820.000000;2.726392
3819.000000;2.730678
3818.000000;2.860784
3817.000000;3.296008
3816.000000;3.505621
3815.000000;3.138877
3814.000000;3.005314
3813.000000;2.974672
3812.000000;3.144689
3811.000000;3.394449
3810.000000;3.244034
3809.000000;3.182343
3808.000000;3.733163
3807.000000;4.103086
3806.000000;3.444579
3805.000000;3.278427
3804.000000;3.104824
3803.000000;3.162242
3802.000000;3.325964
3801.000000;3.227409
3800.000000;3.034082
3799.000000;2.864573
3798.000000;2.743911
3797.000000;2.702486
3796.000000;2.732290
3795.000000;2.812025
3794.000000;2.935382
3793.000000;2.961248
3792.000000;2.880560
3791.000000;2.905074
3790.000000;3.188102
3789.000000;3.917181
3788.000000;3.300027
3787.000000;3.211982
3786.000000;3.383815
3785.000000;3.624445
3784.000000;3.445581
3783.000000;3.152482
3782.000000;2.968487
3781.000000;2.978543
3780.000000;3.185396
3779.000000;3.311209
3778.000000;3.284474
3777.000000;3.301929
3776.000000;3.384061
3775.000000;3.342874
3774.000000;3.099779
3773.000000;2.930584
3772.000000;2.896875
3771.000000;3.117902
3770.000000;3.823368
3769.000000;3.186637
3768.000000;2.945779
3767.000000;2.919057
3766.000000;2.966635
3765.000000;3.034169
3764.000000;3.079234
3763.000000;3.137084
3762.000000;3.158494
3761.000000;3.011451
3760.000000;2.923710
3759.000000;2.991549
3758.000000;3.011090
3757.000000;2.967296
3756.000000;2.987782
3755.000000;2.996725
3754.000000;2.930460
3753.000000;2.842754
3752.000000;2.825332
3751.000000;2.881967
3750.000000;2.969468
3749.000000;3.066207
3748.000000;3.161650
3747.000000;3.259301
3746.000000;3.295998
3745.000000;3.301575
3744.000000;3.487054
3743.000000;3.834062
3742.000000;3.216980
3741.000000;3.095338
3740.000000;3.249528
3739.000000;3.125697
3738.000000;2.857266
3737.000000;2.738321
3736.000000;2.758145
3735.000000;2.835755
3734.000000;2.908526
3733.000000;2.939492
3732.000000;2.883846
3731.000000;2.840190
3730.000000;2.902050
3729.000000;3.286034
3728.000000;3.467432
3727.000000;3.085348
3726.000000;3.355886
3725.000000;3.329221
3724.000000;2.900461
3723.000000;2.795475
3722.000000;2.886166
3721.000000;3.133943
3720.000000;3.087948
3719.000000;2.915730
3718.000000;2.904467
3717.000000;2.964722
3716.000000;2.978308
3715.000000;2.898953
3714.000000;2.811967
3713.000000;2.803763
3712.000000;2.948590
3711.000000;3.160858
3710.000000;3.345195
3709.000000;3.431103
3708.000000;3.041759
3707.000000;2.824860
3706.000000;2.769686
3705.000000;2.818800
3704.000000;2.949628
3703.000000;3.056802
3702.000000;3.060070
3701.000000;3.043433
3700.000000;3.039947
3699.000000;3.042516
3698.000000;3.028496
3697.000000;2.955737
3696.000000;2.820574
3695.000000;2.702667
3694.000000;2.663859
3693.000000;2.814788
3692.000000;3.111567
3691.000000;2.857007
3690.000000;2.759040
3689.000000;2.797431
3688.000000;2.814816
3687.000000;2.889355
3686.000000;3.098615
3685.000000;3.357007
3684.000000;3.148346
3683.000000;3.024349
3682.000000;2.922131
3681.000000;2.884087
3680.000000;2.986740
3679.000000;3.073435
3678.000000;2.934690
3677.000000;2.780749
3676.000000;2.832298
3675.000000;3.056324
3674.000000;3.399650
3673.000000;3.883378
3672.000000;3.883308
3671.000000;3.283862
3670.000000;2.883260
3669.000000;2.687976
3668.000000;2.617297
3667.000000;2.656935
3666.000000;2.854712
3665.000000;3.152779
3664.000000;3.058130
3663.000000;2.941529
3662.000000;2.962554
3661.000000;3.000457
3660.000000;3.168757
3659.000000;3.584287
3658.000000;3.640308
3657.000000;3.589947
3656.000000;3.243668
3655.000000;3.074468
3654.000000;3.089762
3653.000000;3.191247
3652.000000;3.197069
3651.000000;2.965835
3650.000000;2.817468
3649.000000;2.763130
3648.000000;2.734755
3647.000000;2.721011
3646.000000;2.734394
3645.000000;2.793051
3644.000000;2.887005
3643.000000;2.927161
3642.000000;2.915658
3641.000000;2.974173
3640.000000;3.191460
3639.000000;3.206918
3638.000000;3.134243
3637.000000;3.344032
3636.000000;3.095904
3635.000000;2.837527
3634.000000;2.797233
3633.000000;2.849948
3632.000000;2.929890
3631.000000;3.097527
3630.000000;3.582380
3629.000000;3.771937
3628.000000;3.564948
3627.000000;3.382801
3626.000000;3.031890
3625.000000;2.913235
3624.000000;3.021731
3623.000000;3.413327
3622.000000;3.796197
3621.000000;3.336320
3620.000000;3.056569
3619.000000;2.952687
3618.000000;3.032760
3617.000000;3.181660
3616.000000;3.095920
3615.000000;2.965681
3614.000000;2.962904
3613.000000;3.025902
3612.000000;3.081702
3611.000000;3.086212
3610.000000;3.058636
3609.000000;3.074031
3608.000000;3.211974
3607.000000;3.426140
3606.000000;3.439522
3605.000000;3.349747
3604.000000;3.524502
3603.000000;3.797715
3602.000000;3.207509
3601.000000;3.015047
3600.000000;2.980021
3599.000000;3.033157
3598.000000;3.190949
3597.000000;3.115637
3596.000000;2.931994
3595.000000;2.935771
3594.000000;3.120041
3593.000000;3.323675
3592.000000;3.210314
3591.000000;2.949768
3590.000000;2.748675
3589.000000;2.642470
3588.000000;2.643591
3587.000000;2.722689
3586.000000;2.825407
3585.000000;2.898985
3584.000000;2.918779
3583.000000;2.902457
3582.000000;2.884408
3581.000000;2.888112
3580.000000;2.900116
3579.000000;2.852617
3578.000000;2.826671
3577.000000;2.881729
3576.000000;3.149968
3575.000000;3.704830
3574.000000;3.223419
3573.000000;3.053063
3572.000000;3.113542
3571.000000;3.305922
3570.000000;3.485946
3569.000000;3.338201
3568.000000;3.309791
3567.000000;3.257084
3566.000000;3.105795
3565.000000;3.012918
3564.000000;3.035280
3563.000000;3.132008
3562.000000;3.085094
3561.000000;2.977620
3560.000000;2.966749
3559.000000;3.020225
3558.000000;3.105267
3557.000000;3.161557
3556.000000;2.972141
3555.000000;2.765022
3554.000000;2.700087
3553.000000;2.837520
3552.000000;3.155085
3551.000000;3.089106
3550.000000;2.999170
3549.000000;3.130014
3548.000000;3.112418
3547.000000;2.951367
3546.000000;2.937066
3545.000000;3.158081
3544.000000;3.559483
3543.000000;3.312602
3542.000000;3.090142
3541.000000;3.069798
3540.000000;3.210783
3539.000000;3.604743
3538.000000;3.712428
3537.000000;3.244880
3536.000000;3.000169
3535.000000;2.976494
3534.000000;3.034872
3533.000000;2.996109
3532.000000;2.971385
3531.000000;3.060806
3530.000000;3.124508
3529.000000;3.025484
3528.000000;2.864260
3527.000000;2.777599
3526.000000;2.776373
3525.000000;2.919935
3524.000000;3.221198
3523.000000;3.087044
3522.000000;2.926186
3521.000000;3.089569
3520.000000;3.485587
3519.000000;3.297579
3518.000000;3.060373
3517.000000;2.905052
3516.000000;2.829358
3515.000000;2.836390
3514.000000;2.825922
3513.000000;2.790586
3512.000000;2.794807
3511.000000;2.764349
3510.000000;2.636278
3509.000000;2.566032
3508.000000;2.613329
3507.000000;2.781168
3506.000000;3.085049
3505.000000;3.531931
3504.000000;4.081673
3503.000000;3.665505
3502.000000;3.244446
3501.000000;3.033711
3500.000000;2.932121
3499.000000;2.868557
3498.000000;2.806837
3497.000000;2.754238
3496.000000;2.705729
3495.000000;2.701263
3494.000000;2.775141
3493.000000;2.850600
3492.000000;2.863017
3491.000000;2.934562
3490.000000;3.090726
3489.000000;3.140773
3488.000000;3.107477
3487.000000;3.125931
3486.000000;3.142626
3485.000000;3.114898
3484.000000;3.064869
3483.000000;3.047160
3482.000000;3.086006
3481.000000;3.244934
3480.000000;3.495931
3479.000000;3.417799
3478.000000;3.210933
3477.000000;3.107149
3476.000000;3.140901
3475.000000;3.126530
3474.000000;3.043047
3473.000000;3.113169
3472.000000;3.181112
3471.000000;3.073642
3470.000000;2.937931
3469.000000;2.885201
3468.000000;2.914377
3467.000000;3.247101
3466.000000;3.634539
3465.000000;3.005754
3464.000000;2.894451
3463.000000;2.920863
3462.000000;2.965152
3461.000000;3.047801
3460.000000;3.070289
3459.000000;3.076273
3458.000000;3.064958
3457.000000;3.086410
3456.000000;3.244605
3455.000000;3.223725
3454.000000;2.943657
3453.000000;2.865416
3452.000000;2.974414
3451.000000;3.023419
3450.000000;2.911265
3449.000000;2.818017
3448.000000;2.763615
3447.000000;2.789477
3446.000000;2.926664
3445.000000;3.125190
3444.000000;3.158290
3443.000000;2.974324
3442.000000;2.829625
3441.000000;2.786777
3440.000000;2.849593
3439.000000;2.953102
3438.000000;2.936336
3437.000000;2.875679
3436.000000;2.917060
3435.000000;2.972904
3434.000000;2.927556
3433.000000;2.945314
3432.000000;3.108733
3431.000000;3.204181
3430.000000;3.197352
3429.000000;3.232128
3428.000000;3.184536
3427.000000;3.068631
3426.000000;2.965729
3425.000000;2.938393
3424.000000;3.106147
3423.000000;3.421132
3422.000000;3.561002
3421.000000;3.772984
3420.000000;3.236403
3419.000000;2.808332
3418.000000;2.583815
3417.000000;2.478690
3416.000000;2.490311
3415.000000;2.619992
3414.000000;2.865840
3413.000000;3.013211
3412.000000;2.927708
3411.000000;2.890106
3410.000000;2.944587
3409.000000;3.031414
3408.000000;3.076839
3407.000000;3.099698
3406.000000;3.192985
3405.000000;3.349497
3404.000000;3.512420
3403.000000;3.377447
3402.000000;3.141440
3401.000000;3.024329
3400.000000;3.096719
3399.000000;3.618547
3398.000000;3.592702
3397.000000;3.139180
3396.000000;3.129529
3395.000000;3.251368
3394.000000;3.105527
3393.000000;3.049613
3392.000000;3.266182
3391.000000;3.337239
3390.000000;3.212810
3389.000000;3.288344
3388.000000;3.249928
3387.000000;3.010678
3386.000000;2.962469
3385.000000;3.179087
3384.000000;3.406580
3383.000000;3.141647
3382.000000;2.961542
3381.000000;2.886326
3380.000000;2.913242
3379.000000;3.055246
3378.000000;3.197393
3377.000000;3.136309
3376.000000;3.013694
3375.000000;2.938371
3374.000000;3.010383
3373.000000;3.447278
3372.000000;3.266105
3371.000000;2.976013
3370.000000;3.007140
3369.000000;3.046126
3368.000000;2.994582
3367.000000;3.005571
3366.000000;3.171357
3365.000000;3.195343
3364.000000;2.988376
3363.000000;2.865129
3362.000000;2.863410
3361.000000;3.033001
3360.000000;3.293941
3359.000000;3.231037
3358.000000;3.146722
3357.000000;3.184782
3356.000000;3.440847
3355.000000;3.780526
3354.000000;3.335452
3353.000000;3.147759
3352.000000;3.112132
3351.000000;3.211754
3350.000000;3.837711
3349.000000;3.891427
3348.000000;3.279499
3347.000000;3.073887
3346.000000;2.969990
3345.000000;2.920423
3344.000000;2.915286
3343.000000;2.979821
3342.000000;3.249239
3341.000000;3.783314
3340.000000;3.493879
3339.000000;3.641309
3338.000000;3.535556
3337.000000;3.069638
3336.000000;2.945007
3335.000000;2.929663
3334.000000;2.909101
3333.000000;2.830345
3332.000000;2.763334
3331.000000;2.760613
3330.000000;2.800168
3329.000000;2.795398
3328.000000;2.742256
3327.000000;2.741980
3326.000000;2.836360
3325.000000;2.997334
3324.000000;3.095867
3323.000000;3.060727
3322.000000;3.016624
3321.000000;3.031591
3320.000000;3.042152
3319.000000;2.957939
3318.000000;2.926094
3317.000000;3.033496
3316.000000;3.126888
3315.000000;3.018940
3314.000000;3.027465
3313.000000;3.404823
3312.000000;3.381262
3311.000000;2.988468
3310.000000;2.867233
3309.000000;2.866217
3308.000000;3.030237
3307.000000;3.233135
3306.000000;3.026751
3305.000000;2.888899
3304.000000;2.892731
3303.000000;2.973903
3302.000000;3.218017
3301.000000;3.642161
3300.000000;3.356877
3299.000000;3.209687
3298.000000;3.619184
3297.000000;3.704720
3296.000000;3.721713
3295.000000;3.763072
3294.000000;3.199466
3293.000000;3.097568
3292.000000;3.150216
3291.000000;3.155959
3290.000000;3.054940
3289.000000;2.984430
3288.000000;2.991635
3287.000000;3.040305
3286.000000;2.998421
3285.000000;3.076496
3284.000000;3.572637
3283.000000;3.167490
3282.000000;2.887439
3281.000000;2.895597
3280.000000;3.049019
3279.000000;3.101472
3278.000000;2.951676
3277.000000;3.027209
3276.000000;3.403428
3275.000000;4.102535
3274.000000;3.618130
3273.000000;3.328827
3272.000000;3.403969
3271.000000;3.429451
3270.000000;3.383860
3269.000000;3.332768
3268.000000;3.257253
3267.000000;3.199562
3266.000000;3.013938
3265.000000;2.856472
3264.000000;2.785910
3263.000000;2.771201
3262.000000;2.763044
3261.000000;2.745433
3260.000000;2.764816
3259.000000;2.893812
3258.000000;3.234313
3257.000000;3.347080
3256.000000;3.117956
3255.000000;3.010944
3254.000000;2.931366
3253.000000;2.947195
3252.000000;2.971747
3251.000000;2.824616
3250.000000;2.705072
3249.000000;2.709534
3248.000000;2.814703
3247.000000;2.907988
3246.000000;2.820516
3245.000000;2.705185
3244.000000;2.683389
3243.000000;2.713697
3242.000000;2.710850
3241.000000;2.685894
3240.000000;2.682641
3239.000000;2.717438
3238.000000;2.804246
3237.000000;2.962681
3236.000000;3.221001
3235.000000;3.209894
3234.000000;2.981080
3233.000000;2.854662
3232.000000;2.789857
3231.000000;2.786474
3230.000000;2.862695
3229.000000;3.046328
3228.000000;3.099391
3227.000000;2.884812
3226.000000;2.730988
3225.000000;2.671742
3224.000000;2.707081
3223.000000;2.830023
3222.000000;2.942320
3221.000000;2.940434
3220.000000;2.927516
3219.000000;3.017604
3218.000000;3.108011
3217.000000;2.973171
3216.000000;2.795746
3215.000000;2.713914
3214.000000;2.702962
3213.000000;2.730429
3212.000000;2.790554
3211.000000;2.905340
3210.000000;3.132104
3209.000000;3.322010
3208.000000;3.103150
3207.000000;2.873330
3206.000000;2.737331
3205.000000;2.662580
3204.000000;2.648233
3203.000000;2.694467
3202.000000;2.792671
3201.000000;2.905729
3200.000000;2.969288
3199.000000;3.006035
3198.000000;3.047233
3197.000000;3.015196
3196.000000;2.992776
3195.000000;3.064404
3194.000000;3.391546
3193.000000;3.941405
3192.000000;3.305934
3191.000000;2.977598
3190.000000;2.853532
3189.000000;2.851315
3188.000000;2.938720
3187.000000;3.088492
3186.000000;3.164226
3185.000000;2.993572
3184.000000;2.854299
3183.000000;2.830949
3182.000000;2.950531
3181.000000;3.254329
3180.000000;3.501343
3179.000000;3.741085
3178.000000;3.749304
3177.000000;3.584621
3176.000000;3.735590
3175.000000;3.447861
3174.000000;3.153742
3173.000000;2.951298
3172.000000;2.830879
3171.000000;2.840985
3170.000000;2.959962
3169.000000;3.053614
3168.000000;2.891480
3167.000000;2.693022
3166.000000;2.614219
3165.000000;2.673135
3164.000000;2.845767
3163.000000;3.110868
3162.000000;3.403541
3161.000000;3.394751
3160.000000;3.166156
3159.000000;3.184311
3158.000000;3.782672
3157.000000;3.300325
3156.000000;2.894886
3155.000000;2.830988
3154.000000;2.842302
3153.000000;2.902883
3152.000000;2.904611
3151.000000;2.890334
3150.000000;2.951670
3149.000000;3.246699
3148.000000;3.909086
3147.000000;3.358131
3146.000000;3.109910
3145.000000;2.958013
3144.000000;2.834860
3143.000000;2.798926
3142.000000;2.833773
3141.000000;2.937009
3140.000000;2.963257
3139.000000;2.872488
3138.000000;2.761687
3137.000000;2.716561
3136.000000;2.744880
3135.000000;2.819865
3134.000000;2.899655
3133.000000;2.976327
3132.000000;3.398359
3131.000000;3.407854
3130.000000;2.893296
3129.000000;2.742254
3128.000000;2.814590
3127.000000;3.164566
3126.000000;3.079353
3125.000000;2.894952
3124.000000;2.936250
3123.000000;2.852623
3122.000000;2.779204
3121.000000;2.800942
3120.000000;2.842473
3119.000000;2.874254
3118.000000;2.939628
3117.000000;3.037389
3116.000000;3.108786
3115.000000;3.220993
3114.000000;3.289797
3113.000000;3.198759
3112.000000;3.288046
3111.000000;3.566751
3110.000000;3.447988
3109.000000;3.086761
3108.000000;2.880407
3107.000000;2.826034
3106.000000;2.863463
3105.000000;2.965117
3104.000000;2.930355
3103.000000;2.788195
3102.000000;2.760434
3101.000000;2.915853
3100.000000;3.250601
3099.000000;3.536486
3098.000000;3.662139
3097.000000;3.747606
3096.000000;3.653756
3095.000000;3.152733
3094.000000;2.849342
3093.000000;2.741007
3092.000000;2.764994
3091.000000;2.910168
3090.000000;3.075605
3089.000000;3.284748
3088.000000;3.286473
3087.000000;3.037611
3086.000000;2.971812
3085.000000;3.045294
3084.000000;3.446080
3083.000000;3.440132
3082.000000;2.956074
3081.000000;2.785036
3080.000000;2.674188
3079.000000;2.620736
3078.000000;2.621988
3077.000000;2.684880
3076.000000;2.846689
3075.000000;3.095978
3074.000000;3.449988
3073.000000;3.534813
3072.000000;3.318289
3071.000000;3.133242
3070.000000;3.143372
3069.000000;3.563879
3068.000000;3.404982
3067.000000;3.087292
3066.000000;3.053940
3065.000000;2.950249
3064.000000;2.871128
3063.000000;2.938358
3062.000000;3.357202
3061.000000;3.891040
3060.000000;3.280405
3059.000000;3.262065
3058.000000;3.428511
3057.000000;3.273764
3056.000000;2.975693
3055.000000;2.856470
3054.000000;3.055152
3053.000000;3.437879
3052.000000;3.073840
3051.000000;2.914491
3050.000000;3.086949
3049.000000;3.350251
3048.000000;3.551189
3047.000000;3.817109
3046.000000;3.592595
3045.000000;3.346079
3044.000000;3.152734
3043.000000;2.886348
3042.000000;2.716066
3041.000000;2.655462
3040.000000;2.676644
3039.000000;2.751555
3038.000000;2.863581
3037.000000;2.993414
3036.000000;3.236993
3035.000000;3.473727
3034.000000;3.430217
3033.000000;3.520926
3032.000000;3.413155
3031.000000;3.302456
3030.000000;3.172491
3029.000000;2.976254
3028.000000;2.941756
3027.000000;3.199337
3026.000000;3.486888
3025.000000;3.100305
3024.000000;3.027178
3023.000000;3.226159
3022.000000;3.030905
3021.000000;2.779891
3020.000000;2.680568
3019.000000;2.683384
3018.000000;2.706815
3017.000000;2.704269
3016.000000;2.660114
3015.000000;2.759113
3014.000000;3.228057
3013.000000;2.962717
3012.000000;2.701376
3011.000000;2.785475
3010.000000;2.896703
3009.000000;2.811410
3008.000000;2.780859
3007.000000;2.881479
3006.000000;2.979313
3005.000000;3.020784
3004.000000;3.108701
3003.000000;3.416358
3002.000000;3.373096
3001.000000;3.104054
3000.000000;3.069171
2999.000000;3.087432
2998.000000;3.086902
2997.000000;3.145841
2996.000000;3.171671
2995.000000;3.121436
2994.000000;3.015508
2993.000000;3.056615
2992.000000;3.320124
2991.000000;3.091420
2990.000000;2.889808
2989.000000;2.975841
2988.000000;3.164497
2987.000000;3.121617
2986.000000;3.033581
2985.000000;3.071925
2984.000000;3.164127
2983.000000;3.532566
2982.000000;3.652975
2981.000000;3.176391
2980.000000;3.162959
2979.000000;3.534632
2978.000000;3.822809
2977.000000;3.602134
2976.000000;3.512079
2975.000000;3.294016
2974.000000;3.349738
2973.000000;3.485522
2972.000000;3.198619
2971.000000;3.068870
2970.000000;3.128068
2969.000000;3.162706
2968.000000;2.994161
2967.000000;2.884980
2966.000000;2.940296
2965.000000;3.275364
2964.000000;3.695331
2963.000000;3.457011
2962.000000;3.639366
2961.000000;3.675061
2960.000000;3.417006
2959.000000;3.319567
2958.000000;3.241181
2957.000000;3.211833
2956.000000;3.148566
2955.000000;3.027528
2954.000000;2.898483
2953.000000;2.829731
2952.000000;2.876099
2951.000000;3.186287
2950.000000;3.733653
2949.000000;3.350182
2948.000000;3.280240
2947.000000;3.577398
2946.000000;3.358761
2945.000000;3.225616
2944.000000;3.269968
2943.000000;2.998537
2942.000000;2.852410
2941.000000;2.883384
2940.000000;2.996100
2939.000000;3.088201
2938.000000;3.057340
2937.000000;3.039257
2936.000000;3.029713
2935.000000;2.982334
2934.000000;2.947662
2933.000000;3.008778
2932.000000;3.197734
2931.000000;3.391867
2930.000000;3.379489
2929.000000;3.120989
2928.000000;2.887147
2927.000000;2.803911
2926.000000;2.811998
2925.000000;2.851704
2924.000000;2.894236
2923.000000;3.020252
2922.000000;3.466930
2921.000000;3.680440
2920.000000;3.455189
2919.000000;3.274963
2918.000000;2.963083
2917.000000;2.886688
2916.000000;3.056283
2915.000000;3.197427
2914.000000;2.954187
2913.000000;2.845938
2912.000000;2.927100
2911.000000;2.909341
2910.000000;2.787768
2909.000000;2.775948
2908.000000;2.915069
2907.000000;3.165932
2906.000000;3.597582
2905.000000;3.603275
2904.000000;3.089881
2903.000000;2.915640
2902.000000;2.935485
2901.000000;3.125144
2900.000000;3.269865
2899.000000;3.126036
2898.000000;3.057553
2897.000000;3.003367
2896.000000;2.920254
2895.000000;2.857975
2894.000000;2.815264
2893.000000;2.799181
2892.000000;2.803727
2891.000000;2.830469
2890.000000;2.870429
2889.000000;2.998532
2888.000000;3.381473
2887.000000;3.398488
2886.000000;3.102073
2885.000000;2.961590
2884.000000;2.876673
2883.000000;2.910502
2882.000000;3.092587
2881.000000;3.259326
2880.000000;3.276112
2879.000000;3.319099
2878.000000;3.327267
2877.000000;3.448048
2876.000000;3.231953
2875.000000;2.849808
2874.000000;2.685515
2873.000000;2.665513
2872.000000;2.757963
2871.000000;2.946315
2870.000000;3.184494
2869.000000;3.326549
2868.000000;3.246523
2867.000000;3.152003
2866.000000;3.162516
2865.000000;3.147356
2864.000000;3.063728
2863.000000;3.026702
2862.000000;2.961887
2861.000000;2.891589
2860.000000;2.942151
2859.000000;3.043276
2858.000000;3.002118
2857.000000;3.010500
2856.000000;3.215532
2855.000000;3.518120
2854.000000;3.623428
2853.000000;3.346701
2852.000000;3.070409
2851.000000;2.893666
2850.000000;2.835846
2849.000000;2.863665
2848.000000;3.103189
2847.000000;3.651926
2846.000000;3.156163
2845.000000;2.967596
2844.000000;3.119615
2843.000000;3.218392
2842.000000;3.030280
2841.000000;2.985271
2840.000000;3.028458
2839.000000;3.110454
2838.000000;3.302173
2837.000000;3.263353
2836.000000;3.087346
2835.000000;3.010658
2834.000000;3.007733
2833.000000;3.057221
2832.000000;3.051723
2831.000000;2.973743
2830.000000;2.958432
2829.000000;3.035106
2828.000000;3.174594
2827.000000;3.339475
2826.000000;3.695255
2825.000000;3.781559
2824.000000;3.274721
2823.000000;3.118355
2822.000000;3.148367
2821.000000;3.227435
2820.000000;3.168472
2819.000000;3.066046
2818.000000;3.046931
2817.000000;3.099259
2816.000000;3.444480
2815.000000;3.524992
2814.000000;3.076118
2813.000000;2.975793
2812.000000;2.934515
2811.000000;2.860289
2810.000000;2.779765
2809.000000;2.745752
2808.000000;2.769115
2807.000000;2.773257
2806.000000;2.763049
2805.000000;2.784456
2804.000000;2.808662
2803.000000;2.834004
2802.000000;2.904460
2801.000000;3.046071
2800.000000;3.385309
2799.000000;3.360155
2798.000000;2.991396
2797.000000;2.906825
2796.000000;3.002769
2795.000000;3.079238
2794.000000;3.012470
2793.000000;3.092113
2792.000000;3.253336
2791.000000;3.021473
2790.000000;2.841152
2789.000000;2.828089
2788.000000;2.973203
2787.000000;3.230659
2786.000000;3.245471
2785.000000;3.123805
2784.000000;3.069349
2783.000000;3.089703
2782.000000;3.306962
2781.000000;3.596120
2780.000000;3.357253
2779.000000;3.174998
2778.000000;3.115075
2777.000000;3.084090
2776.000000;3.016063
2775.000000;2.945661
2774.000000;2.944202
2773.000000;3.186298
2772.000000;3.829302
2771.000000;3.725062
2770.000000;3.388276
2769.000000;2.950293
2768.000000;2.833824
2767.000000;3.040695
2766.000000;3.419661
2765.000000;3.052836
2764.000000;2.826555
2763.000000;2.758033
2762.000000;2.782286
2761.000000;2.939859
2760.000000;3.223689
2759.000000;3.438058
2758.000000;3.250773
2757.000000;3.012212
2756.000000;2.892425
2755.000000;2.893862
2754.000000;2.966678
2753.000000;3.064284
2752.000000;3.149626
2751.000000;3.208253
2750.000000;3.223186
2749.000000;3.205041
2748.000000;3.168221
2747.000000;3.076080
2746.000000;2.981182
2745.000000;2.913256
2744.000000;2.824217
2743.000000;2.731117
2742.000000;2.699180
2741.000000;2.761763
2740.000000;2.928933
2739.000000;3.072666
2738.000000;3.059071
2737.000000;3.076669
2736.000000;3.225436
2735.000000;3.605777
2734.000000;3.381880
2733.000000;2.987894
2732.000000;2.877724
2731.000000;2.863547
2730.000000;2.910875
2729.000000;2.978474
2728.000000;3.086581
2727.000000;3.527769
2726.000000;3.342935
2725.000000;2.980428
2724.000000;2.957630
2723.000000;3.084153
2722.000000;3.099679
2721.000000;3.006531
2720.000000;2.974906
2719.000000;2.917261
2718.000000;2.785836
2717.000000;2.658716
2716.000000;2.602790
2715.000000;2.639150
2714.000000;2.743094
2713.000000;2.856425
2712.000000;2.957044
2711.000000;3.251628
2710.000000;3.604331
2709.000000;3.169838
2708.000000;3.088312
2707.000000;3.436822
2706.000000;3.418188
2705.000000;2.922800
2704.000000;2.754356
2703.000000;2.685783
2702.000000;2.666235
2701.000000;2.667639
2700.000000;2.691932
2699.000000;2.762838
2698.000000;2.878045
2697.000000;3.048017
2696.000000;3.292309
2695.000000;3.473621
2694.000000;3.189390
2693.000000;2.936077
2692.000000;2.835011
2691.000000;2.874611
2690.000000;3.085649
2689.000000;3.258885
2688.000000;3.126852
2687.000000;3.185204
2686.000000;3.447453
2685.000000;3.372519
2684.000000;3.256032
2683.000000;3.592550
2682.000000;3.483786
2681.000000;2.943369
2680.000000;2.767103
2679.000000;2.697937
2678.000000;2.703704
2677.000000;2.777967
2676.000000;2.931527
2675.000000;3.168605
2674.000000;3.267490
2673.000000;3.129540
2672.000000;3.010722
2671.000000;2.999377
2670.000000;3.119635
2669.000000;3.237250
2668.000000;3.197577
2667.000000;3.277869
2666.000000;3.150453
2665.000000;2.857976
2664.000000;2.744214
2663.000000;2.786856
2662.000000;2.939297
2661.000000;3.092686
2660.000000;3.173531
2659.000000;3.186635
2658.000000;3.043759
2657.000000;2.868354
2656.000000;2.772383
2655.000000;2.741116
2654.000000;2.744923
2653.000000;2.824385
2652.000000;3.156471
2651.000000;3.560528
2650.000000;3.279971
2649.000000;3.238288
2648.000000;3.181877
2647.000000;3.046522
2646.000000;2.997437
2645.000000;3.042730
2644.000000;3.041472
2643.000000;2.937556
2642.000000;2.881998
2641.000000;2.928009
2640.000000;3.064510
2639.000000;3.202408
2638.000000;3.201833
2637.000000;3.176656
2636.000000;3.424106
2635.000000;3.251778
2634.000000;2.787100
2633.000000;2.614309
2632.000000;2.586980
2631.000000;2.659146
2630.000000;2.786297
2629.000000;2.837261
2628.000000;2.789603
2627.000000;2.752460
2626.000000;2.749654
2625.000000;2.786208
2624.000000;2.932937
2623.000000;3.289662
2622.000000;3.182890
2621.000000;2.946112
2620.000000;2.947770
2619.000000;2.914379
2618.000000;2.828223
2617.000000;2.810406
2616.000000;2.891398
2615.000000;2.983831
2614.000000;2.960281
2613.000000;2.920229
2612.000000;2.939772
2611.000000;3.002319
2610.000000;3.051295
2609.000000;3.003404
2608.000000;2.949752
2607.000000;3.003821
2606.000000;3.121120
2605.000000;3.123546
2604.000000;3.070973
2603.000000;3.082595
2602.000000;3.237784
2601.000000;3.580811
2600.000000;3.411089
2599.000000;3.280536
2598.000000;3.640315
2597.000000;3.209298
2596.000000;2.815559
2595.000000;2.718179
2594.000000;2.749008
2593.000000;2.891607
2592.000000;2.997196
2591.000000;2.930055
2590.000000;2.857008
2589.000000;2.844512
2588.000000;2.872460
2587.000000;2.891995
2586.000000;2.853073
2585.000000;2.801202
2584.000000;2.808140
2583.000000;2.895030
2582.000000;3.029510
2581.000000;3.077975
2580.000000;2.983731
2579.000000;2.874644
2578.000000;2.816922
2577.000000;2.823144
2576.000000;2.874930
2575.000000;2.947442
2574.000000;3.036198
2573.000000;3.119269
2572.000000;3.128337
2571.000000;3.046609
2570.000000;2.946858
2569.000000;2.930133
2568.000000;3.023563
2567.000000;3.193754
2566.000000;3.186638
2565.000000;3.126920
2564.000000;3.505110
2563.000000;3.178300
2562.000000;2.887910
2561.000000;2.914856
2560.000000;3.106591
2559.000000;3.232897
2558.000000;3.085192
2557.000000;3.015183
2556.000000;3.023563
2555.000000;2.992255
2554.000000;2.932251
2553.000000;2.927214
2552.000000;3.085141
2551.000000;3.499125
2550.000000;3.451740
2549.000000;3.242701
2548.000000;3.205743
2547.000000;3.117055
2546.000000;2.977610
2545.000000;2.880504
2544.000000;2.893039
2543.000000;3.115237
2542.000000;3.501843
2541.000000;3.225012
2540.000000;3.049714
2539.000000;3.126574
2538.000000;3.558775
2537.000000;3.690799
2536.000000;3.325108
2535.000000;3.425524
2534.000000;3.936257
2533.000000;3.380641
2532.000000;3.247722
2531.000000;3.594258
2530.000000;3.615364
2529.000000;3.228379
2528.000000;3.215064
2527.000000;3.247618
2526.000000;3.067593
2525.000000;3.071703
2524.000000;3.192158
2523.000000;3.003415
2522.000000;2.885727
2521.000000;2.919838
2520.000000;2.936283
2519.000000;2.876209
2518.000000;2.824409
2517.000000;2.800481
2516.000000;2.822802
2515.000000;2.924185
2514.000000;3.082227
2513.000000;3.170830
2512.000000;3.112267
2511.000000;2.992392
2510.000000;2.966882
2509.000000;3.129725
2508.000000;3.563948
2507.000000;3.810428
2506.000000;3.865981
2505.000000;3.516875
2504.000000;3.239387
2503.000000;3.076363
2502.000000;3.001406
2501.000000;3.041778
2500.000000;3.145530
2499.000000;3.132722
2498.000000;3.020293
2497.000000;3.004431
2496.000000;3.135207
2495.000000;3.085823
2494.000000;2.890689
2493.000000;2.876969
2492.000000;3.034815
2491.000000;3.377919
2490.000000;3.342074
2489.000000;3.089921
2488.000000;3.017707
2487.000000;2.979688
2486.000000;3.010462
2485.000000;3.163734
2484.000000;3.587013
2483.000000;3.776539
2482.000000;3.184520
2481.000000;2.884584
2480.000000;2.722799
2479.000000;2.636784
2478.000000;2.627304
2477.000000;2.716514
2476.000000;2.925158
2475.000000;3.226327
2474.000000;3.405951
2473.000000;3.194053
2472.000000;2.971547
2471.000000;2.856812
2470.000000;2.813468
2469.000000;2.770330
2468.000000;2.693806
2467.000000;2.631089
2466.000000;2.613448
2465.000000;2.654714
2464.000000;2.765658
2463.000000;2.920124
2462.000000;3.039753
2461.000000;3.093342
2460.000000;3.197596
2459.000000;3.626769
2458.000000;3.331829
2457.000000;2.981666
2456.000000;2.876536
2455.000000;2.881036
2454.000000;2.983239
2453.000000;2.881533
2452.000000;2.698431
2451.000000;2.630857
2450.000000;2.673316
2449.000000;2.812440
2448.000000;3.082726
2447.000000;3.490261
2446.000000;3.179549
2445.000000;3.016884
2444.000000;3.035733
2443.000000;3.159132
2442.000000;3.273223
2441.000000;3.280220
2440.000000;3.265067
2439.000000;3.382982
2438.000000;3.467599
2437.000000;3.149614
2436.000000;2.930638
2435.000000;2.913713
2434.000000;3.064291
2433.000000;3.276221
2432.000000;3.314522
2431.000000;3.192811
2430.000000;3.149722
2429.000000;3.244720
2428.000000;3.299871
2427.000000;3.210359
2426.000000;3.210544
2425.000000;3.318781
2424.000000;3.169289
2423.000000;3.004960
2422.000000;2.963149
2421.000000;3.026196
2420.000000;3.144344
2419.000000;3.113196
2418.000000;2.952183
2417.000000;2.888506
2416.000000;2.966549
2415.000000;3.358051
2414.000000;3.764521
2413.000000;3.065305
2412.000000;2.879520
2411.000000;2.782235
2410.000000;2.800766
2409.000000;2.900718
2408.000000;3.267046
2407.000000;3.365053
2406.000000;2.908879
2405.000000;2.767142
2404.000000;2.794214
2403.000000;2.972825
2402.000000;3.311426
2401.000000;3.785986
2400.000000;5.001686
2399.000000;3.925094
2398.000000;3.527396
2397.000000;3.186303
2396.000000;2.971310
2395.000000;2.934362
2394.000000;2.993485
2393.000000;3.019357
2392.000000;3.083085
2391.000000;3.284695
2390.000000;3.344455
2389.000000;3.102163
2388.000000;3.001046
2387.000000;3.089177
2386.000000;3.348536
2385.000000;3.376181
2384.000000;3.666294
2383.000000;3.756908
2382.000000;3.204389
2381.000000;3.084960
2380.000000;3.069231
2379.000000;3.120713
2378.000000;3.179254
2377.000000;3.193698
2376.000000;3.147340
2375.000000;3.121140
2374.000000;3.185984
2373.000000;3.305642
2372.000000;3.278760
2371.000000;3.198445
2370.000000;3.155283
2369.000000;3.108636
2368.000000;3.058351
2367.000000;3.003458
2366.000000;2.968229
2365.000000;2.989819
2364.000000;3.069816
2363.000000;3.191978
2362.000000;3.395338
2361.000000;3.868456
2360.000000;3.741459
2359.000000;3.373996
2358.000000;3.350305
2357.000000;3.562814
2356.000000;3.866248
2355.000000;3.498278
2354.000000;3.364834
2353.000000;3.460991
2352.000000;3.944214
2351.000000;3.597778
2350.000000;3.217432
2349.000000;3.079370
2348.000000;3.013101
2347.000000;3.019313
2346.000000;3.063139
2345.000000;3.103767
2344.000000;3.131640
2343.000000;3.204634
2342.000000;3.417479
2341.000000;3.525378
2340.000000;3.264330
2339.000000;3.089501
2338.000000;3.000803
2337.000000;3.021220
2336.000000;3.154848
2335.000000;3.321187
2334.000000;3.329494
2333.000000;3.260920
2332.000000;3.223784
2331.000000;3.236531
2330.000000;3.228710
2329.000000;3.160076
2328.000000;3.142968
2327.000000;3.198724
2326.000000;3.211684
2325.000000;3.216784
2324.000000;3.333150
2323.000000;3.641268
2322.000000;3.899199
2321.000000;3.644321
2320.000000;3.343959
2319.000000;3.107843
2318.000000;2.977178
2317.000000;2.957806
2316.000000;3.024931
2315.000000;3.127474
2314.000000;3.192511
2313.000000;3.230123
2312.000000;3.326470
2311.000000;3.522204
2310.000000;3.730489
2309.000000;3.717687
2308.000000;3.601336
2307.000000;3.767429
2306.000000;3.682426
2305.000000;3.222773
2304.000000;3.036749
2303.000000;2.954844
2302.000000;2.963675
2301.000000;3.057456
2300.000000;3.208184
2299.000000;3.267605
2298.000000;3.162091
2297.000000;3.062358
2296.000000;3.065399
2295.000000;3.091164
2294.000000;3.024626
2293.000000;3.000712
2292.000000;3.107407
2291.000000;3.275515
2290.000000;3.327485
2289.000000;3.240160
2288.000000;3.131389
2287.000000;3.073002
2286.000000;3.079822
2285.000000;3.219899
2284.000000;3.508028
2283.000000;3.099495
2282.000000;2.872096
2281.000000;2.846388
2280.000000;2.971909
2279.000000;3.004029
2278.000000;2.820984
2277.000000;2.709231
2276.000000;2.654935
2275.000000;2.619973
2274.000000;2.602494
2273.000000;2.631961
2272.000000;2.711808
2271.000000;2.834483
2270.000000;2.996553
2269.000000;3.464415
2268.000000;3.518184
2267.000000;3.101439
2266.000000;2.979568
2265.000000;2.985692
2264.000000;3.048406
2263.000000;3.105845
2262.000000;3.170107
2261.000000;3.317963
2260.000000;3.611661
2259.000000;3.063092
2258.000000;2.856243
2257.000000;2.833211
2256.000000;2.979149
2255.000000;3.298598
2254.000000;3.397725
2253.000000;3.237028
2252.000000;3.177278
2251.000000;3.208338
2250.000000;3.219406
2249.000000;3.082283
2248.000000;2.967687
2247.000000;2.920246
2246.000000;2.965604
2245.000000;3.102748
2244.000000;3.528643
2243.000000;3.690283
2242.000000;3.259778
2241.000000;3.126748
2240.000000;3.135830
2239.000000;3.239586
2238.000000;3.384030
2237.000000;3.393312
2236.000000;3.193906
2235.000000;2.969434
2234.000000;2.793923
2233.000000;2.744120
2232.000000;2.858637
2231.000000;3.193156
2230.000000;3.400206
2229.000000;3.070431
2228.000000;2.936295
2227.000000;2.885249
2226.000000;2.891487
2225.000000;2.904472
2224.000000;2.897598
2223.000000;2.866356
2222.000000;2.828386
2221.000000;2.801793
2220.000000;2.830365
2219.000000;2.945489
2218.000000;3.270177
2217.000000;3.316344
2216.000000;3.075917
2215.000000;3.038206
2214.000000;3.088527
2213.000000;3.245765
2212.000000;3.665975
2211.000000;3.802257
2210.000000;3.664457
2209.000000;3.153548
2208.000000;2.882466
2207.000000;2.804312
2206.000000;2.853150
2205.000000;2.945075
2204.000000;2.973709
2203.000000;2.944737
2202.000000;2.908277
2201.000000;2.877471
2200.000000;2.856890
2199.000000;2.880217
2198.000000;2.952643
2197.000000;3.054073
2196.000000;3.188218
2195.000000;3.363362
2194.000000;3.567408
2193.000000;3.513490
2192.000000;3.255016
2191.000000;3.167190
2190.000000;3.227622
2189.000000;3.831060
2188.000000;3.724142
2187.000000;3.406847
2186.000000;3.475793
2185.000000;3.371425
2184.000000;3.214388
2183.000000;3.133882
2182.000000;3.146930
2181.000000;3.264221
2180.000000;3.546603
2179.000000;3.540614
2178.000000;3.633334
2177.000000;3.902796
2176.000000;3.603090
2175.000000;4.133853
2174.000000;3.406256
2173.000000;3.256881
2172.000000;3.247153
2171.000000;3.225912
2170.000000;3.163489
2169.000000;3.122114
2168.000000;3.018998
2167.000000;2.850339
2166.000000;2.806089
2165.000000;2.924822
2164.000000;3.153857
2163.000000;3.316739
2162.000000;3.490422
2161.000000;3.865792
2160.000000;3.794839
2159.000000;3.401298
2158.000000;3.232686
2157.000000;3.256507
2156.000000;3.684369
2155.000000;3.526067
2154.000000;3.210212
2153.000000;3.147625
2152.000000;3.172663
2151.000000;3.121190
2150.000000;3.025133
2149.000000;3.038743
2148.000000;3.295327
2147.000000;3.578208
2146.000000;3.300453
2145.000000;3.478553
2144.000000;3.256522
2143.000000;2.990815
2142.000000;2.964840
2141.000000;3.052387
2140.000000;3.230406
2139.000000;3.415123
2138.000000;3.250680
2137.000000;3.021038
2136.000000;2.891243
2135.000000;2.834155
2134.000000;2.885945
2133.000000;3.058312
2132.000000;3.134316
2131.000000;3.066080
2130.000000;3.051318
2129.000000;3.086960
2128.000000;3.147582
2127.000000;3.192720
2126.000000;3.100024
2125.000000;2.987915
2124.000000;2.989067
2123.000000;3.116278
2122.000000;3.286116
2121.000000;3.391954
2120.000000;3.415056
2119.000000;3.281661
2118.000000;3.133631
2117.000000;3.213807
2116.000000;3.253767
2115.000000;2.940049
2114.000000;2.841728
2113.000000;3.048469
2112.000000;3.407820
2111.000000;3.107446
2110.000000;3.030774
2109.000000;3.215854
2108.000000;3.435006
2107.000000;3.364560
2106.000000;3.180167
2105.000000;3.397765
2104.000000;3.406981
2103.000000;2.900617
2102.000000;2.747519
2101.000000;2.778143
2100.000000;2.895009
2099.000000;2.987015
2098.000000;2.928128
2097.000000;2.814135
2096.000000;2.735862
2095.000000;2.688616
2094.000000;2.670651
2093.000000;2.704734
2092.000000;2.804084
2091.000000;2.946953
2090.000000;3.118545
2089.000000;3.323480
2088.000000;3.349608
2087.000000;3.220195
2086.000000;3.017354
2085.000000;2.780317
2084.000000;2.653883
2083.000000;2.660657
2082.000000;2.789438
2081.000000;2.996256
2080.000000;3.201541
2079.000000;3.423780
2078.000000;3.633759
2077.000000;3.281841
2076.000000;3.035380
2075.000000;2.912598
2074.000000;2.872770
2073.000000;2.937292
2072.000000;3.136224
2071.000000;3.594288
2070.000000;3.668335
2069.000000;3.122553
2068.000000;2.925872
2067.000000;2.855719
2066.000000;2.883488
2065.000000;2.998584
2064.000000;3.427302
2063.000000;3.448735
2062.000000;2.883533
2061.000000;2.762782
2060.000000;2.729139
2059.000000;2.732510
2058.000000;2.680079
2057.000000;2.607411
2056.000000;2.576871
2055.000000;2.624455
2054.000000;2.753870
2053.000000;2.950632
2052.000000;3.103940
2051.000000;3.046473
2050.000000;2.995153
2049.000000;3.067335
2048.000000;3.357581
2047.000000;3.280654
2046.000000;2.989457
2045.000000;2.901085
2044.000000;2.971475
2043.000000;3.235031
2042.000000;3.613210
2041.000000;3.220506
2040.000000;3.053561
2039.000000;3.019896
2038.000000;3.121408
2037.000000;3.177082
2036.000000;3.070309
2035.000000;3.032093
2034.000000;3.039092
2033.000000;2.972981
2032.000000;2.829186
2031.000000;2.716088
2030.000000;2.690298
2029.000000;2.759251
2028.000000;2.890911
2027.000000;2.941081
2026.000000;2.923203
2025.000000;2.967871
2024.000000;3.106427
2023.000000;3.113664
2022.000000;2.904940
2021.000000;2.838304
2020.000000;2.983105
2019.000000;3.428469
2018.000000;3.895339
2017.000000;3.407291
2016.000000;3.062281
2015.000000;2.959103
2014.000000;2.997591
2013.000000;3.043572
2012.000000;3.101034
2011.000000;3.271841
2010.000000;3.355483
2009.000000;3.253296
2008.000000;3.165053
2007.000000;3.356578
2006.000000;3.615105
2005.000000;3.093276
2004.000000;2.891472
2003.000000;3.111069
2002.000000;3.132057
2001.000000;2.810242
2000.000000;2.795871
1999.000000;3.014148
1998.000000;2.838942
1997.000000;2.633377
1996.000000;2.633427
1995.000000;2.783863
1994.000000;3.128648
1993.000000;3.042086
1992.000000;2.839891
1991.000000;2.861233
1990.000000;3.101103
1989.000000;3.486744
1988.000000;3.301470
1987.000000;3.138450
1986.000000;3.064972
1985.000000;3.098028
1984.000000;3.171854
1983.000000;3.057540
1982.000000;2.882507
1981.000000;2.793282
1980.000000;2.767068
1979.000000;2.778777
1978.000000;2.819112
1977.000000;2.887320
1976.000000;2.949228
1975.000000;2.948743
1974.000000;2.901114
1973.000000;2.884419
1972.000000;2.938507
1971.000000;3.058193
1970.000000;3.073789
1969.000000;3.002667
1968.000000;3.037945
1967.000000;3.762833
1966.000000;3.175480
1965.000000;2.896182
1964.000000;2.901279
1963.000000;3.087241
1962.000000;3.209189
1961.000000;3.034954
1960.000000;3.043539
1959.000000;3.417361
1958.000000;3.872570
1957.000000;3.448164
1956.000000;3.528601
1955.000000;3.072058
1954.000000;2.950673
1953.000000;2.994165
1952.000000;3.115017
1951.000000;3.140810
1950.000000;3.089923
1949.000000;3.096308
1948.000000;3.195150
1947.000000;3.305783
1946.000000;3.407477
1945.000000;3.704181
1944.000000;4.022592
1943.000000;3.409883
1942.000000;3.121227
1941.000000;3.046722
1940.000000;3.078656
1939.000000;3.029515
1938.000000;2.990937
1937.000000;3.114867
1936.000000;3.632772
1935.000000;3.330985
1934.000000;3.049875
1933.000000;3.160528
1932.000000;3.584320
1931.000000;3.132174
1930.000000;2.983504
1929.000000;3.082223
1928.000000;3.426667
1927.000000;3.413746
1926.000000;3.058494
1925.000000;2.921755
1924.000000;2.914487
1923.000000;3.238217
1922.000000;3.568613
1921.000000;3.130174
1920.000000;3.065686
1919.000000;3.041154
1918.000000;3.035628
1917.000000;3.018558
1916.000000;2.904665
1915.000000;2.890094
1914.000000;2.957358
1913.000000;3.013052
1912.000000;3.114186
1911.000000;3.251860
1910.000000;3.011966
1909.000000;2.849502
1908.000000;2.873788
1907.000000;3.050255
1906.000000;3.185216
1905.000000;3.044502
1904.000000;2.865589
1903.000000;2.794530
1902.000000;2.839797
1901.000000;2.943982
1900.000000;3.000616
1899.000000;2.939769
1898.000000;2.878137
1897.000000;2.922880
1896.000000;3.135452
1895.000000;3.361537
1894.000000;3.367599
1893.000000;3.401408
1892.000000;3.222251
1891.000000;3.133835
1890.000000;3.184189
1889.000000;3.220183
1888.000000;2.990540
1887.000000;2.779021
1886.000000;2.724425
1885.000000;2.789334
1884.000000;2.939236
1883.000000;3.126558
1882.000000;3.011011
1881.000000;2.831532
1880.000000;2.796121
1879.000000;2.942568
1878.000000;3.384991
1877.000000;3.442886
1876.000000;3.214892
1875.000000;3.331405
1874.000000;3.302420
1873.000000;2.997295
1872.000000;2.842497
1871.000000;2.861564
1870.000000;3.204483
1869.000000;3.542859
1868.000000;3.042097
1867.000000;2.910617
1866.000000;2.995971
1865.000000;3.269861
1864.000000;3.677767
1863.000000;3.461587
1862.000000;3.285631
1861.000000;3.344827
1860.000000;3.248819
1859.000000;3.045106
1858.000000;3.030520
1857.000000;3.139397
1856.000000;3.063640
1855.000000;2.995468
1854.000000;3.079053
1853.000000;3.423015
1852.000000;3.816811
1851.000000;3.134123
1850.000000;2.957302
1849.000000;2.897595
1848.000000;2.920088
1847.000000;2.920913
1846.000000;2.868771
1845.000000;2.879956
1844.000000;3.052180
1843.000000;3.209289
1842.000000;3.100747
1841.000000;2.966160
1840.000000;2.864359
1839.000000;2.837478
1838.000000;2.912053
1837.000000;3.030611
1836.000000;3.045184
1835.000000;2.962976
1834.000000;2.815623
1833.000000;2.695971
1832.000000;2.697193
1831.000000;2.854368
1830.000000;3.145112
1829.000000;3.404042
1828.000000;3.134194
1827.000000;2.820479
1826.000000;2.692274
1825.000000;2.708416
1824.000000;2.872138
1823.000000;3.241151
1822.000000;3.692789
1821.000000;3.453560
1820.000000;3.253293
1819.000000;3.155732
1818.000000;3.162331
1817.000000;3.125514
1816.000000;2.943286
1815.000000;2.774707
1814.000000;2.708648
1813.000000;2.761011
1812.000000;2.987028
1811.000000;3.048595
1810.000000;2.867574
1809.000000;2.837012
1808.000000;2.920016
1807.000000;3.034165
1806.000000;3.165433
1805.000000;3.358288
1804.000000;3.190678
1803.000000;2.933909
1802.000000;2.777171
1801.000000;2.723896
1800.000000;2.914318
1799.000000;3.594518
1798.000000;3.012529
1797.000000;2.851778
1796.000000;2.878374
1795.000000;2.957540
1794.000000;2.923245
1793.000000;2.881651
1792.000000;3.076250
1791.000000;3.344429
1790.000000;3.143612
1789.000000;3.047717
1788.000000;3.087991
1787.000000;3.274808
1786.000000;3.279251
1785.000000;3.139149
1784.000000;3.201464
1783.000000;3.262197
1782.000000;3.317812
1781.000000;3.163312
1780.000000;2.935319
1779.000000;2.852864
1778.000000;2.918374
1777.000000;3.070241
1776.000000;2.999397
1775.000000;2.857221
1774.000000;2.867072
1773.000000;2.933623
1772.000000;2.718223
1771.000000;2.568518
1770.000000;2.588311
1769.000000;2.678316
1768.000000;2.730466
1767.000000;2.725569
1766.000000;2.721537
1765.000000;2.749931
1764.000000;2.788732
1763.000000;2.856648
1762.000000;2.986203
1761.000000;3.600248
1760.000000;3.503813
1759.000000;2.924408
1758.000000;2.757951
1757.000000;2.694047
1756.000000;2.715161
1755.000000;2.805355
1754.000000;2.941857
1753.000000;3.031623
1752.000000;2.907963
1751.000000;2.739763
1750.000000;2.697849
1749.000000;2.790259
1748.000000;2.989412
1747.000000;3.183166
1746.000000;3.113614
1745.000000;3.072072
1744.000000;3.337867
1743.000000;3.956665
1742.000000;3.147388
1741.000000;3.152523
1740.000000;3.514908
1739.000000;3.315860
1738.000000;3.025439
1737.000000;3.062412
1736.000000;3.248406
1735.000000;3.445970
1734.000000;3.546261
1733.000000;3.524731
1732.000000;3.281407
1731.000000;3.117011
1730.000000;3.067475
1729.000000;3.019116
1728.000000;2.913995
1727.000000;2.802226
1726.000000;2.724452
1725.000000;2.688467
1724.000000;2.689301
1723.000000;2.721501
1722.000000;2.798945
1721.000000;2.935266
1720.000000;3.055478
1719.000000;2.950737
1718.000000;2.805154
1717.000000;2.773111
1716.000000;2.873328
1715.000000;2.957216
1714.000000;2.883919
1713.000000;2.862429
1712.000000;2.943094
1711.000000;3.089574
1710.000000;3.056203
1709.000000;2.905137
1708.000000;2.884708
1707.000000;3.000149
1706.000000;3.160005
1705.000000;3.122227
1704.000000;2.962229
1703.000000;2.803029
1702.000000;2.635479
1701.000000;2.562058
1700.000000;2.775315
1699.000000;3.175409
1698.000000;2.963177
1697.000000;2.887308
1696.000000;2.971641
1695.000000;3.279435
1694.000000;4.012511
1693.000000;3.188732
1692.000000;2.883636
1691.000000;2.768421
1690.000000;2.744097
1689.000000;2.789953
1688.000000;2.874162
1687.000000;2.941008
1686.000000;3.295906
1685.000000;3.348648
1684.000000;2.649350
1683.000000;2.569140
1682.000000;2.739818
1681.000000;3.157494
1680.000000;3.416363
1679.000000;3.159125
1678.000000;2.969339
1677.000000;2.725940
1676.000000;2.573489
1675.000000;2.601110
1674.000000;2.802240
1673.000000;3.077196
1672.000000;3.221845
1671.000000;2.886251
1670.000000;2.622605
1669.000000;2.545787
1668.000000;2.607301
1667.000000;2.747451
1666.000000;2.907932
1665.000000;3.021559
1664.000000;2.984987
1663.000000;2.937433
1662.000000;3.009478
1661.000000;2.982122
1660.000000;2.796403
1659.000000;2.673590
1658.000000;2.605695
1657.000000;2.596733
1656.000000;2.656394
1655.000000;2.765925
1654.000000;2.840477
1653.000000;2.817660
1652.000000;2.831310
1651.000000;2.945882
1650.000000;3.338508
1649.000000;3.404781
1648.000000;3.148711
1647.000000;2.995391
1646.000000;2.848782
1645.000000;2.801068
1644.000000;2.910827
1643.000000;3.372015
1642.000000;3.323150
1641.000000;2.954277
1640.000000;2.860910
1639.000000;2.882656
1638.000000;2.999336
1637.000000;3.201817
1636.000000;3.149948
1635.000000;2.939522
1634.000000;2.898814
1633.000000;2.842225
1632.000000;2.763875
1631.000000;2.765699
1630.000000;2.864555
1629.000000;3.180569
1628.000000;3.565037
1627.000000;3.120381
1626.000000;2.850182
1625.000000;2.758673
1624.000000;2.807312
1623.000000;2.975418
1622.000000;3.103928
1621.000000;3.208814
1620.000000;3.533182
1619.000000;4.007517
1618.000000;3.663472
1617.000000;3.571135
1616.000000;3.702485
1615.000000;3.419328
1614.000000;3.360066
1613.000000;3.497094
1612.000000;3.298174
1611.000000;2.992257
1610.000000;2.780148
1609.000000;2.677943
1608.000000;2.676251
1607.000000;2.779660
1606.000000;2.992223
1605.000000;3.543887
1604.000000;3.853161
1603.000000;3.164923
1602.000000;3.002491
1601.000000;2.954743
1600.000000;3.067280
1599.000000;3.485615
1598.000000;3.779921
1597.000000;3.381054
1596.000000;3.110940
1595.000000;2.902235
1594.000000;2.796565
1593.000000;2.809046
1592.000000;2.947649
1591.000000;3.318501
1590.000000;3.240943
1589.000000;2.910451
1588.000000;2.828602
1587.000000;2.923398
1586.000000;3.136439
1585.000000;3.140348
1584.000000;3.044143
1583.000000;3.085578
1582.000000;3.345908
1581.000000;3.693341
1580.000000;3.254493
1579.000000;3.086809
1578.000000;3.173377
1577.000000;3.566930
1576.000000;3.940428
1575.000000;3.624639
1574.000000;3.831586
1573.000000;3.849306
1572.000000;3.609736
1571.000000;3.919480
1570.000000;3.532467
1569.000000;3.200738
1568.000000;3.534781
1567.000000;3.522369
1566.000000;3.099200
1565.000000;2.938460
1564.000000;2.842654
1563.000000;2.781228
1562.000000;2.762146
1561.000000;2.753817
1560.000000;2.786223
1559.000000;2.810665
1558.000000;2.943799
1557.000000;3.102905
1556.000000;3.134933
1555.000000;3.115815
1554.000000;3.079089
1553.000000;3.152004
1552.000000;3.227642
1551.000000;3.064610
1550.000000;2.916438
1549.000000;2.849144
1548.000000;2.831198
1547.000000;2.872451
1546.000000;3.031539
1545.000000;3.529612
1544.000000;5.041516
1543.000000;3.340016
1542.000000;2.911079
1541.000000;2.849157
1540.000000;2.945616
1539.000000;3.059994
1538.000000;3.178969
1537.000000;3.354053
1536.000000;3.135877
1535.000000;2.769671
1534.000000;2.625781
1533.000000;2.657306
1532.000000;2.785007
1531.000000;2.996549
1530.000000;3.373409
1529.000000;3.140582
1528.000000;2.825693
1527.000000;2.772779
1526.000000;2.866898
1525.000000;2.993323
1524.000000;2.933406
1523.000000;2.754997
1522.000000;2.658722
1521.000000;2.654435
1520.000000;2.784364
1519.000000;3.037660
1518.000000;3.126860
1517.000000;3.669890
1516.000000;3.276275
1515.000000;2.774859
1514.000000;2.679455
1513.000000;2.709891
1512.000000;2.793165
1511.000000;2.820207
1510.000000;2.782544
1509.000000;2.743954
1508.000000;2.760297
1507.000000;2.770425
1506.000000;3.004982
1505.000000;3.733929
1504.000000;3.450612
1503.000000;3.503553
1502.000000;3.321623
1501.000000;2.946658
1500.000000;2.827800
1499.000000;3.127828
1498.000000;3.331515
1497.000000;2.810908
1496.000000;2.668500
1495.000000;2.622993
1494.000000;2.650406
1493.000000;2.763739
1492.000000;3.133209
1491.000000;3.316168
1490.000000;2.895348
1489.000000;2.798330
1488.000000;2.867864
1487.000000;3.119118
1486.000000;3.519339
1485.000000;3.343948
1484.000000;3.251666
1483.000000;3.349889
1482.000000;3.173198
1481.000000;2.897555
1480.000000;2.701473
1479.000000;2.582949
1478.000000;2.539027
1477.000000;2.553201
1476.000000;2.576608
1475.000000;2.599070
1474.000000;2.653819
1473.000000;2.790672
1472.000000;3.136199
1471.000000;3.098892
1470.000000;2.836005
1469.000000;2.814324
1468.000000;2.806241
1467.000000;2.709819
1466.000000;2.586381
1465.000000;2.538092
1464.000000;2.616053
1463.000000;2.850769
1462.000000;3.035209
1461.000000;2.875731
1460.000000;2.790375
1459.000000;2.926102
1458.000000;3.132580
1457.000000;2.936835
1456.000000;2.788264
1455.000000;2.811888
1454.000000;2.945653
1453.000000;3.251770
1452.000000;3.639137
1451.000000;3.264240
1450.000000;2.931870
1449.000000;2.754651
1448.000000;2.706788
1447.000000;2.785865
1446.000000;2.952088
1445.000000;3.140231
1444.000000;3.323025
1443.000000;3.451266
1442.000000;3.401362
1441.000000;3.252470
1440.000000;3.076467
1439.000000;2.959414
1438.000000;2.970028
1437.000000;3.008912
1436.000000;2.882868
1435.000000;2.759107
1434.000000;2.709717
1433.000000;2.699234
1432.000000;2.740947
1431.000000;2.844449
1430.000000;2.917639
1429.000000;2.920935
1428.000000;2.966645
1427.000000;3.018013
1426.000000;2.993847
1425.000000;2.960607
1424.000000;2.946305
1423.000000;2.980828
1422.000000;3.044385
1421.000000;2.936952
1420.000000;2.779374
1419.000000;2.756441
1418.000000;2.986613
1417.000000;3.133337
1416.000000;2.855779
1415.000000;2.752605
1414.000000;2.753791
1413.000000;2.805556
1412.000000;2.902973
1411.000000;3.044971
1410.000000;3.155339
1409.000000;3.141477
1408.000000;3.079409
1407.000000;2.924968
1406.000000;2.772844
1405.000000;2.691792
1404.000000;2.679589
1403.000000;2.727870
1402.000000;2.818588
1401.000000;2.959187
1400.000000;3.170663
1399.000000;3.419311
1398.000000;3.833610
1397.000000;3.698058
1396.000000;3.353115
1395.000000;3.278007
1394.000000;3.069556
1393.000000;2.864854
1392.000000;2.765849
1391.000000;2.729614
1390.000000;2.744437
1389.000000;2.823564
1388.000000;2.976468
1387.000000;3.244090
1386.000000;3.815146
1385.000000;3.419695
1384.000000;2.999281
1383.000000;2.829008
1382.000000;2.781197
1381.000000;2.850623
1380.000000;3.033141
1379.000000;3.545772
1378.000000;3.442658
1377.000000;2.935079
1376.000000;2.737433
1375.000000;2.699755
1374.000000;2.805198
1373.000000;3.117699
1372.000000;3.360794
1371.000000;3.019379
1370.000000;2.799624
1369.000000;2.666348
1368.000000;2.617619
1367.000000;2.672233
1366.000000;2.807958
1365.000000;2.961612
1364.000000;3.120525
1363.000000;3.317245
1362.000000;3.141004
1361.000000;2.961650
1360.000000;2.893099
1359.000000;2.806630
1358.000000;2.786813
1357.000000;2.852209
1356.000000;2.895563
1355.000000;2.794905
1354.000000;2.666039
1353.000000;2.609708
1352.000000;2.633982
1351.000000;2.715406
1350.000000;2.871982
1349.000000;3.239714
1348.000000;3.314993
1347.000000;3.043613
1346.000000;2.973210
1345.000000;2.952410
1344.000000;2.947784
1343.000000;3.025166
1342.000000;3.109949
1341.000000;3.061750
1340.000000;3.052974
1339.000000;3.131911
1338.000000;3.214000
1337.000000;3.264783
1336.000000;3.255564
1335.000000;3.207209
1334.000000;3.217868
1333.000000;3.336609
1332.000000;3.324467
1331.000000;3.160571
1330.000000;3.052375
1329.000000;2.978542
1328.000000;2.936314
1327.000000;2.954542
1326.000000;3.100157
1325.000000;3.157519
1324.000000;2.888065
1323.000000;2.703308
1322.000000;2.653833
1321.000000;2.712546
1320.000000;2.859607
1319.000000;3.031905
1318.000000;3.173063
1317.000000;3.422859
1316.000000;3.602990
1315.000000;3.204488
1314.000000;2.991638
1313.000000;2.921772
1312.000000;2.973500
1311.000000;3.133476
1310.000000;3.363690
1309.000000;3.799293
1308.000000;3.484118
1307.000000;3.208138
1306.000000;3.313537
1305.000000;3.715739
1304.000000;3.841809
1303.000000;3.211752
1302.000000;2.906923
1301.000000;2.815409
1300.000000;2.826532
1299.000000;2.820883
1298.000000;2.751635
1297.000000;2.702270
1296.000000;2.707940
1295.000000;2.757572
1294.000000;2.823416
1293.000000;2.924783
1292.000000;3.085059
1291.000000;3.405607
1290.000000;3.616694
1289.000000;3.200948
1288.000000;2.999235
1287.000000;2.940647
1286.000000;3.007338
1285.000000;3.186473
1284.000000;3.370657
1283.000000;3.349724
1282.000000;3.102696
1281.000000;3.041079
1280.000000;3.307427
1279.000000;3.319760
1278.000000;2.941632
1277.000000;2.816167
1276.000000;2.805735
1275.000000;2.881493
1274.000000;3.015115
1273.000000;3.249174
1272.000000;4.109265
1271.000000;3.662731
1270.000000;3.427061
1269.000000;3.567053
1268.000000;3.287323
1267.000000;3.211050
1266.000000;3.558817
1265.000000;3.433297
1264.000000;3.449060
1263.000000;3.805605
1262.000000;3.085728
1261.000000;2.856771
1260.000000;2.819251
1259.000000;2.891248
1258.000000;3.076884
1257.000000;3.227220
1256.000000;3.361965
1255.000000;3.544225
1254.000000;3.601053
1253.000000;3.371881
1252.000000;3.129853
1251.000000;3.005133
1250.000000;2.993945
1249.000000;3.101131
1248.000000;3.306271
1247.000000;3.184396
1246.000000;2.967634
1245.000000;2.954453
1244.000000;3.077418
1243.000000;3.044429
1242.000000;2.891231
1241.000000;2.828873
1240.000000;2.811751
1239.000000;2.832410
1238.000000;2.914366
1237.000000;3.215610
1236.000000;3.532084
1235.000000;3.132692
1234.000000;3.064106
1233.000000;3.143984
1232.000000;3.130616
1231.000000;3.078561
1230.000000;3.108467
1229.000000;3.318355
1228.000000;3.372456
1227.000000;3.178235
1226.000000;3.049386
1225.000000;3.084776
1224.000000;3.366602
1223.000000;3.333421
1222.000000;3.109302
1221.000000;3.033253
1220.000000;2.969152
1219.000000;3.028135
1218.000000;3.124589
1217.000000;3.075970
1216.000000;3.153518
1215.000000;3.327299
1214.000000;3.186264
1213.000000;3.062759
1212.000000;3.047961
1211.000000;3.038481
1210.000000;2.948968
1209.000000;2.870955
1208.000000;2.911850
1207.000000;3.063451
1206.000000;3.160049
1205.000000;3.114753
1204.000000;3.129159
1203.000000;3.143955
1202.000000;3.031757
1201.000000;2.916238
1200.000000;2.832048
