Criado como novo conjunto de dados;"e0108.spp","-4240242.6 Secs"
cm-1;Abs
10000.000000;1.000326
9999.000000;0.998983
9998.000000;0.997644
9997.000000;0.996309
9996.000000;0.994979
9995.000000;0.993653
9994.000000;0.992323
9993.000000;0.990852
9992.000000;0.989111
9991.000000;0.987482
9990.000000;0.986736
9989.000000;0.987221
9988.000000;0.988470
9987.000000;0.989644
9986.000000;0.990198
9985.000000;0.990115
9984.000000;0.989775
9983.000000;0.989648
9982.000000;0.989838
9981.000000;0.989795
9980.000000;0.988734
9979.000000;0.986619
9978.000000;0.984534
9977.000000;0.983788
9976.000000;0.984707
9975.000000;0.986484
9974.000000;0.988119
9973.000000;0.989208
9972.000000;0.989739
9971.000000;0.989531
9970.000000;0.988335
9969.000000;0.986452
9968.000000;0.984876
9967.000000;0.984475
9966.000000;0.985049
9965.000000;0.985412
9964.000000;0.984677
9963.000000;0.983439
9962.000000;0.983254
9961.000000;0.984777
9960.000000;0.986725
9959.000000;0.987090
9958.000000;0.985218
9957.000000;0.982268
9956.000000;0.979752
9955.000000;0.978277
9954.000000;0.977697
9953.000000;0.977657
9952.000000;0.977567
9951.000000;0.976712
9950.000000;0.975045
9949.000000;0.973571
9948.000000;0.973392
9947.000000;0.974521
9946.000000;0.976013
9945.000000;0.976982
9944.000000;0.977093
9943.000000;0.976390
9942.000000;0.975251
9941.000000;0.974324
9940.000000;0.973902
9939.000000;0.973494
9938.000000;0.972665
9937.000000;0.972133
9936.000000;0.973092
9935.000000;0.975299
9934.000000;0.976788
9933.000000;0.976007
9932.000000;0.973614
9931.000000;0.971511
9930.000000;0.970650
9929.000000;0.970511
9928.000000;0.970338
9927.000000;0.970066
9926.000000;0.970017
9925.000000;0.970260
9924.000000;0.970459
9923.000000;0.970060
9922.000000;0.968668
9921.000000;0.966465
9920.000000;0.964290
9919.000000;0.963022
9918.000000;0.962851
9917.000000;0.963280
9916.000000;0.963749
9915.000000;0.963991
9914.000000;0.963877
9913.000000;0.963322
9912.000000;0.962485
9911.000000;0.961822
9910.000000;0.961783
9909.000000;0.962450
9908.000000;0.963426
9907.000000;0.963989
9906.000000;0.963476
9905.000000;0.961844
9904.000000;0.959919
9903.000000;0.958870
9902.000000;0.959203
9901.000000;0.960334
9900.000000;0.961175
9899.000000;0.961077
9898.000000;0.960175
9897.000000;0.959006
9896.000000;0.958005
9895.000000;0.957350
9894.000000;0.957084
9893.000000;0.957191
9892.000000;0.957514
9891.000000;0.957694
9890.000000;0.957367
9889.000000;0.956520
9888.000000;0.955612
9887.000000;0.955234
9886.000000;0.955591
9885.000000;0.956284
9884.000000;0.956581
9883.000000;0.955959
9882.000000;0.954524
9881.000000;0.952967
9880.000000;0.951991
9879.000000;0.951700
9878.000000;0.951594
9877.000000;0.951233
9876.000000;0.950734
9875.000000;0.950463
9874.000000;0.950409
9873.000000;0.950210
9872.000000;0.949804
9871.000000;0.949680
9870.000000;0.950215
9869.000000;0.951020
9868.000000;0.951269
9867.000000;0.950670
9866.000000;0.949790
9865.000000;0.949331
9864.000000;0.949354
9863.000000;0.949355
9862.000000;0.948924
9861.000000;0.948098
9860.000000;0.947131
9859.000000;0.946206
9858.000000;0.945432
9857.000000;0.944954
9856.000000;0.944866
9855.000000;0.945061
9854.000000;0.945255
9853.000000;0.945221
9852.000000;0.945040
9851.000000;0.945124
9850.000000;0.945864
9849.000000;0.947087
9848.000000;0.947911
9847.000000;0.947429
9846.000000;0.945685
9845.000000;0.943779
9844.000000;0.942864
9843.000000;0.943110
9842.000000;0.943678
9841.000000;0.943547
9840.000000;0.942272
9839.000000;0.940188
9838.000000;0.938219
9837.000000;0.937350
9836.000000;0.937878
9835.000000;0.939082
9834.000000;0.939841
9833.000000;0.939634
9832.000000;0.938777
9831.000000;0.937818
9830.000000;0.937074
9829.000000;0.936709
9828.000000;0.936785
9827.000000;0.937016
9826.000000;0.936841
9825.000000;0.936103
9824.000000;0.935389
9823.000000;0.935342
9822.000000;0.935763
9821.000000;0.935787
9820.000000;0.934956
9819.000000;0.933774
9818.000000;0.933103
9817.000000;0.933279
9816.000000;0.933922
9815.000000;0.934366
9814.000000;0.934049
9813.000000;0.932673
9812.000000;0.930393
9811.000000;0.927999
9810.000000;0.926637
9809.000000;0.926936
9808.000000;0.928343
9807.000000;0.929535
9806.000000;0.929727
9805.000000;0.929387
9804.000000;0.929477
9803.000000;0.930284
9802.000000;0.931345
9801.000000;0.932231
9800.000000;0.932783
9799.000000;0.932578
9798.000000;0.930969
9797.000000;0.928041
9796.000000;0.924992
9795.000000;0.923074
9794.000000;0.922465
9793.000000;0.922544
9792.000000;0.922875
9791.000000;0.923406
9790.000000;0.923979
9789.000000;0.924340
9788.000000;0.924589
9787.000000;0.925000
9786.000000;0.925355
9785.000000;0.925075
9784.000000;0.924117
9783.000000;0.923135
9782.000000;0.922531
9781.000000;0.921933
9780.000000;0.920911
9779.000000;0.919715
9778.000000;0.918861
9777.000000;0.918439
9776.000000;0.918249
9775.000000;0.918273
9774.000000;0.918521
9773.000000;0.918694
9772.000000;0.918489
9771.000000;0.918046
9770.000000;0.917657
9769.000000;0.917257
9768.000000;0.916702
9767.000000;0.916277
9766.000000;0.916336
9765.000000;0.916568
9764.000000;0.916325
9763.000000;0.915671
9762.000000;0.915333
9761.000000;0.915492
9760.000000;0.915417
9759.000000;0.914688
9758.000000;0.914026
9757.000000;0.914276
9756.000000;0.915118
9755.000000;0.915571
9754.000000;0.915443
9753.000000;0.915452
9752.000000;0.915988
9751.000000;0.916547
9750.000000;0.916543
9749.000000;0.916011
9748.000000;0.915184
9747.000000;0.913958
9746.000000;0.912205
9745.000000;0.910263
9744.000000;0.908709
9743.000000;0.907820
9742.000000;0.907576
9741.000000;0.907924
9740.000000;0.908677
9739.000000;0.909274
9738.000000;0.909096
9737.000000;0.908081
9736.000000;0.906793
9735.000000;0.905901
9734.000000;0.905789
9733.000000;0.906510
9732.000000;0.907708
9731.000000;0.908575
9730.000000;0.908370
9729.000000;0.907247
9728.000000;0.906203
9727.000000;0.905927
9726.000000;0.905996
9725.000000;0.905540
9724.000000;0.904470
9723.000000;0.903550
9722.000000;0.903375
9721.000000;0.903767
9720.000000;0.904264
9719.000000;0.904695
9718.000000;0.904993
9717.000000;0.904843
9716.000000;0.903948
9715.000000;0.902502
9714.000000;0.901027
9713.000000;0.899869
9712.000000;0.899166
9711.000000;0.899181
9710.000000;0.900174
9709.000000;0.901833
9708.000000;0.903224
9707.000000;0.903615
9706.000000;0.903138
9705.000000;0.902420
9704.000000;0.901747
9703.000000;0.900888
9702.000000;0.899638
9701.000000;0.898230
9700.000000;0.897126
9699.000000;0.896592
9698.000000;0.896538
9697.000000;0.896689
9696.000000;0.896837
9695.000000;0.896943
9694.000000;0.897043
9693.000000;0.897090
9692.000000;0.897007
9691.000000;0.896819
9690.000000;0.896568
9689.000000;0.896082
9688.000000;0.895107
9687.000000;0.893833
9686.000000;0.892962
9685.000000;0.892968
9684.000000;0.893469
9683.000000;0.893694
9682.000000;0.893494
9681.000000;0.893432
9680.000000;0.893860
9679.000000;0.894376
9678.000000;0.894400
9677.000000;0.893962
9676.000000;0.893606
9675.000000;0.893663
9674.000000;0.893916
9673.000000;0.893883
9672.000000;0.893226
9671.000000;0.891959
9670.000000;0.890468
9669.000000;0.889301
9668.000000;0.888753
9667.000000;0.888665
9666.000000;0.888659
9665.000000;0.888486
9664.000000;0.888046
9663.000000;0.887266
9662.000000;0.886196
9661.000000;0.885147
9660.000000;0.884469
9659.000000;0.884193
9658.000000;0.884048
9657.000000;0.883839
9656.000000;0.883588
9655.000000;0.883297
9654.000000;0.882798
9653.000000;0.881985
9652.000000;0.881076
9651.000000;0.880499
9650.000000;0.880523
9649.000000;0.881007
9648.000000;0.881475
9647.000000;0.881473
9646.000000;0.881007
9645.000000;0.880628
9644.000000;0.880992
9643.000000;0.882202
9642.000000;0.883596
9641.000000;0.884209
9640.000000;0.883488
9639.000000;0.881653
9638.000000;0.879546
9637.000000;0.878098
9636.000000;0.877736
9635.000000;0.878116
9634.000000;0.878521
9633.000000;0.878587
9632.000000;0.878519
9631.000000;0.878547
9630.000000;0.878461
9629.000000;0.877922
9628.000000;0.877105
9627.000000;0.876632
9626.000000;0.876810
9625.000000;0.877238
9624.000000;0.877381
9623.000000;0.877275
9622.000000;0.877372
9621.000000;0.877791
9620.000000;0.878089
9619.000000;0.877860
9618.000000;0.877312
9617.000000;0.877040
9616.000000;0.877339
9615.000000;0.877855
9614.000000;0.877888
9613.000000;0.877018
9612.000000;0.875503
9611.000000;0.874096
9610.000000;0.873396
9609.000000;0.873333
9608.000000;0.873345
9607.000000;0.873073
9606.000000;0.872708
9605.000000;0.872571
9604.000000;0.872577
9603.000000;0.872363
9602.000000;0.871799
9601.000000;0.871109
9600.000000;0.870540
9599.000000;0.870173
9598.000000;0.870019
9597.000000;0.870025
9596.000000;0.869971
9595.000000;0.869608
9594.000000;0.869014
9593.000000;0.868593
9592.000000;0.868645
9591.000000;0.869123
9590.000000;0.869794
9589.000000;0.870368
9588.000000;0.870413
9587.000000;0.869547
9586.000000;0.867921
9585.000000;0.866269
9584.000000;0.865245
9583.000000;0.864873
9582.000000;0.864813
9581.000000;0.864862
9580.000000;0.864893
9579.000000;0.864556
9578.000000;0.863551
9577.000000;0.862209
9576.000000;0.861374
9575.000000;0.861563
9574.000000;0.862448
9573.000000;0.863256
9572.000000;0.863512
9571.000000;0.863272
9570.000000;0.862823
9569.000000;0.862348
9568.000000;0.861848
9567.000000;0.861256
9566.000000;0.860592
9565.000000;0.860007
9564.000000;0.859673
9563.000000;0.859660
9562.000000;0.859927
9561.000000;0.860346
9560.000000;0.860672
9559.000000;0.860636
9558.000000;0.860228
9557.000000;0.859826
9556.000000;0.859828
9555.000000;0.860101
9554.000000;0.860000
9553.000000;0.859018
9552.000000;0.857341
9551.000000;0.855650
9550.000000;0.854491
9549.000000;0.853971
9548.000000;0.853980
9547.000000;0.854466
9546.000000;0.855322
9545.000000;0.856103
9544.000000;0.856196
9543.000000;0.855488
9542.000000;0.854662
9541.000000;0.854482
9540.000000;0.854844
9539.000000;0.854893
9538.000000;0.854130
9537.000000;0.853002
9536.000000;0.852224
9535.000000;0.851950
9534.000000;0.851946
9533.000000;0.852259
9532.000000;0.853160
9531.000000;0.854476
9530.000000;0.855455
9529.000000;0.855436
9528.000000;0.854458
9527.000000;0.853135
9526.000000;0.852162
9525.000000;0.851915
9524.000000;0.852217
9523.000000;0.852387
9522.000000;0.851814
9521.000000;0.850599
9520.000000;0.849470
9519.000000;0.849017
9518.000000;0.849226
9517.000000;0.849796
9516.000000;0.850555
9515.000000;0.851371
9514.000000;0.851906
9513.000000;0.851813
9512.000000;0.851081
9511.000000;0.850014
9510.000000;0.848923
9509.000000;0.847974
9508.000000;0.847196
9507.000000;0.846466
9506.000000;0.845634
9505.000000;0.844858
9504.000000;0.844683
9503.000000;0.845489
9502.000000;0.846875
9501.000000;0.847895
9500.000000;0.848011
9499.000000;0.847623
9498.000000;0.847476
9497.000000;0.847709
9496.000000;0.847733
9495.000000;0.847019
9494.000000;0.845807
9493.000000;0.844868
9492.000000;0.844674
9491.000000;0.844983
9490.000000;0.845239
9489.000000;0.845172
9488.000000;0.844879
9487.000000;0.844482
9486.000000;0.843969
9485.000000;0.843370
9484.000000;0.842883
9483.000000;0.842668
9482.000000;0.842612
9481.000000;0.842411
9480.000000;0.841862
9479.000000;0.841052
9478.000000;0.840281
9477.000000;0.839800
9476.000000;0.839589
9475.000000;0.839411
9474.000000;0.839123
9473.000000;0.838897
9472.000000;0.839006
9471.000000;0.839410
9470.000000;0.839689
9469.000000;0.839445
9468.000000;0.838725
9467.000000;0.838008
9466.000000;0.837794
9465.000000;0.838177
9464.000000;0.838747
9463.000000;0.838933
9462.000000;0.838525
9461.000000;0.837863
9460.000000;0.837438
9459.000000;0.837343
9458.000000;0.837247
9457.000000;0.836864
9456.000000;0.836269
9455.000000;0.835750
9454.000000;0.835507
9453.000000;0.835539
9452.000000;0.835672
9451.000000;0.835647
9450.000000;0.835341
9449.000000;0.834969
9448.000000;0.834925
9447.000000;0.835330
9446.000000;0.835866
9445.000000;0.836128
9444.000000;0.836037
9443.000000;0.835774
9442.000000;0.835438
9441.000000;0.834944
9440.000000;0.834246
9439.000000;0.833530
9438.000000;0.833151
9437.000000;0.833360
9436.000000;0.834038
9435.000000;0.834670
9434.000000;0.834668
9433.000000;0.833833
9432.000000;0.832502
9431.000000;0.831200
9430.000000;0.830189
9429.000000;0.829395
9428.000000;0.828726
9427.000000;0.828344
9426.000000;0.828545
9425.000000;0.829322
9424.000000;0.830119
9423.000000;0.830211
9422.000000;0.829434
9421.000000;0.828425
9420.000000;0.827976
9419.000000;0.828248
9418.000000;0.828761
9417.000000;0.829044
9416.000000;0.829010
9415.000000;0.828708
9414.000000;0.828111
9413.000000;0.827300
9412.000000;0.826615
9411.000000;0.826362
9410.000000;0.826497
9409.000000;0.826729
9408.000000;0.826830
9407.000000;0.826722
9406.000000;0.826433
9405.000000;0.826109
9404.000000;0.825940
9403.000000;0.825892
9402.000000;0.825664
9401.000000;0.825058
9400.000000;0.824284
9399.000000;0.823720
9398.000000;0.823474
9397.000000;0.823377
9396.000000;0.823307
9395.000000;0.823302
9394.000000;0.823396
9393.000000;0.823588
9392.000000;0.823955
9391.000000;0.824551
9390.000000;0.825176
9389.000000;0.825446
9388.000000;0.825162
9387.000000;0.824470
9386.000000;0.823648
9385.000000;0.822882
9384.000000;0.822239
9383.000000;0.821680
9382.000000;0.821069
9381.000000;0.820333
9380.000000;0.819675
9379.000000;0.819439
9378.000000;0.819686
9377.000000;0.820074
9376.000000;0.820227
9375.000000;0.820058
9374.000000;0.819660
9373.000000;0.819091
9372.000000;0.818476
9371.000000;0.818137
9370.000000;0.818335
9369.000000;0.818898
9368.000000;0.819357
9367.000000;0.819471
9366.000000;0.819424
9365.000000;0.819425
9364.000000;0.819320
9363.000000;0.818766
9362.000000;0.817711
9361.000000;0.816569
9360.000000;0.815917
9359.000000;0.816067
9358.000000;0.816852
9357.000000;0.817743
9356.000000;0.818204
9355.000000;0.818068
9354.000000;0.817580
9353.000000;0.817050
9352.000000;0.816533
9351.000000;0.815923
9350.000000;0.815238
9349.000000;0.814600
9348.000000;0.814002
9347.000000;0.813330
9346.000000;0.812688
9345.000000;0.812437
9344.000000;0.812683
9343.000000;0.812947
9342.000000;0.812646
9341.000000;0.811861
9340.000000;0.811274
9339.000000;0.811302
9338.000000;0.811596
9337.000000;0.811545
9336.000000;0.811034
9335.000000;0.810458
9334.000000;0.810135
9333.000000;0.810005
9332.000000;0.809912
9331.000000;0.809913
9330.000000;0.810188
9329.000000;0.810718
9328.000000;0.811187
9327.000000;0.811224
9326.000000;0.810734
9325.000000;0.810002
9324.000000;0.809430
9323.000000;0.809183
9322.000000;0.809086
9321.000000;0.808875
9320.000000;0.808467
9319.000000;0.807961
9318.000000;0.807483
9317.000000;0.807169
9316.000000;0.807214
9315.000000;0.807726
9314.000000;0.808466
9313.000000;0.808917
9312.000000;0.808763
9311.000000;0.808243
9310.000000;0.807903
9309.000000;0.807994
9308.000000;0.808204
9307.000000;0.807955
9306.000000;0.806958
9305.000000;0.805517
9304.000000;0.804378
9303.000000;0.804219
9302.000000;0.805125
9301.000000;0.806472
9300.000000;0.807399
9299.000000;0.807488
9298.000000;0.806991
9297.000000;0.806386
9296.000000;0.805885
9295.000000;0.805489
9294.000000;0.805294
9293.000000;0.805442
9292.000000;0.805727
9291.000000;0.805607
9290.000000;0.804840
9289.000000;0.803942
9288.000000;0.803699
9287.000000;0.804275
9286.000000;0.805050
9285.000000;0.805314
9284.000000;0.804897
9283.000000;0.804090
9282.000000;0.803275
9281.000000;0.802787
9280.000000;0.802884
9279.000000;0.803531
9278.000000;0.804266
9277.000000;0.804524
9276.000000;0.804149
9275.000000;0.803475
9274.000000;0.802902
9273.000000;0.802526
9272.000000;0.802189
9271.000000;0.801731
9270.000000;0.801149
9269.000000;0.800579
9268.000000;0.800188
9267.000000;0.800013
9266.000000;0.799895
9265.000000;0.799637
9264.000000;0.799267
9263.000000;0.799056
9262.000000;0.799225
9261.000000;0.799701
9260.000000;0.800220
9259.000000;0.800595
9258.000000;0.800781
9257.000000;0.800713
9256.000000;0.800249
9255.000000;0.799381
9254.000000;0.798429
9253.000000;0.797866
9252.000000;0.797903
9251.000000;0.798283
9250.000000;0.798530
9249.000000;0.798356
9248.000000;0.797781
9247.000000;0.796960
9246.000000;0.796044
9245.000000;0.795240
9244.000000;0.794796
9243.000000;0.794802
9242.000000;0.795085
9241.000000;0.795443
9240.000000;0.795913
9239.000000;0.796632
9238.000000;0.797457
9237.000000;0.797927
9236.000000;0.797720
9235.000000;0.797016
9234.000000;0.796283
9233.000000;0.795799
9232.000000;0.795511
9231.000000;0.795282
9230.000000;0.795054
9229.000000;0.794777
9228.000000;0.794379
9227.000000;0.793935
9226.000000;0.793710
9225.000000;0.793885
9224.000000;0.794295
9223.000000;0.794592
9222.000000;0.794648
9221.000000;0.794633
9220.000000;0.794709
9219.000000;0.794768
9218.000000;0.794559
9217.000000;0.794020
9216.000000;0.793432
9215.000000;0.793242
9214.000000;0.793702
9213.000000;0.794610
9212.000000;0.795383
9211.000000;0.795445
9210.000000;0.794612
9209.000000;0.793171
9208.000000;0.791701
9207.000000;0.790836
9206.000000;0.790962
9205.000000;0.791898
9204.000000;0.792920
9203.000000;0.793332
9202.000000;0.793057
9201.000000;0.792526
9200.000000;0.792035
9199.000000;0.791487
9198.000000;0.790811
9197.000000;0.790295
9196.000000;0.790298
9195.000000;0.790836
9194.000000;0.791657
9193.000000;0.792522
9192.000000;0.793161
9191.000000;0.793151
9190.000000;0.792228
9189.000000;0.790699
9188.000000;0.789261
9187.000000;0.788368
9186.000000;0.787992
9185.000000;0.787957
9184.000000;0.788226
9183.000000;0.788733
9182.000000;0.789180
9181.000000;0.789200
9180.000000;0.788685
9179.000000;0.787840
9178.000000;0.786976
9177.000000;0.786334
9176.000000;0.786024
9175.000000;0.786064
9174.000000;0.786433
9173.000000;0.787056
9172.000000;0.787711
9171.000000;0.788038
9170.000000;0.787752
9169.000000;0.786880
9168.000000;0.785741
9167.000000;0.784770
9166.000000;0.784347
9165.000000;0.784602
9164.000000;0.785205
9163.000000;0.785508
9162.000000;0.785163
9161.000000;0.784537
9160.000000;0.784279
9159.000000;0.784536
9158.000000;0.784892
9157.000000;0.785015
9156.000000;0.784973
9155.000000;0.784864
9154.000000;0.784555
9153.000000;0.784051
9152.000000;0.783738
9151.000000;0.783915
9150.000000;0.784298
9149.000000;0.784314
9148.000000;0.783811
9147.000000;0.783156
9146.000000;0.782702
9145.000000;0.782443
9144.000000;0.782224
9143.000000;0.782034
9142.000000;0.781969
9141.000000;0.782042
9140.000000;0.782136
9139.000000;0.782114
9138.000000;0.781934
9137.000000;0.781689
9136.000000;0.781560
9135.000000;0.781716
9134.000000;0.782212
9133.000000;0.782942
9132.000000;0.783664
9131.000000;0.784106
9130.000000;0.784134
9129.000000;0.783817
9128.000000;0.783290
9127.000000;0.782581
9126.000000;0.781731
9125.000000;0.781004
9124.000000;0.780755
9123.000000;0.780991
9122.000000;0.781298
9121.000000;0.781332
9120.000000;0.781217
9119.000000;0.781288
9118.000000;0.781593
9117.000000;0.781845
9116.000000;0.781753
9115.000000;0.781227
9114.000000;0.780366
9113.000000;0.779442
9112.000000;0.778819
9111.000000;0.778646
9110.000000;0.778668
9109.000000;0.778528
9108.000000;0.778228
9107.000000;0.778076
9106.000000;0.778194
9105.000000;0.778377
9104.000000;0.778493
9103.000000;0.778777
9102.000000;0.779524
9101.000000;0.780598
9100.000000;0.781424
9099.000000;0.781475
9098.000000;0.780687
9097.000000;0.779423
9096.000000;0.778144
9095.000000;0.777153
9094.000000;0.776602
9093.000000;0.776563
9092.000000;0.776952
9091.000000;0.777366
9090.000000;0.777231
9089.000000;0.776318
9088.000000;0.775065
9087.000000;0.774236
9086.000000;0.774253
9085.000000;0.774954
9084.000000;0.775889
9083.000000;0.776669
9082.000000;0.777060
9081.000000;0.776997
9080.000000;0.776634
9079.000000;0.776281
9078.000000;0.776145
9077.000000;0.776152
9076.000000;0.776058
9075.000000;0.775695
9074.000000;0.775111
9073.000000;0.774518
9072.000000;0.774118
9071.000000;0.773956
9070.000000;0.773930
9069.000000;0.773968
9068.000000;0.774171
9067.000000;0.774670
9066.000000;0.775374
9065.000000;0.775963
9064.000000;0.776172
9063.000000;0.776008
9062.000000;0.775686
9061.000000;0.775404
9060.000000;0.775205
9059.000000;0.775004
9058.000000;0.774695
9057.000000;0.774254
9056.000000;0.773734
9055.000000;0.773208
9054.000000;0.772755
9053.000000;0.772487
9052.000000;0.772473
9051.000000;0.772598
9050.000000;0.772639
9049.000000;0.772552
9048.000000;0.772570
9047.000000;0.772861
9046.000000;0.773215
9045.000000;0.773245
9044.000000;0.772849
9043.000000;0.772315
9042.000000;0.771969
9041.000000;0.771901
9040.000000;0.772009
9039.000000;0.772168
9038.000000;0.772305
9037.000000;0.772408
9036.000000;0.772476
9035.000000;0.772401
9034.000000;0.772008
9033.000000;0.771350
9032.000000;0.770863
9031.000000;0.770957
9030.000000;0.771470
9029.000000;0.771792
9028.000000;0.771585
9027.000000;0.771141
9026.000000;0.770902
9025.000000;0.770915
9024.000000;0.770937
9023.000000;0.770864
9022.000000;0.770809
9021.000000;0.770849
9020.000000;0.770899
9019.000000;0.770827
9018.000000;0.770554
9017.000000;0.770119
9016.000000;0.769752
9015.000000;0.769782
9014.000000;0.770284
9013.000000;0.770872
9012.000000;0.771014
9011.000000;0.770579
9010.000000;0.769951
9009.000000;0.769594
9008.000000;0.769625
9007.000000;0.769806
9006.000000;0.769821
9005.000000;0.769537
9004.000000;0.769076
9003.000000;0.768702
9002.000000;0.768585
9001.000000;0.768684
9000.000000;0.768890
8999.000000;0.769208
8998.000000;0.769720
8997.000000;0.770375
8996.000000;0.770949
8995.000000;0.771234
8994.000000;0.771189
8993.000000;0.770903
8992.000000;0.770482
8991.000000;0.770000
8990.000000;0.769475
8989.000000;0.768879
8988.000000;0.768235
8987.000000;0.767717
8986.000000;0.767527
8985.000000;0.767610
8984.000000;0.767594
8983.000000;0.767158
8982.000000;0.766440
8981.000000;0.765958
8980.000000;0.766116
8979.000000;0.766861
8978.000000;0.767799
8977.000000;0.768485
8976.000000;0.768607
8975.000000;0.768090
8974.000000;0.767200
8973.000000;0.766479
8972.000000;0.766359
8971.000000;0.766792
8970.000000;0.767364
8969.000000;0.767773
8968.000000;0.768003
8967.000000;0.768061
8966.000000;0.767805
8965.000000;0.767212
8964.000000;0.766613
8963.000000;0.766401
8962.000000;0.766558
8961.000000;0.766683
8960.000000;0.766484
8959.000000;0.766049
8958.000000;0.765678
8957.000000;0.765654
8956.000000;0.766169
8955.000000;0.767170
8954.000000;0.768154
8953.000000;0.768364
8952.000000;0.767461
8951.000000;0.765964
8950.000000;0.764854
8949.000000;0.764742
8948.000000;0.765479
8947.000000;0.766446
8946.000000;0.767051
8945.000000;0.766996
8944.000000;0.766320
8943.000000;0.765383
8942.000000;0.764787
8941.000000;0.765100
8940.000000;0.766384
8939.000000;0.767919
8938.000000;0.768606
8937.000000;0.767925
8936.000000;0.766520
8935.000000;0.765605
8934.000000;0.765745
8933.000000;0.766372
8932.000000;0.766541
8931.000000;0.765931
8930.000000;0.764984
8929.000000;0.764301
8928.000000;0.764130
8927.000000;0.764340
8926.000000;0.764633
8925.000000;0.764764
8924.000000;0.764719
8923.000000;0.764698
8922.000000;0.764818
8921.000000;0.764900
8920.000000;0.764669
8919.000000;0.764160
8918.000000;0.763735
8917.000000;0.763680
8916.000000;0.763885
8915.000000;0.763975
8914.000000;0.763674
8913.000000;0.763020
8912.000000;0.762322
8911.000000;0.761959
8910.000000;0.762140
8909.000000;0.762781
8908.000000;0.763563
8907.000000;0.764092
8906.000000;0.764051
8905.000000;0.763393
8904.000000;0.762487
8903.000000;0.761947
8902.000000;0.762113
8901.000000;0.762736
8900.000000;0.763307
8899.000000;0.763632
8898.000000;0.763884
8897.000000;0.764169
8896.000000;0.764318
8895.000000;0.764173
8894.000000;0.763838
8893.000000;0.763497
8892.000000;0.763195
8891.000000;0.762960
8890.000000;0.762986
8889.000000;0.763416
8888.000000;0.763990
8887.000000;0.764146
8886.000000;0.763619
8885.000000;0.762856
8884.000000;0.762679
8883.000000;0.763495
8882.000000;0.764827
8881.000000;0.765677
8880.000000;0.765401
8879.000000;0.764261
8878.000000;0.763136
8877.000000;0.762745
8876.000000;0.763198
8875.000000;0.764159
8874.000000;0.765221
8873.000000;0.766052
8872.000000;0.766373
8871.000000;0.766054
8870.000000;0.765269
8869.000000;0.764448
8868.000000;0.763989
8867.000000;0.763998
8866.000000;0.764296
8865.000000;0.764598
8864.000000;0.764675
8863.000000;0.764421
8862.000000;0.763878
8861.000000;0.763253
8860.000000;0.762843
8859.000000;0.762801
8858.000000;0.762958
8857.000000;0.762989
8856.000000;0.762835
8855.000000;0.762849
8854.000000;0.763381
8853.000000;0.764263
8852.000000;0.764905
8851.000000;0.764946
8850.000000;0.764649
8849.000000;0.764535
8848.000000;0.764758
8847.000000;0.765014
8846.000000;0.765011
8845.000000;0.764822
8844.000000;0.764683
8843.000000;0.764598
8842.000000;0.764354
8841.000000;0.763914
8840.000000;0.763623
8839.000000;0.763851
8838.000000;0.764465
8837.000000;0.764831
8836.000000;0.764445
8835.000000;0.763518
8834.000000;0.762818
8833.000000;0.762920
8832.000000;0.763690
8831.000000;0.764492
8830.000000;0.764802
8829.000000;0.764591
8828.000000;0.764215
8827.000000;0.764019
8826.000000;0.764077
8825.000000;0.764215
8824.000000;0.764209
8823.000000;0.763940
8822.000000;0.763474
8821.000000;0.763062
8820.000000;0.763034
8819.000000;0.763527
8818.000000;0.764316
8817.000000;0.765024
8816.000000;0.765510
8815.000000;0.765904
8814.000000;0.766232
8813.000000;0.766261
8812.000000;0.765878
8811.000000;0.765409
8810.000000;0.765260
8809.000000;0.765374
8808.000000;0.765356
8807.000000;0.765097
8806.000000;0.764944
8805.000000;0.765170
8804.000000;0.765592
8803.000000;0.765901
8802.000000;0.766132
8801.000000;0.766574
8800.000000;0.767278
8799.000000;0.767909
8798.000000;0.768121
8797.000000;0.767955
8796.000000;0.767804
8795.000000;0.768041
8794.000000;0.768659
8793.000000;0.769308
8792.000000;0.769677
8791.000000;0.769814
8790.000000;0.769978
8789.000000;0.770235
8788.000000;0.770342
8787.000000;0.770055
8786.000000;0.769416
8785.000000;0.768698
8784.000000;0.768174
8783.000000;0.767982
8782.000000;0.768077
8781.000000;0.768258
8780.000000;0.768362
8779.000000;0.768479
8778.000000;0.768853
8777.000000;0.769510
8776.000000;0.770161
8775.000000;0.770550
8774.000000;0.770732
8773.000000;0.770885
8772.000000;0.770988
8771.000000;0.770893
8770.000000;0.770624
8769.000000;0.770417
8768.000000;0.770424
8767.000000;0.770543
8766.000000;0.770571
8765.000000;0.770488
8764.000000;0.770560
8763.000000;0.771110
8762.000000;0.772121
8761.000000;0.773094
8760.000000;0.773479
8759.000000;0.773298
8758.000000;0.773184
8757.000000;0.773678
8756.000000;0.774646
8755.000000;0.775480
8754.000000;0.775697
8753.000000;0.775244
8752.000000;0.774439
8751.000000;0.773831
8750.000000;0.773949
8749.000000;0.774877
8748.000000;0.776118
8747.000000;0.777085
8746.000000;0.777652
8745.000000;0.778008
8744.000000;0.778116
8743.000000;0.777704
8742.000000;0.776821
8741.000000;0.776019
8740.000000;0.775788
8739.000000;0.776049
8738.000000;0.776383
8737.000000;0.776595
8736.000000;0.776816
8735.000000;0.777153
8734.000000;0.777471
8733.000000;0.777545
8732.000000;0.777329
8731.000000;0.776989
8730.000000;0.776721
8729.000000;0.776568
8728.000000;0.776459
8727.000000;0.776428
8726.000000;0.776713
8725.000000;0.777516
8724.000000;0.778678
8723.000000;0.779737
8722.000000;0.780354
8721.000000;0.780576
8720.000000;0.780632
8719.000000;0.780591
8718.000000;0.780369
8717.000000;0.779999
8716.000000;0.779744
8715.000000;0.779838
8714.000000;0.780184
8713.000000;0.780422
8712.000000;0.780339
8711.000000;0.780125
8710.000000;0.780155
8709.000000;0.780562
8708.000000;0.781133
8707.000000;0.781637
8706.000000;0.782075
8705.000000;0.782514
8704.000000;0.782843
8703.000000;0.782902
8702.000000;0.782802
8701.000000;0.782887
8700.000000;0.783331
8699.000000;0.783904
8698.000000;0.784205
8697.000000;0.784028
8696.000000;0.783482
8695.000000;0.782858
8694.000000;0.782436
8693.000000;0.782369
8692.000000;0.782666
8691.000000;0.783250
8690.000000;0.783992
8689.000000;0.784730
8688.000000;0.785291
8687.000000;0.785575
8686.000000;0.785563
8685.000000;0.785226
8684.000000;0.784572
8683.000000;0.783879
8682.000000;0.783717
8681.000000;0.784485
8680.000000;0.785894
8679.000000;0.787127
8678.000000;0.787585
8677.000000;0.787384
8676.000000;0.787071
8675.000000;0.787032
8674.000000;0.787277
8673.000000;0.787662
8672.000000;0.788113
8671.000000;0.788569
8670.000000;0.788860
8669.000000;0.788790
8668.000000;0.788374
8667.000000;0.787908
8666.000000;0.787705
8665.000000;0.787799
8664.000000;0.788020
8663.000000;0.788314
8662.000000;0.788779
8661.000000;0.789320
8660.000000;0.789528
8659.000000;0.789125
8658.000000;0.788373
8657.000000;0.787788
8656.000000;0.787560
8655.000000;0.787515
8654.000000;0.787561
8653.000000;0.787833
8652.000000;0.788363
8651.000000;0.788905
8650.000000;0.789216
8649.000000;0.789267
8648.000000;0.789106
8647.000000;0.788748
8646.000000;0.788356
8645.000000;0.788320
8644.000000;0.788899
8643.000000;0.789871
8642.000000;0.790707
8641.000000;0.791074
8640.000000;0.791027
8639.000000;0.790794
8638.000000;0.790555
8637.000000;0.790446
8636.000000;0.790592
8635.000000;0.791009
8634.000000;0.791490
8633.000000;0.791695
8632.000000;0.791439
8631.000000;0.790911
8630.000000;0.790550
8629.000000;0.790611
8628.000000;0.790934
8627.000000;0.791188
8626.000000;0.791266
8625.000000;0.791296
8624.000000;0.791323
8623.000000;0.791242
8622.000000;0.791063
8621.000000;0.790998
8620.000000;0.791169
8619.000000;0.791422
8618.000000;0.791583
8617.000000;0.791717
8616.000000;0.791939
8615.000000;0.792094
8614.000000;0.791875
8613.000000;0.791281
8612.000000;0.790761
8611.000000;0.790784
8610.000000;0.791340
8609.000000;0.791918
8608.000000;0.791987
8607.000000;0.791496
8606.000000;0.790926
8605.000000;0.790861
8604.000000;0.791501
8603.000000;0.792563
8602.000000;0.793552
8601.000000;0.794025
8600.000000;0.793717
8599.000000;0.792665
8598.000000;0.791333
8597.000000;0.790428
8596.000000;0.790376
8595.000000;0.790960
8594.000000;0.791554
8593.000000;0.791721
8592.000000;0.791574
8591.000000;0.791572
8590.000000;0.792001
8589.000000;0.792647
8588.000000;0.793002
8587.000000;0.792794
8586.000000;0.792268
8585.000000;0.791887
8584.000000;0.791859
8583.000000;0.792098
8582.000000;0.792530
8581.000000;0.793120
8580.000000;0.793626
8579.000000;0.793664
8578.000000;0.793212
8577.000000;0.792770
8576.000000;0.792757
8575.000000;0.792941
8574.000000;0.792728
8573.000000;0.791969
8572.000000;0.791214
8571.000000;0.791150
8570.000000;0.791947
8569.000000;0.793149
8568.000000;0.794077
8567.000000;0.794344
8566.000000;0.794097
8565.000000;0.793792
8564.000000;0.793730
8563.000000;0.793846
8562.000000;0.793945
8561.000000;0.793951
8560.000000;0.793836
8559.000000;0.793494
8558.000000;0.792939
8557.000000;0.792479
8556.000000;0.792427
8555.000000;0.792665
8554.000000;0.792746
8553.000000;0.792456
8552.000000;0.792065
8551.000000;0.791976
8550.000000;0.792308
8549.000000;0.792879
8548.000000;0.793395
8547.000000;0.793575
8546.000000;0.793303
8545.000000;0.792789
8544.000000;0.792460
8543.000000;0.792552
8542.000000;0.792886
8541.000000;0.793128
8540.000000;0.793164
8539.000000;0.793147
8538.000000;0.793280
8537.000000;0.793683
8536.000000;0.794359
8535.000000;0.795124
8534.000000;0.795603
8533.000000;0.795464
8532.000000;0.794717
8531.000000;0.793709
8530.000000;0.792820
8529.000000;0.792211
8528.000000;0.791840
8527.000000;0.791629
8526.000000;0.791585
8525.000000;0.791795
8524.000000;0.792338
8523.000000;0.793133
8522.000000;0.793899
8521.000000;0.794351
8520.000000;0.794479
8519.000000;0.794559
8518.000000;0.794828
8517.000000;0.795200
8516.000000;0.795376
8515.000000;0.795191
8514.000000;0.794751
8513.000000;0.794210
8512.000000;0.793581
8511.000000;0.792849
8510.000000;0.792191
8509.000000;0.791934
8508.000000;0.792265
8507.000000;0.793072
8506.000000;0.794059
8505.000000;0.794938
8504.000000;0.795488
8503.000000;0.795554
8502.000000;0.795137
8501.000000;0.794469
8500.000000;0.793892
8499.000000;0.793631
8498.000000;0.793686
8497.000000;0.793943
8496.000000;0.794334
8495.000000;0.794850
8494.000000;0.795424
8493.000000;0.795871
8492.000000;0.796015
8491.000000;0.795850
8490.000000;0.795513
8489.000000;0.795098
8488.000000;0.794582
8487.000000;0.793999
8486.000000;0.793570
8485.000000;0.793536
8484.000000;0.793865
8483.000000;0.794276
8482.000000;0.794521
8481.000000;0.794537
8480.000000;0.794328
8479.000000;0.793900
8478.000000;0.793395
8477.000000;0.793117
8476.000000;0.793272
8475.000000;0.793786
8474.000000;0.794479
8473.000000;0.795263
8472.000000;0.796032
8471.000000;0.796493
8470.000000;0.796405
8469.000000;0.795974
8468.000000;0.795743
8467.000000;0.795976
8466.000000;0.796359
8465.000000;0.796427
8464.000000;0.796105
8463.000000;0.795684
8462.000000;0.795392
8461.000000;0.795201
8460.000000;0.795027
8459.000000;0.794872
8458.000000;0.794727
8457.000000;0.794500
8456.000000;0.794165
8455.000000;0.793871
8454.000000;0.793767
8453.000000;0.793776
8452.000000;0.793706
8451.000000;0.793581
8450.000000;0.793686
8449.000000;0.794199
8448.000000;0.794903
8447.000000;0.795393
8446.000000;0.795498
8445.000000;0.795359
8444.000000;0.795167
8443.000000;0.794994
8442.000000;0.794911
8441.000000;0.795053
8440.000000;0.795426
8439.000000;0.795763
8438.000000;0.795730
8437.000000;0.795285
8436.000000;0.794748
8435.000000;0.794495
8434.000000;0.794629
8433.000000;0.794906
8432.000000;0.794979
8431.000000;0.794731
8430.000000;0.794412
8429.000000;0.794391
8428.000000;0.794747
8427.000000;0.795182
8426.000000;0.795355
8425.000000;0.795238
8424.000000;0.795057
8423.000000;0.795001
8422.000000;0.795105
8421.000000;0.795349
8420.000000;0.795708
8419.000000;0.796085
8418.000000;0.796350
8417.000000;0.796483
8416.000000;0.796590
8415.000000;0.796725
8414.000000;0.796792
8413.000000;0.796683
8412.000000;0.796473
8411.000000;0.796394
8410.000000;0.796588
8409.000000;0.796928
8408.000000;0.797101
8407.000000;0.796911
8406.000000;0.796501
8405.000000;0.796251
8404.000000;0.796417
8403.000000;0.796869
8402.000000;0.797219
8401.000000;0.797197
8400.000000;0.796854
8399.000000;0.796438
8398.000000;0.796152
8397.000000;0.796065
8396.000000;0.796189
8395.000000;0.796521
8394.000000;0.796983
8393.000000;0.797377
8392.000000;0.797508
8391.000000;0.797399
8390.000000;0.797326
8389.000000;0.797558
8388.000000;0.798063
8387.000000;0.798568
8386.000000;0.798896
8385.000000;0.799096
8384.000000;0.799212
8383.000000;0.799091
8382.000000;0.798605
8381.000000;0.797946
8380.000000;0.797479
8379.000000;0.797301
8378.000000;0.797159
8377.000000;0.796860
8376.000000;0.796563
8375.000000;0.796524
8374.000000;0.796690
8373.000000;0.796743
8372.000000;0.796523
8371.000000;0.796274
8370.000000;0.796395
8369.000000;0.797033
8368.000000;0.797943
8367.000000;0.798702
8366.000000;0.799021
8365.000000;0.798912
8364.000000;0.798605
8363.000000;0.798342
8362.000000;0.798224
8361.000000;0.798230
8360.000000;0.798309
8359.000000;0.798410
8358.000000;0.798428
8357.000000;0.798197
8356.000000;0.797613
8355.000000;0.796794
8354.000000;0.796082
8353.000000;0.795805
8352.000000;0.796019
8351.000000;0.796501
8350.000000;0.797007
8349.000000;0.797476
8348.000000;0.797937
8347.000000;0.798305
8346.000000;0.798416
8345.000000;0.798275
8344.000000;0.798132
8343.000000;0.798204
8342.000000;0.798394
8341.000000;0.798399
8340.000000;0.798112
8339.000000;0.797791
8338.000000;0.797778
8337.000000;0.798120
8336.000000;0.798537
8335.000000;0.798721
8334.000000;0.798580
8333.000000;0.798232
8332.000000;0.797856
8331.000000;0.797633
8330.000000;0.797710
8329.000000;0.798092
8328.000000;0.798568
8327.000000;0.798837
8326.000000;0.798811
8325.000000;0.798733
8324.000000;0.798943
8323.000000;0.799512
8322.000000;0.800136
8321.000000;0.800409
8320.000000;0.800186
8319.000000;0.799678
8318.000000;0.799215
8317.000000;0.798948
8316.000000;0.798809
8315.000000;0.798685
8314.000000;0.798563
8313.000000;0.798469
8312.000000;0.798364
8311.000000;0.798186
8310.000000;0.797961
8309.000000;0.797783
8308.000000;0.797704
8307.000000;0.797713
8306.000000;0.797854
8305.000000;0.798231
8304.000000;0.798851
8303.000000;0.799545
8302.000000;0.800108
8301.000000;0.800440
8300.000000;0.800489
8299.000000;0.800170
8298.000000;0.799489
8297.000000;0.798716
8296.000000;0.798255
8295.000000;0.798268
8294.000000;0.798507
8293.000000;0.798595
8292.000000;0.798416
8291.000000;0.798194
8290.000000;0.798228
8289.000000;0.798602
8288.000000;0.799118
8287.000000;0.799450
8286.000000;0.799398
8285.000000;0.799058
8284.000000;0.798771
8283.000000;0.798851
8282.000000;0.799320
8281.000000;0.799907
8280.000000;0.800284
8279.000000;0.800303
8278.000000;0.800040
8277.000000;0.799672
8276.000000;0.799358
8275.000000;0.799176
8274.000000;0.799138
8273.000000;0.799234
8272.000000;0.799466
8271.000000;0.799812
8270.000000;0.800143
8269.000000;0.800260
8268.000000;0.800101
8267.000000;0.799887
8266.000000;0.799940
8265.000000;0.800317
8264.000000;0.800697
8263.000000;0.800722
8262.000000;0.800391
8261.000000;0.800028
8260.000000;0.799896
8259.000000;0.799956
8258.000000;0.800004
8257.000000;0.799946
8256.000000;0.799859
8255.000000;0.799863
8254.000000;0.799978
8253.000000;0.800103
8252.000000;0.800107
8251.000000;0.799959
8250.000000;0.799791
8249.000000;0.799776
8248.000000;0.799903
8247.000000;0.799931
8246.000000;0.799642
8245.000000;0.799146
8244.000000;0.798859
8243.000000;0.799124
8242.000000;0.799851
8241.000000;0.800576
8240.000000;0.800905
8239.000000;0.800872
8238.000000;0.800805
8237.000000;0.800872
8236.000000;0.800898
8235.000000;0.800678
8234.000000;0.800348
8233.000000;0.800245
8232.000000;0.800463
8231.000000;0.800733
8230.000000;0.800787
8229.000000;0.800684
8228.000000;0.800685
8227.000000;0.800916
8226.000000;0.801287
8225.000000;0.801648
8224.000000;0.801918
8223.000000;0.802069
8222.000000;0.802109
8221.000000;0.802090
8220.000000;0.802076
8219.000000;0.802086
8218.000000;0.802084
8217.000000;0.801996
8216.000000;0.801734
8215.000000;0.801267
8214.000000;0.800731
8213.000000;0.800407
8212.000000;0.800490
8211.000000;0.800900
8210.000000;0.801366
8209.000000;0.801681
8208.000000;0.801807
8207.000000;0.801781
8206.000000;0.801661
8205.000000;0.801567
8204.000000;0.801665
8203.000000;0.802023
8202.000000;0.802490
8201.000000;0.802775
8200.000000;0.802675
8199.000000;0.802249
8198.000000;0.801783
8197.000000;0.801562
8196.000000;0.801643
8195.000000;0.801859
8194.000000;0.802031
8193.000000;0.802110
8192.000000;0.802098
8191.000000;0.801950
8190.000000;0.801647
8189.000000;0.801336
8188.000000;0.801264
8187.000000;0.801537
8186.000000;0.802013
8185.000000;0.802457
8184.000000;0.802734
8183.000000;0.802860
8182.000000;0.802906
8181.000000;0.802884
8180.000000;0.802731
8179.000000;0.802427
8178.000000;0.802142
8177.000000;0.802156
8176.000000;0.802555
8175.000000;0.803077
8174.000000;0.803397
8173.000000;0.803509
8172.000000;0.803681
8171.000000;0.804043
8170.000000;0.804413
8169.000000;0.804574
8168.000000;0.804532
8167.000000;0.804393
8166.000000;0.804138
8165.000000;0.803694
8164.000000;0.803148
8163.000000;0.802726
8162.000000;0.802582
8161.000000;0.802721
8160.000000;0.803080
8159.000000;0.803534
8158.000000;0.803849
8157.000000;0.803821
8156.000000;0.803528
8155.000000;0.803313
8154.000000;0.803436
8153.000000;0.803812
8152.000000;0.804157
8151.000000;0.804297
8150.000000;0.804272
8149.000000;0.804204
8148.000000;0.804176
8147.000000;0.804218
8146.000000;0.804290
8145.000000;0.804304
8144.000000;0.804223
8143.000000;0.804161
8142.000000;0.804279
8141.000000;0.804585
8140.000000;0.804915
8139.000000;0.805146
8138.000000;0.805321
8137.000000;0.805507
8136.000000;0.805626
8135.000000;0.805546
8134.000000;0.805290
8133.000000;0.805017
8132.000000;0.804802
8131.000000;0.804569
8130.000000;0.804280
8129.000000;0.804077
8128.000000;0.804138
8127.000000;0.804436
8126.000000;0.804753
8125.000000;0.804901
8124.000000;0.804871
8123.000000;0.804773
8122.000000;0.804713
8121.000000;0.804743
8120.000000;0.804896
8119.000000;0.805193
8118.000000;0.805605
8117.000000;0.806009
8116.000000;0.806225
8115.000000;0.806167
8114.000000;0.805960
8113.000000;0.805826
8112.000000;0.805809
8111.000000;0.805711
8110.000000;0.805401
8109.000000;0.805109
8108.000000;0.805235
8107.000000;0.805856
8106.000000;0.806569
8105.000000;0.806903
8104.000000;0.806748
8103.000000;0.806298
8102.000000;0.805724
8101.000000;0.805097
8100.000000;0.804585
8099.000000;0.804455
8098.000000;0.804795
8097.000000;0.805367
8096.000000;0.805828
8095.000000;0.806046
8094.000000;0.806114
8093.000000;0.806161
8092.000000;0.806253
8091.000000;0.806439
8090.000000;0.806724
8089.000000;0.806989
8088.000000;0.807067
8087.000000;0.806968
8086.000000;0.806907
8085.000000;0.807048
8084.000000;0.807282
8083.000000;0.807373
8082.000000;0.807272
8081.000000;0.807164
8080.000000;0.807218
8079.000000;0.807399
8078.000000;0.807580
8077.000000;0.807715
8076.000000;0.807824
8075.000000;0.807860
8074.000000;0.807723
8073.000000;0.807428
8072.000000;0.807183
8071.000000;0.807241
8070.000000;0.807656
8069.000000;0.808218
8068.000000;0.808628
8067.000000;0.808761
8066.000000;0.808730
8065.000000;0.808700
8064.000000;0.808682
8063.000000;0.808563
8062.000000;0.808294
8061.000000;0.807980
8060.000000;0.807780
8059.000000;0.807782
8058.000000;0.807980
8057.000000;0.808289
8056.000000;0.808548
8055.000000;0.808601
8054.000000;0.808438
8053.000000;0.808227
8052.000000;0.808142
8051.000000;0.808211
8050.000000;0.808365
8049.000000;0.808557
8048.000000;0.808732
8047.000000;0.808745
8046.000000;0.808447
8045.000000;0.807878
8044.000000;0.807281
8043.000000;0.806919
8042.000000;0.806924
8041.000000;0.807292
8040.000000;0.807891
8039.000000;0.808473
8038.000000;0.808801
8037.000000;0.808833
8036.000000;0.808713
8035.000000;0.808591
8034.000000;0.808552
8033.000000;0.808717
8032.000000;0.809205
8031.000000;0.809887
8030.000000;0.810328
8029.000000;0.810193
8028.000000;0.809625
8027.000000;0.809071
8026.000000;0.808770
8025.000000;0.808612
8024.000000;0.808471
8023.000000;0.808462
8022.000000;0.808752
8021.000000;0.809272
8020.000000;0.809747
8019.000000;0.809981
8018.000000;0.810015
8017.000000;0.810022
8016.000000;0.810136
8015.000000;0.810326
8014.000000;0.810411
8013.000000;0.810217
8012.000000;0.809797
8011.000000;0.809472
8010.000000;0.809566
8009.000000;0.810090
8008.000000;0.810723
8007.000000;0.811125
8006.000000;0.811256
8005.000000;0.811346
8004.000000;0.811578
8003.000000;0.811830
8002.000000;0.811806
8001.000000;0.811434
8000.000000;0.811038
7999.000000;0.811012
7998.000000;0.811349
7997.000000;0.811650
7996.000000;0.811598
7995.000000;0.811292
7994.000000;0.811027
7993.000000;0.810929
7992.000000;0.810973
7991.000000;0.811204
7990.000000;0.811676
7989.000000;0.812190
7988.000000;0.812351
7987.000000;0.812008
7986.000000;0.811455
7985.000000;0.811102
7984.000000;0.811066
7983.000000;0.811229
7982.000000;0.811523
7981.000000;0.811964
7980.000000;0.812450
7979.000000;0.812754
7978.000000;0.812771
7977.000000;0.812642
7976.000000;0.812571
7975.000000;0.812613
7974.000000;0.812673
7973.000000;0.812620
7972.000000;0.812372
7971.000000;0.811967
7970.000000;0.811612
7969.000000;0.811585
7968.000000;0.811965
7967.000000;0.812502
7966.000000;0.812832
7965.000000;0.812828
7964.000000;0.812666
7963.000000;0.812581
7962.000000;0.812646
7961.000000;0.812769
7960.000000;0.812824
7959.000000;0.812733
7958.000000;0.812510
7957.000000;0.812281
7956.000000;0.812220
7955.000000;0.812420
7954.000000;0.812814
7953.000000;0.813224
7952.000000;0.813469
7951.000000;0.813437
7950.000000;0.813162
7949.000000;0.812875
7948.000000;0.812865
7947.000000;0.813194
7946.000000;0.813599
7945.000000;0.813791
7944.000000;0.813785
7943.000000;0.813822
7942.000000;0.813987
7941.000000;0.814111
7940.000000;0.814084
7939.000000;0.814067
7938.000000;0.814250
7937.000000;0.814548
7936.000000;0.814707
7935.000000;0.814648
7934.000000;0.814538
7933.000000;0.814527
7932.000000;0.814580
7931.000000;0.814601
7930.000000;0.814590
7929.000000;0.814614
7928.000000;0.814701
7927.000000;0.814800
7926.000000;0.814814
7925.000000;0.814684
7924.000000;0.814503
7923.000000;0.814518
7922.000000;0.814897
7921.000000;0.815474
7920.000000;0.815842
7919.000000;0.815770
7918.000000;0.815439
7917.000000;0.815214
7916.000000;0.815271
7915.000000;0.815504
7914.000000;0.815708
7913.000000;0.815764
7912.000000;0.815718
7911.000000;0.815740
7910.000000;0.815964
7909.000000;0.816311
7908.000000;0.816530
7907.000000;0.816475
7906.000000;0.816269
7905.000000;0.816120
7904.000000;0.816075
7903.000000;0.816066
7902.000000;0.816101
7901.000000;0.816243
7900.000000;0.816434
7899.000000;0.816500
7898.000000;0.816395
7897.000000;0.816282
7896.000000;0.816317
7895.000000;0.816464
7894.000000;0.816590
7893.000000;0.816661
7892.000000;0.816750
7891.000000;0.816899
7890.000000;0.817064
7889.000000;0.817176
7888.000000;0.817207
7887.000000;0.817166
7886.000000;0.817098
7885.000000;0.817087
7884.000000;0.817229
7883.000000;0.817544
7882.000000;0.817929
7881.000000;0.818226
7880.000000;0.818359
7879.000000;0.818391
7878.000000;0.818435
7877.000000;0.818528
7876.000000;0.818642
7875.000000;0.818786
7874.000000;0.819002
7873.000000;0.819250
7872.000000;0.819384
7871.000000;0.819298
7870.000000;0.819034
7869.000000;0.818705
7868.000000;0.818377
7867.000000;0.818115
7866.000000;0.818061
7865.000000;0.818343
7864.000000;0.818888
7863.000000;0.819441
7862.000000;0.819793
7861.000000;0.819918
7860.000000;0.819894
7859.000000;0.819787
7858.000000;0.819668
7857.000000;0.819657
7856.000000;0.819843
7855.000000;0.820160
7854.000000;0.820392
7853.000000;0.820338
7852.000000;0.820000
7851.000000;0.819617
7850.000000;0.819487
7849.000000;0.819720
7848.000000;0.820153
7847.000000;0.820516
7846.000000;0.820675
7845.000000;0.820701
7844.000000;0.820743
7843.000000;0.820886
7842.000000;0.821127
7841.000000;0.821425
7840.000000;0.821755
7839.000000;0.822105
7838.000000;0.822425
7837.000000;0.822588
7836.000000;0.822484
7835.000000;0.822174
7834.000000;0.821892
7833.000000;0.821830
7832.000000;0.821958
7831.000000;0.822127
7830.000000;0.822280
7829.000000;0.822453
7828.000000;0.822613
7827.000000;0.822641
7826.000000;0.822494
7825.000000;0.822290
7824.000000;0.822217
7823.000000;0.822397
7822.000000;0.822830
7821.000000;0.823385
7820.000000;0.823834
7819.000000;0.824010
7818.000000;0.823938
7817.000000;0.823773
7816.000000;0.823617
7815.000000;0.823513
7814.000000;0.823561
7813.000000;0.823871
7812.000000;0.824340
7811.000000;0.824644
7810.000000;0.824551
7809.000000;0.824168
7808.000000;0.823810
7807.000000;0.823697
7806.000000;0.823849
7805.000000;0.824178
7804.000000;0.824573
7803.000000;0.824917
7802.000000;0.825112
7801.000000;0.825126
7800.000000;0.825003
7799.000000;0.824869
7798.000000;0.824888
7797.000000;0.825122
7796.000000;0.825395
7795.000000;0.825426
7794.000000;0.825150
7793.000000;0.824832
7792.000000;0.824779
7791.000000;0.825021
7790.000000;0.825350
7789.000000;0.825614
7788.000000;0.825851
7787.000000;0.826174
7786.000000;0.826625
7785.000000;0.827120
7784.000000;0.827487
7783.000000;0.827590
7782.000000;0.827487
7781.000000;0.827415
7780.000000;0.827553
7779.000000;0.827821
7778.000000;0.827987
7777.000000;0.827935
7776.000000;0.827743
7775.000000;0.827561
7774.000000;0.827505
7773.000000;0.827639
7772.000000;0.827952
7771.000000;0.828312
7770.000000;0.828557
7769.000000;0.828653
7768.000000;0.828701
7767.000000;0.828800
7766.000000;0.828959
7765.000000;0.829134
7764.000000;0.829257
7763.000000;0.829242
7762.000000;0.829028
7761.000000;0.828667
7760.000000;0.828295
7759.000000;0.828011
7758.000000;0.827858
7757.000000;0.827900
7756.000000;0.828209
7755.000000;0.828734
7754.000000;0.829286
7753.000000;0.829709
7752.000000;0.830010
7751.000000;0.830272
7750.000000;0.830504
7749.000000;0.830662
7748.000000;0.830742
7747.000000;0.830768
7746.000000;0.830733
7745.000000;0.830650
7744.000000;0.830629
7743.000000;0.830789
7742.000000;0.831094
7741.000000;0.831390
7740.000000;0.831638
7739.000000;0.831979
7738.000000;0.832480
7737.000000;0.832916
7736.000000;0.832975
7735.000000;0.832670
7734.000000;0.832396
7733.000000;0.832511
7732.000000;0.832947
7731.000000;0.833327
7730.000000;0.833398
7729.000000;0.833250
7728.000000;0.833134
7727.000000;0.833201
7726.000000;0.833434
7725.000000;0.833735
7724.000000;0.833992
7723.000000;0.834091
7722.000000;0.833964
7721.000000;0.833648
7720.000000;0.833296
7719.000000;0.833101
7718.000000;0.833182
7717.000000;0.833501
7716.000000;0.833883
7715.000000;0.834150
7714.000000;0.834266
7713.000000;0.834342
7712.000000;0.834480
7711.000000;0.834679
7710.000000;0.834888
7709.000000;0.835102
7708.000000;0.835339
7707.000000;0.835563
7706.000000;0.835727
7705.000000;0.835876
7704.000000;0.836129
7703.000000;0.836525
7702.000000;0.836916
7701.000000;0.837091
7700.000000;0.836995
7699.000000;0.836820
7698.000000;0.836838
7697.000000;0.837156
7696.000000;0.837639
7695.000000;0.838055
7694.000000;0.838272
7693.000000;0.838328
7692.000000;0.838360
7691.000000;0.838514
7690.000000;0.838853
7689.000000;0.839296
7688.000000;0.839642
7687.000000;0.839746
7686.000000;0.839694
7685.000000;0.839734
7684.000000;0.839992
7683.000000;0.840311
7682.000000;0.840426
7681.000000;0.840277
7680.000000;0.840086
7679.000000;0.840129
7678.000000;0.840487
7677.000000;0.840993
7676.000000;0.841416
7675.000000;0.841652
7674.000000;0.841769
7673.000000;0.841886
7672.000000;0.842028
7671.000000;0.842138
7670.000000;0.842180
7669.000000;0.842197
7668.000000;0.842235
7667.000000;0.842287
7666.000000;0.842323
7665.000000;0.842358
7664.000000;0.842462
7663.000000;0.842696
7662.000000;0.843040
7661.000000;0.843383
7660.000000;0.843595
7659.000000;0.843673
7658.000000;0.843784
7657.000000;0.844102
7656.000000;0.844598
7655.000000;0.845068
7654.000000;0.845360
7653.000000;0.845504
7652.000000;0.845601
7651.000000;0.845686
7650.000000;0.845771
7649.000000;0.845904
7648.000000;0.846113
7647.000000;0.846316
7646.000000;0.846382
7645.000000;0.846275
7644.000000;0.846100
7643.000000;0.846037
7642.000000;0.846254
7641.000000;0.846785
7640.000000;0.847463
7639.000000;0.848018
7638.000000;0.848334
7637.000000;0.848529
7636.000000;0.848737
7635.000000;0.848889
7634.000000;0.848839
7633.000000;0.848621
7632.000000;0.848456
7631.000000;0.848506
7630.000000;0.848769
7629.000000;0.849189
7628.000000;0.849713
7627.000000;0.850238
7626.000000;0.850613
7625.000000;0.850794
7624.000000;0.850913
7623.000000;0.851146
7622.000000;0.851555
7621.000000;0.852068
7620.000000;0.852534
7619.000000;0.852805
7618.000000;0.852840
7617.000000;0.852788
7616.000000;0.852891
7615.000000;0.853243
7614.000000;0.853707
7613.000000;0.854060
7612.000000;0.854186
7611.000000;0.854123
7610.000000;0.854017
7609.000000;0.854059
7608.000000;0.854385
7607.000000;0.854954
7606.000000;0.855552
7605.000000;0.855974
7604.000000;0.856172
7603.000000;0.856222
7602.000000;0.856225
7601.000000;0.856274
7600.000000;0.856444
7599.000000;0.856736
7598.000000;0.857073
7597.000000;0.857386
7596.000000;0.857665
7595.000000;0.857903
7594.000000;0.858066
7593.000000;0.858188
7592.000000;0.858408
7591.000000;0.858803
7590.000000;0.859253
7589.000000;0.859555
7588.000000;0.859684
7587.000000;0.859804
7586.000000;0.860041
7585.000000;0.860366
7584.000000;0.860727
7583.000000;0.861162
7582.000000;0.861710
7581.000000;0.862270
7580.000000;0.862675
7579.000000;0.862879
7578.000000;0.863000
7577.000000;0.863176
7576.000000;0.863436
7575.000000;0.863724
7574.000000;0.863998
7573.000000;0.864252
7572.000000;0.864495
7571.000000;0.864736
7570.000000;0.865001
7569.000000;0.865308
7568.000000;0.865629
7567.000000;0.865914
7566.000000;0.866172
7565.000000;0.866491
7564.000000;0.866909
7563.000000;0.867309
7562.000000;0.867520
7561.000000;0.867541
7560.000000;0.867589
7559.000000;0.867879
7558.000000;0.868401
7557.000000;0.868993
7556.000000;0.869545
7555.000000;0.870056
7554.000000;0.870504
7553.000000;0.870776
7552.000000;0.870811
7551.000000;0.870726
7550.000000;0.870738
7549.000000;0.870981
7548.000000;0.871423
7547.000000;0.871952
7546.000000;0.872479
7545.000000;0.872972
7544.000000;0.873438
7543.000000;0.873871
7542.000000;0.874228
7541.000000;0.874458
7540.000000;0.874609
7539.000000;0.874861
7538.000000;0.875373
7537.000000;0.876085
7536.000000;0.876715
7535.000000;0.877030
7534.000000;0.877075
7533.000000;0.877103
7532.000000;0.877313
7531.000000;0.877692
7530.000000;0.878102
7529.000000;0.878433
7528.000000;0.878659
7527.000000;0.878803
7526.000000;0.878914
7525.000000;0.879039
7524.000000;0.879195
7523.000000;0.879371
7522.000000;0.879586
7521.000000;0.879907
7520.000000;0.880376
7519.000000;0.880938
7518.000000;0.881503
7517.000000;0.882050
7516.000000;0.882615
7515.000000;0.883161
7514.000000;0.883554
7513.000000;0.883723
7512.000000;0.883795
7511.000000;0.883997
7510.000000;0.884420
7509.000000;0.884949
7508.000000;0.885422
7507.000000;0.885802
7506.000000;0.886158
7505.000000;0.886550
7504.000000;0.886994
7503.000000;0.887484
7502.000000;0.887994
7501.000000;0.888454
7500.000000;0.888813
7499.000000;0.889126
7498.000000;0.889509
7497.000000;0.890002
7496.000000;0.890500
7495.000000;0.890901
7494.000000;0.891159
7493.000000;0.891353
7492.000000;0.891588
7491.000000;0.891918
7490.000000;0.892405
7489.000000;0.892969
7488.000000;0.893430
7487.000000;0.893688
7486.000000;0.893882
7485.000000;0.894245
7484.000000;0.894824
7483.000000;0.895442
7482.000000;0.895920
7481.000000;0.896254
7480.000000;0.896548
7479.000000;0.896890
7478.000000;0.897337
7477.000000;0.897911
7476.000000;0.898553
7475.000000;0.899115
7474.000000;0.899466
7473.000000;0.899590
7472.000000;0.899559
7471.000000;0.899475
7470.000000;0.899468
7469.000000;0.899658
7468.000000;0.900077
7467.000000;0.900674
7466.000000;0.901406
7465.000000;0.902249
7464.000000;0.903063
7463.000000;0.903604
7462.000000;0.903764
7461.000000;0.903749
7460.000000;0.903890
7459.000000;0.904323
7458.000000;0.904921
7457.000000;0.905483
7456.000000;0.905873
7455.000000;0.906021
7454.000000;0.905966
7453.000000;0.905889
7452.000000;0.905979
7451.000000;0.906227
7450.000000;0.906466
7449.000000;0.906620
7448.000000;0.906820
7447.000000;0.907219
7446.000000;0.907795
7445.000000;0.908392
7444.000000;0.908882
7443.000000;0.909220
7442.000000;0.909429
7441.000000;0.909598
7440.000000;0.909863
7439.000000;0.910299
7438.000000;0.910856
7437.000000;0.911421
7436.000000;0.911920
7435.000000;0.912354
7434.000000;0.912757
7433.000000;0.913169
7432.000000;0.913602
7431.000000;0.914018
7430.000000;0.914366
7429.000000;0.914661
7428.000000;0.914989
7427.000000;0.915410
7426.000000;0.915900
7425.000000;0.916400
7424.000000;0.916863
7423.000000;0.917247
7422.000000;0.917532
7421.000000;0.917783
7420.000000;0.918109
7419.000000;0.918513
7418.000000;0.918858
7417.000000;0.919039
7416.000000;0.919146
7415.000000;0.919350
7414.000000;0.919680
7413.000000;0.920012
7412.000000;0.920255
7411.000000;0.920460
7410.000000;0.920741
7409.000000;0.921169
7408.000000;0.921736
7407.000000;0.922348
7406.000000;0.922850
7405.000000;0.923129
7404.000000;0.923250
7403.000000;0.923402
7402.000000;0.923690
7401.000000;0.924050
7400.000000;0.924399
7399.000000;0.924771
7398.000000;0.925236
7397.000000;0.925744
7396.000000;0.926141
7395.000000;0.926337
7394.000000;0.926425
7393.000000;0.926605
7392.000000;0.927005
7391.000000;0.927559
7390.000000;0.928061
7389.000000;0.928329
7388.000000;0.928350
7387.000000;0.928286
7386.000000;0.928349
7385.000000;0.928634
7384.000000;0.929068
7383.000000;0.929509
7382.000000;0.929883
7381.000000;0.930203
7380.000000;0.930484
7379.000000;0.930706
7378.000000;0.930880
7377.000000;0.931077
7376.000000;0.931391
7375.000000;0.931878
7374.000000;0.932522
7373.000000;0.933230
7372.000000;0.933873
7371.000000;0.934377
7370.000000;0.934773
7369.000000;0.935155
7368.000000;0.935570
7367.000000;0.935959
7366.000000;0.936226
7365.000000;0.936375
7364.000000;0.936503
7363.000000;0.936714
7362.000000;0.937077
7361.000000;0.937620
7360.000000;0.938273
7359.000000;0.938854
7358.000000;0.939201
7357.000000;0.939334
7356.000000;0.939458
7355.000000;0.939783
7354.000000;0.940344
7353.000000;0.940994
7352.000000;0.941561
7351.000000;0.942007
7350.000000;0.942418
7349.000000;0.942875
7348.000000;0.943337
7347.000000;0.943666
7346.000000;0.943785
7345.000000;0.943771
7344.000000;0.943774
7343.000000;0.943860
7342.000000;0.944031
7341.000000;0.944323
7340.000000;0.944798
7339.000000;0.945401
7338.000000;0.945943
7337.000000;0.946336
7336.000000;0.946739
7335.000000;0.947411
7334.000000;0.948440
7333.000000;0.949613
7332.000000;0.950557
7331.000000;0.951005
7330.000000;0.950962
7329.000000;0.950674
7328.000000;0.950476
7327.000000;0.950586
7326.000000;0.950980
7325.000000;0.951510
7324.000000;0.952134
7323.000000;0.952925
7322.000000;0.953868
7321.000000;0.954760
7320.000000;0.955408
7319.000000;0.955837
7318.000000;0.956215
7317.000000;0.956655
7316.000000;0.957159
7315.000000;0.957678
7314.000000;0.958166
7313.000000;0.958569
7312.000000;0.958860
7311.000000;0.959109
7310.000000;0.959458
7309.000000;0.959990
7308.000000;0.960663
7307.000000;0.961404
7306.000000;0.962202
7305.000000;0.963091
7304.000000;0.964075
7303.000000;0.965120
7302.000000;0.966145
7301.000000;0.967058
7300.000000;0.967827
7299.000000;0.968480
7298.000000;0.969015
7297.000000;0.969382
7296.000000;0.969636
7295.000000;0.969995
7294.000000;0.970662
7293.000000;0.971613
7292.000000;0.972631
7291.000000;0.973539
7290.000000;0.974299
7289.000000;0.974879
7288.000000;0.975208
7287.000000;0.975366
7286.000000;0.975670
7285.000000;0.976410
7284.000000;0.977564
7283.000000;0.978840
7282.000000;0.979959
7281.000000;0.980859
7280.000000;0.981675
7279.000000;0.982569
7278.000000;0.983573
7277.000000;0.984593
7276.000000;0.985542
7275.000000;0.986448
7274.000000;0.987407
7273.000000;0.988419
7272.000000;0.989369
7271.000000;0.990203
7270.000000;0.991040
7269.000000;0.992068
7268.000000;0.993344
7267.000000;0.994731
7266.000000;0.996005
7265.000000;0.997029
7264.000000;0.997871
7263.000000;0.998740
7262.000000;0.999779
7261.000000;1.000922
7260.000000;1.002038
7259.000000;1.003154
7258.000000;1.004455
7257.000000;1.006006
7256.000000;1.007600
7255.000000;1.008954
7254.000000;1.010027
7253.000000;1.011056
7252.000000;1.012286
7251.000000;1.013720
7250.000000;1.015178
7249.000000;1.016564
7248.000000;1.018003
7247.000000;1.019716
7246.000000;1.021772
7245.000000;1.023965
7244.000000;1.025946
7243.000000;1.027501
7242.000000;1.028706
7241.000000;1.029830
7240.000000;1.031158
7239.000000;1.032862
7238.000000;1.034929
7237.000000;1.037143
7236.000000;1.039201
7235.000000;1.040963
7234.000000;1.042560
7233.000000;1.044212
7232.000000;1.045965
7231.000000;1.047667
7230.000000;1.049244
7229.000000;1.050879
7228.000000;1.052820
7227.000000;1.055126
7226.000000;1.057630
7225.000000;1.060083
7224.000000;1.062353
7223.000000;1.064547
7222.000000;1.066871
7221.000000;1.069363
7220.000000;1.071831
7219.000000;1.074094
7218.000000;1.076181
7217.000000;1.078276
7216.000000;1.080536
7215.000000;1.083022
7214.000000;1.085742
7213.000000;1.088679
7212.000000;1.091813
7211.000000;1.095098
7210.000000;1.098416
7209.000000;1.101569
7208.000000;1.104386
7207.000000;1.106886
7206.000000;1.109294
7205.000000;1.111858
7204.000000;1.114640
7203.000000;1.117554
7202.000000;1.120559
7201.000000;1.123725
7200.000000;1.127111
7199.000000;1.130645
7198.000000;1.134129
7197.000000;1.137375
7196.000000;1.140377
7195.000000;1.143379
7194.000000;1.146709
7193.000000;1.150473
7192.000000;1.154436
7191.000000;1.158249
7190.000000;1.161794
7189.000000;1.165259
7188.000000;1.168888
7187.000000;1.172741
7186.000000;1.176711
7185.000000;1.180668
7184.000000;1.184506
7183.000000;1.188115
7182.000000;1.191460
7181.000000;1.194715
7180.000000;1.198189
7179.000000;1.202075
7178.000000;1.206330
7177.000000;1.210817
7176.000000;1.215434
7175.000000;1.220082
7174.000000;1.224592
7173.000000;1.228817
7172.000000;1.232793
7171.000000;1.236721
7170.000000;1.240767
7169.000000;1.244905
7168.000000;1.249011
7167.000000;1.253041
7166.000000;1.257070
7165.000000;1.261206
7164.000000;1.265522
7163.000000;1.270016
7162.000000;1.274617
7161.000000;1.279226
7160.000000;1.283772
7159.000000;1.288259
7158.000000;1.292787
7157.000000;1.297483
7156.000000;1.302385
7155.000000;1.307376
7154.000000;1.312261
7153.000000;1.316919
7152.000000;1.321401
7151.000000;1.325877
7150.000000;1.330508
7149.000000;1.335339
7148.000000;1.340225
7147.000000;1.344893
7146.000000;1.349174
7145.000000;1.353194
7144.000000;1.357221
7143.000000;1.361357
7142.000000;1.365554
7141.000000;1.369879
7140.000000;1.374552
7139.000000;1.379626
7138.000000;1.384803
7137.000000;1.389693
7136.000000;1.394246
7135.000000;1.398777
7134.000000;1.403582
7133.000000;1.408609
7132.000000;1.413535
7131.000000;1.418131
7130.000000;1.422527
7129.000000;1.427121
7128.000000;1.432183
7127.000000;1.437561
7126.000000;1.442829
7125.000000;1.447764
7124.000000;1.452541
7123.000000;1.457388
7122.000000;1.462178
7121.000000;1.466542
7120.000000;1.470355
7119.000000;1.473957
7118.000000;1.477849
7117.000000;1.482242
7116.000000;1.486957
7115.000000;1.491735
7114.000000;1.496554
7113.000000;1.501551
7112.000000;1.506660
7111.000000;1.511426
7110.000000;1.515389
7109.000000;1.518646
7108.000000;1.521850
7107.000000;1.525602
7106.000000;1.529958
7105.000000;1.534585
7104.000000;1.539176
7103.000000;1.543630
7102.000000;1.548021
7101.000000;1.552521
7100.000000;1.557172
7099.000000;1.561624
7098.000000;1.565364
7097.000000;1.568389
7096.000000;1.571411
7095.000000;1.575136
7094.000000;1.579455
7093.000000;1.583644
7092.000000;1.587308
7091.000000;1.590794
7090.000000;1.594667
7089.000000;1.599110
7088.000000;1.603848
7087.000000;1.608387
7086.000000;1.612228
7085.000000;1.615152
7084.000000;1.617514
7083.000000;1.620048
7082.000000;1.623160
7081.000000;1.626528
7080.000000;1.629549
7079.000000;1.632077
7078.000000;1.634522
7077.000000;1.637295
7076.000000;1.640430
7075.000000;1.643736
7074.000000;1.647049
7073.000000;1.650207
7072.000000;1.653035
7071.000000;1.655565
7070.000000;1.658193
7069.000000;1.661394
7068.000000;1.665280
7067.000000;1.669550
7066.000000;1.673822
7065.000000;1.677825
7064.000000;1.681265
7063.000000;1.683787
7062.000000;1.685268
7061.000000;1.686097
7060.000000;1.687032
7059.000000;1.688778
7058.000000;1.691651
7057.000000;1.695392
7056.000000;1.699192
7055.000000;1.702163
7054.000000;1.704072
7053.000000;1.705503
7052.000000;1.707113
7051.000000;1.708957
7050.000000;1.710777
7049.000000;1.712706
7048.000000;1.715139
7047.000000;1.717986
7046.000000;1.720631
7045.000000;1.722824
7044.000000;1.725080
7043.000000;1.727837
7042.000000;1.730604
7041.000000;1.732403
7040.000000;1.732957
7039.000000;1.733073
7038.000000;1.733871
7037.000000;1.735835
7036.000000;1.738568
7035.000000;1.741350
7034.000000;1.743890
7033.000000;1.746507
7032.000000;1.749508
7031.000000;1.752537
7030.000000;1.754818
7029.000000;1.755999
7028.000000;1.756390
7027.000000;1.756360
7026.000000;1.756050
7025.000000;1.755888
7024.000000;1.756804
7023.000000;1.759414
7022.000000;1.763150
7021.000000;1.766590
7020.000000;1.768687
7019.000000;1.769543
7018.000000;1.770113
7017.000000;1.771305
7016.000000;1.773144
7015.000000;1.774662
7014.000000;1.774951
7013.000000;1.774449
7012.000000;1.774656
7011.000000;1.776271
7010.000000;1.778209
7009.000000;1.779032
7008.000000;1.778887
7007.000000;1.779168
7006.000000;1.780552
7005.000000;1.782287
7004.000000;1.783460
7003.000000;1.784173
7002.000000;1.785209
7001.000000;1.787148
7000.000000;1.790006
6999.000000;1.793151
6998.000000;1.795318
6997.000000;1.795399
6996.000000;1.793709
6995.000000;1.792017
6994.000000;1.791911
6993.000000;1.793411
6992.000000;1.795347
6991.000000;1.796715
6990.000000;1.797328
6989.000000;1.797402
6988.000000;1.797100
6987.000000;1.796555
6986.000000;1.796003
6985.000000;1.795756
6984.000000;1.796061
6983.000000;1.796942
6982.000000;1.798142
6981.000000;1.799345
6980.000000;1.800519
6979.000000;1.801890
6978.000000;1.803530
6977.000000;1.805150
6976.000000;1.806434
6975.000000;1.807432
6974.000000;1.808441
6973.000000;1.809523
6972.000000;1.810252
6971.000000;1.810037
6970.000000;1.808845
6969.000000;1.807609
6968.000000;1.807595
6967.000000;1.809058
6966.000000;1.810671
6965.000000;1.810806
6964.000000;1.809460
6963.000000;1.808284
6962.000000;1.808551
6961.000000;1.809770
6960.000000;1.810650
6959.000000;1.810884
6958.000000;1.811292
6957.000000;1.812453
6956.000000;1.813980
6955.000000;1.815188
6954.000000;1.815857
6953.000000;1.816092
6952.000000;1.815907
6951.000000;1.815294
6950.000000;1.814522
6949.000000;1.813983
6948.000000;1.813742
6947.000000;1.813495
6946.000000;1.812954
6945.000000;1.812160
6944.000000;1.811473
6943.000000;1.811286
6942.000000;1.811675
6941.000000;1.812335
6940.000000;1.812970
6939.000000;1.813685
6938.000000;1.814808
6937.000000;1.816299
6936.000000;1.817544
6935.000000;1.817896
6934.000000;1.817294
6933.000000;1.816161
6932.000000;1.814869
6931.000000;1.813601
6930.000000;1.812710
6929.000000;1.812759
6928.000000;1.813904
6927.000000;1.815405
6926.000000;1.816102
6925.000000;1.815454
6924.000000;1.813903
6923.000000;1.812238
6922.000000;1.810942
6921.000000;1.810247
6920.000000;1.810399
6919.000000;1.811473
6918.000000;1.813049
6917.000000;1.814398
6916.000000;1.815042
6915.000000;1.814971
6914.000000;1.814386
6913.000000;1.813447
6912.000000;1.812301
6911.000000;1.811169
6910.000000;1.810364
6909.000000;1.810250
6908.000000;1.811075
6907.000000;1.812645
6906.000000;1.814247
6905.000000;1.815181
6904.000000;1.815323
6903.000000;1.814980
6902.000000;1.814344
6901.000000;1.813446
6900.000000;1.812523
6899.000000;1.811904
6898.000000;1.811498
6897.000000;1.810925
6896.000000;1.810240
6895.000000;1.809999
6894.000000;1.810339
6893.000000;1.810471
6892.000000;1.809631
6891.000000;1.808256
6890.000000;1.807667
6889.000000;1.808677
6888.000000;1.810846
6887.000000;1.812956
6886.000000;1.813853
6885.000000;1.813022
6884.000000;1.810847
6883.000000;1.808430
6882.000000;1.806805
6881.000000;1.806190
6880.000000;1.806051
6879.000000;1.805839
6878.000000;1.805469
6877.000000;1.805144
6876.000000;1.805051
6875.000000;1.805298
6874.000000;1.805823
6873.000000;1.806275
6872.000000;1.806274
6871.000000;1.805914
6870.000000;1.805741
6869.000000;1.806071
6868.000000;1.806570
6867.000000;1.806671
6866.000000;1.806245
6865.000000;1.805666
6864.000000;1.805366
6863.000000;1.805500
6862.000000;1.805903
6861.000000;1.806160
6860.000000;1.805840
6859.000000;1.804896
6858.000000;1.803794
6857.000000;1.803102
6856.000000;1.802961
6855.000000;1.803038
6854.000000;1.802913
6853.000000;1.802421
6852.000000;1.801674
6851.000000;1.800831
6850.000000;1.799900
6849.000000;1.798788
6848.000000;1.797596
6847.000000;1.796738
6846.000000;1.796533
6845.000000;1.796627
6844.000000;1.796175
6843.000000;1.794826
6842.000000;1.793314
6841.000000;1.792704
6840.000000;1.793123
6839.000000;1.793547
6838.000000;1.792871
6837.000000;1.791034
6836.000000;1.788995
6835.000000;1.787746
6834.000000;1.787428
6833.000000;1.787323
6832.000000;1.786665
6831.000000;1.785420
6830.000000;1.784214
6829.000000;1.783530
6828.000000;1.783161
6827.000000;1.782523
6826.000000;1.781327
6825.000000;1.779811
6824.000000;1.778448
6823.000000;1.777589
6822.000000;1.777234
6821.000000;1.776939
6820.000000;1.776054
6819.000000;1.774286
6818.000000;1.772004
6817.000000;1.769834
6816.000000;1.768073
6815.000000;1.766646
6814.000000;1.765416
6813.000000;1.764202
6812.000000;1.762697
6811.000000;1.760792
6810.000000;1.758955
6809.000000;1.757845
6808.000000;1.757460
6807.000000;1.757066
6806.000000;1.756129
6805.000000;1.754937
6804.000000;1.754082
6803.000000;1.753621
6802.000000;1.753015
6801.000000;1.751714
6800.000000;1.749522
6799.000000;1.746609
6798.000000;1.743500
6797.000000;1.740912
6796.000000;1.739249
6795.000000;1.738220
6794.000000;1.737175
6793.000000;1.735812
6792.000000;1.734393
6791.000000;1.733239
6790.000000;1.732182
6789.000000;1.730630
6788.000000;1.728201
6787.000000;1.725283
6786.000000;1.722866
6785.000000;1.721657
6784.000000;1.721360
6783.000000;1.720965
6782.000000;1.719761
6781.000000;1.717884
6780.000000;1.715850
6779.000000;1.713898
6778.000000;1.711970
6777.000000;1.709999
6776.000000;1.707927
6775.000000;1.705621
6774.000000;1.703121
6773.000000;1.700844
6772.000000;1.699239
6771.000000;1.698276
6770.000000;1.697483
6769.000000;1.696398
6768.000000;1.694797
6767.000000;1.692612
6766.000000;1.689987
6765.000000;1.687352
6764.000000;1.685131
6763.000000;1.683323
6762.000000;1.681598
6761.000000;1.679808
6760.000000;1.678126
6759.000000;1.676675
6758.000000;1.675296
6757.000000;1.673775
6756.000000;1.672075
6755.000000;1.670236
6754.000000;1.668250
6753.000000;1.666129
6752.000000;1.663984
6751.000000;1.661963
6750.000000;1.660191
6749.000000;1.658744
6748.000000;1.657533
6747.000000;1.656279
6746.000000;1.654795
6745.000000;1.653226
6744.000000;1.651756
6743.000000;1.650112
6742.000000;1.647746
6741.000000;1.644611
6740.000000;1.641396
6739.000000;1.638775
6738.000000;1.636752
6737.000000;1.634924
6736.000000;1.633097
6735.000000;1.631336
6734.000000;1.629649
6733.000000;1.627961
6732.000000;1.626307
6731.000000;1.624743
6730.000000;1.623087
6729.000000;1.621057
6728.000000;1.618688
6727.000000;1.616371
6726.000000;1.614426
6725.000000;1.612823
6724.000000;1.611372
6723.000000;1.610004
6722.000000;1.608771
6721.000000;1.607640
6720.000000;1.606414
6719.000000;1.604838
6718.000000;1.602781
6717.000000;1.600369
6716.000000;1.597933
6715.000000;1.595794
6714.000000;1.594043
6713.000000;1.592526
6712.000000;1.590980
6711.000000;1.589168
6710.000000;1.586985
6709.000000;1.584539
6708.000000;1.582134
6707.000000;1.580066
6706.000000;1.578430
6705.000000;1.577122
6704.000000;1.575961
6703.000000;1.574756
6702.000000;1.573373
6701.000000;1.571809
6700.000000;1.570238
6699.000000;1.568604
6698.000000;1.566795
6697.000000;1.564745
6696.000000;1.562629
6695.000000;1.560715
6694.000000;1.559001
6693.000000;1.557242
6692.000000;1.555301
6691.000000;1.553261
6690.000000;1.551170
6689.000000;1.548906
6688.000000;1.546447
6687.000000;1.544095
6686.000000;1.542224
6685.000000;1.540868
6684.000000;1.539716
6683.000000;1.538487
6682.000000;1.537139
6681.000000;1.535707
6680.000000;1.534095
6679.000000;1.532142
6678.000000;1.529833
6677.000000;1.527367
6676.000000;1.525062
6675.000000;1.523206
6674.000000;1.521898
6673.000000;1.520930
6672.000000;1.519842
6671.000000;1.518226
6670.000000;1.516065
6669.000000;1.513742
6668.000000;1.511670
6667.000000;1.509937
6666.000000;1.508346
6665.000000;1.506734
6664.000000;1.505161
6663.000000;1.503747
6662.000000;1.502431
6661.000000;1.500972
6660.000000;1.499213
6659.000000;1.497267
6658.000000;1.495434
6657.000000;1.493966
6656.000000;1.492878
6655.000000;1.491925
6654.000000;1.490724
6653.000000;1.488982
6652.000000;1.486697
6651.000000;1.484187
6650.000000;1.481874
6649.000000;1.480001
6648.000000;1.478525
6647.000000;1.477241
6646.000000;1.475992
6645.000000;1.474722
6644.000000;1.473395
6643.000000;1.471932
6642.000000;1.470294
6641.000000;1.468567
6640.000000;1.466903
6639.000000;1.465359
6638.000000;1.463894
6637.000000;1.462510
6636.000000;1.461301
6635.000000;1.460272
6634.000000;1.459170
6633.000000;1.457657
6632.000000;1.455690
6631.000000;1.453635
6630.000000;1.451934
6629.000000;1.450730
6628.000000;1.449853
6627.000000;1.449055
6626.000000;1.448148
6625.000000;1.446948
6624.000000;1.445311
6623.000000;1.443298
6622.000000;1.441192
6621.000000;1.439230
6620.000000;1.437401
6619.000000;1.435589
6618.000000;1.433827
6617.000000;1.432284
6616.000000;1.430989
6615.000000;1.429748
6614.000000;1.428380
6613.000000;1.426927
6612.000000;1.425578
6611.000000;1.424470
6610.000000;1.423601
6609.000000;1.422853
6608.000000;1.422000
6607.000000;1.420785
6606.000000;1.419145
6605.000000;1.417335
6604.000000;1.415710
6603.000000;1.414381
6602.000000;1.413182
6601.000000;1.411962
6600.000000;1.410741
6599.000000;1.409506
6598.000000;1.408038
6597.000000;1.406145
6596.000000;1.404034
6595.000000;1.402235
6594.000000;1.401093
6593.000000;1.400393
6592.000000;1.399553
6591.000000;1.398149
6590.000000;1.396196
6589.000000;1.394039
6588.000000;1.392055
6587.000000;1.390455
6586.000000;1.389213
6585.000000;1.388104
6584.000000;1.386882
6583.000000;1.385475
6582.000000;1.384045
6581.000000;1.382832
6580.000000;1.381953
6579.000000;1.381325
6578.000000;1.380740
6577.000000;1.379961
6576.000000;1.378833
6575.000000;1.377383
6574.000000;1.375817
6573.000000;1.374364
6572.000000;1.373079
6571.000000;1.371855
6570.000000;1.370605
6569.000000;1.369377
6568.000000;1.368260
6567.000000;1.367257
6566.000000;1.366298
6565.000000;1.365330
6564.000000;1.364338
6563.000000;1.363303
6562.000000;1.362191
6561.000000;1.360996
6560.000000;1.359758
6559.000000;1.358545
6558.000000;1.357424
6557.000000;1.356416
6556.000000;1.355437
6555.000000;1.354335
6554.000000;1.353034
6553.000000;1.351638
6552.000000;1.350322
6551.000000;1.349134
6550.000000;1.347948
6549.000000;1.346623
6548.000000;1.345159
6547.000000;1.343714
6546.000000;1.342487
6545.000000;1.341582
6544.000000;1.340907
6543.000000;1.340210
6542.000000;1.339261
6541.000000;1.338048
6540.000000;1.336760
6539.000000;1.335567
6538.000000;1.334458
6537.000000;1.333339
6536.000000;1.332224
6535.000000;1.331231
6534.000000;1.330394
6533.000000;1.329573
6532.000000;1.328608
6531.000000;1.327509
6530.000000;1.326423
6529.000000;1.325414
6528.000000;1.324372
6527.000000;1.323161
6526.000000;1.321815
6525.000000;1.320524
6524.000000;1.319445
6523.000000;1.318565
6522.000000;1.317736
6521.000000;1.316802
6520.000000;1.315712
6519.000000;1.314547
6518.000000;1.313467
6517.000000;1.312573
6516.000000;1.311803
6515.000000;1.311005
6514.000000;1.310096
6513.000000;1.309121
6512.000000;1.308132
6511.000000;1.307107
6510.000000;1.306045
6509.000000;1.305057
6508.000000;1.304249
6507.000000;1.303531
6506.000000;1.302668
6505.000000;1.301560
6504.000000;1.300387
6503.000000;1.299413
6502.000000;1.298688
6501.000000;1.298014
6500.000000;1.297196
6499.000000;1.296255
6498.000000;1.295365
6497.000000;1.294610
6496.000000;1.293867
6495.000000;1.292939
6494.000000;1.291777
6493.000000;1.290512
6492.000000;1.289315
6491.000000;1.288267
6490.000000;1.287354
6489.000000;1.286535
6488.000000;1.285773
6487.000000;1.285040
6486.000000;1.284321
6485.000000;1.283575
6484.000000;1.282719
6483.000000;1.281704
6482.000000;1.280633
6481.000000;1.279690
6480.000000;1.278932
6479.000000;1.278219
6478.000000;1.277445
6477.000000;1.276713
6476.000000;1.276164
6475.000000;1.275683
6474.000000;1.274957
6473.000000;1.273849
6472.000000;1.272572
6471.000000;1.271427
6470.000000;1.270509
6469.000000;1.269730
6468.000000;1.269016
6467.000000;1.268357
6466.000000;1.267719
6465.000000;1.267018
6464.000000;1.266194
6463.000000;1.265239
6462.000000;1.264174
6461.000000;1.263071
6460.000000;1.262070
6459.000000;1.261277
6458.000000;1.260659
6457.000000;1.260088
6456.000000;1.259500
6455.000000;1.258937
6454.000000;1.258431
6453.000000;1.257913
6452.000000;1.257288
6451.000000;1.256526
6450.000000;1.255649
6449.000000;1.254674
6448.000000;1.253637
6447.000000;1.252628
6446.000000;1.251727
6445.000000;1.250927
6444.000000;1.250173
6443.000000;1.249464
6442.000000;1.248844
6441.000000;1.248293
6440.000000;1.247709
6439.000000;1.247033
6438.000000;1.246326
6437.000000;1.245646
6436.000000;1.244932
6435.000000;1.244093
6434.000000;1.243205
6433.000000;1.242476
6432.000000;1.241998
6431.000000;1.241626
6430.000000;1.241141
6429.000000;1.240471
6428.000000;1.239684
6427.000000;1.238858
6426.000000;1.238044
6425.000000;1.237309
6424.000000;1.236693
6423.000000;1.236118
6422.000000;1.235436
6421.000000;1.234625
6420.000000;1.233843
6419.000000;1.233249
6418.000000;1.232808
6417.000000;1.232327
6416.000000;1.231659
6415.000000;1.230825
6414.000000;1.229954
6413.000000;1.229160
6412.000000;1.228484
6411.000000;1.227899
6410.000000;1.227343
6409.000000;1.226742
6408.000000;1.226049
6407.000000;1.225267
6406.000000;1.224466
6405.000000;1.223742
6404.000000;1.223141
6403.000000;1.222612
6402.000000;1.222049
6401.000000;1.221396
6400.000000;1.220703
6399.000000;1.220055
6398.000000;1.219475
6397.000000;1.218905
6396.000000;1.218291
6395.000000;1.217649
6394.000000;1.217026
6393.000000;1.216401
6392.000000;1.215695
6391.000000;1.214901
6390.000000;1.214155
6389.000000;1.213620
6388.000000;1.213288
6387.000000;1.212957
6386.000000;1.212443
6385.000000;1.211760
6384.000000;1.211056
6383.000000;1.210416
6382.000000;1.209792
6381.000000;1.209121
6380.000000;1.208441
6379.000000;1.207851
6378.000000;1.207402
6377.000000;1.207053
6376.000000;1.206705
6375.000000;1.206261
6374.000000;1.205666
6373.000000;1.204926
6372.000000;1.204117
6371.000000;1.203374
6370.000000;1.202823
6369.000000;1.202488
6368.000000;1.202246
6367.000000;1.201926
6366.000000;1.201450
6365.000000;1.200870
6364.000000;1.200262
6363.000000;1.199641
6362.000000;1.198997
6361.000000;1.198348
6360.000000;1.197699
6359.000000;1.197008
6358.000000;1.196273
6357.000000;1.195618
6356.000000;1.195184
6355.000000;1.194943
6354.000000;1.194703
6353.000000;1.194310
6352.000000;1.193764
6351.000000;1.193141
6350.000000;1.192482
6349.000000;1.191821
6348.000000;1.191241
6347.000000;1.190807
6346.000000;1.190472
6345.000000;1.190090
6344.000000;1.189535
6343.000000;1.188797
6342.000000;1.187997
6341.000000;1.187317
6340.000000;1.186865
6339.000000;1.186573
6338.000000;1.186263
6337.000000;1.185828
6336.000000;1.185326
6335.000000;1.184851
6334.000000;1.184408
6333.000000;1.183944
6332.000000;1.183469
6331.000000;1.183054
6330.000000;1.182736
6329.000000;1.182484
6328.000000;1.182250
6327.000000;1.181983
6326.000000;1.181604
6325.000000;1.181043
6324.000000;1.180334
6323.000000;1.179644
6322.000000;1.179155
6321.000000;1.178905
6320.000000;1.178750
6319.000000;1.178483
6318.000000;1.177985
6317.000000;1.177295
6316.000000;1.176547
6315.000000;1.175854
6314.000000;1.175283
6313.000000;1.174875
6312.000000;1.174629
6311.000000;1.174439
6310.000000;1.174132
6309.000000;1.173616
6308.000000;1.172961
6307.000000;1.172302
6306.000000;1.171693
6305.000000;1.171116
6304.000000;1.170577
6303.000000;1.170117
6302.000000;1.169741
6301.000000;1.169376
6300.000000;1.168941
6299.000000;1.168425
6298.000000;1.167916
6297.000000;1.167545
6296.000000;1.167384
6295.000000;1.167349
6294.000000;1.167236
6293.000000;1.166899
6292.000000;1.166381
6291.000000;1.165833
6290.000000;1.165335
6289.000000;1.164858
6288.000000;1.164385
6287.000000;1.163977
6286.000000;1.163701
6285.000000;1.163553
6284.000000;1.163466
6283.000000;1.163354
6282.000000;1.163149
6281.000000;1.162823
6280.000000;1.162412
6279.000000;1.161974
6278.000000;1.161537
6277.000000;1.161099
6276.000000;1.160668
6275.000000;1.160244
6274.000000;1.159784
6273.000000;1.159273
6272.000000;1.158807
6271.000000;1.158512
6270.000000;1.158364
6269.000000;1.158195
6268.000000;1.157903
6267.000000;1.157572
6266.000000;1.157316
6265.000000;1.157103
6264.000000;1.156804
6263.000000;1.156363
6262.000000;1.155809
6261.000000;1.155170
6260.000000;1.154496
6259.000000;1.153936
6258.000000;1.153655
6257.000000;1.153656
6256.000000;1.153760
6255.000000;1.153786
6254.000000;1.153691
6253.000000;1.153503
6252.000000;1.153222
6251.000000;1.152844
6250.000000;1.152422
6249.000000;1.152033
6248.000000;1.151692
6247.000000;1.151355
6246.000000;1.151006
6245.000000;1.150678
6244.000000;1.150394
6243.000000;1.150096
6242.000000;1.149688
6241.000000;1.149148
6240.000000;1.148589
6239.000000;1.148180
6238.000000;1.147985
6237.000000;1.147903
6236.000000;1.147788
6235.000000;1.147602
6234.000000;1.147425
6233.000000;1.147300
6232.000000;1.147156
6231.000000;1.146886
6230.000000;1.146475
6229.000000;1.146023
6228.000000;1.145635
6227.000000;1.145341
6226.000000;1.145078
6225.000000;1.144752
6224.000000;1.144329
6223.000000;1.143876
6222.000000;1.143510
6221.000000;1.143289
6220.000000;1.143159
6219.000000;1.143030
6218.000000;1.142869
6217.000000;1.142699
6216.000000;1.142525
6215.000000;1.142311
6214.000000;1.142035
6213.000000;1.141727
6212.000000;1.141444
6211.000000;1.141207
6210.000000;1.140994
6209.000000;1.140767
6208.000000;1.140492
6207.000000;1.140160
6206.000000;1.139798
6205.000000;1.139456
6204.000000;1.139176
6203.000000;1.138967
6202.000000;1.138825
6201.000000;1.138742
6200.000000;1.138690
6199.000000;1.138613
6198.000000;1.138477
6197.000000;1.138302
6196.000000;1.138117
6195.000000;1.137904
6194.000000;1.137616
6193.000000;1.137275
6192.000000;1.136959
6191.000000;1.136687
6190.000000;1.136371
6189.000000;1.135939
6188.000000;1.135465
6187.000000;1.135098
6186.000000;1.134900
6185.000000;1.134804
6184.000000;1.134734
6183.000000;1.134686
6182.000000;1.134673
6181.000000;1.134675
6180.000000;1.134657
6179.000000;1.134590
6178.000000;1.134433
6177.000000;1.134152
6176.000000;1.133782
6175.000000;1.133415
6174.000000;1.133099
6173.000000;1.132798
6172.000000;1.132492
6171.000000;1.132254
6170.000000;1.132163
6169.000000;1.132179
6168.000000;1.132185
6167.000000;1.132114
6166.000000;1.131986
6165.000000;1.131834
6164.000000;1.131681
6163.000000;1.131567
6162.000000;1.131516
6161.000000;1.131454
6160.000000;1.131257
6159.000000;1.130905
6158.000000;1.130535
6157.000000;1.130285
6156.000000;1.130143
6155.000000;1.129982
6154.000000;1.129708
6153.000000;1.129322
6152.000000;1.128881
6151.000000;1.128457
6150.000000;1.128127
6149.000000;1.127953
6148.000000;1.127940
6147.000000;1.128027
6146.000000;1.128122
6145.000000;1.128152
6144.000000;1.128087
6143.000000;1.127950
6142.000000;1.127790
6141.000000;1.127642
6140.000000;1.127516
6139.000000;1.127402
6138.000000;1.127273
6137.000000;1.127076
6136.000000;1.126767
6135.000000;1.126383
6134.000000;1.126034
6133.000000;1.125823
6132.000000;1.125754
6131.000000;1.125750
6130.000000;1.125728
6129.000000;1.125647
6128.000000;1.125507
6127.000000;1.125356
6126.000000;1.125267
6125.000000;1.125262
6124.000000;1.125271
6123.000000;1.125189
6122.000000;1.124997
6121.000000;1.124775
6120.000000;1.124582
6119.000000;1.124367
6118.000000;1.124053
6117.000000;1.123674
6116.000000;1.123371
6115.000000;1.123232
6114.000000;1.123184
6113.000000;1.123098
6112.000000;1.122961
6111.000000;1.122904
6110.000000;1.123030
6109.000000;1.123260
6108.000000;1.123396
6107.000000;1.123319
6106.000000;1.123083
6105.000000;1.122821
6104.000000;1.122609
6103.000000;1.122433
6102.000000;1.122243
6101.000000;1.122013
6100.000000;1.121760
6099.000000;1.121532
6098.000000;1.121382
6097.000000;1.121336
6096.000000;1.121371
6095.000000;1.121429
6094.000000;1.121439
6093.000000;1.121335
6092.000000;1.121095
6091.000000;1.120784
6090.000000;1.120545
6089.000000;1.120487
6088.000000;1.120580
6087.000000;1.120670
6086.000000;1.120628
6085.000000;1.120468
6084.000000;1.120326
6083.000000;1.120319
6082.000000;1.120425
6081.000000;1.120502
6080.000000;1.120420
6079.000000;1.120168
6078.000000;1.119838
6077.000000;1.119540
6076.000000;1.119338
6075.000000;1.119240
6074.000000;1.119215
6073.000000;1.119202
6072.000000;1.119146
6071.000000;1.119049
6070.000000;1.118976
6069.000000;1.118984
6068.000000;1.119052
6067.000000;1.119091
6066.000000;1.119033
6065.000000;1.118898
6064.000000;1.118782
6063.000000;1.118772
6062.000000;1.118856
6061.000000;1.118921
6060.000000;1.118861
6059.000000;1.118699
6058.000000;1.118585
6057.000000;1.118638
6056.000000;1.118799
6055.000000;1.118873
6054.000000;1.118727
6053.000000;1.118431
6052.000000;1.118174
6051.000000;1.118087
6050.000000;1.118151
6049.000000;1.118267
6048.000000;1.118351
6047.000000;1.118366
6046.000000;1.118299
6045.000000;1.118163
6044.000000;1.117994
6043.000000;1.117820
6042.000000;1.117637
6041.000000;1.117451
6040.000000;1.117335
6039.000000;1.117394
6038.000000;1.117618
6037.000000;1.117838
6036.000000;1.117876
6035.000000;1.117742
6034.000000;1.117630
6033.000000;1.117698
6032.000000;1.117899
6031.000000;1.118056
6030.000000;1.118059
6029.000000;1.117955
6028.000000;1.117871
6027.000000;1.117870
6026.000000;1.117913
6025.000000;1.117925
6024.000000;1.117895
6023.000000;1.117889
6022.000000;1.117958
6021.000000;1.118071
6020.000000;1.118142
6019.000000;1.118119
6018.000000;1.118013
6017.000000;1.117861
6016.000000;1.117705
6015.000000;1.117618
6014.000000;1.117676
6013.000000;1.117878
6012.000000;1.118103
6011.000000;1.118206
6010.000000;1.118135
6009.000000;1.117959
6008.000000;1.117789
6007.000000;1.117711
6006.000000;1.117769
6005.000000;1.117972
6004.000000;1.118295
6003.000000;1.118675
6002.000000;1.119021
6001.000000;1.119236
6000.000000;1.119268
5999.000000;1.119161
5998.000000;1.119048
5997.000000;1.119054
5996.000000;1.119195
5995.000000;1.119387
5994.000000;1.119545
5993.000000;1.119664
5992.000000;1.119806
5991.000000;1.120014
5990.000000;1.120250
5989.000000;1.120414
5988.000000;1.120432
5987.000000;1.120327
5986.000000;1.120206
5985.000000;1.120186
5984.000000;1.120326
5983.000000;1.120622
5982.000000;1.121005
5981.000000;1.121358
5980.000000;1.121575
5979.000000;1.121656
5978.000000;1.121709
5977.000000;1.121821
5976.000000;1.121958
5975.000000;1.122033
5974.000000;1.122056
5973.000000;1.122149
5972.000000;1.122410
5971.000000;1.122802
5970.000000;1.123219
5969.000000;1.123607
5968.000000;1.123974
5967.000000;1.124321
5966.000000;1.124599
5965.000000;1.124771
5964.000000;1.124868
5963.000000;1.124960
5962.000000;1.125098
5961.000000;1.125282
5960.000000;1.125498
5959.000000;1.125756
5958.000000;1.126078
5957.000000;1.126459
5956.000000;1.126842
5955.000000;1.127152
5954.000000;1.127363
5953.000000;1.127528
5952.000000;1.127741
5951.000000;1.128061
5950.000000;1.128474
5949.000000;1.128932
5948.000000;1.129388
5947.000000;1.129810
5946.000000;1.130166
5945.000000;1.130450
5944.000000;1.130723
5943.000000;1.131065
5942.000000;1.131454
5941.000000;1.131751
5940.000000;1.131847
5939.000000;1.131823
5938.000000;1.131893
5937.000000;1.132180
5936.000000;1.132586
5935.000000;1.132921
5934.000000;1.133120
5933.000000;1.133287
5932.000000;1.133540
5931.000000;1.133877
5930.000000;1.134196
5929.000000;1.134427
5928.000000;1.134598
5927.000000;1.134792
5926.000000;1.135062
5925.000000;1.135398
5924.000000;1.135760
5923.000000;1.136111
5922.000000;1.136414
5921.000000;1.136623
5920.000000;1.136715
5919.000000;1.136737
5918.000000;1.136787
5917.000000;1.136929
5916.000000;1.137137
5915.000000;1.137323
5914.000000;1.137428
5913.000000;1.137449
5912.000000;1.137419
5911.000000;1.137365
5910.000000;1.137309
5909.000000;1.137278
5908.000000;1.137303
5907.000000;1.137392
5906.000000;1.137525
5905.000000;1.137679
5904.000000;1.137858
5903.000000;1.138060
5902.000000;1.138231
5901.000000;1.138275
5900.000000;1.138148
5899.000000;1.137938
5898.000000;1.137806
5897.000000;1.137869
5896.000000;1.138130
5895.000000;1.138505
5894.000000;1.138887
5893.000000;1.139180
5892.000000;1.139318
5891.000000;1.139295
5890.000000;1.139169
5889.000000;1.139040
5888.000000;1.138996
5887.000000;1.139067
5886.000000;1.139206
5885.000000;1.139338
5884.000000;1.139441
5883.000000;1.139561
5882.000000;1.139721
5881.000000;1.139854
5880.000000;1.139879
5879.000000;1.139849
5878.000000;1.139940
5877.000000;1.140270
5876.000000;1.140755
5875.000000;1.141180
5874.000000;1.141381
5873.000000;1.141353
5872.000000;1.141233
5871.000000;1.141197
5870.000000;1.141352
5869.000000;1.141676
5868.000000;1.142066
5867.000000;1.142434
5866.000000;1.142752
5865.000000;1.143001
5864.000000;1.143154
5863.000000;1.143235
5862.000000;1.143351
5861.000000;1.143598
5860.000000;1.143972
5859.000000;1.144401
5858.000000;1.144840
5857.000000;1.145284
5856.000000;1.145707
5855.000000;1.146058
5854.000000;1.146337
5853.000000;1.146611
5852.000000;1.146958
5851.000000;1.147409
5850.000000;1.147952
5849.000000;1.148542
5848.000000;1.149107
5847.000000;1.149590
5846.000000;1.150004
5845.000000;1.150412
5844.000000;1.150834
5843.000000;1.151213
5842.000000;1.151504
5841.000000;1.151762
5840.000000;1.152088
5839.000000;1.152511
5838.000000;1.152986
5837.000000;1.153495
5836.000000;1.154078
5835.000000;1.154746
5834.000000;1.155408
5833.000000;1.155954
5832.000000;1.156379
5831.000000;1.156773
5830.000000;1.157195
5829.000000;1.157627
5828.000000;1.158049
5827.000000;1.158499
5826.000000;1.159018
5825.000000;1.159585
5824.000000;1.160143
5823.000000;1.160666
5822.000000;1.161162
5821.000000;1.161637
5820.000000;1.162106
5819.000000;1.162595
5818.000000;1.163104
5817.000000;1.163593
5816.000000;1.164044
5815.000000;1.164509
5814.000000;1.165036
5813.000000;1.165577
5812.000000;1.166037
5811.000000;1.166418
5810.000000;1.166821
5809.000000;1.167310
5808.000000;1.167844
5807.000000;1.168375
5806.000000;1.168920
5805.000000;1.169497
5804.000000;1.170079
5803.000000;1.170648
5802.000000;1.171236
5801.000000;1.171860
5800.000000;1.172461
5799.000000;1.172987
5798.000000;1.173485
5797.000000;1.174050
5796.000000;1.174687
5795.000000;1.175308
5794.000000;1.175847
5793.000000;1.176330
5792.000000;1.176817
5791.000000;1.177328
5790.000000;1.177852
5789.000000;1.178369
5788.000000;1.178876
5787.000000;1.179390
5786.000000;1.179970
5785.000000;1.180682
5784.000000;1.181533
5783.000000;1.182438
5782.000000;1.183274
5781.000000;1.183973
5780.000000;1.184556
5779.000000;1.185095
5778.000000;1.185626
5777.000000;1.186127
5776.000000;1.186573
5775.000000;1.186988
5774.000000;1.187421
5773.000000;1.187872
5772.000000;1.188309
5771.000000;1.188747
5770.000000;1.189251
5769.000000;1.189847
5768.000000;1.190487
5767.000000;1.191116
5766.000000;1.191730
5765.000000;1.192331
5764.000000;1.192873
5763.000000;1.193319
5762.000000;1.193706
5761.000000;1.194109
5760.000000;1.194556
5759.000000;1.195038
5758.000000;1.195567
5757.000000;1.196168
5756.000000;1.196811
5755.000000;1.197425
5754.000000;1.197980
5753.000000;1.198517
5752.000000;1.199082
5751.000000;1.199666
5750.000000;1.200227
5749.000000;1.200741
5748.000000;1.201224
5747.000000;1.201698
5746.000000;1.202172
5745.000000;1.202635
5744.000000;1.203083
5743.000000;1.203542
5742.000000;1.204047
5741.000000;1.204601
5740.000000;1.205165
5739.000000;1.205716
5738.000000;1.206270
5737.000000;1.206839
5736.000000;1.207398
5735.000000;1.207922
5734.000000;1.208427
5733.000000;1.208942
5732.000000;1.209469
5731.000000;1.210005
5730.000000;1.210569
5729.000000;1.211169
5728.000000;1.211770
5727.000000;1.212337
5726.000000;1.212902
5725.000000;1.213518
5724.000000;1.214177
5723.000000;1.214819
5722.000000;1.215423
5721.000000;1.216032
5720.000000;1.216670
5719.000000;1.217283
5718.000000;1.217799
5717.000000;1.218221
5716.000000;1.218644
5715.000000;1.219182
5714.000000;1.219878
5713.000000;1.220639
5712.000000;1.221299
5711.000000;1.221772
5710.000000;1.222147
5709.000000;1.222613
5708.000000;1.223276
5707.000000;1.224073
5706.000000;1.224861
5705.000000;1.225560
5704.000000;1.226199
5703.000000;1.226850
5702.000000;1.227545
5701.000000;1.228237
5700.000000;1.228858
5699.000000;1.229395
5698.000000;1.229880
5697.000000;1.230328
5696.000000;1.230689
5695.000000;1.230969
5694.000000;1.231297
5693.000000;1.231782
5692.000000;1.232433
5691.000000;1.233131
5690.000000;1.233782
5689.000000;1.234385
5688.000000;1.234992
5687.000000;1.235636
5686.000000;1.236317
5685.000000;1.237005
5684.000000;1.237645
5683.000000;1.238207
5682.000000;1.238736
5681.000000;1.239320
5680.000000;1.239994
5679.000000;1.240710
5678.000000;1.241386
5677.000000;1.241965
5676.000000;1.242419
5675.000000;1.242765
5674.000000;1.243104
5673.000000;1.243583
5672.000000;1.244267
5671.000000;1.245062
5670.000000;1.245793
5669.000000;1.246362
5668.000000;1.246815
5667.000000;1.247279
5666.000000;1.247858
5665.000000;1.248563
5664.000000;1.249310
5663.000000;1.249977
5662.000000;1.250467
5661.000000;1.250754
5660.000000;1.250890
5659.000000;1.251008
5658.000000;1.251271
5657.000000;1.251771
5656.000000;1.252452
5655.000000;1.253152
5654.000000;1.253729
5653.000000;1.254138
5652.000000;1.254425
5651.000000;1.254677
5650.000000;1.254997
5649.000000;1.255450
5648.000000;1.256009
5647.000000;1.256583
5646.000000;1.257111
5645.000000;1.257621
5644.000000;1.258169
5643.000000;1.258757
5642.000000;1.259333
5641.000000;1.259861
5640.000000;1.260354
5639.000000;1.260854
5638.000000;1.261391
5637.000000;1.261963
5636.000000;1.262532
5635.000000;1.263029
5634.000000;1.263396
5633.000000;1.263634
5632.000000;1.263811
5631.000000;1.264015
5630.000000;1.264294
5629.000000;1.264634
5628.000000;1.265006
5627.000000;1.265405
5626.000000;1.265836
5625.000000;1.266274
5624.000000;1.266667
5623.000000;1.266992
5622.000000;1.267277
5621.000000;1.267553
5620.000000;1.267820
5619.000000;1.268065
5618.000000;1.268305
5617.000000;1.268597
5616.000000;1.269001
5615.000000;1.269541
5614.000000;1.270170
5613.000000;1.270744
5612.000000;1.271106
5611.000000;1.271232
5610.000000;1.271273
5609.000000;1.271409
5608.000000;1.271692
5607.000000;1.272079
5606.000000;1.272548
5605.000000;1.273103
5604.000000;1.273671
5603.000000;1.274107
5602.000000;1.274330
5601.000000;1.274401
5600.000000;1.274438
5599.000000;1.274506
5598.000000;1.274627
5597.000000;1.274817
5596.000000;1.275065
5595.000000;1.275303
5594.000000;1.275455
5593.000000;1.275520
5592.000000;1.275575
5591.000000;1.275704
5590.000000;1.275943
5589.000000;1.276260
5588.000000;1.276565
5587.000000;1.276760
5586.000000;1.276816
5585.000000;1.276782
5584.000000;1.276739
5583.000000;1.276750
5582.000000;1.276869
5581.000000;1.277136
5580.000000;1.277513
5579.000000;1.277855
5578.000000;1.277996
5577.000000;1.277905
5576.000000;1.277739
5575.000000;1.277712
5574.000000;1.277899
5573.000000;1.278168
5572.000000;1.278327
5571.000000;1.278326
5570.000000;1.278287
5569.000000;1.278334
5568.000000;1.278451
5567.000000;1.278530
5566.000000;1.278542
5565.000000;1.278568
5564.000000;1.278677
5563.000000;1.278862
5562.000000;1.279092
5561.000000;1.279359
5560.000000;1.279624
5559.000000;1.279805
5558.000000;1.279860
5557.000000;1.279856
5556.000000;1.279868
5555.000000;1.279875
5554.000000;1.279795
5553.000000;1.279630
5552.000000;1.279495
5551.000000;1.279488
5550.000000;1.279585
5549.000000;1.279682
5548.000000;1.279707
5547.000000;1.279655
5546.000000;1.279558
5545.000000;1.279442
5544.000000;1.279321
5543.000000;1.279217
5542.000000;1.279163
5541.000000;1.279175
5540.000000;1.279240
5539.000000;1.279333
5538.000000;1.279456
5537.000000;1.279618
5536.000000;1.279783
5535.000000;1.279858
5534.000000;1.279790
5533.000000;1.279647
5532.000000;1.279578
5531.000000;1.279675
5530.000000;1.279887
5529.000000;1.280086
5528.000000;1.280170
5527.000000;1.280109
5526.000000;1.279931
5525.000000;1.279706
5524.000000;1.279519
5523.000000;1.279429
5522.000000;1.279430
5521.000000;1.279473
5520.000000;1.279541
5519.000000;1.279663
5518.000000;1.279848
5517.000000;1.280019
5516.000000;1.280059
5515.000000;1.279934
5514.000000;1.279759
5513.000000;1.279705
5512.000000;1.279848
5511.000000;1.280117
5510.000000;1.280353
5509.000000;1.280425
5508.000000;1.280286
5507.000000;1.279984
5506.000000;1.279654
5505.000000;1.279450
5504.000000;1.279457
5503.000000;1.279675
5502.000000;1.280055
5501.000000;1.280526
5500.000000;1.280997
5499.000000;1.281351
5498.000000;1.281489
5497.000000;1.281416
5496.000000;1.281264
5495.000000;1.281203
5494.000000;1.281306
5493.000000;1.281482
5492.000000;1.281588
5491.000000;1.281600
5490.000000;1.281629
5489.000000;1.281774
5488.000000;1.282020
5487.000000;1.282325
5486.000000;1.282711
5485.000000;1.283213
5484.000000;1.283749
5483.000000;1.284170
5482.000000;1.284437
5481.000000;1.284635
5480.000000;1.284829
5479.000000;1.285021
5478.000000;1.285245
5477.000000;1.285614
5476.000000;1.286154
5475.000000;1.286709
5474.000000;1.287119
5473.000000;1.287425
5472.000000;1.287780
5471.000000;1.288181
5470.000000;1.288441
5469.000000;1.288417
5468.000000;1.288167
5467.000000;1.287884
5466.000000;1.287784
5465.000000;1.288034
5464.000000;1.288674
5463.000000;1.289579
5462.000000;1.290528
5461.000000;1.291321
5460.000000;1.291875
5459.000000;1.292273
5458.000000;1.292664
5457.000000;1.293126
5456.000000;1.293617
5455.000000;1.294074
5454.000000;1.294515
5453.000000;1.295030
5452.000000;1.295678
5451.000000;1.296418
5450.000000;1.297122
5449.000000;1.297668
5448.000000;1.298089
5447.000000;1.298591
5446.000000;1.299336
5445.000000;1.300257
5444.000000;1.301152
5443.000000;1.301944
5442.000000;1.302737
5441.000000;1.303600
5440.000000;1.304461
5439.000000;1.305273
5438.000000;1.306132
5437.000000;1.307126
5436.000000;1.308151
5435.000000;1.309008
5434.000000;1.309650
5433.000000;1.310244
5432.000000;1.311000
5431.000000;1.311980
5430.000000;1.313057
5429.000000;1.314059
5428.000000;1.314969
5427.000000;1.315954
5426.000000;1.317191
5425.000000;1.318663
5424.000000;1.320154
5423.000000;1.321505
5422.000000;1.322784
5421.000000;1.324148
5420.000000;1.325643
5419.000000;1.327166
5418.000000;1.328578
5417.000000;1.329834
5416.000000;1.331013
5415.000000;1.332258
5414.000000;1.333683
5413.000000;1.335313
5412.000000;1.337087
5411.000000;1.338941
5410.000000;1.340832
5409.000000;1.342705
5408.000000;1.344539
5407.000000;1.346409
5406.000000;1.348410
5405.000000;1.350515
5404.000000;1.352618
5403.000000;1.354722
5402.000000;1.356940
5401.000000;1.359343
5400.000000;1.361873
5399.000000;1.364451
5398.000000;1.367077
5397.000000;1.369762
5396.000000;1.372447
5395.000000;1.375128
5394.000000;1.377930
5393.000000;1.380979
5392.000000;1.384254
5391.000000;1.387626
5390.000000;1.390974
5389.000000;1.394224
5388.000000;1.397363
5387.000000;1.400460
5386.000000;1.403642
5385.000000;1.407015
5384.000000;1.410642
5383.000000;1.414594
5382.000000;1.418902
5381.000000;1.423395
5380.000000;1.427768
5379.000000;1.431907
5378.000000;1.436020
5377.000000;1.440340
5376.000000;1.444831
5375.000000;1.449341
5374.000000;1.453943
5373.000000;1.458858
5372.000000;1.464071
5371.000000;1.469359
5370.000000;1.474669
5369.000000;1.480188
5368.000000;1.486011
5367.000000;1.491984
5366.000000;1.497926
5365.000000;1.503848
5364.000000;1.509900
5363.000000;1.516226
5362.000000;1.522931
5361.000000;1.530082
5360.000000;1.537632
5359.000000;1.545433
5358.000000;1.553351
5357.000000;1.561345
5356.000000;1.569478
5355.000000;1.577888
5354.000000;1.586665
5353.000000;1.595660
5352.000000;1.604573
5351.000000;1.613363
5350.000000;1.622368
5349.000000;1.631869
5348.000000;1.641763
5347.000000;1.651815
5346.000000;1.662085
5345.000000;1.672859
5344.000000;1.684178
5343.000000;1.695729
5342.000000;1.707338
5341.000000;1.719208
5340.000000;1.731579
5339.000000;1.744439
5338.000000;1.757619
5337.000000;1.770939
5336.000000;1.784286
5335.000000;1.797753
5334.000000;1.811626
5333.000000;1.826107
5332.000000;1.841103
5331.000000;1.856369
5330.000000;1.871871
5329.000000;1.887927
5328.000000;1.904839
5327.000000;1.922477
5326.000000;1.940306
5325.000000;1.957862
5324.000000;1.975256
5323.000000;1.993241
5322.000000;2.012578
5321.000000;2.033213
5320.000000;2.054173
5319.000000;2.074538
5318.000000;2.094401
5317.000000;2.114599
5316.000000;2.135746
5315.000000;2.158008
5314.000000;2.181533
5313.000000;2.206355
5312.000000;2.231826
5311.000000;2.256732
5310.000000;2.280226
5309.000000;2.302447
5308.000000;2.324343
5307.000000;2.347275
5306.000000;2.372257
5305.000000;2.398831
5304.000000;2.424974
5303.000000;2.448917
5302.000000;2.470943
5301.000000;2.492717
5300.000000;2.515247
5299.000000;2.538503
5298.000000;2.562505
5297.000000;2.587406
5296.000000;2.612527
5295.000000;2.636445
5294.000000;2.658047
5293.000000;2.676819
5292.000000;2.692894
5291.000000;2.707954
5290.000000;2.725110
5289.000000;2.746121
5288.000000;2.769143
5287.000000;2.790667
5286.000000;2.809019
5285.000000;2.824546
5284.000000;2.837616
5283.000000;2.848551
5282.000000;2.858736
5281.000000;2.869731
5280.000000;2.881742
5279.000000;2.894278
5278.000000;2.906828
5277.000000;2.917446
5276.000000;2.923031
5275.000000;2.923563
5274.000000;2.923890
5273.000000;2.928822
5272.000000;2.937976
5271.000000;2.946602
5270.000000;2.950362
5269.000000;2.948341
5268.000000;2.942820
5267.000000;2.938174
5266.000000;2.938081
5265.000000;2.942067
5264.000000;2.946863
5263.000000;2.951529
5262.000000;2.958086
5261.000000;2.966547
5260.000000;2.972752
5259.000000;2.973212
5258.000000;2.969957
5257.000000;2.967640
5256.000000;2.967863
5255.000000;2.969080
5254.000000;2.969817
5253.000000;2.969456
5252.000000;2.967786
5251.000000;2.965468
5250.000000;2.963404
5249.000000;2.960943
5248.000000;2.957126
5247.000000;2.953934
5246.000000;2.955229
5245.000000;2.962140
5244.000000;2.970840
5243.000000;2.976177
5242.000000;2.976587
5241.000000;2.972729
5240.000000;2.964698
5239.000000;2.954627
5238.000000;2.948187
5237.000000;2.949364
5236.000000;2.955763
5235.000000;2.961976
5234.000000;2.966199
5233.000000;2.969774
5232.000000;2.971932
5231.000000;2.970266
5230.000000;2.965605
5229.000000;2.961498
5228.000000;2.959367
5227.000000;2.958015
5226.000000;2.957224
5225.000000;2.958479
5224.000000;2.962211
5223.000000;2.967482
5222.000000;2.974263
5221.000000;2.982283
5220.000000;2.987623
5219.000000;2.984878
5218.000000;2.974676
5217.000000;2.965217
5216.000000;2.963730
5215.000000;2.969081
5214.000000;2.973995
5213.000000;2.973758
5212.000000;2.971265
5211.000000;2.972620
5210.000000;2.979400
5209.000000;2.986215
5208.000000;2.986503
5207.000000;2.980502
5206.000000;2.974166
5205.000000;2.970647
5204.000000;2.967703
5203.000000;2.964147
5202.000000;2.963846
5201.000000;2.970195
5200.000000;2.979906
5199.000000;2.985795
5198.000000;2.985342
5197.000000;2.982574
5196.000000;2.981272
5195.000000;2.980807
5194.000000;2.978975
5193.000000;2.975243
5192.000000;2.970162
5191.000000;2.964449
5190.000000;2.959684
5189.000000;2.957756
5188.000000;2.958691
5187.000000;2.959958
5186.000000;2.958666
5185.000000;2.954701
5184.000000;2.950981
5183.000000;2.950514
5182.000000;2.954297
5181.000000;2.960737
5180.000000;2.966274
5179.000000;2.968604
5178.000000;2.968973
5177.000000;2.969740
5176.000000;2.970624
5175.000000;2.968931
5174.000000;2.963326
5173.000000;2.955661
5172.000000;2.949588
5171.000000;2.948772
5170.000000;2.954626
5169.000000;2.963938
5168.000000;2.970324
5167.000000;2.970760
5166.000000;2.969235
5165.000000;2.971270
5164.000000;2.976874
5163.000000;2.981189
5162.000000;2.981027
5161.000000;2.977718
5160.000000;2.973388
5159.000000;2.968477
5158.000000;2.963791
5157.000000;2.961369
5156.000000;2.961864
5155.000000;2.963294
5154.000000;2.963486
5153.000000;2.962370
5152.000000;2.961109
5151.000000;2.960438
5150.000000;2.960618
5149.000000;2.961460
5148.000000;2.961653
5147.000000;2.959723
5146.000000;2.956585
5145.000000;2.955610
5144.000000;2.958997
5143.000000;2.964820
5142.000000;2.968722
5141.000000;2.969025
5140.000000;2.969002
5139.000000;2.972604
5138.000000;2.978789
5137.000000;2.981718
5136.000000;2.977037
5135.000000;2.966924
5134.000000;2.957840
5133.000000;2.954243
5132.000000;2.955213
5131.000000;2.956253
5130.000000;2.953708
5129.000000;2.948050
5128.000000;2.943753
5127.000000;2.945560
5126.000000;2.953977
5125.000000;2.964129
5124.000000;2.969224
5123.000000;2.965787
5122.000000;2.955904
5121.000000;2.945048
5120.000000;2.938860
5119.000000;2.940817
5118.000000;2.949568
5117.000000;2.958127
5116.000000;2.958682
5115.000000;2.949824
5114.000000;2.937589
5113.000000;2.929157
5112.000000;2.928323
5111.000000;2.935950
5110.000000;2.949236
5109.000000;2.960048
5108.000000;2.961001
5107.000000;2.954916
5106.000000;2.951421
5105.000000;2.955116
5104.000000;2.961839
5103.000000;2.965867
5102.000000;2.966656
5101.000000;2.965731
5100.000000;2.962117
5099.000000;2.955607
5098.000000;2.950767
5097.000000;2.952738
5096.000000;2.960944
5095.000000;2.969826
5094.000000;2.974603
5093.000000;2.974365
5092.000000;2.970048
5091.000000;2.963124
5090.000000;2.956881
5089.000000;2.954244
5088.000000;2.953992
5087.000000;2.952575
5086.000000;2.949477
5085.000000;2.947590
5084.000000;2.948116
5083.000000;2.948649
5082.000000;2.946856
5081.000000;2.943129
5080.000000;2.939083
5079.000000;2.936192
5078.000000;2.936496
5077.000000;2.941986
5076.000000;2.951927
5075.000000;2.962001
5074.000000;2.967197
5073.000000;2.965038
5072.000000;2.955982
5071.000000;2.942886
5070.000000;2.930605
5069.000000;2.923794
5068.000000;2.923853
5067.000000;2.928296
5066.000000;2.932991
5065.000000;2.934684
5064.000000;2.932014
5063.000000;2.926065
5062.000000;2.920671
5061.000000;2.920540
5060.000000;2.927528
5059.000000;2.938504
5058.000000;2.946979
5057.000000;2.947605
5056.000000;2.940585
5055.000000;2.931937
5054.000000;2.928451
5053.000000;2.931604
5052.000000;2.936261
5051.000000;2.936216
5050.000000;2.931254
5049.000000;2.927088
5048.000000;2.928604
5047.000000;2.934812
5046.000000;2.939971
5045.000000;2.939036
5044.000000;2.931995
5043.000000;2.923031
5042.000000;2.916531
5041.000000;2.913951
5040.000000;2.913360
5039.000000;2.912160
5038.000000;2.909952
5037.000000;2.907824
5036.000000;2.906072
5035.000000;2.904192
5034.000000;2.902402
5033.000000;2.901591
5032.000000;2.901656
5031.000000;2.901333
5030.000000;2.899782
5029.000000;2.897359
5028.000000;2.895437
5027.000000;2.895878
5026.000000;2.899170
5025.000000;2.902439
5024.000000;2.900858
5023.000000;2.892820
5022.000000;2.882515
5021.000000;2.875657
5020.000000;2.874480
5019.000000;2.878009
5018.000000;2.884501
5017.000000;2.891110
5016.000000;2.892990
5015.000000;2.886965
5014.000000;2.876233
5013.000000;2.867382
5012.000000;2.862812
5011.000000;2.859427
5010.000000;2.854723
5009.000000;2.850784
5008.000000;2.850594
5007.000000;2.853292
5006.000000;2.855240
5005.000000;2.854231
5004.000000;2.850800
5003.000000;2.846637
5002.000000;2.843583
5001.000000;2.842715
5000.000000;2.842448
4999.000000;2.839271
4998.000000;2.832806
4997.000000;2.827758
4996.000000;2.828727
4995.000000;2.834964
4994.000000;2.841170
4993.000000;2.842577
4992.000000;2.838121
4991.000000;2.829226
4990.000000;2.817957
4989.000000;2.806903
4988.000000;2.798989
4987.000000;2.796267
4986.000000;2.798925
4985.000000;2.804899
4984.000000;2.810106
4983.000000;2.810428
4982.000000;2.804906
4981.000000;2.796746
4980.000000;2.790259
4979.000000;2.787191
4978.000000;2.786516
4977.000000;2.786710
4976.000000;2.786830
4975.000000;2.785741
4974.000000;2.782157
4973.000000;2.776329
4972.000000;2.770342
4971.000000;2.766024
4970.000000;2.763525
4969.000000;2.761838
4968.000000;2.759683
4967.000000;2.756034
4966.000000;2.750865
4965.000000;2.745538
4964.000000;2.741772
4963.000000;2.740085
4962.000000;2.739713
4961.000000;2.739673
4960.000000;2.738998
4959.000000;2.736487
4958.000000;2.731620
4957.000000;2.725431
4956.000000;2.719755
4955.000000;2.715859
4954.000000;2.713789
4953.000000;2.712563
4952.000000;2.710575
4951.000000;2.705947
4950.000000;2.697719
4949.000000;2.687400
4948.000000;2.678075
4947.000000;2.671690
4946.000000;2.668523
4945.000000;2.668623
4944.000000;2.671943
4943.000000;2.676838
4942.000000;2.679770
4941.000000;2.678089
4940.000000;2.672798
4939.000000;2.667023
4938.000000;2.662492
4937.000000;2.658713
4936.000000;2.654731
4935.000000;2.650421
4934.000000;2.646121
4933.000000;2.642192
4932.000000;2.639174
4931.000000;2.637344
4930.000000;2.635802
4929.000000;2.632961
4928.000000;2.628338
4927.000000;2.622960
4926.000000;2.618023
4925.000000;2.614053
4924.000000;2.611152
4923.000000;2.609136
4922.000000;2.607120
4921.000000;2.603703
4920.000000;2.598591
4919.000000;2.593573
4918.000000;2.590808
4917.000000;2.590328
4916.000000;2.589820
4915.000000;2.586791
4914.000000;2.580701
4913.000000;2.573187
4912.000000;2.566770
4911.000000;2.563184
4910.000000;2.562237
4909.000000;2.562088
4908.000000;2.560972
4907.000000;2.558574
4906.000000;2.555412
4905.000000;2.551535
4904.000000;2.546792
4903.000000;2.541994
4902.000000;2.538515
4901.000000;2.536520
4900.000000;2.534512
4899.000000;2.531108
4898.000000;2.526636
4897.000000;2.522460
4896.000000;2.519405
4895.000000;2.517304
4894.000000;2.515346
4893.000000;2.512477
4892.000000;2.508272
4891.000000;2.503784
4890.000000;2.500839
4889.000000;2.500039
4888.000000;2.499923
4887.000000;2.498527
4886.000000;2.495358
4885.000000;2.491331
4884.000000;2.487288
4883.000000;2.483341
4882.000000;2.479433
4881.000000;2.475770
4880.000000;2.472575
4879.000000;2.469750
4878.000000;2.466798
4877.000000;2.462935
4876.000000;2.457636
4875.000000;2.451490
4874.000000;2.446106
4873.000000;2.442660
4872.000000;2.440796
4871.000000;2.439285
4870.000000;2.437438
4869.000000;2.435347
4868.000000;2.433075
4867.000000;2.430531
4866.000000;2.428117
4865.000000;2.426571
4864.000000;2.425874
4863.000000;2.424951
4862.000000;2.422756
4861.000000;2.419137
4860.000000;2.414467
4859.000000;2.409202
4858.000000;2.404239
4857.000000;2.400926
4856.000000;2.399858
4855.000000;2.399818
4854.000000;2.398597
4853.000000;2.395071
4852.000000;2.390018
4851.000000;2.384844
4850.000000;2.380170
4849.000000;2.375878
4848.000000;2.371926
4847.000000;2.368572
4846.000000;2.365868
4845.000000;2.363349
4844.000000;2.360459
4843.000000;2.357239
4842.000000;2.354301
4841.000000;2.352024
4840.000000;2.349971
4839.000000;2.347428
4838.000000;2.344464
4837.000000;2.341936
4836.000000;2.340288
4835.000000;2.338831
4834.000000;2.336490
4833.000000;2.333089
4832.000000;2.329423
4831.000000;2.326149
4830.000000;2.323258
4829.000000;2.320634
4828.000000;2.318380
4827.000000;2.316250
4826.000000;2.313250
4825.000000;2.308481
4824.000000;2.302388
4823.000000;2.296692
4822.000000;2.292876
4821.000000;2.290947
4820.000000;2.289671
4819.000000;2.287829
4818.000000;2.285158
4817.000000;2.282157
4816.000000;2.279201
4815.000000;2.276079
4814.000000;2.272375
4813.000000;2.268160
4812.000000;2.264161
4811.000000;2.261189
4810.000000;2.259430
4809.000000;2.258236
4808.000000;2.256533
4807.000000;2.253566
4806.000000;2.249537
4805.000000;2.245543
4804.000000;2.242627
4803.000000;2.240727
4802.000000;2.238730
4801.000000;2.235761
4800.000000;2.232177
4799.000000;2.229011
4798.000000;2.226691
4797.000000;2.224755
4796.000000;2.222681
4795.000000;2.220485
4794.000000;2.218428
4793.000000;2.216534
4792.000000;2.214550
4791.000000;2.212087
4790.000000;2.208702
4789.000000;2.204222
4788.000000;2.199201
4787.000000;2.194748
4786.000000;2.191577
4785.000000;2.189372
4784.000000;2.187336
4783.000000;2.185216
4782.000000;2.183429
4781.000000;2.182229
4780.000000;2.181051
4779.000000;2.178901
4778.000000;2.175418
4777.000000;2.171354
4776.000000;2.167852
4775.000000;2.165295
4774.000000;2.162999
4773.000000;2.160111
4772.000000;2.156645
4771.000000;2.153391
4770.000000;2.150917
4769.000000;2.148967
4768.000000;2.146817
4767.000000;2.143946
4766.000000;2.140357
4765.000000;2.136581
4764.000000;2.133413
4763.000000;2.131317
4762.000000;2.129958
4761.000000;2.128549
4760.000000;2.126718
4759.000000;2.124697
4758.000000;2.122619
4757.000000;2.120158
4756.000000;2.117095
4755.000000;2.113774
4754.000000;2.110659
4753.000000;2.107857
4752.000000;2.105373
4751.000000;2.103319
4750.000000;2.101402
4749.000000;2.098723
4748.000000;2.094850
4747.000000;2.090785
4746.000000;2.088003
4745.000000;2.086596
4744.000000;2.085162
4743.000000;2.082638
4742.000000;2.079504
4741.000000;2.076869
4740.000000;2.075071
4739.000000;2.073620
4738.000000;2.072008
4737.000000;2.070038
4736.000000;2.067674
4735.000000;2.065085
4734.000000;2.062669
4733.000000;2.060570
4732.000000;2.058242
4731.000000;2.054974
4730.000000;2.050870
4729.000000;2.046966
4728.000000;2.044277
4727.000000;2.043011
4726.000000;2.042637
4725.000000;2.042373
4724.000000;2.041442
4723.000000;2.039232
4722.000000;2.035691
4721.000000;2.031605
4720.000000;2.028124
4719.000000;2.025827
4718.000000;2.024260
4717.000000;2.022466
4716.000000;2.019948
4715.000000;2.017045
4714.000000;2.014397
4713.000000;2.012272
4712.000000;2.010506
4711.000000;2.008878
4710.000000;2.007337
4709.000000;2.005915
4708.000000;2.004568
4707.000000;2.003110
4706.000000;2.001242
4705.000000;1.998730
4704.000000;1.995696
4703.000000;1.992664
4702.000000;1.990172
4701.000000;1.988324
4700.000000;1.986792
4699.000000;1.985173
4698.000000;1.983227
4697.000000;1.980861
4696.000000;1.978115
4695.000000;1.975194
4694.000000;1.972392
4693.000000;1.969967
4692.000000;1.968119
4691.000000;1.966884
4690.000000;1.965932
4689.000000;1.964637
4688.000000;1.962665
4687.000000;1.960406
4686.000000;1.958556
4685.000000;1.957303
4684.000000;1.956200
4683.000000;1.954840
4682.000000;1.953276
4681.000000;1.951662
4680.000000;1.949844
4679.000000;1.947560
4678.000000;1.944846
4677.000000;1.942061
4676.000000;1.939623
4675.000000;1.937824
4674.000000;1.936694
4673.000000;1.935856
4672.000000;1.934691
4671.000000;1.932890
4670.000000;1.930784
4669.000000;1.928994
4668.000000;1.927791
4667.000000;1.926894
4666.000000;1.925782
4665.000000;1.924106
4664.000000;1.921947
4663.000000;1.919773
4662.000000;1.918028
4661.000000;1.916639
4660.000000;1.915060
4659.000000;1.912959
4658.000000;1.910687
4657.000000;1.908878
4656.000000;1.907665
4655.000000;1.906573
4654.000000;1.905125
4653.000000;1.903313
4652.000000;1.901411
4651.000000;1.899566
4650.000000;1.897699
4649.000000;1.895745
4648.000000;1.893868
4647.000000;1.892368
4646.000000;1.891370
4645.000000;1.890594
4644.000000;1.889548
4643.000000;1.887973
4642.000000;1.886011
4641.000000;1.883936
4640.000000;1.881879
4639.000000;1.879883
4638.000000;1.878059
4637.000000;1.876509
4636.000000;1.875183
4635.000000;1.873970
4634.000000;1.872860
4633.000000;1.871847
4632.000000;1.870768
4631.000000;1.869402
4630.000000;1.867714
4629.000000;1.865825
4628.000000;1.863830
4627.000000;1.861840
4626.000000;1.860121
4625.000000;1.858918
4624.000000;1.858091
4623.000000;1.857177
4622.000000;1.855913
4621.000000;1.854524
4620.000000;1.853396
4619.000000;1.852642
4618.000000;1.852107
4617.000000;1.851608
4616.000000;1.850975
4615.000000;1.849966
4614.000000;1.848430
4613.000000;1.846569
4612.000000;1.844877
4611.000000;1.843677
4610.000000;1.842787
4609.000000;1.841715
4608.000000;1.840170
4607.000000;1.838346
4606.000000;1.836665
4605.000000;1.835311
4604.000000;1.834049
4603.000000;1.832550
4602.000000;1.830832
4601.000000;1.829327
4600.000000;1.828496
4599.000000;1.828403
4598.000000;1.828649
4597.000000;1.828648
4596.000000;1.828003
4595.000000;1.826705
4594.000000;1.825083
4593.000000;1.823566
4592.000000;1.822412
4591.000000;1.821601
4590.000000;1.820922
4589.000000;1.820134
4588.000000;1.819105
4587.000000;1.817898
4586.000000;1.816737
4585.000000;1.815820
4584.000000;1.815121
4583.000000;1.814413
4582.000000;1.813490
4581.000000;1.812352
4580.000000;1.811145
4579.000000;1.809984
4578.000000;1.808898
4577.000000;1.807897
4576.000000;1.807019
4575.000000;1.806248
4574.000000;1.805457
4573.000000;1.804488
4572.000000;1.803345
4571.000000;1.802279
4570.000000;1.801597
4569.000000;1.801344
4568.000000;1.801188
4567.000000;1.800685
4566.000000;1.799644
4565.000000;1.798224
4564.000000;1.796752
4563.000000;1.795557
4562.000000;1.794878
4561.000000;1.794721
4560.000000;1.794735
4559.000000;1.794428
4558.000000;1.793650
4557.000000;1.792751
4556.000000;1.792130
4555.000000;1.791753
4554.000000;1.791307
4553.000000;1.790706
4552.000000;1.790116
4551.000000;1.789524
4550.000000;1.788639
4549.000000;1.787411
4548.000000;1.786310
4547.000000;1.785776
4546.000000;1.785523
4545.000000;1.784748
4544.000000;1.783079
4543.000000;1.781036
4542.000000;1.779424
4541.000000;1.778522
4540.000000;1.778012
4539.000000;1.777538
4538.000000;1.777040
4537.000000;1.776561
4536.000000;1.775998
4535.000000;1.775210
4534.000000;1.774271
4533.000000;1.773468
4532.000000;1.773061
4531.000000;1.773100
4530.000000;1.773479
4529.000000;1.774062
4528.000000;1.774677
4527.000000;1.775094
4526.000000;1.775146
4525.000000;1.774900
4524.000000;1.774604
4523.000000;1.774443
4522.000000;1.774373
4521.000000;1.774218
4520.000000;1.773790
4519.000000;1.772904
4518.000000;1.771433
4517.000000;1.769555
4516.000000;1.767872
4515.000000;1.767070
4514.000000;1.767339
4513.000000;1.768169
4512.000000;1.768773
4511.000000;1.768719
4510.000000;1.768178
4509.000000;1.767632
4508.000000;1.767353
4507.000000;1.767125
4506.000000;1.766496
4505.000000;1.765338
4504.000000;1.764101
4503.000000;1.763405
4502.000000;1.763406
4501.000000;1.763656
4500.000000;1.763566
4499.000000;1.762935
4498.000000;1.762068
4497.000000;1.761512
4496.000000;1.761622
4495.000000;1.762198
4494.000000;1.762558
4493.000000;1.762206
4492.000000;1.761486
4491.000000;1.761333
4490.000000;1.762247
4489.000000;1.763693
4488.000000;1.764634
4487.000000;1.764498
4486.000000;1.763537
4485.000000;1.762442
4484.000000;1.761799
4483.000000;1.761735
4482.000000;1.761875
4481.000000;1.761738
4480.000000;1.761349
4479.000000;1.761277
4478.000000;1.761889
4477.000000;1.762757
4476.000000;1.763108
4475.000000;1.762817
4474.000000;1.762554
4473.000000;1.762945
4472.000000;1.763894
4471.000000;1.764814
4470.000000;1.765290
4469.000000;1.765398
4468.000000;1.765539
4467.000000;1.766079
4466.000000;1.767035
4465.000000;1.768031
4464.000000;1.768647
4463.000000;1.768837
4462.000000;1.768913
4461.000000;1.769146
4460.000000;1.769576
4459.000000;1.770218
4458.000000;1.771197
4457.000000;1.772490
4456.000000;1.773705
4455.000000;1.774322
4454.000000;1.774225
4453.000000;1.773946
4452.000000;1.774333
4451.000000;1.775898
4450.000000;1.778382
4449.000000;1.780956
4448.000000;1.782941
4447.000000;1.784291
4446.000000;1.785330
4445.000000;1.786229
4444.000000;1.786980
4443.000000;1.787752
4442.000000;1.788927
4441.000000;1.790758
4440.000000;1.793152
4439.000000;1.795733
4438.000000;1.797908
4437.000000;1.799029
4436.000000;1.799021
4435.000000;1.798901
4434.000000;1.800151
4433.000000;1.803258
4432.000000;1.807160
4431.000000;1.810378
4430.000000;1.812484
4429.000000;1.814164
4428.000000;1.816152
4427.000000;1.818580
4426.000000;1.821190
4425.000000;1.823630
4424.000000;1.825497
4423.000000;1.826570
4422.000000;1.827226
4421.000000;1.828317
4420.000000;1.830399
4419.000000;1.833189
4418.000000;1.835895
4417.000000;1.837998
4416.000000;1.839644
4415.000000;1.841405
4414.000000;1.843783
4413.000000;1.846864
4412.000000;1.850278
4411.000000;1.853501
4410.000000;1.856323
4409.000000;1.859080
4408.000000;1.862320
4407.000000;1.866153
4406.000000;1.869964
4405.000000;1.872921
4404.000000;1.874830
4403.000000;1.876357
4402.000000;1.878272
4401.000000;1.880692
4400.000000;1.883319
4399.000000;1.886134
4398.000000;1.889386
4397.000000;1.892953
4396.000000;1.896215
4395.000000;1.898726
4394.000000;1.900620
4393.000000;1.902181
4392.000000;1.903506
4391.000000;1.904936
4390.000000;1.907299
4389.000000;1.911041
4388.000000;1.915275
4387.000000;1.918485
4386.000000;1.920321
4385.000000;1.921958
4384.000000;1.924460
4383.000000;1.927429
4382.000000;1.929742
4381.000000;1.931216
4380.000000;1.932877
4379.000000;1.935708
4378.000000;1.939678
4377.000000;1.943983
4376.000000;1.947822
4375.000000;1.950827
4374.000000;1.953117
4373.000000;1.955268
4372.000000;1.957849
4371.000000;1.960620
4370.000000;1.962471
4369.000000;1.962671
4368.000000;1.962025
4367.000000;1.962270
4366.000000;1.964309
4365.000000;1.967402
4364.000000;1.970088
4363.000000;1.971549
4362.000000;1.972074
4361.000000;1.972706
4360.000000;1.974683
4359.000000;1.978650
4358.000000;1.983855
4357.000000;1.988391
4356.000000;1.990669
4355.000000;1.990584
4354.000000;1.989136
4353.000000;1.987436
4352.000000;1.986540
4351.000000;1.987559
4350.000000;1.990829
4349.000000;1.995038
4348.000000;1.998144
4347.000000;1.999470
4346.000000;2.000274
4345.000000;2.002032
4344.000000;2.004883
4343.000000;2.008015
4342.000000;2.010880
4341.000000;2.013552
4340.000000;2.016311
4339.000000;2.019299
4338.000000;2.022358
4337.000000;2.024997
4336.000000;2.026844
4335.000000;2.028254
4334.000000;2.030094
4333.000000;2.032739
4332.000000;2.035689
4331.000000;2.038260
4330.000000;2.040035
4329.000000;2.040486
4328.000000;2.039035
4327.000000;2.036155
4326.000000;2.033759
4325.000000;2.033683
4324.000000;2.036069
4323.000000;2.039727
4322.000000;2.043656
4321.000000;2.047401
4320.000000;2.050295
4319.000000;2.051548
4318.000000;2.051285
4317.000000;2.050556
4316.000000;2.049913
4315.000000;2.048874
4314.000000;2.047462
4313.000000;2.047485
4312.000000;2.051152
4311.000000;2.058472
4310.000000;2.066724
4309.000000;2.072866
4308.000000;2.076098
4307.000000;2.077563
4306.000000;2.078191
4305.000000;2.078089
4304.000000;2.077875
4303.000000;2.079075
4302.000000;2.082644
4301.000000;2.087570
4300.000000;2.091442
4299.000000;2.092595
4298.000000;2.091335
4297.000000;2.089329
4296.000000;2.088311
4295.000000;2.089000
4294.000000;2.090805
4293.000000;2.092710
4292.000000;2.094600
4291.000000;2.097239
4290.000000;2.100724
4289.000000;2.103847
4288.000000;2.105821
4287.000000;2.107698
4286.000000;2.110887
4285.000000;2.115039
4284.000000;2.118870
4283.000000;2.122425
4282.000000;2.126619
4281.000000;2.130891
4280.000000;2.133596
4279.000000;2.135120
4278.000000;2.138247
4277.000000;2.144477
4276.000000;2.151772
4275.000000;2.157064
4274.000000;2.159695
4273.000000;2.160885
4272.000000;2.161003
4271.000000;2.159599
4270.000000;2.157858
4269.000000;2.159080
4268.000000;2.166008
4267.000000;2.178136
4266.000000;2.191574
4265.000000;2.201714
4264.000000;2.207115
4263.000000;2.210679
4262.000000;2.215747
4261.000000;2.221460
4260.000000;2.223960
4259.000000;2.222785
4258.000000;2.223416
4257.000000;2.231313
4256.000000;2.244917
4255.000000;2.256070
4254.000000;2.257718
4253.000000;2.250037
4252.000000;2.238615
4251.000000;2.229694
4250.000000;2.226741
4249.000000;2.228766
4248.000000;2.232345
4247.000000;2.236118
4246.000000;2.242289
4245.000000;2.252925
4244.000000;2.265967
4243.000000;2.276252
4242.000000;2.280697
4241.000000;2.280648
4240.000000;2.279386
4239.000000;2.279526
4238.000000;2.282434
4237.000000;2.287761
4236.000000;2.293874
4235.000000;2.300657
4234.000000;2.310740
4233.000000;2.325150
4232.000000;2.338527
4231.000000;2.342666
4230.000000;2.336721
4229.000000;2.328759
4228.000000;2.325216
4227.000000;2.325115
4226.000000;2.325740
4225.000000;2.328622
4224.000000;2.336363
4223.000000;2.346098
4222.000000;2.350343
4221.000000;2.345334
4220.000000;2.335840
4219.000000;2.330723
4218.000000;2.336540
4217.000000;2.354572
4216.000000;2.380061
4215.000000;2.403124
4214.000000;2.413919
4213.000000;2.410375
4212.000000;2.399524
4211.000000;2.390088
4210.000000;2.386834
4209.000000;2.391626
4208.000000;2.403156
4207.000000;2.416061
4206.000000;2.426117
4205.000000;2.433334
4204.000000;2.437428
4203.000000;2.436258
4202.000000;2.430170
4201.000000;2.422481
4200.000000;2.415635
4199.000000;2.410438
4198.000000;2.407765
4197.000000;2.410708
4196.000000;2.423303
4195.000000;2.443248
4194.000000;2.459892
4193.000000;2.464801
4192.000000;2.459887
4191.000000;2.452583
4190.000000;2.448526
4189.000000;2.450514
4188.000000;2.461682
4187.000000;2.483979
4186.000000;2.511213
4185.000000;2.528966
4184.000000;2.529403
4183.000000;2.520251
4182.000000;2.510966
4181.000000;2.501266
4180.000000;2.486888
4179.000000;2.469688
4178.000000;2.457685
4177.000000;2.455951
4176.000000;2.464276
4175.000000;2.483234
4174.000000;2.514224
4173.000000;2.552952
4172.000000;2.586554
4171.000000;2.600916
4170.000000;2.592023
4169.000000;2.567027
4168.000000;2.539254
4167.000000;2.524199
4166.000000;2.532073
4165.000000;2.560788
4164.000000;2.593848
4163.000000;2.610010
4162.000000;2.595388
4161.000000;2.553064
4160.000000;2.506055
4159.000000;2.480088
4158.000000;2.484021
4157.000000;2.501601
4156.000000;2.501969
4155.000000;2.477299
4154.000000;2.454216
4153.000000;2.451807
4152.000000;2.467820
4151.000000;2.494793
4150.000000;2.523266
4149.000000;2.534025
4148.000000;2.518183
4147.000000;2.494294
4146.000000;2.483735
4145.000000;2.500675
4144.000000;2.548356
4143.000000;2.610663
4142.000000;2.660807
4141.000000;2.676772
4140.000000;2.654771
4139.000000;2.621694
4138.000000;2.613937
4137.000000;2.640749
4136.000000;2.660532
4135.000000;2.630581
4134.000000;2.594028
4133.000000;2.605563
4132.000000;2.667950
4131.000000;2.725663
4130.000000;2.700913
4129.000000;2.612474
4128.000000;2.541558
4127.000000;2.532196
4126.000000;2.591594
4125.000000;2.685794
4124.000000;2.725206
4123.000000;2.651407
4122.000000;2.522696
4121.000000;2.429009
4120.000000;2.406398
4119.000000;2.446216
4118.000000;2.510552
4117.000000;2.549163
4116.000000;2.547916
4115.000000;2.540444
4114.000000;2.556818
4113.000000;2.597005
4112.000000;2.641625
4111.000000;2.669720
4110.000000;2.673308
4109.000000;2.655486
4108.000000;2.617780
4107.000000;2.575404
4106.000000;2.547322
4105.000000;2.538223
4104.000000;2.541637
4103.000000;2.552455
4102.000000;2.587661
4101.000000;2.673637
4100.000000;2.757672
4099.000000;2.709282
4098.000000;2.605722
4097.000000;2.528323
4096.000000;2.473660
4095.000000;2.437779
4094.000000;2.406219
4093.000000;2.365030
4092.000000;2.331034
4091.000000;2.336793
4090.000000;2.400601
4089.000000;2.507770
4088.000000;2.602439
4087.000000;2.657972
4086.000000;2.644433
4085.000000;2.562114
4084.000000;2.510182
4083.000000;2.520432
4082.000000;2.585294
4081.000000;2.694239
4080.000000;2.786287
4079.000000;2.761002
4078.000000;2.667163
4077.000000;2.583585
4076.000000;2.557076
4075.000000;2.598755
4074.000000;2.647890
4073.000000;2.619792
4072.000000;2.558383
4071.000000;2.551188
4070.000000;2.593080
4069.000000;2.606607
4068.000000;2.579491
4067.000000;2.532118
4066.000000;2.480444
4065.000000;2.461344
4064.000000;2.478882
4063.000000;2.495044
4062.000000;2.491746
4061.000000;2.494801
4060.000000;2.505671
4059.000000;2.501409
4058.000000;2.494177
4057.000000;2.498150
4056.000000;2.465820
4055.000000;2.372481
4054.000000;2.277204
4053.000000;2.225937
4052.000000;2.228771
4051.000000;2.279824
4050.000000;2.368644
4049.000000;2.474016
4048.000000;2.538650
4047.000000;2.516831
4046.000000;2.468098
4045.000000;2.485580
4044.000000;2.616184
4043.000000;2.953739
4042.000000;2.892400
4041.000000;2.666845
4040.000000;2.623627
4039.000000;2.685431
4038.000000;2.791351
4037.000000;2.785937
4036.000000;2.675163
4035.000000;2.584530
4034.000000;2.566636
4033.000000;2.623247
4032.000000;2.709885
4031.000000;2.704680
4030.000000;2.580539
4029.000000;2.518091
4028.000000;2.565138
4027.000000;2.654416
4026.000000;2.643167
4025.000000;2.538262
4024.000000;2.456515
4023.000000;2.436834
4022.000000;2.471921
4021.000000;2.565453
4020.000000;2.687847
4019.000000;2.611594
4018.000000;2.507372
4017.000000;2.549537
4016.000000;2.674547
4015.000000;2.761488
4014.000000;2.766125
4013.000000;2.686960
4012.000000;2.580090
4011.000000;2.547364
4010.000000;2.625980
4009.000000;2.753546
4008.000000;2.749454
4007.000000;2.592140
4006.000000;2.459004
4005.000000;2.405889
4004.000000;2.435074
4003.000000;2.532969
4002.000000;2.560132
4001.000000;2.505213
4000.000000;2.502725
3999.000000;2.506712
3998.000000;2.503467
3997.000000;2.530182
3996.000000;2.643786
3995.000000;2.946847
3994.000000;3.636670
3993.000000;3.795947
3992.000000;3.095234
3991.000000;2.752720
3990.000000;2.584506
3989.000000;2.524653
3988.000000;2.521671
3987.000000;2.548574
3986.000000;2.643512
3985.000000;2.898689
3984.000000;2.919341
3983.000000;2.694686
3982.000000;2.587551
3981.000000;2.549534
3980.000000;2.566993
3979.000000;2.647979
3978.000000;2.783106
3977.000000;2.930730
3976.000000;3.245003
3975.000000;3.149575
3974.000000;2.672354
3973.000000;2.502099
3972.000000;2.434130
3971.000000;2.454656
3970.000000;2.571149
3969.000000;2.764977
3968.000000;2.881941
3967.000000;2.935192
3966.000000;3.350131
3965.000000;3.120265
3964.000000;2.749132
3963.000000;2.705681
3962.000000;2.834842
3961.000000;3.585276
3960.000000;3.041883
3959.000000;2.762147
3958.000000;2.748162
3957.000000;2.818946
3956.000000;2.892320
3955.000000;2.768004
3954.000000;2.644629
3953.000000;2.616212
3952.000000;2.641239
3951.000000;2.680375
3950.000000;2.762138
3949.000000;2.951659
3948.000000;3.432474
3947.000000;3.727557
3946.000000;3.102735
3945.000000;2.954624
3944.000000;2.921528
3943.000000;2.889018
3942.000000;2.826554
3941.000000;2.851241
3940.000000;2.967099
3939.000000;3.069357
3938.000000;3.078402
3937.000000;3.110585
3936.000000;3.268142
3935.000000;3.298711
3934.000000;3.269764
3933.000000;3.466499
3932.000000;3.425324
3931.000000;3.287471
3930.000000;3.208800
3929.000000;3.204753
3928.000000;3.436879
3927.000000;3.781500
3926.000000;3.251362
3925.000000;3.142222
3924.000000;3.194808
3923.000000;3.310129
3922.000000;3.414997
3921.000000;3.466325
3920.000000;3.309181
3919.000000;2.974446
3918.000000;2.738276
3917.000000;2.645517
3916.000000;2.674011
3915.000000;2.774501
3914.000000;2.845346
3913.000000;2.814881
3912.000000;2.780888
3911.000000;2.845994
3910.000000;3.180222
3909.000000;3.241421
3908.000000;2.931984
3907.000000;2.856654
3906.000000;2.943308
3905.000000;3.228750
3904.000000;3.343593
3903.000000;3.127007
3902.000000;3.079767
3901.000000;3.117372
3900.000000;3.037268
3899.000000;2.893700
3898.000000;2.843376
3897.000000;2.852017
3896.000000;2.847261
3895.000000;2.816557
3894.000000;2.815178
3893.000000;2.862492
3892.000000;2.936720
3891.000000;3.007569
3890.000000;3.021830
3889.000000;2.945471
3888.000000;2.819051
3887.000000;2.756056
3886.000000;2.799059
3885.000000;2.804555
3884.000000;2.785524
3883.000000;2.816281
3882.000000;2.905599
3881.000000;3.154432
3880.000000;3.720954
3879.000000;3.448184
3878.000000;3.277206
3877.000000;3.262713
3876.000000;3.005844
3875.000000;2.747887
3874.000000;2.704114
3873.000000;2.849357
3872.000000;3.116619
3871.000000;3.244193
3870.000000;3.048603
3869.000000;2.960036
3868.000000;3.024876
3867.000000;3.113101
3866.000000;3.014683
3865.000000;2.853424
3864.000000;2.865690
3863.000000;3.057779
3862.000000;3.344030
3861.000000;3.308197
3860.000000;3.252773
3859.000000;3.531215
3858.000000;3.221400
3857.000000;2.974065
3856.000000;3.188971
3855.000000;3.343878
3854.000000;2.916165
3853.000000;2.783448
3852.000000;2.839667
3851.000000;2.930844
3850.000000;2.994607
3849.000000;3.050137
3848.000000;3.053971
3847.000000;2.972478
3846.000000;2.879241
3845.000000;2.843837
3844.000000;2.905593
3843.000000;3.015407
3842.000000;3.188714
3841.000000;3.477372
3840.000000;3.104671
3839.000000;2.870822
3838.000000;2.899283
3837.000000;3.062597
3836.000000;3.263691
3835.000000;3.181869
3834.000000;2.894378
3833.000000;2.704430
3832.000000;2.689702
3831.000000;2.968795
3830.000000;3.069798
3829.000000;2.766208
3828.000000;2.634339
3827.000000;2.640039
3826.000000;2.794783
3825.000000;3.106677
3824.000000;3.162443
3823.000000;3.019431
3822.000000;2.997628
3821.000000;2.978372
3820.000000;2.945557
3819.000000;2.967537
3818.000000;2.934218
3817.000000;2.846614
3816.000000;2.868424
3815.000000;3.009847
3814.000000;3.082172
3813.000000;3.042864
3812.000000;3.022118
3811.000000;3.264343
3810.000000;3.681730
3809.000000;3.271141
3808.000000;3.008497
3807.000000;2.845460
3806.000000;2.780686
3805.000000;2.775031
3804.000000;2.763728
3803.000000;2.805643
3802.000000;3.126502
3801.000000;3.610110
3800.000000;3.241155
3799.000000;3.055074
3798.000000;2.882431
3797.000000;2.768837
3796.000000;2.791791
3795.000000;2.919903
3794.000000;2.987184
3793.000000;2.957003
3792.000000;2.963076
3791.000000;2.998517
3790.000000;3.014231
3789.000000;3.066888
3788.000000;3.237201
3787.000000;3.340788
3786.000000;3.062254
3785.000000;2.892455
3784.000000;2.875613
3783.000000;2.932290
3782.000000;2.993312
3781.000000;3.095247
3780.000000;3.351772
3779.000000;3.193084
3778.000000;2.853366
3777.000000;2.701749
3776.000000;2.669891
3775.000000;2.743958
3774.000000;2.839737
3773.000000;2.862889
3772.000000;2.822930
3771.000000;2.830254
3770.000000;2.936999
3769.000000;3.132465
3768.000000;3.315647
3767.000000;2.924162
3766.000000;2.686685
3765.000000;2.665802
3764.000000;2.776768
3763.000000;2.907164
3762.000000;2.980482
3761.000000;3.024574
3760.000000;3.133263
3759.000000;3.350764
3758.000000;3.263766
3757.000000;3.097911
3756.000000;3.119999
3755.000000;3.223551
3754.000000;3.213777
3753.000000;3.020472
3752.000000;2.877205
3751.000000;2.860196
3750.000000;2.922570
3749.000000;2.969954
3748.000000;2.941033
3747.000000;2.843897
3746.000000;2.835981
3745.000000;3.015961
3744.000000;2.970922
3743.000000;2.932303
3742.000000;3.071992
3741.000000;2.985033
3740.000000;2.733764
3739.000000;2.645673
3738.000000;2.708256
3737.000000;2.882537
3736.000000;3.115694
3735.000000;3.146089
3734.000000;3.069489
3733.000000;3.010384
3732.000000;2.982404
3731.000000;3.167979
3730.000000;3.563984
3729.000000;3.391248
3728.000000;3.290650
3727.000000;3.079894
3726.000000;2.933371
3725.000000;2.981786
3724.000000;3.104829
3723.000000;3.208135
3722.000000;3.208511
3721.000000;3.144206
3720.000000;3.141053
3719.000000;3.221777
3718.000000;3.424881
3717.000000;3.562751
3716.000000;3.195794
3715.000000;3.050463
3714.000000;3.274341
3713.000000;3.884711
3712.000000;3.449370
3711.000000;3.454666
3710.000000;3.277235
3709.000000;3.090741
3708.000000;3.049851
3707.000000;3.178096
3706.000000;3.272958
3705.000000;3.061508
3704.000000;2.980174
3703.000000;3.218831
3702.000000;3.482423
3701.000000;3.051254
3700.000000;2.899303
3699.000000;2.878865
3698.000000;2.898420
3697.000000;2.936277
3696.000000;3.042271
3695.000000;3.304148
3694.000000;3.742910
3693.000000;3.886220
3692.000000;3.230098
3691.000000;2.879124
3690.000000;2.769412
3689.000000;2.844940
3688.000000;3.075828
3687.000000;3.373970
3686.000000;3.392570
3685.000000;3.202030
3684.000000;3.116685
3683.000000;3.249738
3682.000000;3.398170
3681.000000;3.218616
3680.000000;3.167086
3679.000000;3.159830
3678.000000;3.052181
3677.000000;2.920436
3676.000000;2.874781
3675.000000;3.003853
3674.000000;3.213487
3673.000000;3.100021
3672.000000;2.832100
3671.000000;2.784963
3670.000000;3.105146
3669.000000;3.381649
3668.000000;3.097534
3667.000000;2.891719
3666.000000;2.782568
3665.000000;2.845082
3664.000000;3.175640
3663.000000;3.336700
3662.000000;3.121883
3661.000000;3.098681
3660.000000;3.247645
3659.000000;3.263815
3658.000000;2.946088
3657.000000;2.787706
3656.000000;2.845001
3655.000000;3.063199
3654.000000;3.289134
3653.000000;3.192898
3652.000000;2.874124
3651.000000;2.732855
3650.000000;2.800182
3649.000000;3.077989
3648.000000;3.643181
3647.000000;3.536395
3646.000000;3.191278
3645.000000;3.143201
3644.000000;3.633967
3643.000000;3.341770
3642.000000;2.966258
3641.000000;3.044614
3640.000000;3.363938
3639.000000;3.520322
3638.000000;3.200380
3637.000000;3.088715
3636.000000;3.144773
3635.000000;3.357120
3634.000000;3.486802
3633.000000;3.247793
3632.000000;3.135596
3631.000000;3.111727
3630.000000;3.353978
3629.000000;3.783159
3628.000000;3.348844
3627.000000;3.338572
3626.000000;3.332001
3625.000000;3.194453
3624.000000;3.356021
3623.000000;3.654495
3622.000000;3.089705
3621.000000;2.851646
3620.000000;2.789091
3619.000000;2.825091
3618.000000;2.913932
3617.000000;2.955833
3616.000000;2.956868
3615.000000;3.003878
3614.000000;3.329924
3613.000000;3.600411
3612.000000;3.195551
3611.000000;3.048047
3610.000000;3.168409
3609.000000;3.525243
3608.000000;3.451340
3607.000000;3.662644
3606.000000;3.666013
3605.000000;3.273922
3604.000000;3.254435
3603.000000;3.451330
3602.000000;3.645892
3601.000000;3.689182
3600.000000;3.654681
3599.000000;3.305250
3598.000000;3.059671
3597.000000;2.993635
3596.000000;3.059943
3595.000000;3.189550
3594.000000;3.245959
3593.000000;3.218001
3592.000000;3.180359
3591.000000;3.195694
3590.000000;3.289232
3589.000000;3.150446
3588.000000;2.955567
3587.000000;2.943953
3586.000000;3.056696
3585.000000;3.201389
3584.000000;3.165227
3583.000000;3.050136
3582.000000;3.087321
3581.000000;3.336371
3580.000000;3.454088
3579.000000;3.247683
3578.000000;3.146310
3577.000000;3.170104
3576.000000;3.295477
3575.000000;3.599340
3574.000000;3.809871
3573.000000;3.192075
3572.000000;2.910764
3571.000000;2.832523
3570.000000;2.860945
3569.000000;3.183799
3568.000000;3.610679
3567.000000;3.182840
3566.000000;3.184666
3565.000000;3.362989
3564.000000;3.689119
3563.000000;3.894041
3562.000000;3.644786
3561.000000;3.543481
3560.000000;3.633343
3559.000000;3.625153
3558.000000;3.451697
3557.000000;3.319765
3556.000000;3.417792
3555.000000;3.773698
3554.000000;3.155852
3553.000000;2.892103
3552.000000;2.895409
3551.000000;3.050247
3550.000000;3.153229
3549.000000;2.987415
3548.000000;2.895297
3547.000000;2.932292
3546.000000;3.041828
3545.000000;3.107568
3544.000000;3.128387
3543.000000;3.168891
3542.000000;3.194138
3541.000000;3.139089
3540.000000;3.087637
3539.000000;3.386404
3538.000000;3.715666
3537.000000;3.334243
3536.000000;3.195904
3535.000000;3.036148
3534.000000;3.004091
3533.000000;3.157603
3532.000000;3.357430
3531.000000;3.389430
3530.000000;3.234475
3529.000000;2.992101
3528.000000;2.847563
3527.000000;2.842770
3526.000000;2.957395
3525.000000;3.160375
3524.000000;3.265137
3523.000000;3.133117
3522.000000;2.979390
3521.000000;2.908224
3520.000000;2.903065
3519.000000;2.912296
3518.000000;2.940883
3517.000000;3.028559
3516.000000;3.110542
3515.000000;3.102460
3514.000000;3.070820
3513.000000;3.069781
3512.000000;3.129754
3511.000000;3.090380
3510.000000;2.919836
3509.000000;2.871101
3508.000000;2.975337
3507.000000;3.176993
3506.000000;3.265110
3505.000000;3.411861
3504.000000;3.772977
3503.000000;3.334913
3502.000000;3.164887
3501.000000;3.144229
3500.000000;3.059333
3499.000000;2.979884
3498.000000;3.046709
3497.000000;3.277236
3496.000000;3.169030
3495.000000;3.047145
3494.000000;3.121149
3493.000000;3.277216
3492.000000;3.357997
3491.000000;3.607377
3490.000000;3.728530
3489.000000;3.117672
3488.000000;2.875071
3487.000000;2.793480
3486.000000;2.787309
3485.000000;2.808848
3484.000000;2.854673
3483.000000;2.910469
3482.000000;2.928681
3481.000000;2.912653
3480.000000;2.920048
3479.000000;2.964253
3478.000000;3.091583
3477.000000;3.601227
3476.000000;3.364360
3475.000000;2.951566
3474.000000;2.824852
3473.000000;2.818702
3472.000000;2.923926
3471.000000;3.234756
3470.000000;3.559135
3469.000000;3.041395
3468.000000;2.783430
3467.000000;2.678340
3466.000000;2.655951
3465.000000;2.684910
3464.000000;2.721243
3463.000000;2.746852
3462.000000;2.759560
3461.000000;2.828306
3460.000000;2.995462
3459.000000;3.249960
3458.000000;3.446387
3457.000000;3.644322
3456.000000;3.724308
3455.000000;3.306795
3454.000000;3.041920
3453.000000;2.906947
3452.000000;2.821907
3451.000000;2.785175
3450.000000;2.788243
3449.000000;2.811547
3448.000000;2.869466
3447.000000;2.950592
3446.000000;3.051746
3445.000000;3.056230
3444.000000;3.142514
3443.000000;3.354380
3442.000000;2.967518
3441.000000;2.772417
3440.000000;2.783207
3439.000000;2.974975
3438.000000;3.396211
3437.000000;3.331483
3436.000000;3.311459
3435.000000;3.339313
3434.000000;3.214290
3433.000000;3.167293
3432.000000;3.032940
3431.000000;3.016610
3430.000000;3.035774
3429.000000;2.886290
3428.000000;2.803193
3427.000000;2.857311
3426.000000;2.948807
3425.000000;2.918432
3424.000000;2.858616
3423.000000;2.867498
3422.000000;2.875396
3421.000000;2.838672
3420.000000;2.821291
3419.000000;2.889219
3418.000000;3.115806
3417.000000;3.256145
3416.000000;3.084336
3415.000000;3.138684
3414.000000;3.524052
3413.000000;3.722623
3412.000000;3.402799
3411.000000;3.210394
3410.000000;3.070210
3409.000000;3.080849
3408.000000;3.225469
3407.000000;3.045262
3406.000000;2.823750
3405.000000;2.759342
3404.000000;2.757523
3403.000000;2.765666
3402.000000;2.757519
3401.000000;2.754704
3400.000000;2.795699
3399.000000;2.886849
3398.000000;2.971652
3397.000000;2.922742
3396.000000;2.837394
3395.000000;2.814661
3394.000000;2.861464
3393.000000;2.973190
3392.000000;3.275500
3391.000000;3.465776
3390.000000;3.048220
3389.000000;2.887526
3388.000000;2.887919
3387.000000;2.877753
3386.000000;2.746759
3385.000000;2.642589
3384.000000;2.673709
3383.000000;2.845477
3382.000000;3.108815
3381.000000;3.153467
3380.000000;2.984979
3379.000000;2.837461
3378.000000;2.780267
3377.000000;2.815490
3376.000000;2.949320
3375.000000;3.219825
3374.000000;3.236259
3373.000000;2.972951
3372.000000;2.884006
3371.000000;2.902866
3370.000000;3.138010
3369.000000;3.588508
3368.000000;3.041400
3367.000000;2.800294
3366.000000;2.782901
3365.000000;2.849690
3364.000000;2.957975
3363.000000;2.986619
3362.000000;2.987627
3361.000000;2.983933
3360.000000;2.973117
3359.000000;2.979345
3358.000000;3.000963
3357.000000;3.080444
3356.000000;3.523297
3355.000000;3.829886
3354.000000;3.273280
3353.000000;3.146975
3352.000000;2.933563
3351.000000;2.753734
3350.000000;2.713407
3349.000000;2.800404
3348.000000;2.947962
3347.000000;3.006267
3346.000000;3.022376
3345.000000;3.017815
3344.000000;3.044007
3343.000000;3.177495
3342.000000;3.143999
3341.000000;3.070847
3340.000000;3.257669
3339.000000;3.233564
3338.000000;2.987370
3337.000000;2.920770
3336.000000;2.956196
3335.000000;2.981998
3334.000000;3.003553
3333.000000;3.076180
3332.000000;3.136181
3331.000000;3.180680
3330.000000;3.105999
3329.000000;2.894122
3328.000000;2.754986
3327.000000;2.707983
3326.000000;2.747259
3325.000000;2.882449
3324.000000;3.042638
3323.000000;3.306160
3322.000000;3.672582
3321.000000;3.252086
3320.000000;3.024289
3319.000000;2.999875
3318.000000;2.989999
3317.000000;2.979713
3316.000000;3.026635
3315.000000;3.132238
3314.000000;3.204855
3313.000000;3.276945
3312.000000;3.291786
3311.000000;3.257727
3310.000000;3.221673
3309.000000;3.129278
3308.000000;3.032553
3307.000000;2.891216
3306.000000;2.756647
3305.000000;2.706604
3304.000000;2.747508
3303.000000;2.840222
3302.000000;2.885105
3301.000000;2.844331
3300.000000;2.778838
3299.000000;2.717122
3298.000000;2.681218
3297.000000;2.693825
3296.000000;2.777673
3295.000000;2.907216
3294.000000;2.950234
3293.000000;2.932505
3292.000000;2.930990
3291.000000;2.891040
3290.000000;2.916957
3289.000000;3.094788
3288.000000;3.430573
3287.000000;4.087544
3286.000000;3.674002
3285.000000;3.168433
3284.000000;2.906428
3283.000000;2.774558
3282.000000;2.783397
3281.000000;2.933050
3280.000000;3.098467
3279.000000;3.080449
3278.000000;3.343437
3277.000000;3.627374
3276.000000;3.106908
3275.000000;3.059413
3274.000000;3.499107
3273.000000;3.623100
3272.000000;3.113920
3271.000000;3.053750
3270.000000;3.036495
3269.000000;3.024762
3268.000000;3.148035
3267.000000;3.079155
3266.000000;2.926593
3265.000000;2.919813
3264.000000;3.090719
3263.000000;3.431915
3262.000000;3.307586
3261.000000;2.936838
3260.000000;2.745240
3259.000000;2.684962
3258.000000;2.753096
3257.000000;2.905350
3256.000000;2.977858
3255.000000;2.941412
3254.000000;2.932792
3253.000000;2.988768
3252.000000;3.086618
3251.000000;3.116290
3250.000000;3.153564
3249.000000;3.317160
3248.000000;3.350817
3247.000000;3.232380
3246.000000;3.219707
3245.000000;3.124320
3244.000000;3.067044
3243.000000;3.269457
3242.000000;3.148163
3241.000000;2.870180
3240.000000;2.833998
3239.000000;2.897417
3238.000000;2.989801
3237.000000;3.051334
3236.000000;3.200628
3235.000000;3.419634
3234.000000;3.334511
3233.000000;3.416340
3232.000000;3.193993
3231.000000;2.852952
3230.000000;2.761623
3229.000000;2.830228
3228.000000;3.095611
3227.000000;3.649898
3226.000000;3.418286
3225.000000;3.102895
3224.000000;2.910316
3223.000000;2.768001
3222.000000;2.718481
3221.000000;2.731024
3220.000000;2.753468
3219.000000;2.756589
3218.000000;2.797561
3217.000000;2.899422
3216.000000;3.104027
3215.000000;3.629444
3214.000000;3.357804
3213.000000;3.057797
3212.000000;3.331596
3211.000000;3.491450
3210.000000;3.111317
3209.000000;3.108629
3208.000000;3.463489
3207.000000;3.659997
3206.000000;3.336807
3205.000000;3.144824
3204.000000;3.099535
3203.000000;3.096026
3202.000000;2.935906
3201.000000;2.797737
3200.000000;2.768433
3199.000000;2.882846
3198.000000;3.130084
3197.000000;3.019404
3196.000000;2.812193
3195.000000;2.770797
3194.000000;2.837652
3193.000000;2.915213
3192.000000;2.843960
3191.000000;2.744850
3190.000000;2.716014
3189.000000;2.742016
3188.000000;2.814545
3187.000000;2.938602
3186.000000;3.134784
3185.000000;3.389020
3184.000000;3.594416
3183.000000;3.778428
3182.000000;4.029528
3181.000000;3.903626
3180.000000;3.689007
3179.000000;3.477769
3178.000000;3.225318
3177.000000;3.037878
3176.000000;2.981722
3175.000000;3.028301
3174.000000;3.024359
3173.000000;2.979500
3172.000000;3.092172
3171.000000;3.285340
3170.000000;3.165821
3169.000000;3.041837
3168.000000;3.060330
3167.000000;3.195666
3166.000000;3.489724
3165.000000;3.760460
3164.000000;3.564241
3163.000000;3.332406
3162.000000;3.326358
3161.000000;3.610199
3160.000000;3.358706
3159.000000;3.067038
3158.000000;3.019329
3157.000000;3.111309
3156.000000;3.476656
3155.000000;3.405671
3154.000000;3.075957
3153.000000;2.993398
3152.000000;3.059845
3151.000000;3.211011
3150.000000;3.374743
3149.000000;3.334372
3148.000000;3.074433
3147.000000;2.932701
3146.000000;3.036362
3145.000000;3.413673
3144.000000;3.157308
3143.000000;2.860143
3142.000000;2.797142
3141.000000;2.854252
3140.000000;3.030900
3139.000000;3.256785
3138.000000;3.394371
3137.000000;3.300323
3136.000000;3.110016
3135.000000;2.971354
3134.000000;2.891652
3133.000000;2.847039
3132.000000;2.857470
3131.000000;2.929950
3130.000000;3.044240
3129.000000;3.138183
3128.000000;3.035232
3127.000000;2.894311
3126.000000;2.916532
3125.000000;3.168682
3124.000000;3.376601
3123.000000;3.230368
3122.000000;3.260346
3121.000000;3.391293
3120.000000;3.342223
3119.000000;3.297552
3118.000000;3.399081
3117.000000;3.330096
3116.000000;3.075888
3115.000000;2.942358
3114.000000;2.940850
3113.000000;3.008629
3112.000000;3.057640
3111.000000;3.109125
3110.000000;3.119304
3109.000000;3.062981
3108.000000;3.064770
3107.000000;3.129386
3106.000000;3.281799
3105.000000;3.416651
3104.000000;3.234178
3103.000000;3.089917
3102.000000;3.031891
3101.000000;2.961992
3100.000000;2.952935
3099.000000;3.058384
3098.000000;3.220381
3097.000000;3.305092
3096.000000;3.374725
3095.000000;3.644415
3094.000000;3.732383
3093.000000;3.337509
3092.000000;3.114002
3091.000000;2.998468
3090.000000;2.972046
3089.000000;3.001889
3088.000000;3.002420
3087.000000;3.029838
3086.000000;3.170751
3085.000000;3.341226
3084.000000;3.295128
3083.000000;3.120768
3082.000000;3.004711
3081.000000;2.985186
3080.000000;3.076887
3079.000000;3.211814
3078.000000;3.299996
3077.000000;3.246555
3076.000000;3.306517
3075.000000;3.548946
3074.000000;3.102539
3073.000000;2.848505
3072.000000;2.846963
3071.000000;2.954774
3070.000000;3.100245
3069.000000;3.219498
3068.000000;3.244790
3067.000000;3.101507
3066.000000;2.961126
3065.000000;2.900394
3064.000000;2.917358
3063.000000;2.983089
3062.000000;3.084576
3061.000000;3.213741
3060.000000;3.244068
3059.000000;3.178337
3058.000000;3.174116
3057.000000;3.276955
3056.000000;3.536876
3055.000000;3.892378
3054.000000;3.719978
3053.000000;3.453938
3052.000000;3.387139
3051.000000;3.371003
3050.000000;3.494280
3049.000000;3.860457
3048.000000;3.459616
3047.000000;3.169205
3046.000000;3.121286
3045.000000;3.190274
3044.000000;3.218226
3043.000000;3.117941
3042.000000;3.113760
3041.000000;3.283440
3040.000000;3.491634
3039.000000;3.624199
3038.000000;3.795348
3037.000000;3.429805
3036.000000;3.397425
3035.000000;3.617025
3034.000000;3.210288
3033.000000;3.014039
3032.000000;2.986874
3031.000000;2.875233
3030.000000;2.723454
3029.000000;2.630888
3028.000000;2.600286
3027.000000;2.624423
3026.000000;2.703442
3025.000000;2.802583
3024.000000;2.835755
3023.000000;2.813525
3022.000000;2.828627
3021.000000;2.894354
3020.000000;2.958458
3019.000000;2.988430
3018.000000;3.010480
3017.000000;3.019027
3016.000000;3.062815
3015.000000;3.181122
3014.000000;3.295880
3013.000000;3.334173
3012.000000;3.509805
3011.000000;3.811201
3010.000000;3.376545
3009.000000;3.107199
3008.000000;2.983634
3007.000000;3.135844
3006.000000;3.552267
3005.000000;3.112447
3004.000000;2.864102
3003.000000;2.813698
3002.000000;2.782549
3001.000000;2.844922
3000.000000;3.158055
2999.000000;3.176565
2998.000000;2.966316
2997.000000;3.136195
2996.000000;3.485921
2995.000000;3.364846
2994.000000;3.322294
2993.000000;3.565652
2992.000000;3.469081
2991.000000;3.256051
2990.000000;3.180419
2989.000000;3.153323
2988.000000;3.142476
2987.000000;3.123680
2986.000000;3.099012
2985.000000;3.083512
2984.000000;3.139196
2983.000000;3.298984
2982.000000;3.310391
2981.000000;3.106104
2980.000000;2.998652
2979.000000;2.969031
2978.000000;2.928802
2977.000000;3.104852
2976.000000;3.504933
2975.000000;3.195185
2974.000000;3.003441
2973.000000;3.044511
2972.000000;3.521708
2971.000000;3.482199
2970.000000;2.918196
2969.000000;2.790049
2968.000000;2.816797
2967.000000;2.955969
2966.000000;3.084189
2965.000000;3.123433
2964.000000;3.171288
2963.000000;3.281555
2962.000000;3.349448
2961.000000;3.157712
2960.000000;3.023416
2959.000000;3.112409
2958.000000;3.294811
2957.000000;3.030957
2956.000000;2.799266
2955.000000;2.730923
2954.000000;2.768235
2953.000000;2.851270
2952.000000;2.867270
2951.000000;2.814433
2950.000000;2.791184
2949.000000;2.874062
2948.000000;3.061715
2947.000000;3.246763
2946.000000;3.317411
2945.000000;3.352169
2944.000000;3.504938
2943.000000;3.919952
2942.000000;3.812323
2941.000000;3.531949
2940.000000;3.605975
2939.000000;3.374485
2938.000000;2.959771
2937.000000;2.739814
2936.000000;2.657666
2935.000000;2.661060
2934.000000;2.728362
2933.000000;2.861569
2932.000000;3.022566
2931.000000;3.068765
2930.000000;3.001528
2929.000000;2.929435
2928.000000;2.897822
2927.000000;2.862974
2926.000000;2.811082
2925.000000;2.837365
2924.000000;3.019289
2923.000000;3.220672
2922.000000;3.128180
2921.000000;3.038464
2920.000000;3.087842
2919.000000;3.019526
2918.000000;2.763656
2917.000000;2.607408
2916.000000;2.590808
2915.000000;2.653599
2914.000000;2.677918
2913.000000;2.662379
2912.000000;2.700630
2911.000000;2.833998
2910.000000;3.036231
2909.000000;3.150334
2908.000000;3.420411
2907.000000;3.456809
2906.000000;3.062794
2905.000000;2.982159
2904.000000;3.053588
2903.000000;3.143891
2902.000000;3.290835
2901.000000;3.598410
2900.000000;3.345886
2899.000000;2.973811
2898.000000;2.831128
2897.000000;2.832403
2896.000000;2.995717
2895.000000;3.362435
2894.000000;3.874095
2893.000000;3.585456
2892.000000;3.182661
2891.000000;3.018238
2890.000000;3.027198
2889.000000;3.108036
2888.000000;3.104853
2887.000000;3.093035
2886.000000;3.214953
2885.000000;3.391908
2884.000000;3.301373
2883.000000;3.214047
2882.000000;3.278584
2881.000000;3.433313
2880.000000;3.633564
2879.000000;3.495352
2878.000000;3.220734
2877.000000;3.163167
2876.000000;3.255026
2875.000000;3.497192
2874.000000;3.845098
2873.000000;3.328381
2872.000000;3.044207
2871.000000;2.986669
2870.000000;3.098513
2869.000000;3.366323
2868.000000;3.456830
2867.000000;3.265133
2866.000000;3.198821
2865.000000;3.154905
2864.000000;3.160116
2863.000000;3.699620
2862.000000;3.374972
2861.000000;2.917112
2860.000000;2.830441
2859.000000;2.842517
2858.000000;2.856267
2857.000000;2.802350
2856.000000;2.777727
2855.000000;2.816627
2854.000000;2.847042
2853.000000;2.855291
2852.000000;2.909016
2851.000000;3.072507
2850.000000;3.309293
2849.000000;3.334900
2848.000000;3.111797
2847.000000;2.934168
2846.000000;2.923424
2845.000000;3.112790
2844.000000;3.137795
2843.000000;2.974524
2842.000000;3.036664
2841.000000;3.244966
2840.000000;3.381585
2839.000000;3.296467
2838.000000;3.100506
2837.000000;2.905522
2836.000000;2.776814
2835.000000;2.768400
2834.000000;2.860568
2833.000000;2.938517
2832.000000;2.965198
2831.000000;3.028563
2830.000000;3.123859
2829.000000;3.188240
2828.000000;3.315790
2827.000000;3.579250
2826.000000;3.394075
2825.000000;3.152468
2824.000000;3.080736
2823.000000;3.094441
2822.000000;3.133826
2821.000000;3.105624
2820.000000;3.323516
2819.000000;3.889346
2818.000000;3.354709
2817.000000;3.270150
2816.000000;3.406101
2815.000000;3.442337
2814.000000;3.533742
2813.000000;3.874357
2812.000000;3.366609
2811.000000;2.927367
2810.000000;2.749592
2809.000000;2.688987
2808.000000;2.703941
2807.000000;2.740966
2806.000000;2.773517
2805.000000;2.807314
2804.000000;2.853835
2803.000000;2.917830
2802.000000;2.986995
2801.000000;3.114557
2800.000000;3.340528
2799.000000;3.627364
2798.000000;3.842056
2797.000000;3.473636
2796.000000;3.133821
2795.000000;2.936550
2794.000000;2.864433
2793.000000;2.905472
2792.000000;3.031138
2791.000000;3.201175
2790.000000;3.385495
2789.000000;3.457517
2788.000000;3.194296
2787.000000;2.947505
2786.000000;2.827372
2785.000000;2.822870
2784.000000;2.908056
2783.000000;3.000494
2782.000000;3.053901
2781.000000;3.062526
2780.000000;3.229088
2779.000000;3.345830
2778.000000;3.020425
2777.000000;2.920981
2776.000000;3.067398
2775.000000;3.418578
2774.000000;3.454807
2773.000000;3.215570
2772.000000;3.098779
2771.000000;3.245419
2770.000000;3.598344
2769.000000;3.193274
2768.000000;3.089898
2767.000000;3.123912
2766.000000;3.301146
2765.000000;3.627674
2764.000000;3.182593
2763.000000;2.910750
2762.000000;2.806776
2761.000000;2.859052
2760.000000;3.020216
2759.000000;2.992691
2758.000000;2.895699
2757.000000;2.967826
2756.000000;3.275586
2755.000000;3.483251
2754.000000;3.241779
2753.000000;3.057815
2752.000000;2.888013
2751.000000;2.778974
2750.000000;2.769493
2749.000000;2.847609
2748.000000;2.993499
2747.000000;3.151969
2746.000000;3.156250
2745.000000;2.975347
2744.000000;2.981446
2743.000000;3.273414
2742.000000;3.066544
2741.000000;2.810650
2740.000000;2.790052
2739.000000;2.931152
2738.000000;3.182853
2737.000000;3.303943
2736.000000;3.308455
2735.000000;3.187356
2734.000000;3.014946
2733.000000;2.898184
2732.000000;2.777222
2731.000000;2.691174
2730.000000;2.710428
2729.000000;2.864038
2728.000000;3.079652
2727.000000;3.198679
2726.000000;3.197044
2725.000000;3.119908
2724.000000;3.082985
2723.000000;3.086987
2722.000000;3.096261
2721.000000;3.108135
2720.000000;3.107124
2719.000000;3.106981
2718.000000;3.270105
2717.000000;3.454452
2716.000000;3.144654
2715.000000;3.021287
2714.000000;3.021125
2713.000000;3.042459
2712.000000;3.103869
2711.000000;3.153073
2710.000000;3.103026
2709.000000;3.066214
2708.000000;3.117004
2707.000000;3.098081
2706.000000;3.014612
2705.000000;3.018604
2704.000000;3.219367
2703.000000;3.407641
2702.000000;3.109688
2701.000000;2.899169
2700.000000;2.828938
2699.000000;2.874303
2698.000000;3.093616
2697.000000;3.365781
2696.000000;3.284444
2695.000000;3.206624
2694.000000;3.113519
2693.000000;2.998803
2692.000000;2.991332
2691.000000;3.062006
2690.000000;3.053590
2689.000000;2.903136
2688.000000;2.783156
2687.000000;2.779741
2686.000000;2.912403
2685.000000;3.142071
2684.000000;3.406964
2683.000000;3.502845
2682.000000;3.214644
2681.000000;3.029693
2680.000000;2.979980
2679.000000;3.032936
2678.000000;3.266395
2677.000000;3.567399
2676.000000;3.264850
2675.000000;3.034854
2674.000000;3.003927
2673.000000;3.146879
2672.000000;3.343175
2671.000000;3.189726
2670.000000;3.218929
2669.000000;3.831016
2668.000000;3.556234
2667.000000;3.157546
2666.000000;2.923192
2665.000000;2.854755
2664.000000;3.036781
2663.000000;3.443984
2662.000000;3.303754
2661.000000;3.063514
2660.000000;2.871175
2659.000000;2.781891
2658.000000;2.821538
2657.000000;2.927847
2656.000000;3.033511
2655.000000;3.182472
2654.000000;3.603720
2653.000000;3.625618
2652.000000;3.202153
2651.000000;3.098018
2650.000000;3.213003
2649.000000;3.472912
2648.000000;3.349091
2647.000000;3.268608
2646.000000;3.177105
2645.000000;3.030988
2644.000000;3.009410
2643.000000;3.110070
2642.000000;3.207309
2641.000000;3.058473
2640.000000;2.977551
2639.000000;3.064178
2638.000000;3.341530
2637.000000;3.923687
2636.000000;3.656986
2635.000000;3.438326
2634.000000;3.322208
2633.000000;3.198962
2632.000000;3.141314
2631.000000;3.170215
2630.000000;3.150924
2629.000000;3.021057
2628.000000;2.892251
2627.000000;2.783822
2626.000000;2.734563
2625.000000;2.771275
2624.000000;2.936395
2623.000000;3.213650
2622.000000;3.002356
2621.000000;2.727597
2620.000000;2.623188
2619.000000;2.601374
2618.000000;2.648965
2617.000000;2.750186
2616.000000;2.879213
2615.000000;2.925644
2614.000000;2.819212
2613.000000;2.726497
2612.000000;2.729706
2611.000000;2.811188
2610.000000;2.881165
2609.000000;2.892342
2608.000000;2.928275
2607.000000;3.039457
2606.000000;3.210343
2605.000000;3.365527
2604.000000;3.267916
2603.000000;2.967661
2602.000000;2.762834
2601.000000;2.670336
2600.000000;2.662971
2599.000000;2.727899
2598.000000;2.876184
2597.000000;3.094664
2596.000000;3.222298
2595.000000;3.247254
2594.000000;3.471030
2593.000000;3.796905
2592.000000;3.272027
2591.000000;2.965493
2590.000000;2.855915
2589.000000;2.857821
2588.000000;2.967524
2587.000000;3.142649
2586.000000;3.118579
2585.000000;2.924078
2584.000000;2.813408
2583.000000;2.800495
2582.000000;2.869921
2581.000000;3.039168
2580.000000;3.033205
2579.000000;2.781909
2578.000000;2.678505
2577.000000;2.724387
2576.000000;2.897256
2575.000000;3.097652
2574.000000;3.180787
2573.000000;3.131751
2572.000000;2.981358
2571.000000;2.917255
2570.000000;2.976101
2569.000000;3.038828
2568.000000;2.957453
2567.000000;2.856067
2566.000000;2.823776
2565.000000;2.826915
2564.000000;2.839782
2563.000000;2.892462
2562.000000;3.041382
2561.000000;3.286279
2560.000000;3.135544
2559.000000;2.928709
2558.000000;2.909554
2557.000000;3.078836
2556.000000;3.267325
2555.000000;3.083429
2554.000000;2.940377
2553.000000;2.841487
2552.000000;2.735308
2551.000000;2.654389
2550.000000;2.651843
2549.000000;2.764083
2548.000000;3.047287
2547.000000;3.510787
2546.000000;3.542257
2545.000000;3.623614
2544.000000;3.959462
2543.000000;3.518106
2542.000000;3.264118
2541.000000;3.202551
2540.000000;3.208765
2539.000000;3.502740
2538.000000;3.702685
2537.000000;3.350042
2536.000000;3.334996
2535.000000;3.448018
2534.000000;3.563318
2533.000000;3.603160
2532.000000;3.731026
2531.000000;3.307242
2530.000000;2.971107
2529.000000;2.863494
2528.000000;2.867656
2527.000000;2.918111
2526.000000;2.992695
2525.000000;3.029047
2524.000000;2.999905
2523.000000;3.014113
2522.000000;3.021353
2521.000000;2.917748
2520.000000;2.865648
2519.000000;3.045630
2518.000000;3.422532
2517.000000;3.120802
2516.000000;2.906088
2515.000000;2.921830
2514.000000;3.174682
2513.000000;3.647394
2512.000000;3.257707
2511.000000;3.032624
2510.000000;2.944201
2509.000000;2.932355
2508.000000;3.067464
2507.000000;3.163464
2506.000000;3.189308
2505.000000;3.223038
2504.000000;3.140244
2503.000000;3.061741
2502.000000;3.034241
2501.000000;3.027831
2500.000000;3.058044
2499.000000;3.218421
2498.000000;3.241425
2497.000000;3.010145
2496.000000;3.033688
2495.000000;3.312267
2494.000000;3.407136
2493.000000;3.163415
2492.000000;2.996735
2491.000000;2.918045
2490.000000;2.964402
2489.000000;2.958477
2488.000000;2.911936
2487.000000;3.154138
2486.000000;3.509078
2485.000000;3.123383
2484.000000;3.009434
2483.000000;3.098554
2482.000000;3.106350
2481.000000;2.978802
2480.000000;2.880352
2479.000000;2.863564
2478.000000;2.906272
2477.000000;2.981720
2476.000000;3.120502
2475.000000;3.442805
2474.000000;4.075875
2473.000000;3.957624
2472.000000;3.326837
2471.000000;3.020909
2470.000000;2.896612
2469.000000;2.873719
2468.000000;2.869627
2467.000000;2.797635
2466.000000;2.731927
2465.000000;2.731511
2464.000000;2.756571
2463.000000;2.762650
2462.000000;2.758758
2461.000000;2.768960
2460.000000;2.790348
2459.000000;2.811011
2458.000000;2.841744
2457.000000;2.896417
2456.000000;2.876173
2455.000000;2.779798
2454.000000;2.765072
2453.000000;2.893272
2452.000000;3.007599
2451.000000;3.016101
2450.000000;3.343346
2449.000000;3.216096
2448.000000;2.821753
2447.000000;2.681868
2446.000000;2.651973
2445.000000;2.708401
2444.000000;2.837632
2443.000000;2.980070
2442.000000;3.017955
2441.000000;2.947584
2440.000000;2.906597
2439.000000;2.978138
2438.000000;3.150022
2437.000000;3.312383
2436.000000;3.418628
2435.000000;3.712957
2434.000000;3.528825
2433.000000;3.183101
2432.000000;3.158718
2431.000000;3.468580
2430.000000;3.252527
2429.000000;2.940260
2428.000000;2.859074
2427.000000;2.885952
2426.000000;2.948305
2425.000000;2.939238
2424.000000;2.884212
2423.000000;2.859831
2422.000000;2.921811
2421.000000;3.078955
2420.000000;3.279795
2419.000000;3.570720
2418.000000;3.327420
2417.000000;3.113474
2416.000000;3.106256
2415.000000;2.981835
2414.000000;2.824850
2413.000000;2.779003
2412.000000;2.802035
2411.000000;2.804833
2410.000000;2.726187
2409.000000;2.645638
2408.000000;2.647665
2407.000000;2.776584
2406.000000;3.044681
2405.000000;3.067392
2404.000000;2.926923
2403.000000;2.936927
2402.000000;3.029278
2401.000000;2.990072
2400.000000;2.919761
2399.000000;3.032620
2398.000000;3.097741
2397.000000;2.914839
2396.000000;2.874301
2395.000000;3.011308
2394.000000;3.162614
2393.000000;3.017933
2392.000000;2.901952
2391.000000;2.927969
2390.000000;3.160163
2389.000000;3.569742
2388.000000;3.434911
2387.000000;3.300876
2386.000000;3.316018
2385.000000;3.503426
2384.000000;3.310781
2383.000000;3.073325
2382.000000;3.044031
2381.000000;3.130418
2380.000000;3.268971
2379.000000;3.259656
2378.000000;3.150572
2377.000000;3.082052
2376.000000;3.039010
2375.000000;2.992156
2374.000000;2.974500
2373.000000;3.063097
2372.000000;3.283394
2371.000000;3.385235
2370.000000;3.164739
2369.000000;3.005329
2368.000000;3.024811
2367.000000;3.309245
2366.000000;4.145492
2365.000000;3.241332
2364.000000;3.070669
2363.000000;3.028985
2362.000000;3.050197
2361.000000;3.088880
2360.000000;3.125921
2359.000000;3.153055
2358.000000;3.137859
2357.000000;3.049786
2356.000000;2.938129
2355.000000;2.888251
2354.000000;2.948610
2353.000000;3.095843
2352.000000;3.229068
2351.000000;3.316648
2350.000000;3.206007
2349.000000;3.112865
2348.000000;3.135239
2347.000000;3.199745
2346.000000;3.247243
2345.000000;3.228032
2344.000000;3.164560
2343.000000;3.141278
2342.000000;3.212379
2341.000000;3.405711
2340.000000;3.505174
2339.000000;3.446476
2338.000000;3.518569
2337.000000;3.530155
2336.000000;3.598295
2335.000000;3.698209
2334.000000;3.901040
2333.000000;3.684072
2332.000000;3.110857
2331.000000;2.970424
2330.000000;2.984678
2329.000000;3.105054
2328.000000;3.238380
2327.000000;3.315868
2326.000000;3.334548
2325.000000;3.242341
2324.000000;3.064188
2323.000000;2.985585
2322.000000;3.072288
2321.000000;3.462189
2320.000000;3.812031
2319.000000;3.883371
2318.000000;3.762442
2317.000000;3.380530
2316.000000;3.206539
2315.000000;3.200472
2314.000000;3.554786
2313.000000;3.341569
2312.000000;3.130795
2311.000000;3.170440
2310.000000;3.119079
2309.000000;3.001631
2308.000000;3.002993
2307.000000;3.022074
2306.000000;2.965749
2305.000000;2.931414
2304.000000;2.968947
2303.000000;3.091862
2302.000000;3.166607
2301.000000;3.051250
2300.000000;2.953864
2299.000000;2.901668
2298.000000;2.855603
2297.000000;2.823427
2296.000000;2.809879
2295.000000;2.783669
2294.000000;2.774178
2293.000000;2.837042
2292.000000;2.966107
2291.000000;3.084634
2290.000000;3.139029
2289.000000;3.217724
2288.000000;3.241623
2287.000000;3.064157
2286.000000;2.960623
2285.000000;3.004154
2284.000000;3.242384
2283.000000;3.729946
2282.000000;3.617481
2281.000000;3.518463
2280.000000;3.353111
2279.000000;3.144584
2278.000000;3.027592
2277.000000;3.016652
2276.000000;3.098205
2275.000000;3.103202
2274.000000;3.009636
2273.000000;2.985075
2272.000000;3.065955
2271.000000;3.222976
2270.000000;3.761019
2269.000000;3.543443
2268.000000;3.256135
2267.000000;3.415107
2266.000000;4.024846
2265.000000;3.558128
2264.000000;3.428842
2263.000000;3.248079
2262.000000;3.041004
2261.000000;3.010977
2260.000000;3.230056
2259.000000;3.644995
2258.000000;3.044397
2257.000000;2.942417
2256.000000;3.034385
2255.000000;3.051340
2254.000000;2.857519
2253.000000;2.782922
2252.000000;2.818155
2251.000000;2.955768
2250.000000;3.194583
2249.000000;3.678814
2248.000000;4.194133
2247.000000;3.387671
2246.000000;2.976449
2245.000000;2.773712
2244.000000;2.719751
2243.000000;2.762106
2242.000000;2.845784
2241.000000;2.942047
2240.000000;3.033697
2239.000000;3.115810
2238.000000;3.364463
2237.000000;3.541434
2236.000000;3.109672
2235.000000;2.935100
2234.000000;2.924052
2233.000000;3.022091
2232.000000;3.105372
2231.000000;2.998821
2230.000000;2.890417
2229.000000;2.876788
2228.000000;2.968208
2227.000000;3.125267
2226.000000;3.194546
2225.000000;3.111103
2224.000000;2.996619
2223.000000;2.876786
2222.000000;2.775878
2221.000000;2.754258
2220.000000;2.829555
2219.000000;2.978044
2218.000000;3.186591
2217.000000;3.468134
2216.000000;3.647067
2215.000000;3.445838
2214.000000;3.136149
2213.000000;2.896285
2212.000000;2.743742
2211.000000;2.705607
2210.000000;2.809479
2209.000000;3.032082
2208.000000;3.091318
2207.000000;2.994610
2206.000000;2.900870
2205.000000;2.856953
2204.000000;2.853952
2203.000000;2.870554
2202.000000;2.932355
2201.000000;3.097270
2200.000000;3.424275
2199.000000;3.766255
2198.000000;3.736972
2197.000000;3.658887
2196.000000;3.416370
2195.000000;3.239508
2194.000000;3.410792
2193.000000;3.831407
2192.000000;3.439041
2191.000000;3.314383
2190.000000;3.448045
2189.000000;3.639694
2188.000000;3.355770
2187.000000;3.083177
2186.000000;2.953891
2185.000000;2.888878
2184.000000;2.905661
2183.000000;3.033159
2182.000000;3.224677
2181.000000;2.989450
2180.000000;2.784981
2179.000000;2.707191
2178.000000;2.711420
2177.000000;2.770592
2176.000000;2.865001
2175.000000;2.927756
2174.000000;2.901598
2173.000000;2.921155
2172.000000;3.075768
2171.000000;3.577189
2170.000000;3.789638
2169.000000;3.187886
2168.000000;3.099189
2167.000000;3.137917
2166.000000;3.486104
2165.000000;3.802273
2164.000000;3.590649
2163.000000;3.492556
2162.000000;3.274347
2161.000000;3.115086
2160.000000;3.194334
2159.000000;3.395470
2158.000000;2.953159
2157.000000;2.781981
2156.000000;2.854778
2155.000000;3.343538
2154.000000;3.205118
2153.000000;2.986674
2152.000000;3.059908
2151.000000;3.232782
2150.000000;3.377260
2149.000000;3.348694
2148.000000;3.229583
2147.000000;3.275391
2146.000000;3.355053
2145.000000;3.258817
2144.000000;3.188983
2143.000000;3.232235
2142.000000;3.252523
2141.000000;3.261532
2140.000000;3.254230
2139.000000;3.050951
2138.000000;2.858009
2137.000000;2.790397
2136.000000;2.840846
2135.000000;2.969072
2134.000000;3.043600
2133.000000;3.003530
2132.000000;2.937856
2131.000000;2.889408
2130.000000;2.868433
2129.000000;2.882005
2128.000000;2.932474
2127.000000;3.043974
2126.000000;3.255765
2125.000000;3.903135
2124.000000;3.507415
2123.000000;3.211033
2122.000000;3.035729
2121.000000;2.883919
2120.000000;2.839068
2119.000000;2.932102
2118.000000;3.139750
2117.000000;3.206037
2116.000000;3.109509
2115.000000;3.142579
2114.000000;3.266883
2113.000000;3.140236
2112.000000;2.976375
2111.000000;3.016744
2110.000000;3.452238
2109.000000;3.087595
2108.000000;2.797825
2107.000000;2.827911
2106.000000;3.122806
2105.000000;3.480954
2104.000000;3.025634
2103.000000;2.872719
2102.000000;2.882295
2101.000000;2.997652
2100.000000;3.251087
2099.000000;4.063658
2098.000000;3.439754
2097.000000;3.225492
2096.000000;3.145376
2095.000000;3.100800
2094.000000;3.073201
2093.000000;3.080980
2092.000000;3.322356
2091.000000;3.593304
2090.000000;3.092332
2089.000000;2.982752
2088.000000;2.963064
2087.000000;3.000702
2086.000000;3.073764
2085.000000;3.119660
2084.000000;3.040657
2083.000000;2.931018
2082.000000;2.918184
2081.000000;3.071966
2080.000000;3.367436
2079.000000;3.173443
2078.000000;2.921619
2077.000000;2.801410
2076.000000;2.813321
2075.000000;2.989549
2074.000000;3.331207
2073.000000;3.540535
2072.000000;3.833643
2071.000000;3.518055
2070.000000;3.003292
2069.000000;2.818797
2068.000000;2.817866
2067.000000;3.029268
2066.000000;3.601750
2065.000000;3.526308
2064.000000;3.419200
2063.000000;3.116982
2062.000000;2.801825
2061.000000;2.706990
2060.000000;2.760412
2059.000000;2.949167
2058.000000;3.540115
2057.000000;3.474164
2056.000000;3.090574
2055.000000;3.095038
2054.000000;3.029251
2053.000000;2.974081
2052.000000;2.934443
2051.000000;2.916114
2050.000000;2.980791
2049.000000;3.265177
2048.000000;3.564935
2047.000000;3.239012
2046.000000;3.223410
2045.000000;3.159089
2044.000000;2.970941
2043.000000;2.879243
2042.000000;2.909870
2041.000000;3.216928
2040.000000;3.740176
2039.000000;2.997407
2038.000000;2.940754
2037.000000;2.988713
2036.000000;3.082932
2035.000000;3.087166
2034.000000;3.083204
2033.000000;3.092933
2032.000000;3.038188
2031.000000;2.937125
2030.000000;2.894100
2029.000000;2.911521
2028.000000;2.846936
2027.000000;2.759793
2026.000000;2.751356
2025.000000;2.737714
2024.000000;2.660322
2023.000000;2.600974
2022.000000;2.595791
2021.000000;2.628364
2020.000000;2.691851
2019.000000;2.786027
2018.000000;2.881743
2017.000000;2.874542
2016.000000;2.768979
2015.000000;2.727548
2014.000000;2.808723
2013.000000;3.011347
2012.000000;3.236706
2011.000000;3.210619
2010.000000;3.013632
2009.000000;2.913991
2008.000000;2.945265
2007.000000;3.104060
2006.000000;3.361016
2005.000000;3.485377
2004.000000;3.292381
2003.000000;3.062543
2002.000000;2.958683
2001.000000;2.987883
2000.000000;3.314542
1999.000000;3.490299
1998.000000;3.085144
1997.000000;2.952375
1996.000000;2.970254
1995.000000;3.003646
1994.000000;2.960306
1993.000000;2.874455
1992.000000;2.800628
1991.000000;2.737768
1990.000000;2.696690
1989.000000;2.713022
1988.000000;2.777883
1987.000000;2.829335
1986.000000;2.847940
1985.000000;2.844158
1984.000000;2.824852
1983.000000;2.865023
1982.000000;2.937900
1981.000000;2.891467
1980.000000;2.811900
1979.000000;2.777986
1978.000000;2.782421
1977.000000;2.840705
1976.000000;2.911722
1975.000000;2.907003
1974.000000;2.845465
1973.000000;2.796346
1972.000000;2.763604
1971.000000;2.728248
1970.000000;2.710762
1969.000000;2.756297
1968.000000;2.908133
1967.000000;3.148992
1966.000000;3.626135
1965.000000;3.305047
1964.000000;2.943811
1963.000000;2.817548
1962.000000;2.812190
1961.000000;2.867793
1960.000000;2.928288
1959.000000;2.961966
1958.000000;3.007633
1957.000000;3.082156
1956.000000;3.139527
1955.000000;3.166750
1954.000000;3.110209
1953.000000;2.915271
1952.000000;2.695646
1951.000000;2.563238
1950.000000;2.558755
1949.000000;2.709689
1948.000000;3.039744
1947.000000;3.106150
1946.000000;3.131406
1945.000000;3.295196
1944.000000;3.024393
1943.000000;2.887548
1942.000000;2.924283
1941.000000;3.029322
1940.000000;3.047833
1939.000000;2.994575
1938.000000;2.987065
1937.000000;2.985861
1936.000000;2.943178
1935.000000;2.924631
1934.000000;3.019650
1933.000000;3.260384
1932.000000;3.358892
1931.000000;2.961342
1930.000000;2.761994
1929.000000;2.752880
1928.000000;3.023104
1927.000000;3.554364
1926.000000;3.143295
1925.000000;3.118230
1924.000000;3.392059
1923.000000;3.152200
1922.000000;2.938042
1921.000000;2.882458
1920.000000;2.786863
1919.000000;2.661423
1918.000000;2.589969
1917.000000;2.616592
1916.000000;2.740503
1915.000000;2.952792
1914.000000;3.142240
1913.000000;3.098788
1912.000000;3.015236
1911.000000;3.036893
1910.000000;3.166469
1909.000000;3.242465
1908.000000;3.139568
1907.000000;3.118236
1906.000000;3.411083
1905.000000;3.248557
1904.000000;2.757888
1903.000000;2.613267
1902.000000;2.630264
1901.000000;2.804074
1900.000000;2.950435
1899.000000;2.947965
1898.000000;3.073212
1897.000000;3.390732
1896.000000;3.526595
1895.000000;3.434719
1894.000000;3.369903
1893.000000;3.253581
1892.000000;3.130957
1891.000000;2.964022
1890.000000;2.871598
1889.000000;2.859309
1888.000000;2.852015
1887.000000;2.845671
1886.000000;2.890282
1885.000000;3.026898
1884.000000;3.270720
1883.000000;3.536656
1882.000000;3.527357
1881.000000;3.501512
1880.000000;3.785310
1879.000000;3.361488
1878.000000;3.058311
1877.000000;3.111867
1876.000000;3.464805
1875.000000;3.205269
1874.000000;2.945935
1873.000000;2.908149
1872.000000;2.890454
1871.000000;2.817686
1870.000000;2.729365
1869.000000;2.739615
1868.000000;2.890460
1867.000000;3.302601
1866.000000;3.713267
1865.000000;3.284493
1864.000000;3.152860
1863.000000;3.164906
1862.000000;3.072236
1861.000000;2.958709
1860.000000;2.958901
1859.000000;3.114526
1858.000000;3.292860
1857.000000;3.270839
1856.000000;3.502063
1855.000000;3.471505
1854.000000;3.026127
1853.000000;2.892169
1852.000000;2.908281
1851.000000;3.028085
1850.000000;3.160582
1849.000000;3.113533
1848.000000;2.948523
1847.000000;2.830890
1846.000000;2.823459
1845.000000;2.917568
1844.000000;2.928614
1843.000000;2.896163
1842.000000;2.897023
1841.000000;2.833803
1840.000000;2.775621
1839.000000;2.779635
1838.000000;2.798295
1837.000000;2.756015
1836.000000;2.699946
1835.000000;2.689199
1834.000000;2.733374
1833.000000;2.858830
1832.000000;3.096128
1831.000000;3.035625
1830.000000;2.906192
1829.000000;2.970902
1828.000000;3.205484
1827.000000;3.236749
1826.000000;3.019630
1825.000000;3.244786
1824.000000;3.345470
1823.000000;2.866140
1822.000000;2.824630
1821.000000;2.974147
1820.000000;3.138241
1819.000000;3.026910
1818.000000;2.964530
1817.000000;2.984916
1816.000000;2.990556
1815.000000;2.956923
1814.000000;2.944106
1813.000000;2.968554
1812.000000;2.972877
1811.000000;2.936531
1810.000000;2.898385
1809.000000;2.916582
1808.000000;2.934153
1807.000000;2.827912
1806.000000;2.731844
1805.000000;2.707395
1804.000000;2.745244
1803.000000;2.837086
1802.000000;2.905238
1801.000000;2.921702
1800.000000;3.069152
1799.000000;3.540889
1798.000000;3.210033
1797.000000;2.929313
1796.000000;2.898430
1795.000000;2.998694
1794.000000;3.204789
1793.000000;3.049003
1792.000000;2.729231
1791.000000;2.633034
1790.000000;2.706963
1789.000000;2.981394
1788.000000;3.155774
1787.000000;3.062510
1786.000000;3.268912
1785.000000;3.511212
1784.000000;3.115138
1783.000000;2.944239
1782.000000;2.944567
1781.000000;3.141416
1780.000000;3.549853
1779.000000;3.083224
1778.000000;2.896333
1777.000000;2.912986
1776.000000;2.982929
1775.000000;3.088603
1774.000000;3.437148
1773.000000;3.201363
1772.000000;3.076696
1771.000000;3.192364
1770.000000;3.473888
1769.000000;3.863801
1768.000000;3.006715
1767.000000;2.766677
1766.000000;2.704149
1765.000000;2.719250
1764.000000;2.758717
1763.000000;2.806295
1762.000000;2.875811
1761.000000;2.958114
1760.000000;3.051036
1759.000000;3.172343
1758.000000;3.235713
1757.000000;4.055627
1756.000000;3.392711
1755.000000;2.922021
1754.000000;2.748693
1753.000000;2.688918
1752.000000;2.798804
1751.000000;3.215513
1750.000000;3.450617
1749.000000;3.102267
1748.000000;3.055046
1747.000000;3.083910
1746.000000;3.016657
1745.000000;2.938625
1744.000000;2.900515
1743.000000;2.886137
1742.000000;2.939686
1741.000000;3.167944
1740.000000;3.640799
1739.000000;3.425029
1738.000000;3.106250
1737.000000;2.975496
1736.000000;3.092727
1735.000000;3.130935
1734.000000;2.719581
1733.000000;2.576125
1732.000000;2.619595
1731.000000;2.834112
1730.000000;3.539840
1729.000000;3.207770
1728.000000;2.914188
1727.000000;2.797556
1726.000000;2.723685
1725.000000;2.729718
1724.000000;2.791286
1723.000000;2.862512
1722.000000;2.894202
1721.000000;2.944831
1720.000000;3.064980
1719.000000;3.083488
1718.000000;2.928594
1717.000000;2.791539
1716.000000;2.724526
1715.000000;2.875418
1714.000000;3.171769
1713.000000;3.052664
1712.000000;3.135614
1711.000000;3.641902
1710.000000;3.775867
1709.000000;3.377469
1708.000000;3.400298
1707.000000;3.282083
1706.000000;3.068338
1705.000000;2.949255
1704.000000;2.745024
1703.000000;2.544623
1702.000000;2.429831
1701.000000;2.445917
1700.000000;2.721551
1699.000000;3.509347
1698.000000;2.893566
1697.000000;2.590417
1696.000000;2.465229
1695.000000;2.436836
1694.000000;2.454635
1693.000000;2.518410
1692.000000;2.660884
1691.000000;2.879650
1690.000000;3.087732
1689.000000;3.066535
1688.000000;2.901750
1687.000000;2.768349
1686.000000;2.700025
1685.000000;2.793877
1684.000000;3.179117
1683.000000;3.170808
1682.000000;2.966268
1681.000000;3.049236
1680.000000;3.272181
1679.000000;3.577362
1678.000000;3.421992
1677.000000;3.059108
1676.000000;2.868695
1675.000000;2.826583
1674.000000;2.826610
1673.000000;2.792456
1672.000000;2.793316
1671.000000;2.873846
1670.000000;2.942732
1669.000000;2.867763
1668.000000;2.750671
1667.000000;2.684078
1666.000000;2.682655
1665.000000;2.732697
1664.000000;2.821125
1663.000000;2.933078
1662.000000;3.028450
1661.000000;3.006622
1660.000000;2.882650
1659.000000;2.809890
1658.000000;2.830647
1657.000000;3.055294
1656.000000;3.096748
1655.000000;3.320219
1654.000000;2.784921
1653.000000;2.367282
1652.000000;2.637000
1651.000000;2.793007
1650.000000;2.779675
1649.000000;2.552227
1648.000000;2.430253
1647.000000;2.472316
1646.000000;2.698016
1645.000000;2.965758
1644.000000;2.882731
1643.000000;2.774261
1642.000000;2.732246
1641.000000;2.709498
1640.000000;2.691720
1639.000000;2.671641
1638.000000;2.712286
1637.000000;2.842565
1636.000000;2.782810
1635.000000;2.606828
1634.000000;2.541078
1633.000000;2.543052
1632.000000;2.599839
1631.000000;2.703939
1630.000000;2.860314
1629.000000;3.410750
1628.000000;3.679518
1627.000000;3.089276
1626.000000;3.037919
1625.000000;2.989370
1624.000000;3.166158
1623.000000;3.413959
1622.000000;2.967498
1621.000000;2.800195
1620.000000;2.791009
1619.000000;2.813503
1618.000000;2.823306
1617.000000;2.955067
1616.000000;3.464193
1615.000000;3.076938
1614.000000;2.784390
1613.000000;2.716288
1612.000000;2.770870
1611.000000;2.843624
1610.000000;2.910662
1609.000000;3.069807
1608.000000;3.227615
1607.000000;3.124571
1606.000000;2.885740
1605.000000;2.752267
1604.000000;2.724275
1603.000000;2.734643
1602.000000;2.752976
1601.000000;2.758059
1600.000000;2.780274
1599.000000;2.871997
1598.000000;3.107223
1597.000000;3.647511
1596.000000;3.345267
1595.000000;3.175536
1594.000000;3.403728
1593.000000;3.308708
1592.000000;3.007716
1591.000000;2.796702
1590.000000;2.724007
1589.000000;2.798958
1588.000000;2.997810
1587.000000;3.249318
1586.000000;3.388181
1585.000000;3.473772
1584.000000;3.725438
1583.000000;3.723659
1582.000000;3.459097
1581.000000;3.681089
1580.000000;3.391715
1579.000000;2.868572
1578.000000;2.661079
1577.000000;2.632515
1576.000000;2.817055
1575.000000;3.122452
1574.000000;2.884754
1573.000000;2.646200
1572.000000;2.600501
1571.000000;2.733418
1570.000000;3.193715
1569.000000;3.333481
1568.000000;3.119771
1567.000000;3.201517
1566.000000;3.530937
1565.000000;3.628495
1564.000000;3.097678
1563.000000;2.896158
1562.000000;2.727326
1561.000000;2.695622
1560.000000;2.661628
1559.000000;2.357705
1558.000000;2.270350
1557.000000;2.315877
1556.000000;2.424650
1555.000000;2.595825
1554.000000;2.757112
1553.000000;2.859880
1552.000000;2.831863
1551.000000;2.792341
1550.000000;2.839001
1549.000000;3.040008
1548.000000;3.330129
1547.000000;3.110790
1546.000000;2.803442
1545.000000;2.630659
1544.000000;2.523184
1543.000000;2.481827
1542.000000;2.512582
1541.000000;2.647910
1540.000000;2.807423
1539.000000;2.762725
1538.000000;2.718555
1537.000000;2.751873
1536.000000;2.834304
1535.000000;2.813948
1534.000000;2.714775
1533.000000;2.720738
1532.000000;2.839444
1531.000000;2.963464
1530.000000;2.928954
1529.000000;2.769706
1528.000000;2.615211
1527.000000;2.559015
1526.000000;2.611583
1525.000000;2.917609
1524.000000;3.285245
1523.000000;2.750662
1522.000000;2.644909
1521.000000;2.731780
1520.000000;2.659901
1519.000000;2.548715
1518.000000;2.509816
1517.000000;2.510108
1516.000000;2.514524
1515.000000;2.591940
1514.000000;2.872337
1513.000000;3.165248
1512.000000;2.820024
1511.000000;2.656723
1510.000000;2.589696
1509.000000;2.671355
1508.000000;2.997919
1507.000000;2.778957
1506.000000;2.698037
1505.000000;2.790900
1504.000000;2.768936
1503.000000;2.736960
1502.000000;2.724251
1501.000000;2.724239
1500.000000;2.702755
1499.000000;2.740372
1498.000000;2.852482
1497.000000;2.737159
1496.000000;2.600946
1495.000000;2.616030
1494.000000;2.659115
1493.000000;2.674762
1492.000000;2.686214
1491.000000;2.779100
1490.000000;2.833240
1489.000000;2.741277
1488.000000;2.695446
1487.000000;2.701287
1486.000000;2.743925
1485.000000;2.821823
1484.000000;2.915441
1483.000000;3.034559
1482.000000;3.259079
1481.000000;3.659753
1480.000000;3.903891
1479.000000;3.489626
1478.000000;2.982020
1477.000000;2.708815
1476.000000;2.592719
1475.000000;2.569719
1474.000000;2.614801
1473.000000;2.704038
1472.000000;2.788027
1471.000000;2.792832
1470.000000;2.747452
1469.000000;2.734232
1468.000000;2.772054
1467.000000;2.880878
1466.000000;2.883618
1465.000000;2.732578
1464.000000;2.721440
1463.000000;2.938116
1462.000000;3.093609
1461.000000;2.937554
1460.000000;2.826061
1459.000000;2.920009
1458.000000;2.912882
1457.000000;2.553967
1456.000000;2.434214
1455.000000;2.509405
1454.000000;2.598288
1453.000000;2.625615
1452.000000;2.625658
1451.000000;2.652821
1450.000000;2.729455
1449.000000;2.916294
1448.000000;2.964595
1447.000000;2.748667
1446.000000;2.676201
1445.000000;2.731198
1444.000000;2.841578
1443.000000;2.963069
1442.000000;3.049772
1441.000000;3.137466
1440.000000;3.153204
1439.000000;2.952036
1438.000000;2.714091
1437.000000;2.647593
1436.000000;2.802489
1435.000000;2.816376
1434.000000;2.660998
1433.000000;2.642509
1432.000000;2.730819
1431.000000;2.977184
1430.000000;3.105717
1429.000000;2.828073
1428.000000;2.698344
1427.000000;2.725248
1426.000000;2.911325
1425.000000;3.363166
1424.000000;4.142767
1423.000000;4.170352
1422.000000;3.311031
1421.000000;2.918555
1420.000000;2.740975
1419.000000;2.753818
1418.000000;2.938271
1417.000000;3.064280
1416.000000;3.004690
1415.000000;2.931833
1414.000000;2.909668
1413.000000;2.970572
1412.000000;3.138901
1411.000000;3.379382
1410.000000;3.490890
1409.000000;3.316873
1408.000000;3.146523
1407.000000;3.106554
1406.000000;3.132408
1405.000000;3.064953
1404.000000;2.934839
1403.000000;2.887578
1402.000000;2.946309
1401.000000;3.058466
1400.000000;3.085768
1399.000000;2.983389
1398.000000;2.887320
1397.000000;2.886536
1396.000000;2.992718
1395.000000;3.297343
1394.000000;3.877150
1393.000000;3.530675
1392.000000;3.279675
1391.000000;3.440914
1390.000000;3.778040
1389.000000;3.203345
1388.000000;2.846606
1387.000000;2.684913
1386.000000;2.637530
1385.000000;2.702388
1384.000000;2.849831
1383.000000;3.109444
1382.000000;3.555770
1381.000000;3.502556
1380.000000;3.214321
1379.000000;3.184624
1378.000000;3.574433
1377.000000;3.399039
1376.000000;2.935824
1375.000000;2.821411
1374.000000;2.944707
1373.000000;3.075538
1372.000000;2.928509
1371.000000;2.922238
1370.000000;3.087194
1369.000000;3.113307
1368.000000;3.372085
1367.000000;3.722490
1366.000000;3.073254
1365.000000;2.929487
1364.000000;3.249848
1363.000000;3.636691
1362.000000;3.007404
1361.000000;2.944534
1360.000000;3.129973
1359.000000;3.337327
1358.000000;3.274567
1357.000000;3.017382
1356.000000;2.916731
1355.000000;2.928352
1354.000000;3.019693
1353.000000;3.063304
1352.000000;3.254779
1351.000000;3.735272
1350.000000;3.237078
1349.000000;3.072206
1348.000000;3.136636
1347.000000;3.064830
1346.000000;2.957146
1345.000000;2.881488
1344.000000;2.817853
1343.000000;2.753674
1342.000000;2.726020
1341.000000;2.785964
1340.000000;2.956351
1339.000000;3.025595
1338.000000;2.819420
1337.000000;2.625038
1336.000000;2.524496
1335.000000;2.527089
1334.000000;2.626798
1333.000000;2.785019
1332.000000;3.061709
1331.000000;3.294703
1330.000000;2.963663
1329.000000;2.760801
1328.000000;2.731713
1327.000000;2.780915
1326.000000;2.849591
1325.000000;2.863859
1324.000000;2.820951
1323.000000;2.766368
1322.000000;2.733162
1321.000000;2.730683
1320.000000;2.768326
1319.000000;2.859256
1318.000000;2.975805
1317.000000;3.162690
1316.000000;3.259197
1315.000000;3.414080
1314.000000;3.899841
1313.000000;3.221091
1312.000000;2.993636
1311.000000;3.016325
1310.000000;3.282236
1309.000000;3.857551
1308.000000;3.456358
1307.000000;3.240139
1306.000000;3.226304
1305.000000;3.317150
1304.000000;3.247304
1303.000000;3.119812
1302.000000;3.074463
1301.000000;3.000782
1300.000000;2.924585
1299.000000;2.980419
1298.000000;3.076218
1297.000000;3.180641
1296.000000;3.740235
1295.000000;3.256637
1294.000000;2.849333
1293.000000;2.758763
1292.000000;2.817891
1291.000000;2.978565
1290.000000;2.984028
1289.000000;2.844664
1288.000000;2.742755
1287.000000;2.715311
1286.000000;2.789569
1285.000000;2.995804
1284.000000;3.451570
1283.000000;4.071099
1282.000000;3.722533
1281.000000;3.539894
1280.000000;3.231597
1279.000000;2.945043
1278.000000;2.767696
1277.000000;2.665867
1276.000000;2.621985
1275.000000;2.617582
1274.000000;2.648757
1273.000000;2.708595
1272.000000;2.813729
1271.000000;2.978806
1270.000000;2.980453
1269.000000;2.798280
1268.000000;2.725996
1267.000000;2.791494
1266.000000;3.040683
1265.000000;3.629503
1264.000000;3.628310
1263.000000;3.425046
1262.000000;3.283145
1261.000000;3.038327
1260.000000;2.923979
1259.000000;3.007305
1258.000000;3.214412
1257.000000;3.297935
1256.000000;3.361741
1255.000000;3.220257
1254.000000;3.082500
1253.000000;3.123014
1252.000000;3.203323
1251.000000;3.340685
1250.000000;3.515072
1249.000000;3.656170
1248.000000;3.617552
1247.000000;3.348290
1246.000000;3.137744
1245.000000;3.079646
1244.000000;3.063307
1243.000000;3.062587
1242.000000;3.036825
1241.000000;3.202667
1240.000000;3.808001
1239.000000;3.175546
1238.000000;2.910150
1237.000000;2.875916
1236.000000;2.882706
1235.000000;2.877598
1234.000000;2.830557
1233.000000;2.832696
1232.000000;2.869448
1231.000000;2.932830
1230.000000;3.018730
1229.000000;3.183034
1228.000000;3.534517
1227.000000;3.425264
1226.000000;3.078959
1225.000000;3.001466
1224.000000;3.052235
1223.000000;3.165730
1222.000000;3.193974
1221.000000;3.228397
1220.000000;3.511297
1219.000000;3.317061
1218.000000;3.022831
1217.000000;3.033766
1216.000000;3.161251
1215.000000;3.264591
1214.000000;3.602873
1213.000000;3.558713
1212.000000;3.223235
1211.000000;3.319549
1210.000000;3.364092
1209.000000;3.054868
1208.000000;2.867424
1207.000000;2.736901
1206.000000;2.683806
1205.000000;2.738085
1204.000000;2.909191
1203.000000;3.149242
1202.000000;3.038283
1201.000000;2.893210
1200.000000;2.903522
