Criado como novo conjunto de dados;"e0108.spp","-4255543.4 Secs"
cm-1;Abs
10000.000000;1.053778
9999.000000;1.052279
9998.000000;1.050785
9997.000000;1.049296
9996.000000;1.047811
9995.000000;1.046335
9994.000000;1.044856
9993.000000;1.043397
9992.000000;1.041916
9991.000000;1.040489
9990.000000;1.038966
9989.000000;1.037902
9988.000000;1.037501
9987.000000;1.037219
9986.000000;1.037086
9985.000000;1.037287
9984.000000;1.037579
9983.000000;1.037312
9982.000000;1.036456
9981.000000;1.035838
9980.000000;1.036095
9979.000000;1.036891
9978.000000;1.037432
9977.000000;1.037365
9976.000000;1.036923
9975.000000;1.036522
9974.000000;1.036443
9973.000000;1.036591
9972.000000;1.036286
9971.000000;1.034679
9970.000000;1.031799
9969.000000;1.029041
9968.000000;1.028152
9967.000000;1.029660
9966.000000;1.032425
9965.000000;1.034625
9964.000000;1.035142
9963.000000;1.034217
9962.000000;1.033020
9961.000000;1.032546
9960.000000;1.032763
9959.000000;1.032807
9958.000000;1.032016
9957.000000;1.030630
9956.000000;1.029451
9955.000000;1.029055
9954.000000;1.029423
9953.000000;1.030036
9952.000000;1.030161
9951.000000;1.029273
9950.000000;1.027462
9949.000000;1.025376
9948.000000;1.023684
9947.000000;1.022741
9946.000000;1.022655
9945.000000;1.023275
9944.000000;1.024048
9943.000000;1.024461
9942.000000;1.024712
9941.000000;1.025347
9940.000000;1.026092
9939.000000;1.025874
9938.000000;1.024423
9937.000000;1.022998
9936.000000;1.022734
9935.000000;1.022951
9934.000000;1.022116
9933.000000;1.020084
9932.000000;1.018286
9931.000000;1.017845
9930.000000;1.018489
9929.000000;1.019380
9928.000000;1.020151
9927.000000;1.020790
9926.000000;1.021141
9925.000000;1.020942
9924.000000;1.020077
9923.000000;1.018679
9922.000000;1.017302
9921.000000;1.016882
9920.000000;1.017906
9919.000000;1.019590
9918.000000;1.020596
9917.000000;1.020658
9916.000000;1.020693
9915.000000;1.021220
9914.000000;1.021495
9913.000000;1.020629
9912.000000;1.018816
9911.000000;1.016895
9910.000000;1.015274
9909.000000;1.013961
9908.000000;1.013173
9907.000000;1.013165
9906.000000;1.013617
9905.000000;1.013839
9904.000000;1.013569
9903.000000;1.013077
9902.000000;1.012503
9901.000000;1.011623
9900.000000;1.010400
9899.000000;1.009306
9898.000000;1.008814
9897.000000;1.008799
9896.000000;1.008694
9895.000000;1.008203
9894.000000;1.007648
9893.000000;1.007587
9892.000000;1.008205
9891.000000;1.009118
9890.000000;1.009755
9889.000000;1.009788
9888.000000;1.009196
9887.000000;1.008152
9886.000000;1.007035
9885.000000;1.006290
9884.000000;1.005989
9883.000000;1.005695
9882.000000;1.005075
9881.000000;1.004455
9880.000000;1.004400
9879.000000;1.004933
9878.000000;1.005646
9877.000000;1.006334
9876.000000;1.006837
9875.000000;1.006416
9874.000000;1.004247
9873.000000;1.000830
9872.000000;0.997984
9871.000000;0.996973
9870.000000;0.997322
9869.000000;0.997886
9868.000000;0.998356
9867.000000;0.998974
9866.000000;0.999396
9865.000000;0.998970
9864.000000;0.998013
9863.000000;0.997796
9862.000000;0.998954
9861.000000;1.000549
9860.000000;1.001058
9859.000000;1.000029
9858.000000;0.998506
9857.000000;0.997994
9856.000000;0.999062
9855.000000;1.000708
9854.000000;1.001077
9853.000000;0.999151
9852.000000;0.995753
9851.000000;0.992713
9850.000000;0.991163
9849.000000;0.990864
9848.000000;0.990960
9847.000000;0.990962
9846.000000;0.990923
9845.000000;0.990998
9844.000000;0.991083
9843.000000;0.990831
9842.000000;0.989986
9841.000000;0.988717
9840.000000;0.987621
9839.000000;0.987305
9838.000000;0.987995
9837.000000;0.989450
9836.000000;0.991004
9835.000000;0.991687
9834.000000;0.990772
9833.000000;0.988570
9832.000000;0.986371
9831.000000;0.985303
9830.000000;0.985416
9829.000000;0.986145
9828.000000;0.987269
9827.000000;0.988845
9826.000000;0.990430
9825.000000;0.991115
9824.000000;0.990453
9823.000000;0.988878
9822.000000;0.987098
9821.000000;0.985554
9820.000000;0.984506
9819.000000;0.984048
9818.000000;0.983853
9817.000000;0.983351
9816.000000;0.982432
9815.000000;0.981591
9814.000000;0.981200
9813.000000;0.980981
9812.000000;0.980447
9811.000000;0.979540
9810.000000;0.978648
9809.000000;0.978269
9808.000000;0.978783
9807.000000;0.980164
9806.000000;0.981685
9805.000000;0.982257
9804.000000;0.981430
9803.000000;0.979810
9802.000000;0.978306
9801.000000;0.977254
9800.000000;0.976472
9799.000000;0.975794
9798.000000;0.975200
9797.000000;0.974720
9796.000000;0.974538
9795.000000;0.974950
9794.000000;0.975872
9793.000000;0.976616
9792.000000;0.976586
9791.000000;0.976000
9790.000000;0.975543
9789.000000;0.975424
9788.000000;0.975199
9787.000000;0.974484
9786.000000;0.973475
9785.000000;0.972741
9784.000000;0.972753
9783.000000;0.973589
9782.000000;0.974810
9781.000000;0.975669
9780.000000;0.975711
9779.000000;0.975094
9778.000000;0.974146
9777.000000;0.972875
9776.000000;0.971296
9775.000000;0.970012
9774.000000;0.969844
9773.000000;0.970780
9772.000000;0.971800
9771.000000;0.971917
9770.000000;0.971039
9769.000000;0.969663
9768.000000;0.968226
9767.000000;0.967062
9766.000000;0.966562
9765.000000;0.966816
9764.000000;0.967245
9763.000000;0.967033
9762.000000;0.966003
9761.000000;0.964816
9760.000000;0.964291
9759.000000;0.964713
9758.000000;0.965704
9757.000000;0.966474
9756.000000;0.966264
9755.000000;0.964946
9754.000000;0.963309
9753.000000;0.962514
9752.000000;0.963056
9751.000000;0.964273
9750.000000;0.964953
9749.000000;0.964380
9748.000000;0.962824
9747.000000;0.961206
9746.000000;0.960428
9745.000000;0.960773
9744.000000;0.961638
9743.000000;0.961886
9742.000000;0.960849
9741.000000;0.959104
9740.000000;0.957997
9739.000000;0.958339
9738.000000;0.959780
9737.000000;0.961476
9736.000000;0.962958
9735.000000;0.964037
9734.000000;0.964212
9733.000000;0.962926
9732.000000;0.960482
9731.000000;0.958112
9730.000000;0.956865
9729.000000;0.956763
9728.000000;0.957242
9727.000000;0.957931
9726.000000;0.958588
9725.000000;0.958667
9724.000000;0.957603
9723.000000;0.955534
9722.000000;0.953267
9721.000000;0.951456
9720.000000;0.950215
9719.000000;0.949547
9718.000000;0.949666
9717.000000;0.950608
9716.000000;0.951820
9715.000000;0.952492
9714.000000;0.952235
9713.000000;0.951364
9712.000000;0.950658
9711.000000;0.950872
9710.000000;0.952224
9709.000000;0.954127
9708.000000;0.955538
9707.000000;0.955737
9706.000000;0.954777
9705.000000;0.953193
9704.000000;0.951487
9703.000000;0.949926
9702.000000;0.948627
9701.000000;0.947662
9700.000000;0.947143
9699.000000;0.947215
9698.000000;0.947822
9697.000000;0.948485
9696.000000;0.948641
9695.000000;0.948299
9694.000000;0.948082
9693.000000;0.948440
9692.000000;0.949086
9691.000000;0.949371
9690.000000;0.948904
9689.000000;0.947621
9688.000000;0.945678
9687.000000;0.943711
9686.000000;0.942805
9685.000000;0.943543
9684.000000;0.945116
9683.000000;0.945982
9682.000000;0.945573
9681.000000;0.944770
9680.000000;0.944509
9679.000000;0.944586
9678.000000;0.944210
9677.000000;0.943222
9676.000000;0.942201
9675.000000;0.941580
9674.000000;0.941186
9673.000000;0.940670
9672.000000;0.939960
9671.000000;0.939200
9670.000000;0.938559
9669.000000;0.938229
9668.000000;0.938376
9667.000000;0.938960
9666.000000;0.939775
9665.000000;0.940742
9664.000000;0.941945
9663.000000;0.943203
9662.000000;0.943836
9661.000000;0.943181
9660.000000;0.941340
9659.000000;0.939207
9658.000000;0.937688
9657.000000;0.937096
9656.000000;0.937246
9655.000000;0.937773
9654.000000;0.938193
9653.000000;0.937940
9652.000000;0.936757
9651.000000;0.935009
9650.000000;0.933363
9649.000000;0.932178
9648.000000;0.931449
9647.000000;0.931231
9646.000000;0.931651
9645.000000;0.932392
9644.000000;0.932646
9643.000000;0.931919
9642.000000;0.930649
9641.000000;0.929667
9640.000000;0.929277
9639.000000;0.929273
9638.000000;0.929584
9637.000000;0.930365
9636.000000;0.931506
9635.000000;0.932556
9634.000000;0.933202
9633.000000;0.933405
9632.000000;0.933000
9631.000000;0.931707
9630.000000;0.929813
9629.000000;0.928403
9628.000000;0.928363
9627.000000;0.929381
9626.000000;0.930293
9625.000000;0.930256
9624.000000;0.929266
9623.000000;0.927731
9622.000000;0.926089
9621.000000;0.924934
9620.000000;0.924933
9619.000000;0.926192
9618.000000;0.927860
9617.000000;0.928680
9616.000000;0.928037
9615.000000;0.926424
9614.000000;0.924908
9613.000000;0.924258
9612.000000;0.924501
9611.000000;0.925120
9610.000000;0.925505
9609.000000;0.925261
9608.000000;0.924295
9607.000000;0.922861
9606.000000;0.921541
9605.000000;0.920908
9604.000000;0.921017
9603.000000;0.921306
9602.000000;0.921178
9601.000000;0.920624
9600.000000;0.920153
9599.000000;0.920163
9598.000000;0.920521
9597.000000;0.920802
9596.000000;0.920753
9595.000000;0.920415
9594.000000;0.919955
9593.000000;0.919537
9592.000000;0.919313
9591.000000;0.919430
9590.000000;0.919916
9589.000000;0.920501
9588.000000;0.920611
9587.000000;0.919766
9586.000000;0.918149
9585.000000;0.916617
9584.000000;0.915953
9583.000000;0.916154
9582.000000;0.916602
9581.000000;0.916862
9580.000000;0.917028
9579.000000;0.917334
9578.000000;0.917731
9577.000000;0.917943
9576.000000;0.917743
9575.000000;0.917036
9574.000000;0.915883
9573.000000;0.914623
9572.000000;0.913801
9571.000000;0.913705
9570.000000;0.914017
9569.000000;0.914080
9568.000000;0.913551
9567.000000;0.912702
9566.000000;0.912080
9565.000000;0.911989
9564.000000;0.912268
9563.000000;0.912464
9562.000000;0.912249
9561.000000;0.911748
9560.000000;0.911422
9559.000000;0.911524
9558.000000;0.911738
9557.000000;0.911528
9556.000000;0.910818
9555.000000;0.910066
9554.000000;0.909586
9553.000000;0.909039
9552.000000;0.907865
9551.000000;0.906093
9550.000000;0.904457
9549.000000;0.903728
9548.000000;0.904078
9547.000000;0.905086
9546.000000;0.906100
9545.000000;0.906505
9544.000000;0.905974
9543.000000;0.904813
9542.000000;0.903920
9541.000000;0.904034
9540.000000;0.904946
9539.000000;0.905704
9538.000000;0.905695
9537.000000;0.905250
9536.000000;0.905046
9535.000000;0.905187
9534.000000;0.905174
9533.000000;0.904641
9532.000000;0.903792
9531.000000;0.903100
9530.000000;0.902841
9529.000000;0.902955
9528.000000;0.903128
9527.000000;0.902990
9526.000000;0.902496
9525.000000;0.902130
9524.000000;0.902416
9523.000000;0.903149
9522.000000;0.903404
9521.000000;0.902578
9520.000000;0.901240
9519.000000;0.900621
9518.000000;0.901253
9517.000000;0.902377
9516.000000;0.902772
9515.000000;0.901976
9514.000000;0.900558
9513.000000;0.899327
9512.000000;0.898555
9511.000000;0.898041
9510.000000;0.897702
9509.000000;0.897770
9508.000000;0.898304
9507.000000;0.898807
9506.000000;0.898670
9505.000000;0.897903
9504.000000;0.897095
9503.000000;0.896628
9502.000000;0.896299
9501.000000;0.895826
9500.000000;0.895394
9499.000000;0.895400
9498.000000;0.895816
9497.000000;0.896101
9496.000000;0.895754
9495.000000;0.894825
9494.000000;0.893861
9493.000000;0.893445
9492.000000;0.893654
9491.000000;0.893882
9490.000000;0.893402
9489.000000;0.892293
9488.000000;0.891559
9487.000000;0.892034
9486.000000;0.893305
9485.000000;0.894092
9484.000000;0.893682
9483.000000;0.892610
9482.000000;0.891871
9481.000000;0.891871
9480.000000;0.892330
9479.000000;0.892845
9478.000000;0.893203
9477.000000;0.893310
9476.000000;0.893131
9475.000000;0.892694
9474.000000;0.891999
9473.000000;0.890978
9472.000000;0.889679
9471.000000;0.888438
9470.000000;0.887697
9469.000000;0.887637
9468.000000;0.888016
9467.000000;0.888397
9466.000000;0.888530
9465.000000;0.888464
9464.000000;0.888329
9463.000000;0.888091
9462.000000;0.887610
9461.000000;0.886900
9460.000000;0.886198
9459.000000;0.885713
9458.000000;0.885450
9457.000000;0.885384
9456.000000;0.885628
9455.000000;0.886200
9454.000000;0.886792
9453.000000;0.887050
9452.000000;0.887021
9451.000000;0.887012
9450.000000;0.887036
9449.000000;0.886784
9448.000000;0.886196
9447.000000;0.885655
9446.000000;0.885443
9445.000000;0.885363
9444.000000;0.885116
9443.000000;0.884696
9442.000000;0.884132
9441.000000;0.883204
9440.000000;0.881850
9439.000000;0.880630
9438.000000;0.880281
9437.000000;0.880863
9436.000000;0.881766
9435.000000;0.882530
9434.000000;0.883206
9433.000000;0.883833
9432.000000;0.884055
9431.000000;0.883535
9430.000000;0.882438
9429.000000;0.881218
9428.000000;0.880129
9427.000000;0.879213
9426.000000;0.878613
9425.000000;0.878534
9424.000000;0.878838
9423.000000;0.878975
9422.000000;0.878500
9421.000000;0.877549
9420.000000;0.876652
9419.000000;0.876122
9418.000000;0.875826
9417.000000;0.875610
9416.000000;0.875709
9415.000000;0.876424
9414.000000;0.877431
9413.000000;0.877834
9412.000000;0.877151
9411.000000;0.875990
9410.000000;0.875391
9409.000000;0.875591
9408.000000;0.875855
9407.000000;0.875552
9406.000000;0.875015
9405.000000;0.875079
9404.000000;0.876001
9403.000000;0.877171
9402.000000;0.877852
9401.000000;0.877939
9400.000000;0.877892
9399.000000;0.878051
9398.000000;0.878192
9397.000000;0.877780
9396.000000;0.876611
9395.000000;0.875101
9394.000000;0.873964
9393.000000;0.873627
9392.000000;0.873909
9391.000000;0.874152
9390.000000;0.873706
9389.000000;0.872466
9388.000000;0.871003
9387.000000;0.870070
9386.000000;0.869906
9385.000000;0.870141
9384.000000;0.870380
9383.000000;0.870642
9382.000000;0.871072
9381.000000;0.871484
9380.000000;0.871467
9379.000000;0.870849
9378.000000;0.869861
9377.000000;0.868941
9376.000000;0.868558
9375.000000;0.868998
9374.000000;0.870006
9373.000000;0.870812
9372.000000;0.870883
9371.000000;0.870537
9370.000000;0.870441
9369.000000;0.870625
9368.000000;0.870519
9367.000000;0.869909
9366.000000;0.869265
9365.000000;0.868956
9364.000000;0.868700
9363.000000;0.868083
9362.000000;0.867210
9361.000000;0.866525
9360.000000;0.866294
9359.000000;0.866522
9358.000000;0.867032
9357.000000;0.867318
9356.000000;0.866744
9355.000000;0.865332
9354.000000;0.864061
9353.000000;0.863916
9352.000000;0.864790
9351.000000;0.865705
9350.000000;0.865888
9349.000000;0.865198
9348.000000;0.863784
9347.000000;0.862000
9346.000000;0.860640
9345.000000;0.860512
9344.000000;0.861484
9343.000000;0.862432
9342.000000;0.862439
9341.000000;0.861777
9340.000000;0.861431
9339.000000;0.861952
9338.000000;0.863064
9337.000000;0.864149
9336.000000;0.864759
9335.000000;0.864736
9334.000000;0.864204
9333.000000;0.863555
9332.000000;0.863209
9331.000000;0.863225
9330.000000;0.863193
9329.000000;0.862640
9328.000000;0.861586
9327.000000;0.860614
9326.000000;0.860283
9325.000000;0.860518
9324.000000;0.860745
9323.000000;0.860617
9322.000000;0.860417
9321.000000;0.860627
9320.000000;0.861300
9319.000000;0.862031
9318.000000;0.862377
9317.000000;0.862097
9316.000000;0.861167
9315.000000;0.859874
9314.000000;0.858787
9313.000000;0.858266
9312.000000;0.858010
9311.000000;0.857430
9310.000000;0.856477
9309.000000;0.855752
9308.000000;0.855692
9307.000000;0.856030
9306.000000;0.856241
9305.000000;0.856230
9304.000000;0.856313
9303.000000;0.856693
9302.000000;0.857223
9301.000000;0.857552
9300.000000;0.857352
9299.000000;0.856517
9298.000000;0.855320
9297.000000;0.854293
9296.000000;0.853801
9295.000000;0.853809
9294.000000;0.854090
9293.000000;0.854451
9292.000000;0.854633
9291.000000;0.854306
9290.000000;0.853472
9289.000000;0.852670
9288.000000;0.852399
9287.000000;0.852448
9286.000000;0.852194
9285.000000;0.851547
9284.000000;0.851179
9283.000000;0.851695
9282.000000;0.852901
9281.000000;0.854059
9280.000000;0.854604
9279.000000;0.854415
9278.000000;0.853643
9277.000000;0.852606
9276.000000;0.851767
9275.000000;0.851515
9274.000000;0.851882
9273.000000;0.852589
9272.000000;0.853326
9271.000000;0.853834
9270.000000;0.853825
9269.000000;0.853114
9268.000000;0.851897
9267.000000;0.850657
9266.000000;0.849666
9265.000000;0.848777
9264.000000;0.847864
9263.000000;0.847260
9262.000000;0.847496
9261.000000;0.848640
9260.000000;0.850125
9259.000000;0.851200
9258.000000;0.851351
9257.000000;0.850392
9256.000000;0.848554
9255.000000;0.846631
9254.000000;0.845679
9253.000000;0.846188
9252.000000;0.847581
9251.000000;0.848698
9250.000000;0.848748
9249.000000;0.847723
9248.000000;0.846114
9247.000000;0.844524
9246.000000;0.843485
9245.000000;0.843287
9244.000000;0.843807
9243.000000;0.844644
9242.000000;0.845460
9241.000000;0.846099
9240.000000;0.846477
9239.000000;0.846588
9238.000000;0.846618
9237.000000;0.846807
9236.000000;0.847063
9235.000000;0.846968
9234.000000;0.846321
9233.000000;0.845490
9232.000000;0.845009
9231.000000;0.844919
9230.000000;0.844748
9229.000000;0.844134
9228.000000;0.843269
9227.000000;0.842676
9226.000000;0.842637
9225.000000;0.842938
9224.000000;0.843127
9223.000000;0.842970
9222.000000;0.842637
9221.000000;0.842433
9220.000000;0.842434
9219.000000;0.842452
9218.000000;0.842342
9217.000000;0.842203
9216.000000;0.842244
9215.000000;0.842567
9214.000000;0.843148
9213.000000;0.843906
9212.000000;0.844666
9211.000000;0.845122
9210.000000;0.845009
9209.000000;0.844350
9208.000000;0.843460
9207.000000;0.842673
9206.000000;0.842124
9205.000000;0.841802
9204.000000;0.841706
9203.000000;0.841831
9202.000000;0.842023
9201.000000;0.841968
9200.000000;0.841465
9199.000000;0.840724
9198.000000;0.840257
9197.000000;0.840388
9196.000000;0.840909
9195.000000;0.841296
9194.000000;0.841237
9193.000000;0.840904
9192.000000;0.840710
9191.000000;0.840895
9190.000000;0.841300
9189.000000;0.841481
9188.000000;0.841049
9187.000000;0.839990
9186.000000;0.838710
9185.000000;0.837733
9184.000000;0.837304
9183.000000;0.837258
9182.000000;0.837210
9181.000000;0.836859
9180.000000;0.836225
9179.000000;0.835671
9178.000000;0.835628
9177.000000;0.836173
9176.000000;0.836901
9175.000000;0.837323
9174.000000;0.837381
9173.000000;0.837436
9172.000000;0.837808
9171.000000;0.838427
9170.000000;0.838938
9169.000000;0.839000
9168.000000;0.838522
9167.000000;0.837758
9166.000000;0.837226
9165.000000;0.837316
9164.000000;0.837877
9163.000000;0.838304
9162.000000;0.838109
9161.000000;0.837310
9160.000000;0.836291
9159.000000;0.835464
9158.000000;0.835092
9157.000000;0.835201
9156.000000;0.835461
9155.000000;0.835330
9154.000000;0.834576
9153.000000;0.833627
9152.000000;0.833196
9151.000000;0.833532
9150.000000;0.834179
9149.000000;0.834500
9148.000000;0.834314
9147.000000;0.833947
9146.000000;0.833764
9145.000000;0.833796
9144.000000;0.833810
9143.000000;0.833621
9142.000000;0.833219
9141.000000;0.832665
9140.000000;0.832065
9139.000000;0.831703
9138.000000;0.831936
9137.000000;0.832740
9136.000000;0.833490
9135.000000;0.833527
9134.000000;0.832935
9133.000000;0.832427
9132.000000;0.832417
9131.000000;0.832531
9130.000000;0.832219
9129.000000;0.831535
9128.000000;0.831008
9127.000000;0.830906
9126.000000;0.830992
9125.000000;0.830961
9124.000000;0.830821
9123.000000;0.830755
9122.000000;0.830848
9121.000000;0.831094
9120.000000;0.831532
9119.000000;0.832177
9118.000000;0.832817
9117.000000;0.833023
9116.000000;0.832504
9115.000000;0.831469
9114.000000;0.830515
9113.000000;0.830054
9112.000000;0.829901
9111.000000;0.829578
9110.000000;0.828987
9109.000000;0.828563
9108.000000;0.828680
9107.000000;0.829162
9106.000000;0.829552
9105.000000;0.829666
9104.000000;0.829666
9103.000000;0.829710
9102.000000;0.829779
9101.000000;0.829810
9100.000000;0.829795
9099.000000;0.829725
9098.000000;0.829601
9097.000000;0.829474
9096.000000;0.829315
9095.000000;0.828909
9094.000000;0.828128
9093.000000;0.827300
9092.000000;0.827018
9091.000000;0.827473
9090.000000;0.828176
9089.000000;0.828494
9088.000000;0.828326
9087.000000;0.828100
9086.000000;0.828207
9085.000000;0.828619
9084.000000;0.828971
9083.000000;0.828860
9082.000000;0.828132
9081.000000;0.827030
9080.000000;0.826094
9079.000000;0.825785
9078.000000;0.826138
9077.000000;0.826760
9076.000000;0.827159
9075.000000;0.827046
9074.000000;0.826447
9073.000000;0.825645
9072.000000;0.825023
9071.000000;0.824851
9070.000000;0.825155
9069.000000;0.825787
9068.000000;0.826562
9067.000000;0.827260
9066.000000;0.827577
9065.000000;0.827274
9064.000000;0.826467
9063.000000;0.825623
9062.000000;0.825170
9061.000000;0.825154
9060.000000;0.825358
9059.000000;0.825647
9058.000000;0.826002
9057.000000;0.826294
9056.000000;0.826271
9055.000000;0.825845
9054.000000;0.825201
9053.000000;0.824529
9052.000000;0.823810
9051.000000;0.823003
9050.000000;0.822303
9049.000000;0.821980
9048.000000;0.822066
9047.000000;0.822350
9046.000000;0.822623
9045.000000;0.822741
9044.000000;0.822550
9043.000000;0.822048
9042.000000;0.821626
9041.000000;0.821827
9040.000000;0.822715
9039.000000;0.823680
9038.000000;0.824072
9037.000000;0.823871
9036.000000;0.823543
9035.000000;0.823364
9034.000000;0.823164
9033.000000;0.822740
9032.000000;0.822258
9031.000000;0.822088
9030.000000;0.822353
9029.000000;0.822766
9028.000000;0.822956
9027.000000;0.822877
9026.000000;0.822803
9025.000000;0.822921
9024.000000;0.823068
9023.000000;0.822970
9022.000000;0.822655
9021.000000;0.822382
9020.000000;0.822182
9019.000000;0.821741
9018.000000;0.820908
9017.000000;0.820108
9016.000000;0.819968
9015.000000;0.820570
9014.000000;0.821277
9013.000000;0.821337
9012.000000;0.820600
9011.000000;0.819618
9010.000000;0.819151
9009.000000;0.819509
9008.000000;0.820288
9007.000000;0.820763
9006.000000;0.820635
9005.000000;0.820343
9004.000000;0.820533
9003.000000;0.821253
9002.000000;0.821801
9001.000000;0.821401
9000.000000;0.819957
8999.000000;0.818172
8998.000000;0.817005
8997.000000;0.816991
8996.000000;0.817884
8995.000000;0.818886
8994.000000;0.819333
8993.000000;0.819270
8992.000000;0.819305
8991.000000;0.819884
8990.000000;0.820800
8989.000000;0.821457
8988.000000;0.821500
8987.000000;0.821010
8986.000000;0.820141
8985.000000;0.818839
8984.000000;0.817106
8983.000000;0.815405
8982.000000;0.814496
8981.000000;0.814733
8980.000000;0.815696
8979.000000;0.816669
8978.000000;0.817330
8977.000000;0.817770
8976.000000;0.818000
8975.000000;0.817844
8974.000000;0.817378
8973.000000;0.817100
8972.000000;0.817402
8971.000000;0.818064
8970.000000;0.818507
8969.000000;0.818422
8968.000000;0.817938
8967.000000;0.817299
8966.000000;0.816694
8965.000000;0.816353
8964.000000;0.816483
8963.000000;0.816996
8962.000000;0.817511
8961.000000;0.817722
8960.000000;0.817651
8959.000000;0.817509
8958.000000;0.817493
8957.000000;0.817765
8956.000000;0.818381
8955.000000;0.819083
8954.000000;0.819317
8953.000000;0.818689
8952.000000;0.817425
8951.000000;0.816229
8950.000000;0.815670
8949.000000;0.815754
8948.000000;0.816068
8947.000000;0.816258
8946.000000;0.816316
8945.000000;0.816436
8944.000000;0.816647
8943.000000;0.816689
8942.000000;0.816324
8941.000000;0.815723
8940.000000;0.815398
8939.000000;0.815676
8938.000000;0.816358
8937.000000;0.816957
8936.000000;0.817198
8935.000000;0.817183
8934.000000;0.817107
8933.000000;0.816952
8932.000000;0.816534
8931.000000;0.815827
8930.000000;0.815109
8929.000000;0.814735
8928.000000;0.814749
8927.000000;0.814837
8926.000000;0.814729
8925.000000;0.814562
8924.000000;0.814703
8923.000000;0.815243
8922.000000;0.815835
8921.000000;0.816063
8920.000000;0.815840
8919.000000;0.815386
8918.000000;0.814965
8917.000000;0.814740
8916.000000;0.814768
8915.000000;0.814972
8914.000000;0.815166
8913.000000;0.815223
8912.000000;0.815185
8911.000000;0.815122
8910.000000;0.814934
8909.000000;0.814478
8908.000000;0.813904
8907.000000;0.813625
8906.000000;0.813831
8905.000000;0.814154
8904.000000;0.814004
8903.000000;0.813263
8902.000000;0.812478
8901.000000;0.812337
8900.000000;0.813020
8899.000000;0.814133
8898.000000;0.815184
8897.000000;0.816011
8896.000000;0.816709
8895.000000;0.817271
8894.000000;0.817465
8893.000000;0.817085
8892.000000;0.816235
8891.000000;0.815262
8890.000000;0.814439
8889.000000;0.813767
8888.000000;0.813147
8887.000000;0.812657
8886.000000;0.812569
8885.000000;0.813068
8884.000000;0.814005
8883.000000;0.814968
8882.000000;0.815590
8881.000000;0.815789
8880.000000;0.815756
8879.000000;0.815739
8878.000000;0.815823
8877.000000;0.815864
8876.000000;0.815645
8875.000000;0.815119
8874.000000;0.814486
8873.000000;0.814017
8872.000000;0.813846
8871.000000;0.813954
8870.000000;0.814261
8869.000000;0.814601
8868.000000;0.814709
8867.000000;0.814429
8866.000000;0.813971
8865.000000;0.813777
8864.000000;0.814037
8863.000000;0.814469
8862.000000;0.814654
8861.000000;0.814500
8860.000000;0.814247
8859.000000;0.814100
8858.000000;0.814035
8857.000000;0.813953
8856.000000;0.813879
8855.000000;0.813985
8854.000000;0.814479
8853.000000;0.815427
8852.000000;0.816578
8851.000000;0.817424
8850.000000;0.817578
8849.000000;0.817111
8848.000000;0.816424
8847.000000;0.815802
8846.000000;0.815248
8845.000000;0.814735
8844.000000;0.814400
8843.000000;0.814424
8842.000000;0.814826
8841.000000;0.815479
8840.000000;0.816182
8839.000000;0.816655
8838.000000;0.816595
8837.000000;0.815912
8836.000000;0.814884
8835.000000;0.813963
8834.000000;0.813450
8833.000000;0.813394
8832.000000;0.813718
8831.000000;0.814280
8830.000000;0.814850
8829.000000;0.815199
8828.000000;0.815275
8827.000000;0.815216
8826.000000;0.815169
8825.000000;0.815169
8824.000000;0.815189
8823.000000;0.815203
8822.000000;0.815153
8821.000000;0.814988
8820.000000;0.814773
8819.000000;0.814665
8818.000000;0.814693
8817.000000;0.814664
8816.000000;0.814418
8815.000000;0.814089
8814.000000;0.813994
8813.000000;0.814285
8812.000000;0.814823
8811.000000;0.815402
8810.000000;0.815940
8809.000000;0.816439
8808.000000;0.816895
8807.000000;0.817332
8806.000000;0.817787
8805.000000;0.818157
8804.000000;0.818197
8803.000000;0.817830
8802.000000;0.817407
8801.000000;0.817456
8800.000000;0.818166
8799.000000;0.819232
8798.000000;0.820231
8797.000000;0.820956
8796.000000;0.821339
8795.000000;0.821289
8794.000000;0.820822
8793.000000;0.820224
8792.000000;0.819847
8791.000000;0.819766
8790.000000;0.819755
8789.000000;0.819603
8788.000000;0.819295
8787.000000;0.818903
8786.000000;0.818499
8785.000000;0.818216
8784.000000;0.818200
8783.000000;0.818392
8782.000000;0.818536
8781.000000;0.818539
8780.000000;0.818687
8779.000000;0.819301
8778.000000;0.820249
8777.000000;0.821029
8776.000000;0.821317
8775.000000;0.821238
8774.000000;0.821057
8773.000000;0.820845
8772.000000;0.820588
8771.000000;0.820432
8770.000000;0.820596
8769.000000;0.821072
8768.000000;0.821575
8767.000000;0.821826
8766.000000;0.821771
8765.000000;0.821532
8764.000000;0.821278
8763.000000;0.821168
8762.000000;0.821330
8761.000000;0.821808
8760.000000;0.822502
8759.000000;0.823196
8758.000000;0.823656
8757.000000;0.823778
8756.000000;0.823705
8755.000000;0.823776
8754.000000;0.824253
8753.000000;0.825069
8752.000000;0.825892
8751.000000;0.826469
8750.000000;0.826810
8749.000000;0.827055
8748.000000;0.827277
8747.000000;0.827482
8746.000000;0.827676
8745.000000;0.827799
8744.000000;0.827680
8743.000000;0.827210
8742.000000;0.826570
8741.000000;0.826142
8740.000000;0.826157
8739.000000;0.826509
8738.000000;0.826928
8737.000000;0.827263
8736.000000;0.827540
8735.000000;0.827844
8734.000000;0.828241
8733.000000;0.828760
8732.000000;0.829355
8731.000000;0.829882
8730.000000;0.830155
8729.000000;0.830093
8728.000000;0.829800
8727.000000;0.829507
8726.000000;0.829424
8725.000000;0.829612
8724.000000;0.829957
8723.000000;0.830261
8722.000000;0.830408
8721.000000;0.830485
8720.000000;0.830724
8719.000000;0.831260
8718.000000;0.831943
8717.000000;0.832452
8716.000000;0.832635
8715.000000;0.832694
8714.000000;0.832930
8713.000000;0.833329
8712.000000;0.833541
8711.000000;0.833312
8710.000000;0.832837
8709.000000;0.832577
8708.000000;0.832762
8707.000000;0.833190
8706.000000;0.833489
8705.000000;0.833506
8704.000000;0.833410
8703.000000;0.833519
8702.000000;0.834043
8701.000000;0.834903
8700.000000;0.835748
8699.000000;0.836186
8698.000000;0.836069
8697.000000;0.835570
8696.000000;0.834989
8695.000000;0.834525
8694.000000;0.834260
8693.000000;0.834259
8692.000000;0.834580
8691.000000;0.835113
8690.000000;0.835541
8689.000000;0.835585
8688.000000;0.835335
8687.000000;0.835227
8686.000000;0.835577
8685.000000;0.836188
8684.000000;0.836565
8683.000000;0.836504
8682.000000;0.836320
8681.000000;0.836396
8680.000000;0.836704
8679.000000;0.836943
8678.000000;0.837039
8677.000000;0.837254
8676.000000;0.837784
8675.000000;0.838448
8674.000000;0.838886
8673.000000;0.838944
8672.000000;0.838771
8671.000000;0.838634
8670.000000;0.838699
8669.000000;0.838954
8668.000000;0.839232
8667.000000;0.839359
8666.000000;0.839336
8665.000000;0.839392
8664.000000;0.839782
8663.000000;0.840529
8662.000000;0.841361
8661.000000;0.841911
8660.000000;0.842005
8659.000000;0.841782
8658.000000;0.841499
8657.000000;0.841208
8656.000000;0.840714
8655.000000;0.839925
8654.000000;0.839129
8653.000000;0.838740
8652.000000;0.838812
8651.000000;0.838992
8650.000000;0.839023
8649.000000;0.839052
8648.000000;0.839350
8647.000000;0.839907
8646.000000;0.840500
8645.000000;0.840999
8644.000000;0.841396
8643.000000;0.841589
8642.000000;0.841409
8641.000000;0.840907
8640.000000;0.840411
8639.000000;0.840242
8638.000000;0.840466
8637.000000;0.840970
8636.000000;0.841621
8635.000000;0.842265
8634.000000;0.842700
8633.000000;0.842802
8632.000000;0.842665
8631.000000;0.842497
8630.000000;0.842376
8629.000000;0.842184
8628.000000;0.841794
8627.000000;0.841270
8626.000000;0.840843
8625.000000;0.840712
8624.000000;0.840857
8623.000000;0.841061
8622.000000;0.841095
8621.000000;0.840886
8620.000000;0.840513
8619.000000;0.840124
8618.000000;0.839905
8617.000000;0.840072
8616.000000;0.840743
8615.000000;0.841742
8614.000000;0.842643
8613.000000;0.843104
8612.000000;0.843157
8611.000000;0.843123
8610.000000;0.843264
8609.000000;0.843568
8608.000000;0.843822
8607.000000;0.843837
8606.000000;0.843616
8605.000000;0.843361
8604.000000;0.843312
8603.000000;0.843523
8602.000000;0.843806
8601.000000;0.843922
8600.000000;0.843809
8599.000000;0.843570
8598.000000;0.843295
8597.000000;0.843023
8596.000000;0.842840
8595.000000;0.842838
8594.000000;0.842909
8593.000000;0.842760
8592.000000;0.842260
8591.000000;0.841719
8590.000000;0.841615
8589.000000;0.842085
8588.000000;0.842808
8587.000000;0.843387
8586.000000;0.843706
8585.000000;0.843906
8584.000000;0.844153
8583.000000;0.844474
8582.000000;0.844716
8581.000000;0.844639
8580.000000;0.844169
8579.000000;0.843607
8578.000000;0.843429
8577.000000;0.843788
8576.000000;0.844314
8575.000000;0.844495
8574.000000;0.844167
8573.000000;0.843572
8572.000000;0.843041
8571.000000;0.842771
8570.000000;0.842806
8569.000000;0.843038
8568.000000;0.843270
8567.000000;0.843422
8566.000000;0.843657
8565.000000;0.844150
8564.000000;0.844749
8563.000000;0.845084
8562.000000;0.845013
8561.000000;0.844793
8560.000000;0.844727
8559.000000;0.844830
8558.000000;0.844922
8557.000000;0.844904
8556.000000;0.844802
8555.000000;0.844628
8554.000000;0.844338
8553.000000;0.843930
8552.000000;0.843491
8551.000000;0.843158
8550.000000;0.843088
8549.000000;0.843371
8548.000000;0.843899
8547.000000;0.844369
8546.000000;0.844545
8545.000000;0.844497
8544.000000;0.844494
8543.000000;0.844671
8542.000000;0.844907
8541.000000;0.845024
8540.000000;0.844989
8539.000000;0.844863
8538.000000;0.844684
8537.000000;0.844492
8536.000000;0.844415
8535.000000;0.844596
8534.000000;0.844993
8533.000000;0.845348
8532.000000;0.845410
8531.000000;0.845163
8530.000000;0.844770
8529.000000;0.844356
8528.000000;0.843944
8527.000000;0.843593
8526.000000;0.843463
8525.000000;0.843659
8524.000000;0.844100
8523.000000;0.844608
8522.000000;0.845073
8521.000000;0.845460
8520.000000;0.845723
8519.000000;0.845828
8518.000000;0.845802
8517.000000;0.845622
8516.000000;0.845129
8515.000000;0.844244
8514.000000;0.843257
8513.000000;0.842705
8512.000000;0.842840
8511.000000;0.843328
8510.000000;0.843582
8509.000000;0.843332
8508.000000;0.842806
8507.000000;0.842473
8506.000000;0.842677
8505.000000;0.843409
8504.000000;0.844320
8503.000000;0.844976
8502.000000;0.845213
8501.000000;0.845184
8500.000000;0.845086
8499.000000;0.844956
8498.000000;0.844825
8497.000000;0.844874
8496.000000;0.845252
8495.000000;0.845830
8494.000000;0.846340
8493.000000;0.846709
8492.000000;0.847038
8491.000000;0.847252
8490.000000;0.847041
8489.000000;0.846273
8488.000000;0.845324
8487.000000;0.844839
8486.000000;0.845178
8485.000000;0.846107
8484.000000;0.846970
8483.000000;0.847173
8482.000000;0.846619
8481.000000;0.845756
8480.000000;0.845173
8479.000000;0.845118
8478.000000;0.845420
8477.000000;0.845777
8476.000000;0.846028
8475.000000;0.846147
8474.000000;0.846144
8473.000000;0.846053
8472.000000;0.845911
8471.000000;0.845700
8470.000000;0.845401
8469.000000;0.845117
8468.000000;0.845034
8467.000000;0.845186
8466.000000;0.845397
8465.000000;0.845517
8464.000000;0.845594
8463.000000;0.845728
8462.000000;0.845885
8461.000000;0.845982
8460.000000;0.846028
8459.000000;0.846025
8458.000000;0.845847
8457.000000;0.845426
8456.000000;0.845002
8455.000000;0.844963
8454.000000;0.845442
8453.000000;0.846217
8452.000000;0.846999
8451.000000;0.847642
8450.000000;0.848081
8449.000000;0.848278
8448.000000;0.848280
8447.000000;0.848148
8446.000000;0.847813
8445.000000;0.847200
8444.000000;0.846549
8443.000000;0.846319
8442.000000;0.846627
8441.000000;0.846994
8440.000000;0.846881
8439.000000;0.846350
8438.000000;0.845966
8437.000000;0.846088
8436.000000;0.846494
8435.000000;0.846699
8434.000000;0.846489
8433.000000;0.846098
8432.000000;0.845951
8431.000000;0.846236
8430.000000;0.846709
8429.000000;0.846936
8428.000000;0.846790
8427.000000;0.846571
8426.000000;0.846599
8425.000000;0.846855
8424.000000;0.847148
8423.000000;0.847449
8422.000000;0.847832
8421.000000;0.848189
8420.000000;0.848294
8419.000000;0.848118
8418.000000;0.847845
8417.000000;0.847597
8416.000000;0.847382
8415.000000;0.847265
8414.000000;0.847292
8413.000000;0.847258
8412.000000;0.846889
8411.000000;0.846331
8410.000000;0.846082
8409.000000;0.846288
8408.000000;0.846469
8407.000000;0.846219
8406.000000;0.845878
8405.000000;0.846128
8404.000000;0.847077
8403.000000;0.848119
8402.000000;0.848659
8401.000000;0.848619
8400.000000;0.848255
8399.000000;0.847838
8398.000000;0.847641
8397.000000;0.847904
8396.000000;0.848567
8395.000000;0.849193
8394.000000;0.849360
8393.000000;0.849104
8392.000000;0.848854
8391.000000;0.848957
8390.000000;0.849379
8389.000000;0.849823
8388.000000;0.850016
8387.000000;0.849852
8386.000000;0.849371
8385.000000;0.848732
8384.000000;0.848188
8383.000000;0.847951
8382.000000;0.847984
8381.000000;0.847992
8380.000000;0.847759
8379.000000;0.847467
8378.000000;0.847507
8377.000000;0.847970
8376.000000;0.848489
8375.000000;0.848675
8374.000000;0.848535
8373.000000;0.848342
8372.000000;0.848260
8371.000000;0.848291
8370.000000;0.848456
8369.000000;0.848797
8368.000000;0.849183
8367.000000;0.849343
8366.000000;0.849151
8365.000000;0.848797
8364.000000;0.848632
8363.000000;0.848882
8362.000000;0.849471
8361.000000;0.850063
8360.000000;0.850355
8359.000000;0.850383
8358.000000;0.850465
8357.000000;0.850751
8356.000000;0.850963
8355.000000;0.850760
8354.000000;0.850207
8353.000000;0.849659
8352.000000;0.849283
8351.000000;0.849001
8350.000000;0.848850
8349.000000;0.849047
8348.000000;0.849593
8347.000000;0.850115
8346.000000;0.850292
8345.000000;0.850225
8344.000000;0.850217
8343.000000;0.850341
8342.000000;0.850411
8341.000000;0.850274
8340.000000;0.849956
8339.000000;0.849579
8338.000000;0.849308
8337.000000;0.849320
8336.000000;0.849679
8335.000000;0.850237
8334.000000;0.850702
8333.000000;0.850832
8332.000000;0.850560
8331.000000;0.850013
8330.000000;0.849463
8329.000000;0.849131
8328.000000;0.848976
8327.000000;0.848775
8326.000000;0.848488
8325.000000;0.848399
8324.000000;0.848770
8323.000000;0.849455
8322.000000;0.850023
8321.000000;0.850224
8320.000000;0.850180
8319.000000;0.850114
8318.000000;0.850052
8317.000000;0.849883
8316.000000;0.849618
8315.000000;0.849477
8314.000000;0.849707
8313.000000;0.850314
8312.000000;0.850996
8311.000000;0.851359
8310.000000;0.851240
8309.000000;0.850818
8308.000000;0.850414
8307.000000;0.850258
8306.000000;0.850418
8305.000000;0.850830
8304.000000;0.851289
8303.000000;0.851494
8302.000000;0.851244
8301.000000;0.850611
8300.000000;0.849854
8299.000000;0.849188
8298.000000;0.848715
8297.000000;0.848536
8296.000000;0.848777
8295.000000;0.849417
8294.000000;0.850189
8293.000000;0.850762
8292.000000;0.851034
8291.000000;0.851186
8290.000000;0.851403
8289.000000;0.851603
8288.000000;0.851530
8287.000000;0.851130
8286.000000;0.850721
8285.000000;0.850671
8284.000000;0.850942
8283.000000;0.851101
8282.000000;0.850823
8281.000000;0.850287
8280.000000;0.849964
8279.000000;0.850137
8278.000000;0.850693
8277.000000;0.851300
8276.000000;0.851638
8275.000000;0.851503
8274.000000;0.850891
8273.000000;0.850075
8272.000000;0.849503
8271.000000;0.849485
8270.000000;0.849974
8269.000000;0.850666
8268.000000;0.851294
8267.000000;0.851806
8266.000000;0.852264
8265.000000;0.852638
8264.000000;0.852767
8263.000000;0.852537
8262.000000;0.852082
8261.000000;0.851720
8260.000000;0.851678
8259.000000;0.851876
8258.000000;0.852032
8257.000000;0.851938
8256.000000;0.851606
8255.000000;0.851211
8254.000000;0.850950
8253.000000;0.850951
8252.000000;0.851237
8251.000000;0.851695
8250.000000;0.852122
8249.000000;0.852329
8248.000000;0.852240
8247.000000;0.851924
8246.000000;0.851583
8245.000000;0.851485
8244.000000;0.851775
8243.000000;0.852305
8242.000000;0.852697
8241.000000;0.852690
8240.000000;0.852420
8239.000000;0.852267
8238.000000;0.852432
8237.000000;0.852731
8236.000000;0.852852
8235.000000;0.852738
8234.000000;0.852610
8233.000000;0.852668
8232.000000;0.852884
8231.000000;0.853099
8230.000000;0.853237
8229.000000;0.853345
8228.000000;0.853462
8227.000000;0.853527
8226.000000;0.853413
8225.000000;0.853059
8224.000000;0.852569
8223.000000;0.852182
8222.000000;0.852114
8221.000000;0.852406
8220.000000;0.852941
8219.000000;0.853562
8218.000000;0.854116
8217.000000;0.854419
8216.000000;0.854319
8215.000000;0.853877
8214.000000;0.853379
8213.000000;0.853068
8212.000000;0.852920
8211.000000;0.852763
8210.000000;0.852569
8209.000000;0.852500
8208.000000;0.852661
8207.000000;0.852930
8206.000000;0.853097
8205.000000;0.853116
8204.000000;0.853143
8203.000000;0.853337
8202.000000;0.853640
8201.000000;0.853797
8200.000000;0.853637
8199.000000;0.853318
8198.000000;0.853201
8197.000000;0.853433
8196.000000;0.853761
8195.000000;0.853856
8194.000000;0.853771
8193.000000;0.853902
8192.000000;0.854451
8191.000000;0.855066
8190.000000;0.855125
8189.000000;0.854393
8188.000000;0.853324
8187.000000;0.852673
8186.000000;0.852811
8185.000000;0.853456
8184.000000;0.854062
8183.000000;0.854372
8182.000000;0.854508
8181.000000;0.854581
8180.000000;0.854471
8179.000000;0.854079
8178.000000;0.853612
8177.000000;0.853388
8176.000000;0.853457
8175.000000;0.853623
8174.000000;0.853772
8173.000000;0.853969
8172.000000;0.854230
8171.000000;0.854442
8170.000000;0.854548
8169.000000;0.854606
8168.000000;0.854582
8167.000000;0.854309
8166.000000;0.853812
8165.000000;0.853505
8164.000000;0.853817
8163.000000;0.854671
8162.000000;0.855492
8161.000000;0.855773
8160.000000;0.855549
8159.000000;0.855282
8158.000000;0.855365
8157.000000;0.855768
8156.000000;0.856122
8155.000000;0.856110
8154.000000;0.855795
8153.000000;0.855556
8152.000000;0.855700
8151.000000;0.856171
8150.000000;0.856645
8149.000000;0.856849
8148.000000;0.856766
8147.000000;0.856559
8146.000000;0.856370
8145.000000;0.856216
8144.000000;0.856064
8143.000000;0.855967
8142.000000;0.856052
8141.000000;0.856354
8140.000000;0.856713
8139.000000;0.856906
8138.000000;0.856862
8137.000000;0.856685
8136.000000;0.856502
8135.000000;0.856367
8134.000000;0.856296
8133.000000;0.856285
8132.000000;0.856267
8131.000000;0.856158
8130.000000;0.855968
8129.000000;0.855782
8128.000000;0.855612
8127.000000;0.855385
8126.000000;0.855084
8125.000000;0.854818
8124.000000;0.854693
8123.000000;0.854727
8122.000000;0.854937
8121.000000;0.855377
8120.000000;0.855999
8119.000000;0.856589
8118.000000;0.856944
8117.000000;0.857081
8116.000000;0.857172
8115.000000;0.857334
8114.000000;0.857568
8113.000000;0.857822
8112.000000;0.858010
8111.000000;0.857988
8110.000000;0.857680
8109.000000;0.857235
8108.000000;0.856972
8107.000000;0.857081
8106.000000;0.857446
8105.000000;0.857783
8104.000000;0.857924
8103.000000;0.857922
8102.000000;0.857905
8101.000000;0.857911
8100.000000;0.857904
8099.000000;0.857910
8098.000000;0.858025
8097.000000;0.858237
8096.000000;0.858318
8095.000000;0.858018
8094.000000;0.857366
8093.000000;0.856687
8092.000000;0.856308
8091.000000;0.856328
8090.000000;0.856646
8089.000000;0.857104
8088.000000;0.857532
8087.000000;0.857776
8086.000000;0.857792
8085.000000;0.857685
8084.000000;0.857596
8083.000000;0.857585
8082.000000;0.857651
8081.000000;0.857776
8080.000000;0.857907
8079.000000;0.857993
8078.000000;0.858081
8077.000000;0.858289
8076.000000;0.858587
8075.000000;0.858722
8074.000000;0.858492
8073.000000;0.858032
8072.000000;0.857685
8071.000000;0.857624
8070.000000;0.857757
8069.000000;0.857980
8068.000000;0.858308
8067.000000;0.858696
8066.000000;0.858929
8065.000000;0.858878
8064.000000;0.858792
8063.000000;0.859107
8062.000000;0.859908
8061.000000;0.860717
8060.000000;0.860943
8059.000000;0.860487
8058.000000;0.859798
8057.000000;0.859374
8056.000000;0.859343
8055.000000;0.859540
8054.000000;0.859785
8053.000000;0.859950
8052.000000;0.859899
8051.000000;0.859585
8050.000000;0.859205
8049.000000;0.859076
8048.000000;0.859291
8047.000000;0.859636
8046.000000;0.859895
8045.000000;0.860091
8044.000000;0.860356
8043.000000;0.860706
8042.000000;0.861064
8041.000000;0.861407
8040.000000;0.861749
8039.000000;0.862015
8038.000000;0.862058
8037.000000;0.861800
8036.000000;0.861307
8035.000000;0.860751
8034.000000;0.860364
8033.000000;0.860325
8032.000000;0.860604
8031.000000;0.860957
8030.000000;0.861166
8029.000000;0.861259
8028.000000;0.861399
8027.000000;0.861609
8026.000000;0.861717
8025.000000;0.861576
8024.000000;0.861234
8023.000000;0.860877
8022.000000;0.860662
8021.000000;0.860606
8020.000000;0.860613
8019.000000;0.860621
8018.000000;0.860738
8017.000000;0.861138
8016.000000;0.861783
8015.000000;0.862331
8014.000000;0.862446
8013.000000;0.862146
8012.000000;0.861742
8011.000000;0.861520
8010.000000;0.861592
8009.000000;0.861948
8008.000000;0.862419
8007.000000;0.862627
8006.000000;0.862227
8005.000000;0.861322
8004.000000;0.860467
8003.000000;0.860141
8002.000000;0.860322
8001.000000;0.860653
8000.000000;0.860895
7999.000000;0.861096
7998.000000;0.861401
7997.000000;0.861851
7996.000000;0.862358
7995.000000;0.862758
7994.000000;0.862917
7993.000000;0.862860
7992.000000;0.862793
7991.000000;0.862922
7990.000000;0.863245
7989.000000;0.863571
7988.000000;0.863724
7987.000000;0.863684
7986.000000;0.863557
7985.000000;0.863486
7984.000000;0.863568
7983.000000;0.863797
7982.000000;0.864053
7981.000000;0.864214
7980.000000;0.864257
7979.000000;0.864237
7978.000000;0.864179
7977.000000;0.864064
7976.000000;0.863914
7975.000000;0.863807
7974.000000;0.863783
7973.000000;0.863814
7972.000000;0.863884
7971.000000;0.864039
7970.000000;0.864294
7969.000000;0.864560
7968.000000;0.864736
7967.000000;0.864828
7966.000000;0.864898
7965.000000;0.864910
7964.000000;0.864754
7963.000000;0.864442
7962.000000;0.864162
7961.000000;0.864079
7960.000000;0.864123
7959.000000;0.864079
7958.000000;0.863866
7957.000000;0.863653
7956.000000;0.863676
7955.000000;0.864019
7954.000000;0.864571
7953.000000;0.865113
7952.000000;0.865418
7951.000000;0.865352
7950.000000;0.864972
7949.000000;0.864520
7948.000000;0.864242
7947.000000;0.864198
7946.000000;0.864295
7945.000000;0.864477
7944.000000;0.864786
7943.000000;0.865208
7942.000000;0.865559
7941.000000;0.865633
7940.000000;0.865462
7939.000000;0.865319
7938.000000;0.865441
7937.000000;0.865795
7936.000000;0.866163
7935.000000;0.866404
7934.000000;0.866560
7933.000000;0.866735
7932.000000;0.866926
7931.000000;0.867037
7930.000000;0.867009
7929.000000;0.866896
7928.000000;0.866808
7927.000000;0.866807
7926.000000;0.866872
7925.000000;0.866939
7924.000000;0.866967
7923.000000;0.866971
7922.000000;0.866998
7921.000000;0.867087
7920.000000;0.867219
7919.000000;0.867328
7918.000000;0.867371
7917.000000;0.867403
7916.000000;0.867560
7915.000000;0.867920
7914.000000;0.868376
7913.000000;0.868682
7912.000000;0.868659
7911.000000;0.868317
7910.000000;0.867796
7909.000000;0.867245
7908.000000;0.866825
7907.000000;0.866717
7906.000000;0.866988
7905.000000;0.867440
7904.000000;0.867724
7903.000000;0.867681
7902.000000;0.867493
7901.000000;0.867456
7900.000000;0.867679
7899.000000;0.868053
7898.000000;0.868432
7897.000000;0.868747
7896.000000;0.868989
7895.000000;0.869192
7894.000000;0.869387
7893.000000;0.869533
7892.000000;0.869506
7891.000000;0.869249
7890.000000;0.868880
7889.000000;0.868574
7888.000000;0.868374
7887.000000;0.868212
7886.000000;0.868089
7885.000000;0.868120
7884.000000;0.868375
7883.000000;0.868776
7882.000000;0.869192
7881.000000;0.869546
7880.000000;0.869804
7879.000000;0.869917
7878.000000;0.869866
7877.000000;0.869712
7876.000000;0.869545
7875.000000;0.869405
7874.000000;0.869281
7873.000000;0.869187
7872.000000;0.869216
7871.000000;0.869472
7870.000000;0.869962
7869.000000;0.870537
7868.000000;0.871008
7867.000000;0.871312
7866.000000;0.871538
7865.000000;0.871770
7864.000000;0.871971
7863.000000;0.872051
7862.000000;0.871972
7861.000000;0.871749
7860.000000;0.871428
7859.000000;0.871140
7858.000000;0.871082
7857.000000;0.871299
7856.000000;0.871561
7855.000000;0.871613
7854.000000;0.871501
7853.000000;0.871480
7852.000000;0.871637
7851.000000;0.871804
7850.000000;0.871849
7849.000000;0.871869
7848.000000;0.871984
7847.000000;0.872140
7846.000000;0.872201
7845.000000;0.872142
7844.000000;0.872049
7843.000000;0.872024
7842.000000;0.872170
7841.000000;0.872542
7840.000000;0.873033
7839.000000;0.873411
7838.000000;0.873549
7837.000000;0.873516
7836.000000;0.873399
7835.000000;0.873172
7834.000000;0.872877
7833.000000;0.872750
7832.000000;0.872981
7831.000000;0.873429
7830.000000;0.873781
7829.000000;0.873934
7828.000000;0.874034
7827.000000;0.874162
7826.000000;0.874210
7825.000000;0.874092
7824.000000;0.873894
7823.000000;0.873755
7822.000000;0.873731
7821.000000;0.873826
7820.000000;0.874048
7819.000000;0.874351
7818.000000;0.874626
7817.000000;0.874819
7816.000000;0.875004
7815.000000;0.875281
7814.000000;0.875681
7813.000000;0.876174
7812.000000;0.876684
7811.000000;0.877040
7810.000000;0.877050
7809.000000;0.876703
7808.000000;0.876260
7807.000000;0.876016
7806.000000;0.876019
7805.000000;0.876090
7804.000000;0.876092
7803.000000;0.876064
7802.000000;0.876106
7801.000000;0.876242
7800.000000;0.876477
7799.000000;0.876861
7798.000000;0.877387
7797.000000;0.877850
7796.000000;0.877967
7795.000000;0.877705
7794.000000;0.877378
7793.000000;0.877294
7792.000000;0.877399
7791.000000;0.877415
7790.000000;0.877286
7789.000000;0.877288
7788.000000;0.877649
7787.000000;0.878215
7786.000000;0.878634
7785.000000;0.878740
7784.000000;0.878631
7783.000000;0.878450
7782.000000;0.878280
7781.000000;0.878220
7780.000000;0.878376
7779.000000;0.878723
7778.000000;0.879067
7777.000000;0.879249
7776.000000;0.879310
7775.000000;0.879422
7774.000000;0.879700
7773.000000;0.880092
7772.000000;0.880428
7771.000000;0.880562
7770.000000;0.880508
7769.000000;0.880441
7768.000000;0.880513
7767.000000;0.880678
7766.000000;0.880758
7765.000000;0.880691
7764.000000;0.880607
7763.000000;0.880654
7762.000000;0.880810
7761.000000;0.880915
7760.000000;0.880865
7759.000000;0.880711
7758.000000;0.880616
7757.000000;0.880704
7756.000000;0.880955
7755.000000;0.881247
7754.000000;0.881511
7753.000000;0.881798
7752.000000;0.882169
7751.000000;0.882551
7750.000000;0.882814
7749.000000;0.882932
7748.000000;0.882975
7747.000000;0.882959
7746.000000;0.882835
7745.000000;0.882656
7744.000000;0.882581
7743.000000;0.882676
7742.000000;0.882810
7741.000000;0.882867
7740.000000;0.882938
7739.000000;0.883194
7738.000000;0.883618
7737.000000;0.884002
7736.000000;0.884210
7735.000000;0.884317
7734.000000;0.884477
7733.000000;0.884747
7732.000000;0.885049
7731.000000;0.885275
7730.000000;0.885376
7729.000000;0.885400
7728.000000;0.885466
7727.000000;0.885677
7726.000000;0.886031
7725.000000;0.886400
7724.000000;0.886601
7723.000000;0.886520
7722.000000;0.886229
7721.000000;0.885980
7720.000000;0.886016
7719.000000;0.886340
7718.000000;0.886712
7717.000000;0.886906
7716.000000;0.886928
7715.000000;0.886943
7714.000000;0.887048
7713.000000;0.887221
7712.000000;0.887441
7711.000000;0.887727
7710.000000;0.888033
7709.000000;0.888235
7708.000000;0.888286
7707.000000;0.888305
7706.000000;0.888445
7705.000000;0.888709
7704.000000;0.888966
7703.000000;0.889128
7702.000000;0.889219
7701.000000;0.889297
7700.000000;0.889367
7699.000000;0.889402
7698.000000;0.889412
7697.000000;0.889455
7696.000000;0.889592
7695.000000;0.889865
7694.000000;0.890276
7693.000000;0.890770
7692.000000;0.891234
7691.000000;0.891562
7690.000000;0.891728
7689.000000;0.891801
7688.000000;0.891858
7687.000000;0.891908
7686.000000;0.891922
7685.000000;0.891922
7684.000000;0.891984
7683.000000;0.892131
7682.000000;0.892284
7681.000000;0.892378
7680.000000;0.892499
7679.000000;0.892802
7678.000000;0.893303
7677.000000;0.893826
7676.000000;0.894192
7675.000000;0.894395
7674.000000;0.894535
7673.000000;0.894638
7672.000000;0.894658
7671.000000;0.894633
7670.000000;0.894734
7669.000000;0.895084
7668.000000;0.895576
7667.000000;0.895937
7666.000000;0.895970
7665.000000;0.895724
7664.000000;0.895424
7663.000000;0.895291
7662.000000;0.895409
7661.000000;0.895755
7660.000000;0.896276
7659.000000;0.896908
7658.000000;0.897509
7657.000000;0.897879
7656.000000;0.897904
7655.000000;0.897696
7654.000000;0.897510
7653.000000;0.897518
7652.000000;0.897700
7651.000000;0.897958
7650.000000;0.898251
7649.000000;0.898572
7648.000000;0.898877
7647.000000;0.899123
7646.000000;0.899344
7645.000000;0.899588
7644.000000;0.899800
7643.000000;0.899857
7642.000000;0.899731
7641.000000;0.899546
7640.000000;0.899461
7639.000000;0.899550
7638.000000;0.899836
7637.000000;0.900330
7636.000000;0.900981
7635.000000;0.901613
7634.000000;0.902030
7633.000000;0.902173
7632.000000;0.902173
7631.000000;0.902238
7630.000000;0.902507
7629.000000;0.902976
7628.000000;0.903522
7627.000000;0.904000
7626.000000;0.904364
7625.000000;0.904689
7624.000000;0.905051
7623.000000;0.905408
7622.000000;0.905644
7621.000000;0.905730
7620.000000;0.905789
7619.000000;0.905980
7618.000000;0.906334
7617.000000;0.906739
7616.000000;0.907052
7615.000000;0.907212
7614.000000;0.907261
7613.000000;0.907283
7612.000000;0.907346
7611.000000;0.907471
7610.000000;0.907648
7609.000000;0.907854
7608.000000;0.908072
7607.000000;0.908306
7606.000000;0.908556
7605.000000;0.908796
7604.000000;0.908974
7603.000000;0.909089
7602.000000;0.909236
7601.000000;0.909535
7600.000000;0.909999
7599.000000;0.910504
7598.000000;0.910919
7597.000000;0.911224
7596.000000;0.911496
7595.000000;0.911797
7594.000000;0.912120
7593.000000;0.912421
7592.000000;0.912649
7591.000000;0.912774
7590.000000;0.912822
7589.000000;0.912916
7588.000000;0.913206
7587.000000;0.913722
7586.000000;0.914318
7585.000000;0.914790
7584.000000;0.915082
7583.000000;0.915324
7582.000000;0.915664
7581.000000;0.916060
7580.000000;0.916313
7579.000000;0.916309
7578.000000;0.916201
7577.000000;0.916287
7576.000000;0.916717
7575.000000;0.917346
7574.000000;0.917901
7573.000000;0.918257
7572.000000;0.918526
7571.000000;0.918900
7570.000000;0.919439
7569.000000;0.920008
7568.000000;0.920416
7567.000000;0.920601
7566.000000;0.920678
7565.000000;0.920791
7564.000000;0.920949
7563.000000;0.921058
7562.000000;0.921121
7561.000000;0.921299
7560.000000;0.921719
7559.000000;0.922297
7558.000000;0.922832
7557.000000;0.923260
7556.000000;0.923690
7555.000000;0.924171
7554.000000;0.924536
7553.000000;0.924582
7552.000000;0.924363
7551.000000;0.924206
7550.000000;0.924419
7549.000000;0.925026
7548.000000;0.925801
7547.000000;0.926508
7546.000000;0.927066
7545.000000;0.927502
7544.000000;0.927843
7543.000000;0.928089
7542.000000;0.928273
7541.000000;0.928477
7540.000000;0.928789
7539.000000;0.929246
7538.000000;0.929811
7537.000000;0.930356
7536.000000;0.930701
7535.000000;0.930760
7534.000000;0.930670
7533.000000;0.930715
7532.000000;0.931071
7531.000000;0.931658
7530.000000;0.932268
7529.000000;0.932789
7528.000000;0.933244
7527.000000;0.933673
7526.000000;0.934073
7525.000000;0.934419
7524.000000;0.934683
7523.000000;0.934836
7522.000000;0.934925
7521.000000;0.935120
7520.000000;0.935594
7519.000000;0.936319
7518.000000;0.937074
7517.000000;0.937693
7516.000000;0.938207
7515.000000;0.938683
7514.000000;0.939037
7513.000000;0.939118
7512.000000;0.938949
7511.000000;0.938775
7510.000000;0.938853
7509.000000;0.939269
7508.000000;0.939930
7507.000000;0.940653
7506.000000;0.941246
7505.000000;0.941611
7504.000000;0.941802
7503.000000;0.941964
7502.000000;0.942156
7501.000000;0.942295
7500.000000;0.942313
7499.000000;0.942318
7498.000000;0.942537
7497.000000;0.943090
7496.000000;0.943866
7495.000000;0.944628
7494.000000;0.945215
7493.000000;0.945642
7492.000000;0.946012
7491.000000;0.946369
7490.000000;0.946627
7489.000000;0.946786
7488.000000;0.946953
7487.000000;0.947341
7486.000000;0.948014
7485.000000;0.948762
7484.000000;0.949304
7483.000000;0.949605
7482.000000;0.949897
7481.000000;0.950389
7480.000000;0.951027
7479.000000;0.951577
7478.000000;0.951906
7477.000000;0.952092
7476.000000;0.952310
7475.000000;0.952660
7474.000000;0.953108
7473.000000;0.953566
7472.000000;0.953961
7471.000000;0.954276
7470.000000;0.954535
7469.000000;0.954783
7468.000000;0.955080
7467.000000;0.955480
7466.000000;0.955988
7465.000000;0.956532
7464.000000;0.957016
7463.000000;0.957421
7462.000000;0.957834
7461.000000;0.958359
7460.000000;0.959029
7459.000000;0.959794
7458.000000;0.960551
7457.000000;0.961152
7456.000000;0.961438
7455.000000;0.961352
7454.000000;0.961034
7453.000000;0.960779
7452.000000;0.960869
7451.000000;0.961429
7450.000000;0.962376
7449.000000;0.963466
7448.000000;0.964408
7447.000000;0.965029
7446.000000;0.965369
7445.000000;0.965587
7444.000000;0.965795
7443.000000;0.965997
7442.000000;0.966186
7441.000000;0.966404
7440.000000;0.966681
7439.000000;0.966988
7438.000000;0.967285
7437.000000;0.967598
7436.000000;0.967984
7435.000000;0.968447
7434.000000;0.968934
7433.000000;0.969391
7432.000000;0.969780
7431.000000;0.970058
7430.000000;0.970204
7429.000000;0.970274
7428.000000;0.970383
7427.000000;0.970606
7426.000000;0.970919
7425.000000;0.971271
7424.000000;0.971680
7423.000000;0.972202
7422.000000;0.972824
7421.000000;0.973459
7420.000000;0.974048
7419.000000;0.974611
7418.000000;0.975150
7417.000000;0.975566
7416.000000;0.975744
7415.000000;0.975731
7414.000000;0.975735
7413.000000;0.975939
7412.000000;0.976352
7411.000000;0.976868
7410.000000;0.977404
7409.000000;0.977929
7408.000000;0.978397
7407.000000;0.978764
7406.000000;0.979057
7405.000000;0.979373
7404.000000;0.979779
7403.000000;0.980237
7402.000000;0.980640
7401.000000;0.980925
7400.000000;0.981156
7399.000000;0.981457
7398.000000;0.981848
7397.000000;0.982168
7396.000000;0.982244
7395.000000;0.982173
7394.000000;0.982300
7393.000000;0.982831
7392.000000;0.983582
7391.000000;0.984212
7390.000000;0.984612
7389.000000;0.984915
7388.000000;0.985205
7387.000000;0.985433
7386.000000;0.985623
7385.000000;0.985931
7384.000000;0.986417
7383.000000;0.986914
7382.000000;0.987248
7381.000000;0.987450
7380.000000;0.987623
7379.000000;0.987734
7378.000000;0.987686
7377.000000;0.987550
7376.000000;0.987540
7375.000000;0.987800
7374.000000;0.988312
7373.000000;0.988988
7372.000000;0.989741
7371.000000;0.990461
7370.000000;0.991071
7369.000000;0.991610
7368.000000;0.992204
7367.000000;0.992899
7366.000000;0.993580
7365.000000;0.994068
7364.000000;0.994240
7363.000000;0.994108
7362.000000;0.993863
7361.000000;0.993796
7360.000000;0.994064
7359.000000;0.994527
7358.000000;0.994935
7357.000000;0.995277
7356.000000;0.995769
7355.000000;0.996515
7354.000000;0.997326
7353.000000;0.997955
7352.000000;0.998358
7351.000000;0.998663
7350.000000;0.999005
7349.000000;0.999462
7348.000000;1.000051
7347.000000;1.000697
7346.000000;1.001277
7345.000000;1.001712
7344.000000;1.001960
7343.000000;1.001948
7342.000000;1.001676
7341.000000;1.001386
7340.000000;1.001428
7339.000000;1.001883
7338.000000;1.002492
7337.000000;1.003048
7336.000000;1.003634
7335.000000;1.004372
7334.000000;1.005162
7333.000000;1.005857
7332.000000;1.006474
7331.000000;1.007022
7330.000000;1.007328
7329.000000;1.007326
7328.000000;1.007352
7327.000000;1.007814
7326.000000;1.008618
7325.000000;1.009332
7324.000000;1.009871
7323.000000;1.010596
7322.000000;1.011715
7321.000000;1.012946
7320.000000;1.013931
7319.000000;1.014696
7318.000000;1.015476
7317.000000;1.016272
7316.000000;1.016847
7315.000000;1.017079
7314.000000;1.017112
7313.000000;1.017175
7312.000000;1.017402
7311.000000;1.017786
7310.000000;1.018184
7309.000000;1.018437
7308.000000;1.018573
7307.000000;1.018864
7306.000000;1.019551
7305.000000;1.020565
7304.000000;1.021620
7303.000000;1.022563
7302.000000;1.023488
7301.000000;1.024550
7300.000000;1.025752
7299.000000;1.026942
7298.000000;1.027897
7297.000000;1.028461
7296.000000;1.028705
7295.000000;1.028950
7294.000000;1.029521
7293.000000;1.030470
7292.000000;1.031587
7291.000000;1.032669
7290.000000;1.033656
7289.000000;1.034537
7288.000000;1.035282
7287.000000;1.035927
7286.000000;1.036637
7285.000000;1.037567
7284.000000;1.038679
7283.000000;1.039753
7282.000000;1.040589
7281.000000;1.041200
7280.000000;1.041810
7279.000000;1.042672
7278.000000;1.043859
7277.000000;1.045228
7276.000000;1.046553
7275.000000;1.047681
7274.000000;1.048589
7273.000000;1.049357
7272.000000;1.050117
7271.000000;1.050972
7270.000000;1.051960
7269.000000;1.053069
7268.000000;1.054281
7267.000000;1.055544
7266.000000;1.056765
7265.000000;1.057909
7264.000000;1.059103
7263.000000;1.060536
7262.000000;1.062197
7261.000000;1.063813
7260.000000;1.065128
7259.000000;1.066167
7258.000000;1.067150
7257.000000;1.068249
7256.000000;1.069497
7255.000000;1.070888
7254.000000;1.072416
7253.000000;1.074042
7252.000000;1.075702
7251.000000;1.077379
7250.000000;1.079060
7249.000000;1.080672
7248.000000;1.082151
7247.000000;1.083562
7246.000000;1.085029
7245.000000;1.086564
7244.000000;1.088072
7243.000000;1.089525
7242.000000;1.091044
7241.000000;1.092773
7240.000000;1.094753
7239.000000;1.096966
7238.000000;1.099361
7237.000000;1.101805
7236.000000;1.104061
7235.000000;1.105919
7234.000000;1.107365
7233.000000;1.108630
7232.000000;1.110062
7231.000000;1.111947
7230.000000;1.114346
7229.000000;1.117076
7228.000000;1.119868
7227.000000;1.122557
7226.000000;1.125126
7225.000000;1.127601
7224.000000;1.129977
7223.000000;1.132252
7222.000000;1.134461
7221.000000;1.136637
7220.000000;1.138792
7219.000000;1.140965
7218.000000;1.143253
7217.000000;1.145777
7216.000000;1.148599
7215.000000;1.151635
7214.000000;1.154690
7213.000000;1.157640
7212.000000;1.160605
7211.000000;1.163836
7210.000000;1.167399
7209.000000;1.171012
7208.000000;1.174305
7207.000000;1.177183
7206.000000;1.179864
7205.000000;1.182618
7204.000000;1.185581
7203.000000;1.188778
7202.000000;1.192174
7201.000000;1.195656
7200.000000;1.199075
7199.000000;1.202399
7198.000000;1.205746
7197.000000;1.209238
7196.000000;1.212873
7195.000000;1.216577
7194.000000;1.220301
7193.000000;1.224032
7192.000000;1.227798
7191.000000;1.231680
7190.000000;1.235745
7189.000000;1.239905
7188.000000;1.243946
7187.000000;1.247772
7186.000000;1.251545
7185.000000;1.255462
7184.000000;1.259452
7183.000000;1.263226
7182.000000;1.266636
7181.000000;1.269923
7180.000000;1.273557
7179.000000;1.277855
7178.000000;1.282723
7177.000000;1.287760
7176.000000;1.292627
7175.000000;1.297355
7174.000000;1.302250
7173.000000;1.307424
7172.000000;1.312538
7171.000000;1.317136
7170.000000;1.321162
7169.000000;1.324970
7168.000000;1.328882
7167.000000;1.332978
7166.000000;1.337292
7165.000000;1.341929
7164.000000;1.346827
7163.000000;1.351648
7162.000000;1.356109
7161.000000;1.360371
7160.000000;1.364911
7159.000000;1.369982
7158.000000;1.375356
7157.000000;1.380662
7156.000000;1.385793
7155.000000;1.390882
7154.000000;1.395969
7153.000000;1.400883
7152.000000;1.405522
7151.000000;1.410091
7150.000000;1.414892
7149.000000;1.419911
7148.000000;1.424817
7147.000000;1.429428
7146.000000;1.433989
7145.000000;1.438820
7144.000000;1.443844
7143.000000;1.448728
7142.000000;1.453433
7141.000000;1.458327
7140.000000;1.463663
7139.000000;1.469189
7138.000000;1.474450
7137.000000;1.479352
7136.000000;1.484215
7135.000000;1.489308
7134.000000;1.494559
7133.000000;1.499771
7132.000000;1.504965
7131.000000;1.510337
7130.000000;1.515886
7129.000000;1.521260
7128.000000;1.526068
7127.000000;1.530306
7126.000000;1.534367
7125.000000;1.538662
7124.000000;1.543371
7123.000000;1.548481
7122.000000;1.553841
7121.000000;1.559106
7120.000000;1.563868
7119.000000;1.568094
7118.000000;1.572311
7117.000000;1.577104
7116.000000;1.582384
7115.000000;1.587379
7114.000000;1.591472
7113.000000;1.594919
7112.000000;1.598641
7111.000000;1.603305
7110.000000;1.608673
7109.000000;1.613828
7108.000000;1.618101
7107.000000;1.621823
7106.000000;1.626055
7105.000000;1.631453
7104.000000;1.637509
7103.000000;1.643034
7102.000000;1.647295
7101.000000;1.650530
7100.000000;1.653581
7099.000000;1.657297
7098.000000;1.662019
7097.000000;1.667204
7096.000000;1.671648
7095.000000;1.674597
7094.000000;1.676685
7093.000000;1.679305
7092.000000;1.683000
7091.000000;1.687016
7090.000000;1.690513
7089.000000;1.693624
7088.000000;1.696979
7087.000000;1.700737
7086.000000;1.704653
7085.000000;1.708787
7084.000000;1.713494
7083.000000;1.718740
7082.000000;1.723890
7081.000000;1.728314
7080.000000;1.731928
7079.000000;1.735117
7078.000000;1.738345
7077.000000;1.741835
7076.000000;1.745429
7075.000000;1.748707
7074.000000;1.751431
7073.000000;1.753830
7072.000000;1.756298
7071.000000;1.758929
7070.000000;1.761592
7069.000000;1.764295
7068.000000;1.767118
7067.000000;1.769877
7066.000000;1.772245
7065.000000;1.774222
7064.000000;1.776203
7063.000000;1.778528
7062.000000;1.781259
7061.000000;1.784357
7060.000000;1.787741
7059.000000;1.791105
7058.000000;1.793988
7057.000000;1.796210
7056.000000;1.798061
7055.000000;1.799939
7054.000000;1.801951
7053.000000;1.803962
7052.000000;1.805942
7051.000000;1.808131
7050.000000;1.810880
7049.000000;1.814265
7048.000000;1.817843
7047.000000;1.820852
7046.000000;1.822770
7045.000000;1.823751
7044.000000;1.824491
7043.000000;1.825764
7042.000000;1.828041
7041.000000;1.831176
7040.000000;1.834335
7039.000000;1.836594
7038.000000;1.837956
7037.000000;1.839416
7036.000000;1.841738
7035.000000;1.844523
7034.000000;1.846903
7033.000000;1.848776
7032.000000;1.850703
7031.000000;1.852801
7030.000000;1.854523
7029.000000;1.855521
7028.000000;1.856040
7027.000000;1.856376
7026.000000;1.856609
7025.000000;1.856995
7024.000000;1.858032
7023.000000;1.859905
7022.000000;1.862358
7021.000000;1.865223
7020.000000;1.868474
7019.000000;1.871630
7018.000000;1.873835
7017.000000;1.874881
7016.000000;1.875529
7015.000000;1.876463
7014.000000;1.877576
7013.000000;1.878652
7012.000000;1.880009
7011.000000;1.881779
7010.000000;1.883202
7009.000000;1.883485
7008.000000;1.883041
7007.000000;1.883048
7006.000000;1.883947
7005.000000;1.885111
7004.000000;1.885897
7003.000000;1.886362
7002.000000;1.886976
7001.000000;1.888249
7000.000000;1.890571
6999.000000;1.893744
6998.000000;1.896598
6997.000000;1.897712
6996.000000;1.896772
6995.000000;1.894850
6994.000000;1.893339
6993.000000;1.892996
6992.000000;1.893842
6991.000000;1.895338
6990.000000;1.896566
6989.000000;1.896900
6988.000000;1.896803
6987.000000;1.897445
6986.000000;1.899300
6985.000000;1.901610
6984.000000;1.903404
6983.000000;1.904509
6982.000000;1.905230
6981.000000;1.905639
6980.000000;1.905739
6979.000000;1.905841
6978.000000;1.906089
6977.000000;1.905971
6976.000000;1.905096
6975.000000;1.904272
6974.000000;1.904910
6973.000000;1.907108
6972.000000;1.909038
6971.000000;1.908766
6970.000000;1.906342
6969.000000;1.903604
6968.000000;1.902310
6967.000000;1.902990
6966.000000;1.905162
6965.000000;1.907855
6964.000000;1.909918
6963.000000;1.910512
6962.000000;1.909726
6961.000000;1.908522
6960.000000;1.907817
6959.000000;1.907723
6958.000000;1.907772
6957.000000;1.907670
6956.000000;1.907614
6955.000000;1.907913
6954.000000;1.908472
6953.000000;1.908684
6952.000000;1.907902
6951.000000;1.906181
6950.000000;1.904529
6949.000000;1.904174
6948.000000;1.905401
6947.000000;1.907270
6946.000000;1.908634
6945.000000;1.909217
6944.000000;1.909466
6943.000000;1.909644
6942.000000;1.909639
6941.000000;1.909554
6940.000000;1.909867
6939.000000;1.910812
6938.000000;1.911995
6937.000000;1.912901
6936.000000;1.913513
6935.000000;1.914088
6934.000000;1.914479
6933.000000;1.914097
6932.000000;1.912598
6931.000000;1.910403
6930.000000;1.908468
6929.000000;1.907605
6928.000000;1.907983
6927.000000;1.909081
6926.000000;1.910098
6925.000000;1.910579
6924.000000;1.910767
6923.000000;1.911246
6922.000000;1.912193
6921.000000;1.913059
6920.000000;1.913131
6919.000000;1.912362
6918.000000;1.911380
6917.000000;1.910674
6916.000000;1.910105
6915.000000;1.909342
6914.000000;1.908494
6913.000000;1.908002
6912.000000;1.908050
6911.000000;1.908382
6910.000000;1.908666
6909.000000;1.908670
6908.000000;1.908131
6907.000000;1.906997
6906.000000;1.905977
6905.000000;1.906297
6904.000000;1.908411
6903.000000;1.911261
6902.000000;1.913239
6901.000000;1.913685
6900.000000;1.912953
6899.000000;1.911323
6898.000000;1.908726
6897.000000;1.905597
6896.000000;1.903151
6895.000000;1.902347
6894.000000;1.902956
6893.000000;1.903948
6892.000000;1.904528
6891.000000;1.904536
6890.000000;1.904099
6889.000000;1.903285
6888.000000;1.902079
6887.000000;1.900561
6886.000000;1.899130
6885.000000;1.898505
6884.000000;1.899144
6883.000000;1.900516
6882.000000;1.901352
6881.000000;1.901006
6880.000000;1.900220
6879.000000;1.900207
6878.000000;1.901240
6877.000000;1.902392
6876.000000;1.902612
6875.000000;1.901760
6874.000000;1.900485
6873.000000;1.899452
6872.000000;1.898785
6871.000000;1.898093
6870.000000;1.896993
6869.000000;1.895734
6868.000000;1.895206
6867.000000;1.896108
6866.000000;1.898109
6865.000000;1.899953
6864.000000;1.900430
6863.000000;1.899281
6862.000000;1.897305
6861.000000;1.895734
6860.000000;1.895383
6859.000000;1.896123
6858.000000;1.897097
6857.000000;1.897568
6856.000000;1.897470
6855.000000;1.897032
6854.000000;1.896209
6853.000000;1.894864
6852.000000;1.893319
6851.000000;1.892274
6850.000000;1.892021
6849.000000;1.892079
6848.000000;1.891745
6847.000000;1.890751
6846.000000;1.889288
6845.000000;1.887698
6844.000000;1.886334
6843.000000;1.885426
6842.000000;1.884906
6841.000000;1.884506
6840.000000;1.884136
6839.000000;1.883897
6838.000000;1.883599
6837.000000;1.882691
6836.000000;1.881011
6835.000000;1.879327
6834.000000;1.878606
6833.000000;1.878852
6832.000000;1.879125
6831.000000;1.878736
6830.000000;1.877936
6829.000000;1.877249
6828.000000;1.876585
6827.000000;1.875400
6826.000000;1.873507
6825.000000;1.871332
6824.000000;1.869396
6823.000000;1.867844
6822.000000;1.866502
6821.000000;1.865199
6820.000000;1.863909
6819.000000;1.862701
6818.000000;1.861642
6817.000000;1.860698
6816.000000;1.859694
6815.000000;1.858439
6814.000000;1.856906
6813.000000;1.855230
6812.000000;1.853548
6811.000000;1.851953
6810.000000;1.850569
6809.000000;1.849493
6808.000000;1.848554
6807.000000;1.847258
6806.000000;1.845161
6805.000000;1.842380
6804.000000;1.839628
6803.000000;1.837661
6802.000000;1.836702
6801.000000;1.836363
6800.000000;1.836014
6799.000000;1.835148
6798.000000;1.833492
6797.000000;1.831022
6796.000000;1.828097
6795.000000;1.825507
6794.000000;1.824053
6793.000000;1.823860
6792.000000;1.824136
6791.000000;1.823710
6790.000000;1.821886
6789.000000;1.818856
6788.000000;1.815407
6787.000000;1.812423
6786.000000;1.810527
6785.000000;1.809761
6784.000000;1.809519
6783.000000;1.808954
6782.000000;1.807601
6781.000000;1.805591
6780.000000;1.803258
6779.000000;1.800701
6778.000000;1.797914
6777.000000;1.795133
6776.000000;1.792674
6775.000000;1.790519
6774.000000;1.788343
6773.000000;1.785994
6772.000000;1.783746
6771.000000;1.781949
6770.000000;1.780566
6769.000000;1.779200
6768.000000;1.777561
6767.000000;1.775775
6766.000000;1.774201
6765.000000;1.772972
6764.000000;1.771755
6763.000000;1.769995
6762.000000;1.767449
6761.000000;1.764463
6760.000000;1.761708
6759.000000;1.759603
6758.000000;1.758001
6757.000000;1.756446
6756.000000;1.754700
6755.000000;1.752964
6754.000000;1.751554
6753.000000;1.750380
6752.000000;1.748895
6751.000000;1.746651
6750.000000;1.743862
6749.000000;1.741296
6748.000000;1.739587
6747.000000;1.738685
6746.000000;1.737973
6745.000000;1.736783
6744.000000;1.734761
6743.000000;1.731907
6742.000000;1.728522
6741.000000;1.725140
6740.000000;1.722296
6739.000000;1.720202
6738.000000;1.718656
6737.000000;1.717297
6736.000000;1.715891
6735.000000;1.714318
6734.000000;1.712423
6733.000000;1.710074
6732.000000;1.707423
6731.000000;1.704906
6730.000000;1.702843
6729.000000;1.701104
6728.000000;1.699306
6727.000000;1.697320
6726.000000;1.695411
6725.000000;1.693849
6724.000000;1.692552
6723.000000;1.691234
6722.000000;1.689709
6721.000000;1.687871
6720.000000;1.685507
6719.000000;1.682461
6718.000000;1.679067
6717.000000;1.676164
6716.000000;1.674452
6715.000000;1.673843
6714.000000;1.673495
6713.000000;1.672473
6712.000000;1.670394
6711.000000;1.667590
6710.000000;1.664735
6709.000000;1.662312
6708.000000;1.660322
6707.000000;1.658452
6706.000000;1.656523
6705.000000;1.654683
6704.000000;1.653142
6703.000000;1.651818
6702.000000;1.650336
6701.000000;1.648390
6700.000000;1.646070
6699.000000;1.643797
6698.000000;1.641891
6697.000000;1.640359
6696.000000;1.638803
6695.000000;1.636997
6694.000000;1.635114
6693.000000;1.633412
6692.000000;1.631933
6691.000000;1.630431
6690.000000;1.628675
6689.000000;1.626612
6688.000000;1.624295
6687.000000;1.621835
6686.000000;1.619499
6685.000000;1.617622
6684.000000;1.616275
6683.000000;1.615120
6682.000000;1.613719
6681.000000;1.611911
6680.000000;1.609810
6679.000000;1.607560
6678.000000;1.605294
6677.000000;1.603258
6676.000000;1.601740
6675.000000;1.600780
6674.000000;1.600021
6673.000000;1.598920
6672.000000;1.597131
6671.000000;1.594738
6670.000000;1.592185
6669.000000;1.589946
6668.000000;1.588180
6667.000000;1.586651
6666.000000;1.584983
6665.000000;1.582982
6664.000000;1.580734
6663.000000;1.578490
6662.000000;1.576478
6661.000000;1.574728
6660.000000;1.573044
6659.000000;1.571198
6658.000000;1.569212
6657.000000;1.567355
6656.000000;1.565836
6655.000000;1.564602
6654.000000;1.563488
6653.000000;1.562373
6652.000000;1.561084
6651.000000;1.559362
6650.000000;1.557172
6649.000000;1.554942
6648.000000;1.553195
6647.000000;1.551920
6646.000000;1.550542
6645.000000;1.548610
6644.000000;1.546324
6643.000000;1.544289
6642.000000;1.542858
6641.000000;1.541825
6640.000000;1.540663
6639.000000;1.538993
6638.000000;1.536873
6637.000000;1.534714
6636.000000;1.532881
6635.000000;1.531338
6634.000000;1.529712
6633.000000;1.527702
6632.000000;1.525401
6631.000000;1.523215
6630.000000;1.521530
6629.000000;1.520435
6628.000000;1.519616
6627.000000;1.518503
6626.000000;1.516686
6625.000000;1.514316
6624.000000;1.512005
6623.000000;1.510252
6622.000000;1.508998
6621.000000;1.507821
6620.000000;1.506480
6619.000000;1.505114
6618.000000;1.503913
6617.000000;1.502793
6616.000000;1.501524
6615.000000;1.500076
6614.000000;1.498657
6613.000000;1.497366
6612.000000;1.495971
6611.000000;1.494162
6610.000000;1.491991
6609.000000;1.489885
6608.000000;1.488194
6607.000000;1.486841
6606.000000;1.485484
6605.000000;1.483930
6604.000000;1.482273
6603.000000;1.480707
6602.000000;1.479332
6601.000000;1.478167
6600.000000;1.477180
6599.000000;1.476266
6598.000000;1.475245
6597.000000;1.473966
6596.000000;1.472382
6595.000000;1.470539
6594.000000;1.468561
6593.000000;1.466660
6592.000000;1.465066
6591.000000;1.463861
6590.000000;1.462907
6589.000000;1.461962
6588.000000;1.460841
6587.000000;1.459472
6586.000000;1.457894
6585.000000;1.456290
6584.000000;1.454931
6583.000000;1.453963
6582.000000;1.453211
6581.000000;1.452287
6580.000000;1.450925
6579.000000;1.449221
6578.000000;1.447522
6577.000000;1.446127
6576.000000;1.445081
6575.000000;1.444179
6574.000000;1.443124
6573.000000;1.441748
6572.000000;1.440124
6571.000000;1.438475
6570.000000;1.436928
6569.000000;1.435389
6568.000000;1.433700
6567.000000;1.431888
6566.000000;1.430190
6565.000000;1.428828
6564.000000;1.427839
6563.000000;1.427104
6562.000000;1.426459
6561.000000;1.425720
6560.000000;1.424708
6559.000000;1.423367
6558.000000;1.421829
6557.000000;1.420282
6556.000000;1.418816
6555.000000;1.417457
6554.000000;1.416278
6553.000000;1.415350
6552.000000;1.414600
6551.000000;1.413808
6550.000000;1.412782
6549.000000;1.411452
6548.000000;1.409842
6547.000000;1.408077
6546.000000;1.406425
6545.000000;1.405148
6544.000000;1.404254
6543.000000;1.403489
6542.000000;1.402638
6541.000000;1.401692
6540.000000;1.400681
6539.000000;1.399506
6538.000000;1.398092
6537.000000;1.396577
6536.000000;1.395200
6535.000000;1.394046
6534.000000;1.393017
6533.000000;1.392001
6532.000000;1.390930
6531.000000;1.389751
6530.000000;1.388483
6529.000000;1.387274
6528.000000;1.386268
6527.000000;1.385420
6526.000000;1.384540
6525.000000;1.383504
6524.000000;1.382319
6523.000000;1.381041
6522.000000;1.379770
6521.000000;1.378659
6520.000000;1.377750
6519.000000;1.376834
6518.000000;1.375661
6517.000000;1.374313
6516.000000;1.373139
6515.000000;1.372279
6514.000000;1.371465
6513.000000;1.370395
6512.000000;1.369111
6511.000000;1.367858
6510.000000;1.366760
6509.000000;1.365791
6508.000000;1.364981
6507.000000;1.364397
6506.000000;1.363976
6505.000000;1.363526
6504.000000;1.362911
6503.000000;1.362103
6502.000000;1.361067
6501.000000;1.359758
6500.000000;1.358264
6499.000000;1.356837
6498.000000;1.355690
6497.000000;1.354819
6496.000000;1.354049
6495.000000;1.353199
6494.000000;1.352185
6493.000000;1.351041
6492.000000;1.349892
6491.000000;1.348867
6490.000000;1.347996
6489.000000;1.347202
6488.000000;1.346398
6487.000000;1.345562
6486.000000;1.344719
6485.000000;1.343878
6484.000000;1.343009
6483.000000;1.342077
6482.000000;1.341055
6481.000000;1.339965
6480.000000;1.338891
6479.000000;1.337937
6478.000000;1.337107
6477.000000;1.336252
6476.000000;1.335177
6475.000000;1.333847
6474.000000;1.332466
6473.000000;1.331308
6472.000000;1.330496
6471.000000;1.329934
6470.000000;1.329446
6469.000000;1.328915
6468.000000;1.328293
6467.000000;1.327549
6466.000000;1.326707
6465.000000;1.325895
6464.000000;1.325244
6463.000000;1.324695
6462.000000;1.324004
6461.000000;1.323015
6460.000000;1.321892
6459.000000;1.320983
6458.000000;1.320441
6457.000000;1.320054
6456.000000;1.319461
6455.000000;1.318508
6454.000000;1.317338
6453.000000;1.316199
6452.000000;1.315209
6451.000000;1.314319
6450.000000;1.313419
6449.000000;1.312438
6448.000000;1.311388
6447.000000;1.310349
6446.000000;1.309422
6445.000000;1.308652
6444.000000;1.307985
6443.000000;1.307329
6442.000000;1.306646
6441.000000;1.305971
6440.000000;1.305345
6439.000000;1.304766
6438.000000;1.304218
6437.000000;1.303688
6436.000000;1.303116
6435.000000;1.302377
6434.000000;1.301386
6433.000000;1.300219
6432.000000;1.299087
6431.000000;1.298162
6430.000000;1.297455
6429.000000;1.296845
6428.000000;1.296202
6427.000000;1.295491
6426.000000;1.294785
6425.000000;1.294175
6424.000000;1.293638
6423.000000;1.293015
6422.000000;1.292176
6421.000000;1.291185
6420.000000;1.290264
6419.000000;1.289577
6418.000000;1.289100
6417.000000;1.288671
6416.000000;1.288117
6415.000000;1.287359
6414.000000;1.286459
6413.000000;1.285578
6412.000000;1.284827
6411.000000;1.284142
6410.000000;1.283389
6409.000000;1.282572
6408.000000;1.281855
6407.000000;1.281345
6406.000000;1.280962
6405.000000;1.280566
6404.000000;1.280099
6403.000000;1.279537
6402.000000;1.278821
6401.000000;1.277954
6400.000000;1.277077
6399.000000;1.276327
6398.000000;1.275646
6397.000000;1.274879
6396.000000;1.274031
6395.000000;1.273278
6394.000000;1.272694
6393.000000;1.272134
6392.000000;1.271437
6391.000000;1.270653
6390.000000;1.269951
6389.000000;1.269390
6388.000000;1.268870
6387.000000;1.268283
6386.000000;1.267623
6385.000000;1.266967
6384.000000;1.266384
6383.000000;1.265879
6382.000000;1.265376
6381.000000;1.264754
6380.000000;1.263933
6379.000000;1.262955
6378.000000;1.261970
6377.000000;1.261155
6376.000000;1.260603
6375.000000;1.260242
6374.000000;1.259879
6373.000000;1.259359
6372.000000;1.258721
6371.000000;1.258136
6370.000000;1.257688
6369.000000;1.257275
6368.000000;1.256750
6367.000000;1.256091
6366.000000;1.255390
6365.000000;1.254722
6364.000000;1.254098
6363.000000;1.253507
6362.000000;1.252920
6361.000000;1.252288
6360.000000;1.251616
6359.000000;1.251017
6358.000000;1.250615
6357.000000;1.250378
6356.000000;1.250123
6355.000000;1.249700
6354.000000;1.249126
6353.000000;1.248508
6352.000000;1.247913
6351.000000;1.247344
6350.000000;1.246787
6349.000000;1.246229
6348.000000;1.245658
6347.000000;1.245074
6346.000000;1.244501
6345.000000;1.243952
6344.000000;1.243403
6343.000000;1.242825
6342.000000;1.242239
6341.000000;1.241703
6340.000000;1.241245
6339.000000;1.240815
6338.000000;1.240313
6337.000000;1.239686
6336.000000;1.238997
6335.000000;1.238383
6334.000000;1.237910
6333.000000;1.237508
6332.000000;1.237075
6331.000000;1.236616
6330.000000;1.236215
6329.000000;1.235886
6328.000000;1.235518
6327.000000;1.235027
6326.000000;1.234457
6325.000000;1.233898
6324.000000;1.233358
6323.000000;1.232796
6322.000000;1.232230
6321.000000;1.231752
6320.000000;1.231397
6319.000000;1.231077
6318.000000;1.230649
6317.000000;1.230030
6316.000000;1.229271
6315.000000;1.228523
6314.000000;1.227925
6313.000000;1.227481
6312.000000;1.227053
6311.000000;1.226525
6310.000000;1.225952
6309.000000;1.225503
6308.000000;1.225259
6307.000000;1.225136
6306.000000;1.224990
6305.000000;1.224747
6304.000000;1.224416
6303.000000;1.224031
6302.000000;1.223600
6301.000000;1.223111
6300.000000;1.222556
6299.000000;1.221989
6298.000000;1.221530
6297.000000;1.221262
6296.000000;1.221113
6295.000000;1.220894
6294.000000;1.220487
6293.000000;1.219956
6292.000000;1.219434
6291.000000;1.218961
6290.000000;1.218486
6289.000000;1.217984
6288.000000;1.217507
6287.000000;1.217116
6286.000000;1.216814
6285.000000;1.216565
6284.000000;1.216322
6283.000000;1.216034
6282.000000;1.215652
6281.000000;1.215161
6280.000000;1.214600
6279.000000;1.214041
6278.000000;1.213539
6277.000000;1.213103
6276.000000;1.212707
6275.000000;1.212332
6274.000000;1.212002
6273.000000;1.211746
6272.000000;1.211544
6271.000000;1.211321
6270.000000;1.211019
6269.000000;1.210651
6268.000000;1.210260
6267.000000;1.209855
6266.000000;1.209407
6265.000000;1.208920
6264.000000;1.208456
6263.000000;1.208071
6262.000000;1.207741
6261.000000;1.207371
6260.000000;1.206886
6259.000000;1.206313
6258.000000;1.205782
6257.000000;1.205420
6256.000000;1.205232
6255.000000;1.205087
6254.000000;1.204857
6253.000000;1.204552
6252.000000;1.204299
6251.000000;1.204180
6250.000000;1.204135
6249.000000;1.204019
6248.000000;1.203745
6247.000000;1.203344
6246.000000;1.202914
6245.000000;1.202527
6244.000000;1.202152
6243.000000;1.201683
6242.000000;1.201046
6241.000000;1.200335
6240.000000;1.199780
6239.000000;1.199546
6238.000000;1.199558
6237.000000;1.199568
6236.000000;1.199409
6235.000000;1.199114
6234.000000;1.198810
6233.000000;1.198546
6232.000000;1.198290
6231.000000;1.198015
6230.000000;1.197720
6229.000000;1.197382
6228.000000;1.196967
6227.000000;1.196501
6226.000000;1.196071
6225.000000;1.195739
6224.000000;1.195506
6223.000000;1.195354
6222.000000;1.195265
6221.000000;1.195187
6220.000000;1.195030
6219.000000;1.194753
6218.000000;1.194430
6217.000000;1.194174
6216.000000;1.194017
6215.000000;1.193892
6214.000000;1.193711
6213.000000;1.193435
6212.000000;1.193084
6211.000000;1.192713
6210.000000;1.192364
6209.000000;1.192017
6208.000000;1.191592
6207.000000;1.191060
6206.000000;1.190527
6205.000000;1.190155
6204.000000;1.189997
6203.000000;1.189937
6202.000000;1.189811
6201.000000;1.189553
6200.000000;1.189220
6199.000000;1.188923
6198.000000;1.188737
6197.000000;1.188662
6196.000000;1.188619
6195.000000;1.188498
6194.000000;1.188220
6193.000000;1.187783
6192.000000;1.187256
6191.000000;1.186764
6190.000000;1.186436
6189.000000;1.186321
6188.000000;1.186321
6187.000000;1.186249
6186.000000;1.185982
6185.000000;1.185565
6184.000000;1.185159
6183.000000;1.184894
6182.000000;1.184789
6181.000000;1.184768
6180.000000;1.184729
6179.000000;1.184613
6178.000000;1.184425
6177.000000;1.184210
6176.000000;1.183999
6175.000000;1.183786
6174.000000;1.183546
6173.000000;1.183269
6172.000000;1.182967
6171.000000;1.182658
6170.000000;1.182352
6169.000000;1.182058
6168.000000;1.181800
6167.000000;1.181620
6166.000000;1.181553
6165.000000;1.181574
6164.000000;1.181594
6163.000000;1.181526
6162.000000;1.181368
6161.000000;1.181187
6160.000000;1.181019
6159.000000;1.180827
6158.000000;1.180568
6157.000000;1.180273
6156.000000;1.180018
6155.000000;1.179825
6154.000000;1.179627
6153.000000;1.179344
6152.000000;1.178971
6151.000000;1.178583
6150.000000;1.178265
6149.000000;1.178059
6148.000000;1.177962
6147.000000;1.177953
6146.000000;1.177986
6145.000000;1.177988
6144.000000;1.177879
6143.000000;1.177621
6142.000000;1.177257
6141.000000;1.176888
6140.000000;1.176624
6139.000000;1.176519
6138.000000;1.176539
6137.000000;1.176563
6136.000000;1.176469
6135.000000;1.176227
6134.000000;1.175931
6133.000000;1.175697
6132.000000;1.175556
6131.000000;1.175463
6130.000000;1.175388
6129.000000;1.175364
6128.000000;1.175420
6127.000000;1.175517
6126.000000;1.175559
6125.000000;1.175466
6124.000000;1.175223
6123.000000;1.174880
6122.000000;1.174516
6121.000000;1.174214
6120.000000;1.174019
6119.000000;1.173922
6118.000000;1.173855
6117.000000;1.173736
6116.000000;1.173514
6115.000000;1.173213
6114.000000;1.172898
6113.000000;1.172611
6112.000000;1.172330
6111.000000;1.172026
6110.000000;1.171731
6109.000000;1.171520
6108.000000;1.171418
6107.000000;1.171373
6106.000000;1.171322
6105.000000;1.171270
6104.000000;1.171272
6103.000000;1.171354
6102.000000;1.171471
6101.000000;1.171554
6100.000000;1.171579
6099.000000;1.171568
6098.000000;1.171541
6097.000000;1.171484
6096.000000;1.171379
6095.000000;1.171243
6094.000000;1.171124
6093.000000;1.171037
6092.000000;1.170952
6091.000000;1.170836
6090.000000;1.170689
6089.000000;1.170529
6088.000000;1.170351
6087.000000;1.170134
6086.000000;1.169872
6085.000000;1.169594
6084.000000;1.169346
6083.000000;1.169187
6082.000000;1.169143
6081.000000;1.169158
6080.000000;1.169111
6079.000000;1.168928
6078.000000;1.168666
6077.000000;1.168450
6076.000000;1.168342
6075.000000;1.168298
6074.000000;1.168248
6073.000000;1.168160
6072.000000;1.168036
6071.000000;1.167889
6070.000000;1.167758
6069.000000;1.167700
6068.000000;1.167746
6067.000000;1.167885
6066.000000;1.168084
6065.000000;1.168285
6064.000000;1.168400
6063.000000;1.168368
6062.000000;1.168246
6061.000000;1.168191
6060.000000;1.168296
6059.000000;1.168478
6058.000000;1.168552
6057.000000;1.168421
6056.000000;1.168157
6055.000000;1.167914
6054.000000;1.167785
6053.000000;1.167729
6052.000000;1.167624
6051.000000;1.167407
6050.000000;1.167167
6049.000000;1.167077
6048.000000;1.167197
6047.000000;1.167378
6046.000000;1.167383
6045.000000;1.167120
6044.000000;1.166711
6043.000000;1.166364
6042.000000;1.166193
6041.000000;1.166174
6040.000000;1.166225
6039.000000;1.166289
6038.000000;1.166353
6037.000000;1.166415
6036.000000;1.166459
6035.000000;1.166474
6034.000000;1.166485
6033.000000;1.166532
6032.000000;1.166633
6031.000000;1.166767
6030.000000;1.166891
6029.000000;1.166957
6028.000000;1.166928
6027.000000;1.166802
6026.000000;1.166642
6025.000000;1.166543
6024.000000;1.166555
6023.000000;1.166656
6022.000000;1.166784
6021.000000;1.166894
6020.000000;1.166963
6019.000000;1.166985
6018.000000;1.166976
6017.000000;1.166970
6016.000000;1.166982
6015.000000;1.167005
6014.000000;1.167019
6013.000000;1.166996
6012.000000;1.166881
6011.000000;1.166630
6010.000000;1.166303
6009.000000;1.166069
6008.000000;1.166066
6007.000000;1.166271
6006.000000;1.166548
6005.000000;1.166804
6004.000000;1.167023
6003.000000;1.167188
6002.000000;1.167229
6001.000000;1.167113
6000.000000;1.166930
5999.000000;1.166853
5998.000000;1.167001
5997.000000;1.167342
5996.000000;1.167713
5995.000000;1.167944
5994.000000;1.167992
5993.000000;1.167967
5992.000000;1.168025
5991.000000;1.168214
5990.000000;1.168436
5989.000000;1.168551
5988.000000;1.168522
5987.000000;1.168433
5986.000000;1.168397
5985.000000;1.168457
5984.000000;1.168579
5983.000000;1.168720
5982.000000;1.168883
5981.000000;1.169082
5980.000000;1.169296
5979.000000;1.169479
5978.000000;1.169627
5977.000000;1.169781
5976.000000;1.169954
5975.000000;1.170103
5974.000000;1.170192
5973.000000;1.170252
5972.000000;1.170326
5971.000000;1.170408
5970.000000;1.170485
5969.000000;1.170613
5968.000000;1.170851
5967.000000;1.171148
5966.000000;1.171372
5965.000000;1.171478
5964.000000;1.171565
5963.000000;1.171753
5962.000000;1.172063
5961.000000;1.172467
5960.000000;1.172961
5959.000000;1.173504
5958.000000;1.173961
5957.000000;1.174203
5956.000000;1.174270
5955.000000;1.174328
5954.000000;1.174475
5953.000000;1.174676
5952.000000;1.174887
5951.000000;1.175151
5950.000000;1.175510
5949.000000;1.175911
5948.000000;1.176271
5947.000000;1.176583
5946.000000;1.176892
5945.000000;1.177196
5944.000000;1.177450
5943.000000;1.177659
5942.000000;1.177879
5941.000000;1.178123
5940.000000;1.178346
5939.000000;1.178532
5938.000000;1.178749
5937.000000;1.179070
5936.000000;1.179471
5935.000000;1.179862
5934.000000;1.180180
5933.000000;1.180416
5932.000000;1.180592
5931.000000;1.180737
5930.000000;1.180902
5929.000000;1.181127
5928.000000;1.181394
5927.000000;1.181635
5926.000000;1.181800
5925.000000;1.181897
5924.000000;1.181970
5923.000000;1.182064
5922.000000;1.182214
5921.000000;1.182428
5920.000000;1.182667
5919.000000;1.182857
5918.000000;1.182967
5917.000000;1.183050
5916.000000;1.183189
5915.000000;1.183409
5914.000000;1.183637
5913.000000;1.183771
5912.000000;1.183768
5911.000000;1.183690
5910.000000;1.183670
5909.000000;1.183803
5908.000000;1.184062
5907.000000;1.184325
5906.000000;1.184494
5905.000000;1.184575
5904.000000;1.184615
5903.000000;1.184605
5902.000000;1.184506
5901.000000;1.184362
5900.000000;1.184316
5899.000000;1.184459
5898.000000;1.184712
5897.000000;1.184916
5896.000000;1.185031
5895.000000;1.185174
5894.000000;1.185444
5893.000000;1.185769
5892.000000;1.185954
5891.000000;1.185885
5890.000000;1.185644
5889.000000;1.185444
5888.000000;1.185469
5887.000000;1.185738
5886.000000;1.186105
5885.000000;1.186384
5884.000000;1.186504
5883.000000;1.186548
5882.000000;1.186622
5881.000000;1.186732
5880.000000;1.186800
5879.000000;1.186810
5878.000000;1.186852
5877.000000;1.187033
5876.000000;1.187352
5875.000000;1.187687
5874.000000;1.187888
5873.000000;1.187897
5872.000000;1.187807
5871.000000;1.187809
5870.000000;1.188046
5869.000000;1.188492
5868.000000;1.188988
5867.000000;1.189400
5866.000000;1.189712
5865.000000;1.189967
5864.000000;1.190189
5863.000000;1.190402
5862.000000;1.190665
5861.000000;1.191012
5860.000000;1.191384
5859.000000;1.191672
5858.000000;1.191856
5857.000000;1.192038
5856.000000;1.192328
5855.000000;1.192740
5854.000000;1.193212
5853.000000;1.193672
5852.000000;1.194088
5851.000000;1.194467
5850.000000;1.194852
5849.000000;1.195277
5848.000000;1.195718
5847.000000;1.196117
5846.000000;1.196476
5845.000000;1.196886
5844.000000;1.197412
5843.000000;1.197985
5842.000000;1.198459
5841.000000;1.198781
5840.000000;1.199047
5839.000000;1.199374
5838.000000;1.199762
5837.000000;1.200144
5836.000000;1.200523
5835.000000;1.201002
5834.000000;1.201653
5833.000000;1.202401
5832.000000;1.203078
5831.000000;1.203580
5830.000000;1.203934
5829.000000;1.204217
5828.000000;1.204464
5827.000000;1.204684
5826.000000;1.204920
5825.000000;1.205258
5824.000000;1.205749
5823.000000;1.206370
5822.000000;1.207035
5821.000000;1.207656
5820.000000;1.208180
5819.000000;1.208611
5818.000000;1.209001
5817.000000;1.209399
5816.000000;1.209809
5815.000000;1.210213
5814.000000;1.210632
5813.000000;1.211132
5812.000000;1.211740
5811.000000;1.212383
5810.000000;1.212968
5809.000000;1.213491
5808.000000;1.214034
5807.000000;1.214655
5806.000000;1.215308
5805.000000;1.215910
5804.000000;1.216440
5803.000000;1.216953
5802.000000;1.217509
5801.000000;1.218121
5800.000000;1.218756
5799.000000;1.219357
5798.000000;1.219882
5797.000000;1.220331
5796.000000;1.220769
5795.000000;1.221262
5794.000000;1.221804
5793.000000;1.222316
5792.000000;1.222745
5791.000000;1.223136
5790.000000;1.223589
5789.000000;1.224148
5788.000000;1.224763
5787.000000;1.225350
5786.000000;1.225881
5785.000000;1.226417
5784.000000;1.227051
5783.000000;1.227817
5782.000000;1.228636
5781.000000;1.229367
5780.000000;1.229932
5779.000000;1.230376
5778.000000;1.230813
5777.000000;1.231322
5776.000000;1.231915
5775.000000;1.232572
5774.000000;1.233261
5773.000000;1.233932
5772.000000;1.234548
5771.000000;1.235127
5770.000000;1.235719
5769.000000;1.236332
5768.000000;1.236898
5767.000000;1.237348
5766.000000;1.237678
5765.000000;1.237953
5764.000000;1.238250
5763.000000;1.238631
5762.000000;1.239142
5761.000000;1.239796
5760.000000;1.240544
5759.000000;1.241280
5758.000000;1.241896
5757.000000;1.242348
5756.000000;1.242684
5755.000000;1.243019
5754.000000;1.243460
5753.000000;1.244046
5752.000000;1.244751
5751.000000;1.245518
5750.000000;1.246283
5749.000000;1.246977
5748.000000;1.247538
5747.000000;1.247967
5746.000000;1.248332
5745.000000;1.248727
5744.000000;1.249191
5743.000000;1.249691
5742.000000;1.250173
5741.000000;1.250633
5740.000000;1.251124
5739.000000;1.251696
5738.000000;1.252329
5737.000000;1.252955
5736.000000;1.253527
5735.000000;1.254064
5734.000000;1.254599
5733.000000;1.255130
5732.000000;1.255640
5731.000000;1.256149
5730.000000;1.256710
5729.000000;1.257353
5728.000000;1.258054
5727.000000;1.258761
5726.000000;1.259421
5725.000000;1.260005
5724.000000;1.260532
5723.000000;1.261066
5722.000000;1.261660
5721.000000;1.262309
5720.000000;1.262981
5719.000000;1.263671
5718.000000;1.264380
5717.000000;1.265070
5716.000000;1.265687
5715.000000;1.266235
5714.000000;1.266774
5713.000000;1.267350
5712.000000;1.267980
5711.000000;1.268689
5710.000000;1.269491
5709.000000;1.270321
5708.000000;1.271068
5707.000000;1.271699
5706.000000;1.272294
5705.000000;1.272909
5704.000000;1.273500
5703.000000;1.274019
5702.000000;1.274533
5701.000000;1.275147
5700.000000;1.275849
5699.000000;1.276510
5698.000000;1.277041
5697.000000;1.277489
5696.000000;1.277968
5695.000000;1.278527
5694.000000;1.279136
5693.000000;1.279716
5692.000000;1.280261
5691.000000;1.280811
5690.000000;1.281384
5689.000000;1.281977
5688.000000;1.282564
5687.000000;1.283165
5686.000000;1.283822
5685.000000;1.284522
5684.000000;1.285178
5683.000000;1.285746
5682.000000;1.286286
5681.000000;1.286900
5680.000000;1.287635
5679.000000;1.288469
5678.000000;1.289348
5677.000000;1.290182
5676.000000;1.290862
5675.000000;1.291336
5674.000000;1.291676
5673.000000;1.292017
5672.000000;1.292458
5671.000000;1.293037
5670.000000;1.293754
5669.000000;1.294568
5668.000000;1.295389
5667.000000;1.296126
5666.000000;1.296734
5665.000000;1.297207
5664.000000;1.297565
5663.000000;1.297893
5662.000000;1.298326
5661.000000;1.298923
5660.000000;1.299600
5659.000000;1.300245
5658.000000;1.300848
5657.000000;1.301458
5656.000000;1.302044
5655.000000;1.302516
5654.000000;1.302852
5653.000000;1.303137
5652.000000;1.303459
5651.000000;1.303860
5650.000000;1.304377
5649.000000;1.305031
5648.000000;1.305762
5647.000000;1.306447
5646.000000;1.307031
5645.000000;1.307559
5644.000000;1.308063
5643.000000;1.308499
5642.000000;1.308852
5641.000000;1.309222
5640.000000;1.309738
5639.000000;1.310397
5638.000000;1.311068
5637.000000;1.311624
5636.000000;1.312048
5635.000000;1.312418
5634.000000;1.312832
5633.000000;1.313324
5632.000000;1.313850
5631.000000;1.314339
5630.000000;1.314784
5629.000000;1.315232
5628.000000;1.315696
5627.000000;1.316133
5626.000000;1.316533
5625.000000;1.316966
5624.000000;1.317491
5623.000000;1.318053
5622.000000;1.318531
5621.000000;1.318870
5620.000000;1.319111
5619.000000;1.319303
5618.000000;1.319455
5617.000000;1.319599
5616.000000;1.319822
5615.000000;1.320195
5614.000000;1.320687
5613.000000;1.321178
5612.000000;1.321584
5611.000000;1.321919
5610.000000;1.322247
5609.000000;1.322611
5608.000000;1.323026
5607.000000;1.323506
5606.000000;1.324040
5605.000000;1.324565
5604.000000;1.324995
5603.000000;1.325315
5602.000000;1.325584
5601.000000;1.325838
5600.000000;1.326025
5599.000000;1.326085
5598.000000;1.326077
5597.000000;1.326159
5596.000000;1.326433
5595.000000;1.326838
5594.000000;1.327199
5593.000000;1.327399
5592.000000;1.327488
5591.000000;1.327634
5590.000000;1.327941
5589.000000;1.328335
5588.000000;1.328638
5587.000000;1.328758
5586.000000;1.328774
5585.000000;1.328824
5584.000000;1.328963
5583.000000;1.329156
5582.000000;1.329371
5581.000000;1.329602
5580.000000;1.329828
5579.000000;1.329997
5578.000000;1.330062
5577.000000;1.330020
5576.000000;1.329930
5575.000000;1.329895
5574.000000;1.329997
5573.000000;1.330202
5572.000000;1.330364
5571.000000;1.330388
5570.000000;1.330344
5569.000000;1.330392
5568.000000;1.330625
5567.000000;1.331012
5566.000000;1.331460
5565.000000;1.331841
5564.000000;1.332005
5563.000000;1.331892
5562.000000;1.331613
5561.000000;1.331363
5560.000000;1.331229
5559.000000;1.331163
5558.000000;1.331138
5557.000000;1.331222
5556.000000;1.331457
5555.000000;1.331751
5554.000000;1.331947
5553.000000;1.331978
5552.000000;1.331906
5551.000000;1.331849
5550.000000;1.331889
5549.000000;1.332021
5548.000000;1.332135
5547.000000;1.332095
5546.000000;1.331854
5545.000000;1.331497
5544.000000;1.331171
5543.000000;1.330994
5542.000000;1.331014
5541.000000;1.331195
5540.000000;1.331419
5539.000000;1.331578
5538.000000;1.331681
5537.000000;1.331822
5536.000000;1.332031
5535.000000;1.332222
5534.000000;1.332325
5533.000000;1.332389
5532.000000;1.332505
5531.000000;1.332676
5530.000000;1.332821
5529.000000;1.332864
5528.000000;1.332787
5527.000000;1.332637
5526.000000;1.332523
5525.000000;1.332559
5524.000000;1.332767
5523.000000;1.333026
5522.000000;1.333162
5521.000000;1.333070
5520.000000;1.332790
5519.000000;1.332479
5518.000000;1.332322
5517.000000;1.332401
5516.000000;1.332618
5515.000000;1.332799
5514.000000;1.332885
5513.000000;1.332970
5512.000000;1.333143
5511.000000;1.333351
5510.000000;1.333472
5509.000000;1.333454
5508.000000;1.333345
5507.000000;1.333230
5506.000000;1.333204
5505.000000;1.333325
5504.000000;1.333564
5503.000000;1.333800
5502.000000;1.333922
5501.000000;1.333936
5500.000000;1.333951
5499.000000;1.334063
5498.000000;1.334278
5497.000000;1.334495
5496.000000;1.334579
5495.000000;1.334495
5494.000000;1.334364
5493.000000;1.334355
5492.000000;1.334502
5491.000000;1.334668
5490.000000;1.334728
5489.000000;1.334708
5488.000000;1.334734
5487.000000;1.334908
5486.000000;1.335273
5485.000000;1.335808
5484.000000;1.336412
5483.000000;1.336959
5482.000000;1.337421
5481.000000;1.337898
5480.000000;1.338459
5479.000000;1.339008
5478.000000;1.339383
5477.000000;1.339536
5476.000000;1.339562
5475.000000;1.339599
5474.000000;1.339740
5473.000000;1.340024
5472.000000;1.340437
5471.000000;1.340921
5470.000000;1.341410
5469.000000;1.341867
5468.000000;1.342262
5467.000000;1.342562
5466.000000;1.342765
5465.000000;1.342919
5464.000000;1.343097
5463.000000;1.343358
5462.000000;1.343727
5461.000000;1.344177
5460.000000;1.344662
5459.000000;1.345174
5458.000000;1.345761
5457.000000;1.346458
5456.000000;1.347230
5455.000000;1.348000
5454.000000;1.348722
5453.000000;1.349383
5452.000000;1.349973
5451.000000;1.350495
5450.000000;1.350955
5449.000000;1.351352
5448.000000;1.351705
5447.000000;1.352109
5446.000000;1.352709
5445.000000;1.353553
5444.000000;1.354536
5443.000000;1.355545
5442.000000;1.356579
5441.000000;1.357677
5440.000000;1.358791
5439.000000;1.359809
5438.000000;1.360699
5437.000000;1.361553
5436.000000;1.362452
5435.000000;1.363380
5434.000000;1.364256
5433.000000;1.365010
5432.000000;1.365661
5431.000000;1.366331
5430.000000;1.367127
5429.000000;1.368072
5428.000000;1.369150
5427.000000;1.370378
5426.000000;1.371801
5425.000000;1.373414
5424.000000;1.375109
5423.000000;1.376736
5422.000000;1.378218
5421.000000;1.379609
5420.000000;1.381072
5419.000000;1.382734
5418.000000;1.384533
5417.000000;1.386253
5416.000000;1.387711
5415.000000;1.388911
5414.000000;1.390008
5413.000000;1.391137
5412.000000;1.392364
5411.000000;1.393816
5410.000000;1.395686
5409.000000;1.398002
5408.000000;1.400521
5407.000000;1.402968
5406.000000;1.405325
5405.000000;1.407760
5404.000000;1.410341
5403.000000;1.412942
5402.000000;1.415402
5401.000000;1.417660
5400.000000;1.419766
5399.000000;1.421858
5398.000000;1.424106
5397.000000;1.426643
5396.000000;1.429499
5395.000000;1.432604
5394.000000;1.435853
5393.000000;1.439163
5392.000000;1.442498
5391.000000;1.445882
5390.000000;1.449357
5389.000000;1.452917
5388.000000;1.456508
5387.000000;1.460118
5386.000000;1.463829
5385.000000;1.467710
5384.000000;1.471679
5383.000000;1.475629
5382.000000;1.479621
5381.000000;1.483776
5380.000000;1.488111
5379.000000;1.492559
5378.000000;1.497050
5377.000000;1.501526
5376.000000;1.505980
5375.000000;1.510554
5374.000000;1.515539
5373.000000;1.521078
5372.000000;1.526926
5371.000000;1.532725
5370.000000;1.538428
5369.000000;1.544298
5368.000000;1.550513
5367.000000;1.556950
5366.000000;1.563385
5365.000000;1.569743
5364.000000;1.576100
5363.000000;1.582597
5362.000000;1.589412
5361.000000;1.596646
5360.000000;1.604219
5359.000000;1.611976
5358.000000;1.619921
5357.000000;1.628197
5356.000000;1.636835
5355.000000;1.645692
5354.000000;1.654674
5353.000000;1.663823
5352.000000;1.673143
5351.000000;1.682591
5350.000000;1.692310
5349.000000;1.702553
5348.000000;1.713275
5347.000000;1.724094
5346.000000;1.734841
5345.000000;1.745898
5344.000000;1.757692
5343.000000;1.770036
5342.000000;1.782409
5341.000000;1.794703
5340.000000;1.807272
5339.000000;1.820417
5338.000000;1.834090
5337.000000;1.848103
5336.000000;1.862385
5335.000000;1.877010
5334.000000;1.892107
5333.000000;1.907763
5332.000000;1.923923
5331.000000;1.940384
5330.000000;1.957038
5329.000000;1.974036
5328.000000;1.991566
5327.000000;2.009563
5326.000000;2.027747
5325.000000;2.045955
5324.000000;2.064325
5323.000000;2.083190
5322.000000;2.102892
5321.000000;2.123562
5320.000000;2.144988
5319.000000;2.166817
5318.000000;2.188881
5317.000000;2.211085
5316.000000;2.233022
5315.000000;2.254193
5314.000000;2.274743
5313.000000;2.295559
5312.000000;2.317427
5311.000000;2.340446
5310.000000;2.364379
5309.000000;2.388931
5308.000000;2.413466
5307.000000;2.437155
5306.000000;2.459899
5305.000000;2.482575
5304.000000;2.506126
5303.000000;2.530943
5302.000000;2.557233
5301.000000;2.585002
5300.000000;2.612978
5299.000000;2.638606
5298.000000;2.660376
5297.000000;2.679518
5296.000000;2.698166
5295.000000;2.716681
5294.000000;2.733912
5293.000000;2.749270
5292.000000;2.762999
5291.000000;2.774795
5290.000000;2.784138
5289.000000;2.792501
5288.000000;2.803549
5287.000000;2.819965
5286.000000;2.840497
5285.000000;2.860230
5284.000000;2.874126
5283.000000;2.881319
5282.000000;2.885533
5281.000000;2.891458
5280.000000;2.901338
5279.000000;2.913549
5278.000000;2.923914
5277.000000;2.929906
5276.000000;2.933307
5275.000000;2.937239
5274.000000;2.941750
5273.000000;2.944333
5272.000000;2.944049
5271.000000;2.942984
5270.000000;2.943563
5269.000000;2.946130
5268.000000;2.950075
5267.000000;2.955503
5266.000000;2.961574
5265.000000;2.964865
5264.000000;2.962279
5263.000000;2.955256
5262.000000;2.948772
5261.000000;2.946765
5260.000000;2.950297
5259.000000;2.958348
5258.000000;2.967930
5257.000000;2.974466
5256.000000;2.974812
5255.000000;2.970293
5254.000000;2.964927
5253.000000;2.960716
5252.000000;2.956711
5251.000000;2.952282
5250.000000;2.949094
5249.000000;2.949538
5248.000000;2.954258
5247.000000;2.961005
5246.000000;2.965331
5245.000000;2.963545
5244.000000;2.956601
5243.000000;2.950424
5242.000000;2.950530
5241.000000;2.956921
5240.000000;2.965138
5239.000000;2.970937
5238.000000;2.972549
5237.000000;2.969875
5236.000000;2.964875
5235.000000;2.962476
5234.000000;2.967374
5233.000000;2.978577
5232.000000;2.988801
5231.000000;2.990918
5230.000000;2.984362
5229.000000;2.973961
5228.000000;2.964854
5227.000000;2.960130
5226.000000;2.960404
5225.000000;2.963757
5224.000000;2.967536
5223.000000;2.970896
5222.000000;2.973926
5221.000000;2.974832
5220.000000;2.970939
5219.000000;2.962906
5218.000000;2.955322
5217.000000;2.952078
5216.000000;2.953061
5215.000000;2.956129
5214.000000;2.960357
5213.000000;2.965925
5212.000000;2.972114
5211.000000;2.976549
5210.000000;2.976203
5209.000000;2.970000
5208.000000;2.961392
5207.000000;2.957188
5206.000000;2.961312
5205.000000;2.969801
5204.000000;2.974373
5203.000000;2.971650
5202.000000;2.965706
5201.000000;2.961343
5200.000000;2.959453
5199.000000;2.959540
5198.000000;2.962199
5197.000000;2.966304
5196.000000;2.967680
5195.000000;2.964348
5194.000000;2.959930
5193.000000;2.958944
5192.000000;2.961499
5191.000000;2.964541
5190.000000;2.966059
5189.000000;2.965680
5188.000000;2.963054
5187.000000;2.958992
5186.000000;2.956987
5185.000000;2.960295
5184.000000;2.967401
5183.000000;2.972655
5182.000000;2.972404
5181.000000;2.968700
5180.000000;2.965689
5179.000000;2.964766
5178.000000;2.964309
5177.000000;2.962196
5176.000000;2.958020
5175.000000;2.953801
5174.000000;2.952672
5173.000000;2.956468
5172.000000;2.964061
5171.000000;2.971619
5170.000000;2.974936
5169.000000;2.972343
5168.000000;2.966215
5167.000000;2.961552
5166.000000;2.961578
5165.000000;2.964684
5164.000000;2.966447
5163.000000;2.964542
5162.000000;2.960520
5161.000000;2.957017
5160.000000;2.955832
5159.000000;2.958924
5158.000000;2.968077
5157.000000;2.981396
5156.000000;2.991909
5155.000000;2.993274
5154.000000;2.986689
5153.000000;2.978652
5152.000000;2.973215
5151.000000;2.969653
5150.000000;2.966820
5149.000000;2.966675
5148.000000;2.971684
5147.000000;2.980248
5146.000000;2.986346
5145.000000;2.984369
5144.000000;2.975356
5143.000000;2.966842
5142.000000;2.964790
5141.000000;2.967530
5140.000000;2.968893
5139.000000;2.966504
5138.000000;2.963970
5137.000000;2.964245
5136.000000;2.964699
5135.000000;2.961021
5134.000000;2.954028
5133.000000;2.949065
5132.000000;2.949541
5131.000000;2.953778
5130.000000;2.957716
5129.000000;2.959223
5128.000000;2.959336
5127.000000;2.960021
5126.000000;2.961448
5125.000000;2.961580
5124.000000;2.958934
5123.000000;2.955290
5122.000000;2.954049
5121.000000;2.956127
5120.000000;2.959134
5119.000000;2.960814
5118.000000;2.961532
5117.000000;2.962610
5116.000000;2.964346
5115.000000;2.966979
5114.000000;2.971221
5113.000000;2.976092
5112.000000;2.978622
5111.000000;2.977314
5110.000000;2.973624
5109.000000;2.969017
5108.000000;2.963352
5107.000000;2.957492
5106.000000;2.954699
5105.000000;2.957258
5104.000000;2.963396
5103.000000;2.969131
5102.000000;2.971967
5101.000000;2.971489
5100.000000;2.968223
5099.000000;2.963818
5098.000000;2.960605
5097.000000;2.958817
5096.000000;2.955629
5095.000000;2.949410
5094.000000;2.943292
5093.000000;2.941470
5092.000000;2.943804
5091.000000;2.947157
5090.000000;2.950632
5089.000000;2.955670
5088.000000;2.961208
5087.000000;2.962763
5086.000000;2.958152
5085.000000;2.951549
5084.000000;2.949526
5083.000000;2.954681
5082.000000;2.963703
5081.000000;2.970240
5080.000000;2.969933
5079.000000;2.963942
5078.000000;2.957607
5077.000000;2.954818
5076.000000;2.954542
5075.000000;2.953914
5074.000000;2.953126
5073.000000;2.954549
5072.000000;2.957884
5071.000000;2.959741
5070.000000;2.958772
5069.000000;2.958032
5068.000000;2.960379
5067.000000;2.964047
5066.000000;2.964752
5065.000000;2.960869
5064.000000;2.954841
5063.000000;2.950007
5062.000000;2.946972
5061.000000;2.942932
5060.000000;2.934610
5059.000000;2.922326
5058.000000;2.910837
5057.000000;2.905339
5056.000000;2.907066
5055.000000;2.913380
5054.000000;2.921559
5053.000000;2.931031
5052.000000;2.941076
5051.000000;2.948199
5050.000000;2.948578
5049.000000;2.943090
5048.000000;2.937036
5047.000000;2.934470
5046.000000;2.934762
5045.000000;2.934989
5044.000000;2.934385
5043.000000;2.934982
5042.000000;2.937941
5041.000000;2.940922
5040.000000;2.940294
5039.000000;2.935380
5038.000000;2.929147
5037.000000;2.925067
5036.000000;2.924611
5035.000000;2.927466
5034.000000;2.932512
5033.000000;2.937744
5032.000000;2.940623
5031.000000;2.939950
5030.000000;2.936438
5029.000000;2.930450
5028.000000;2.920989
5027.000000;2.908460
5026.000000;2.896924
5025.000000;2.891487
5024.000000;2.893308
5023.000000;2.897967
5022.000000;2.899336
5021.000000;2.895385
5020.000000;2.889313
5019.000000;2.885367
5018.000000;2.885193
5017.000000;2.887783
5016.000000;2.891918
5015.000000;2.897561
5014.000000;2.903703
5013.000000;2.906358
5012.000000;2.901916
5011.000000;2.892946
5010.000000;2.887058
5009.000000;2.888126
5008.000000;2.890916
5007.000000;2.886677
5006.000000;2.873808
5005.000000;2.859208
5004.000000;2.849522
5003.000000;2.845637
5002.000000;2.844954
5001.000000;2.845402
5000.000000;2.846498
4999.000000;2.848560
4998.000000;2.851815
4997.000000;2.855243
4996.000000;2.855879
4995.000000;2.850514
4994.000000;2.839895
4993.000000;2.829668
4992.000000;2.825400
4991.000000;2.828129
4990.000000;2.834100
4989.000000;2.838449
4988.000000;2.839540
4987.000000;2.839051
4986.000000;2.838396
4985.000000;2.836448
4984.000000;2.831451
4983.000000;2.824638
4982.000000;2.820325
4981.000000;2.821429
4980.000000;2.825521
4979.000000;2.827060
4978.000000;2.823841
4977.000000;2.818651
4976.000000;2.814368
4975.000000;2.810829
4974.000000;2.807389
4973.000000;2.805519
4972.000000;2.806491
4971.000000;2.808174
4970.000000;2.806832
4969.000000;2.801862
4968.000000;2.796390
4967.000000;2.792889
4966.000000;2.790483
4965.000000;2.786973
4964.000000;2.781299
4963.000000;2.773422
4962.000000;2.763860
4961.000000;2.754302
4960.000000;2.747273
4959.000000;2.743991
4958.000000;2.743100
4957.000000;2.742259
4956.000000;2.740659
4955.000000;2.739135
4954.000000;2.738093
4953.000000;2.736733
4952.000000;2.734500
4951.000000;2.731929
4950.000000;2.729451
4949.000000;2.726334
4948.000000;2.721714
4947.000000;2.716436
4946.000000;2.712860
4945.000000;2.712311
4944.000000;2.713534
4943.000000;2.714215
4942.000000;2.713302
4941.000000;2.711276
4940.000000;2.708897
4939.000000;2.706572
4938.000000;2.704445
4937.000000;2.702088
4936.000000;2.698280
4935.000000;2.692040
4934.000000;2.683953
4933.000000;2.675834
4932.000000;2.669222
4931.000000;2.664727
4930.000000;2.662439
4929.000000;2.661750
4928.000000;2.660559
4927.000000;2.656307
4926.000000;2.648955
4925.000000;2.641743
4924.000000;2.637863
4923.000000;2.637192
4922.000000;2.636979
4921.000000;2.635239
4920.000000;2.632557
4919.000000;2.630692
4918.000000;2.630507
4917.000000;2.631512
4916.000000;2.632560
4915.000000;2.632513
4914.000000;2.630648
4913.000000;2.626859
4912.000000;2.621494
4911.000000;2.615099
4910.000000;2.608478
4909.000000;2.602604
4908.000000;2.597832
4907.000000;2.593349
4906.000000;2.588132
4905.000000;2.582514
4904.000000;2.578151
4903.000000;2.576255
4902.000000;2.576220
4901.000000;2.576145
4900.000000;2.574535
4899.000000;2.571326
4898.000000;2.567394
4897.000000;2.563454
4896.000000;2.559527
4895.000000;2.555295
4894.000000;2.550783
4893.000000;2.546643
4892.000000;2.543694
4891.000000;2.542087
4890.000000;2.540887
4889.000000;2.538592
4888.000000;2.534377
4887.000000;2.528929
4886.000000;2.523883
4885.000000;2.520346
4884.000000;2.518005
4883.000000;2.515690
4882.000000;2.512620
4881.000000;2.508825
4880.000000;2.504510
4879.000000;2.499688
4878.000000;2.494691
4877.000000;2.490364
4876.000000;2.487144
4875.000000;2.484288
4874.000000;2.480808
4873.000000;2.477129
4872.000000;2.474944
4871.000000;2.475049
4870.000000;2.475840
4869.000000;2.474538
4868.000000;2.469841
4867.000000;2.463004
4866.000000;2.456455
4865.000000;2.451887
4864.000000;2.449575
4863.000000;2.448763
4862.000000;2.448333
4861.000000;2.447530
4860.000000;2.446316
4859.000000;2.444873
4858.000000;2.442736
4857.000000;2.438934
4856.000000;2.433310
4855.000000;2.427213
4854.000000;2.422364
4853.000000;2.419293
4852.000000;2.417269
4851.000000;2.415395
4850.000000;2.413221
4849.000000;2.410486
4848.000000;2.407187
4847.000000;2.403989
4846.000000;2.401662
4845.000000;2.399844
4844.000000;2.397066
4843.000000;2.392598
4842.000000;2.387675
4841.000000;2.384074
4840.000000;2.381940
4839.000000;2.379777
4838.000000;2.376377
4837.000000;2.371973
4836.000000;2.367573
4835.000000;2.363950
4834.000000;2.361338
4833.000000;2.359389
4832.000000;2.357271
4831.000000;2.354409
4830.000000;2.351300
4829.000000;2.348979
4828.000000;2.347569
4827.000000;2.345941
4826.000000;2.343095
4825.000000;2.339264
4824.000000;2.335289
4823.000000;2.331667
4822.000000;2.328692
4821.000000;2.326787
4820.000000;2.325867
4819.000000;2.324792
4818.000000;2.322235
4817.000000;2.318094
4816.000000;2.313408
4815.000000;2.309011
4814.000000;2.304958
4813.000000;2.301145
4812.000000;2.297741
4811.000000;2.294879
4810.000000;2.292475
4809.000000;2.290574
4808.000000;2.289500
4807.000000;2.289364
4806.000000;2.289612
4805.000000;2.289199
4804.000000;2.287176
4803.000000;2.283244
4802.000000;2.277970
4801.000000;2.272479
4800.000000;2.267635
4799.000000;2.263488
4798.000000;2.259619
4797.000000;2.255951
4796.000000;2.252855
4795.000000;2.250493
4794.000000;2.248520
4793.000000;2.246508
4792.000000;2.244290
4791.000000;2.241738
4790.000000;2.238594
4789.000000;2.234760
4788.000000;2.230618
4787.000000;2.226879
4786.000000;2.224137
4785.000000;2.222508
4784.000000;2.221485
4783.000000;2.220187
4782.000000;2.218010
4781.000000;2.215098
4780.000000;2.212034
4779.000000;2.209123
4778.000000;2.206168
4777.000000;2.202851
4776.000000;2.199089
4775.000000;2.195145
4774.000000;2.191681
4773.000000;2.189472
4772.000000;2.188549
4771.000000;2.187698
4770.000000;2.185446
4769.000000;2.181679
4768.000000;2.177719
4767.000000;2.174648
4766.000000;2.172234
4765.000000;2.169718
4764.000000;2.167037
4763.000000;2.164704
4762.000000;2.162863
4761.000000;2.161037
4760.000000;2.158652
4759.000000;2.155464
4758.000000;2.151665
4757.000000;2.147917
4756.000000;2.145055
4755.000000;2.143362
4754.000000;2.142220
4753.000000;2.140733
4752.000000;2.138574
4751.000000;2.135979
4750.000000;2.133180
4749.000000;2.130246
4748.000000;2.127288
4747.000000;2.124352
4746.000000;2.121220
4745.000000;2.117749
4744.000000;2.114358
4743.000000;2.111757
4742.000000;2.110140
4741.000000;2.108910
4740.000000;2.107205
4739.000000;2.104529
4738.000000;2.101025
4737.000000;2.097419
4736.000000;2.094595
4735.000000;2.092872
4734.000000;2.091710
4733.000000;2.090314
4732.000000;2.088371
4731.000000;2.085962
4730.000000;2.083079
4729.000000;2.079777
4728.000000;2.076633
4727.000000;2.074355
4726.000000;2.072829
4725.000000;2.071120
4724.000000;2.068564
4723.000000;2.065441
4722.000000;2.062408
4721.000000;2.059758
4720.000000;2.057438
4719.000000;2.055389
4718.000000;2.053560
4717.000000;2.051838
4716.000000;2.050171
4715.000000;2.048487
4714.000000;2.046423
4713.000000;2.043559
4712.000000;2.040104
4711.000000;2.036923
4710.000000;2.034577
4709.000000;2.032715
4708.000000;2.030756
4707.000000;2.028804
4706.000000;2.027416
4705.000000;2.026680
4704.000000;2.026026
4703.000000;2.024866
4702.000000;2.023023
4701.000000;2.020585
4700.000000;2.017786
4699.000000;2.015134
4698.000000;2.013230
4697.000000;2.012212
4696.000000;2.011479
4695.000000;2.010120
4694.000000;2.007619
4693.000000;2.004207
4692.000000;2.000638
4691.000000;1.997593
4690.000000;1.995191
4689.000000;1.993080
4688.000000;1.991033
4687.000000;1.989287
4686.000000;1.988111
4685.000000;1.987216
4684.000000;1.985884
4683.000000;1.983719
4682.000000;1.981069
4681.000000;1.978634
4680.000000;1.976849
4679.000000;1.975673
4678.000000;1.974748
4677.000000;1.973659
4676.000000;1.972190
4675.000000;1.970441
4674.000000;1.968674
4673.000000;1.967016
4672.000000;1.965332
4671.000000;1.963381
4670.000000;1.961045
4669.000000;1.958437
4668.000000;1.955858
4667.000000;1.953610
4666.000000;1.951765
4665.000000;1.950093
4664.000000;1.948321
4663.000000;1.946455
4662.000000;1.944823
4661.000000;1.943756
4660.000000;1.943261
4659.000000;1.942924
4658.000000;1.942115
4657.000000;1.940413
4656.000000;1.937982
4655.000000;1.935491
4654.000000;1.933556
4653.000000;1.932242
4652.000000;1.931166
4651.000000;1.929989
4650.000000;1.928694
4649.000000;1.927417
4648.000000;1.926136
4647.000000;1.924604
4646.000000;1.922578
4645.000000;1.920146
4644.000000;1.917820
4643.000000;1.916192
4642.000000;1.915364
4641.000000;1.914741
4640.000000;1.913540
4639.000000;1.911500
4638.000000;1.909083
4637.000000;1.907031
4636.000000;1.905848
4635.000000;1.905558
4634.000000;1.905685
4633.000000;1.905468
4632.000000;1.904353
4631.000000;1.902412
4630.000000;1.900212
4629.000000;1.898255
4628.000000;1.896646
4627.000000;1.895233
4626.000000;1.893885
4625.000000;1.892549
4624.000000;1.891185
4623.000000;1.889750
4622.000000;1.888226
4621.000000;1.886620
4620.000000;1.885008
4619.000000;1.883559
4618.000000;1.882407
4617.000000;1.881488
4616.000000;1.880632
4615.000000;1.879796
4614.000000;1.879041
4613.000000;1.878247
4612.000000;1.877109
4611.000000;1.875607
4610.000000;1.874249
4609.000000;1.873571
4608.000000;1.873433
4607.000000;1.873075
4606.000000;1.871898
4605.000000;1.870012
4604.000000;1.867962
4603.000000;1.866182
4602.000000;1.864828
4601.000000;1.863908
4600.000000;1.863263
4599.000000;1.862499
4598.000000;1.861252
4597.000000;1.859663
4596.000000;1.858391
4595.000000;1.857960
4594.000000;1.858171
4593.000000;1.858291
4592.000000;1.857812
4591.000000;1.856849
4590.000000;1.855786
4589.000000;1.854784
4588.000000;1.853737
4587.000000;1.852570
4586.000000;1.851374
4585.000000;1.850278
4584.000000;1.849322
4583.000000;1.848439
4582.000000;1.847477
4581.000000;1.846287
4580.000000;1.844889
4579.000000;1.843524
4578.000000;1.842411
4577.000000;1.841485
4576.000000;1.840507
4575.000000;1.839439
4574.000000;1.838557
4573.000000;1.838082
4572.000000;1.837821
4571.000000;1.837255
4570.000000;1.835978
4569.000000;1.834034
4568.000000;1.831949
4567.000000;1.830473
4566.000000;1.830112
4565.000000;1.830736
4564.000000;1.831646
4563.000000;1.832165
4562.000000;1.832193
4561.000000;1.832062
4560.000000;1.831902
4559.000000;1.831334
4558.000000;1.829932
4557.000000;1.827839
4556.000000;1.825722
4555.000000;1.824112
4554.000000;1.822953
4553.000000;1.821915
4552.000000;1.821026
4551.000000;1.820727
4550.000000;1.821222
4549.000000;1.821946
4548.000000;1.821947
4547.000000;1.820861
4546.000000;1.819337
4545.000000;1.818397
4544.000000;1.818477
4543.000000;1.819114
4542.000000;1.819453
4541.000000;1.818950
4540.000000;1.817676
4539.000000;1.816140
4538.000000;1.814869
4537.000000;1.814101
4536.000000;1.813782
4535.000000;1.813802
4534.000000;1.814114
4533.000000;1.814570
4532.000000;1.814772
4531.000000;1.814335
4530.000000;1.813349
4529.000000;1.812362
4528.000000;1.811797
4527.000000;1.811540
4526.000000;1.811217
4525.000000;1.810721
4524.000000;1.810264
4523.000000;1.809968
4522.000000;1.809673
4521.000000;1.809178
4520.000000;1.808460
4519.000000;1.807609
4518.000000;1.806756
4517.000000;1.806131
4516.000000;1.805986
4515.000000;1.806281
4514.000000;1.806618
4513.000000;1.806645
4512.000000;1.806378
4511.000000;1.805953
4510.000000;1.805263
4509.000000;1.804200
4508.000000;1.803159
4507.000000;1.802879
4506.000000;1.803636
4505.000000;1.804831
4504.000000;1.805572
4503.000000;1.805489
4502.000000;1.804884
4501.000000;1.804251
4500.000000;1.803861
4499.000000;1.803729
4498.000000;1.803768
4497.000000;1.803974
4496.000000;1.804515
4495.000000;1.805521
4494.000000;1.806699
4493.000000;1.807344
4492.000000;1.806940
4491.000000;1.805690
4490.000000;1.804269
4489.000000;1.803145
4488.000000;1.802382
4487.000000;1.801976
4486.000000;1.802021
4485.000000;1.802422
4484.000000;1.802769
4483.000000;1.802743
4482.000000;1.802492
4481.000000;1.802376
4480.000000;1.802451
4479.000000;1.802481
4478.000000;1.802425
4477.000000;1.802601
4476.000000;1.803240
4475.000000;1.804123
4474.000000;1.804861
4473.000000;1.805431
4472.000000;1.806159
4471.000000;1.807154
4470.000000;1.808051
4469.000000;1.808471
4468.000000;1.808533
4467.000000;1.808698
4466.000000;1.809176
4465.000000;1.809741
4464.000000;1.810089
4463.000000;1.810196
4462.000000;1.810299
4461.000000;1.810649
4460.000000;1.811310
4459.000000;1.812055
4458.000000;1.812475
4457.000000;1.812420
4456.000000;1.812379
4455.000000;1.813139
4454.000000;1.814914
4453.000000;1.817038
4452.000000;1.818707
4451.000000;1.819867
4450.000000;1.821120
4449.000000;1.822942
4448.000000;1.825313
4447.000000;1.827962
4446.000000;1.830485
4445.000000;1.832233
4444.000000;1.832624
4443.000000;1.831884
4442.000000;1.831175
4441.000000;1.831671
4440.000000;1.833546
4439.000000;1.836019
4438.000000;1.838303
4437.000000;1.840270
4436.000000;1.842197
4435.000000;1.844169
4434.000000;1.845973
4433.000000;1.847479
4432.000000;1.848902
4431.000000;1.850625
4430.000000;1.852816
4429.000000;1.855267
4428.000000;1.857515
4427.000000;1.859157
4426.000000;1.860172
4425.000000;1.861012
4424.000000;1.862299
4423.000000;1.864305
4422.000000;1.866736
4421.000000;1.869118
4420.000000;1.871317
4419.000000;1.873484
4418.000000;1.875617
4417.000000;1.877578
4416.000000;1.879578
4415.000000;1.882134
4414.000000;1.885291
4413.000000;1.888330
4412.000000;1.890650
4411.000000;1.892642
4410.000000;1.895130
4409.000000;1.898171
4408.000000;1.901016
4407.000000;1.903221
4406.000000;1.905169
4405.000000;1.907417
4404.000000;1.910084
4403.000000;1.913069
4402.000000;1.916266
4401.000000;1.919235
4400.000000;1.921255
4399.000000;1.922215
4398.000000;1.923037
4397.000000;1.924708
4396.000000;1.927242
4395.000000;1.930045
4394.000000;1.932966
4393.000000;1.936386
4392.000000;1.940388
4391.000000;1.944486
4390.000000;1.948201
4389.000000;1.951389
4388.000000;1.953973
4387.000000;1.955970
4386.000000;1.957888
4385.000000;1.960411
4384.000000;1.963365
4383.000000;1.965635
4382.000000;1.966617
4381.000000;1.967258
4380.000000;1.968944
4379.000000;1.971748
4378.000000;1.974475
4377.000000;1.976284
4376.000000;1.977617
4375.000000;1.979411
4374.000000;1.981971
4373.000000;1.984853
4372.000000;1.987417
4371.000000;1.989199
4370.000000;1.990179
4369.000000;1.991136
4368.000000;1.993271
4367.000000;1.996900
4366.000000;2.000921
4365.000000;2.004170
4364.000000;2.007030
4363.000000;2.010825
4362.000000;2.015630
4361.000000;2.019614
4360.000000;2.020991
4359.000000;2.020038
4358.000000;2.018543
4357.000000;2.017858
4356.000000;2.018316
4355.000000;2.019965
4354.000000;2.022860
4353.000000;2.026629
4352.000000;2.030474
4351.000000;2.033823
4350.000000;2.036625
4349.000000;2.038954
4348.000000;2.040780
4347.000000;2.042327
4346.000000;2.044228
4345.000000;2.046932
4344.000000;2.050029
4343.000000;2.052337
4342.000000;2.052734
4341.000000;2.051205
4340.000000;2.049163
4339.000000;2.048402
4338.000000;2.049547
4337.000000;2.051786
4336.000000;2.054276
4335.000000;2.057239
4334.000000;2.060964
4333.000000;2.064322
4332.000000;2.065526
4331.000000;2.064451
4330.000000;2.063019
4329.000000;2.063026
4328.000000;2.064714
4327.000000;2.067604
4326.000000;2.071404
4325.000000;2.075417
4324.000000;2.078263
4323.000000;2.079394
4322.000000;2.080141
4321.000000;2.082002
4320.000000;2.084661
4319.000000;2.086980
4318.000000;2.089146
4317.000000;2.092325
4316.000000;2.096327
4315.000000;2.099171
4314.000000;2.099886
4313.000000;2.100170
4312.000000;2.101902
4311.000000;2.104525
4310.000000;2.106297
4309.000000;2.107116
4308.000000;2.108386
4307.000000;2.110457
4306.000000;2.112083
4305.000000;2.112666
4304.000000;2.113505
4303.000000;2.116112
4302.000000;2.120437
4301.000000;2.125480
4300.000000;2.130658
4299.000000;2.135524
4298.000000;2.138954
4297.000000;2.140090
4296.000000;2.139636
4295.000000;2.139376
4294.000000;2.140535
4293.000000;2.142757
4292.000000;2.145075
4291.000000;2.147512
4290.000000;2.150836
4289.000000;2.155172
4288.000000;2.159758
4287.000000;2.164015
4286.000000;2.168145
4285.000000;2.172343
4284.000000;2.175975
4283.000000;2.177918
4282.000000;2.177738
4281.000000;2.176721
4280.000000;2.177221
4279.000000;2.180597
4278.000000;2.185931
4277.000000;2.190811
4276.000000;2.193629
4275.000000;2.194988
4274.000000;2.196757
4273.000000;2.200114
4272.000000;2.204590
4271.000000;2.208934
4270.000000;2.212779
4269.000000;2.216811
4268.000000;2.221549
4267.000000;2.226517
4266.000000;2.230253
4265.000000;2.231638
4264.000000;2.231579
4263.000000;2.232458
4262.000000;2.235702
4261.000000;2.240542
4260.000000;2.245473
4259.000000;2.250156
4258.000000;2.254851
4257.000000;2.258609
4256.000000;2.259931
4255.000000;2.259430
4254.000000;2.259552
4253.000000;2.261499
4252.000000;2.264135
4251.000000;2.266431
4250.000000;2.269746
4249.000000;2.275948
4248.000000;2.284440
4247.000000;2.292808
4246.000000;2.299638
4245.000000;2.304879
4244.000000;2.307778
4243.000000;2.307290
4242.000000;2.305712
4241.000000;2.307926
4240.000000;2.316002
4239.000000;2.325886
4238.000000;2.330754
4237.000000;2.328369
4236.000000;2.323825
4235.000000;2.324383
4234.000000;2.333856
4233.000000;2.351462
4232.000000;2.372049
4231.000000;2.387066
4230.000000;2.389373
4229.000000;2.379696
4228.000000;2.367847
4227.000000;2.364511
4226.000000;2.372149
4225.000000;2.385001
4224.000000;2.396128
4223.000000;2.403035
4222.000000;2.406631
4221.000000;2.406816
4220.000000;2.401994
4219.000000;2.393432
4218.000000;2.386397
4217.000000;2.386561
4216.000000;2.396676
4215.000000;2.413910
4214.000000;2.430418
4213.000000;2.439269
4212.000000;2.440259
4211.000000;2.438748
4210.000000;2.439109
4209.000000;2.440687
4208.000000;2.440240
4207.000000;2.437710
4206.000000;2.437719
4205.000000;2.444843
4204.000000;2.459851
4203.000000;2.480108
4202.000000;2.500606
4201.000000;2.513709
4200.000000;2.510928
4199.000000;2.490936
4198.000000;2.464441
4197.000000;2.445623
4196.000000;2.440974
4195.000000;2.446728
4194.000000;2.454905
4193.000000;2.462518
4192.000000;2.474597
4191.000000;2.495932
4190.000000;2.522231
4189.000000;2.542010
4188.000000;2.547510
4187.000000;2.540908
4186.000000;2.527335
4185.000000;2.508553
4184.000000;2.486102
4183.000000;2.465972
4182.000000;2.456345
4181.000000;2.460716
4180.000000;2.477607
4179.000000;2.503684
4178.000000;2.533402
4177.000000;2.557965
4176.000000;2.568156
4175.000000;2.562293
4174.000000;2.544883
4173.000000;2.524857
4172.000000;2.514904
4171.000000;2.520742
4170.000000;2.533531
4169.000000;2.537924
4168.000000;2.532942
4167.000000;2.536440
4166.000000;2.561705
4165.000000;2.600925
4164.000000;2.635077
4163.000000;2.656961
4162.000000;2.670497
4161.000000;2.667911
4160.000000;2.638888
4159.000000;2.599703
4158.000000;2.580985
4157.000000;2.600877
4156.000000;2.653058
4155.000000;2.696616
4154.000000;2.686848
4153.000000;2.632669
4152.000000;2.570495
4151.000000;2.534809
4150.000000;2.539346
4149.000000;2.563995
4148.000000;2.573513
4147.000000;2.558108
4146.000000;2.541316
4145.000000;2.539442
4144.000000;2.540747
4143.000000;2.529156
4142.000000;2.515577
4141.000000;2.521227
4140.000000;2.544241
4139.000000;2.560020
4138.000000;2.550033
4137.000000;2.523553
4136.000000;2.505982
4135.000000;2.521116
4134.000000;2.582720
4133.000000;2.680818
4132.000000;2.764724
4131.000000;2.777212
4130.000000;2.732523
4129.000000;2.679114
4128.000000;2.626494
4127.000000;2.564216
4126.000000;2.510539
4125.000000;2.499696
4124.000000;2.544457
4123.000000;2.624252
4122.000000;2.692474
4121.000000;2.718098
4120.000000;2.716959
4119.000000;2.700042
4118.000000;2.653115
4117.000000;2.598892
4116.000000;2.573603
4115.000000;2.578898
4114.000000;2.592975
4113.000000;2.598443
4112.000000;2.599910
4111.000000;2.607025
4110.000000;2.607698
4109.000000;2.582908
4108.000000;2.544200
4107.000000;2.519862
4106.000000;2.526853
4105.000000;2.572230
4104.000000;2.657776
4103.000000;2.746977
4102.000000;2.726936
4101.000000;2.615984
4100.000000;2.540075
4099.000000;2.551582
4098.000000;2.654471
4097.000000;2.779444
4096.000000;2.772778
4095.000000;2.641479
4094.000000;2.532596
4093.000000;2.488759
4092.000000;2.486063
4091.000000;2.501285
4090.000000;2.538890
4089.000000;2.593101
4088.000000;2.611382
4087.000000;2.578412
4086.000000;2.524447
4085.000000;2.477642
4084.000000;2.469565
4083.000000;2.506742
4082.000000;2.564631
4081.000000;2.596094
4080.000000;2.569180
4079.000000;2.505233
4078.000000;2.452544
4077.000000;2.448532
4076.000000;2.504468
4075.000000;2.588385
4074.000000;2.605444
4073.000000;2.536797
4072.000000;2.482777
4071.000000;2.491794
4070.000000;2.537773
4069.000000;2.541881
4068.000000;2.484158
4067.000000;2.417824
4066.000000;2.371948
4065.000000;2.353059
4064.000000;2.357373
4063.000000;2.371580
4062.000000;2.391184
4061.000000;2.420265
4060.000000;2.441828
4059.000000;2.434319
4058.000000;2.422262
4057.000000;2.444261
4056.000000;2.491822
4055.000000;2.507849
4054.000000;2.458071
4053.000000;2.378971
4052.000000;2.316684
4051.000000;2.290513
4050.000000;2.297365
4049.000000;2.325612
4048.000000;2.371555
4047.000000;2.438708
4046.000000;2.523250
4045.000000;2.583952
4044.000000;2.573269
4043.000000;2.522474
4042.000000;2.477169
4041.000000;2.462265
4040.000000;2.480912
4039.000000;2.502442
4038.000000;2.496736
4037.000000;2.472543
4036.000000;2.470709
4035.000000;2.544074
4034.000000;2.688222
4033.000000;2.742248
4032.000000;2.701021
4031.000000;2.692735
4030.000000;2.672931
4029.000000;2.606896
4028.000000;2.551536
4027.000000;2.560076
4026.000000;2.669584
4025.000000;2.902455
4024.000000;2.878615
4023.000000;2.636130
4022.000000;2.516682
4021.000000;2.465753
4020.000000;2.463175
4019.000000;2.497004
4018.000000;2.548601
4017.000000;2.604002
4016.000000;2.661622
4015.000000;2.726423
4014.000000;2.803902
4013.000000;2.828721
4012.000000;2.686691
4011.000000;2.485074
4010.000000;2.357471
4009.000000;2.340533
4008.000000;2.435784
4007.000000;2.658650
4006.000000;3.045059
4005.000000;3.030099
4004.000000;2.773383
4003.000000;2.744980
4002.000000;2.987563
4001.000000;3.319082
4000.000000;2.967247
3999.000000;2.838655
3998.000000;2.807284
3997.000000;2.718195
3996.000000;2.586163
3995.000000;2.518539
3994.000000;2.557245
3993.000000;2.696356
3992.000000;2.800241
3991.000000;2.820240
3990.000000;2.906690
3989.000000;2.813535
3988.000000;2.628227
3987.000000;2.517849
3986.000000;2.480755
3985.000000;2.520333
3984.000000;2.612208
3983.000000;2.712495
3982.000000;2.773045
3981.000000;2.803933
3980.000000;2.861722
3979.000000;2.917688
3978.000000;2.890772
3977.000000;2.856967
3976.000000;2.847851
3975.000000;2.785706
3974.000000;2.664897
3973.000000;2.587900
3972.000000;2.602219
3971.000000;2.791285
3970.000000;3.179362
3969.000000;2.927854
3968.000000;2.674948
3967.000000;2.647696
3966.000000;2.699597
3965.000000;2.782192
3964.000000;2.787511
3963.000000;2.738144
3962.000000;2.749259
3961.000000;2.845363
3960.000000;2.983772
3959.000000;3.104086
3958.000000;3.174423
3957.000000;3.176260
3956.000000;3.163191
3955.000000;3.191755
3954.000000;3.125615
3953.000000;2.950223
3952.000000;2.910647
3951.000000;3.113561
3950.000000;3.196938
3949.000000;2.917045
3948.000000;2.793775
3947.000000;2.736106
3946.000000;2.727961
3945.000000;2.838668
3944.000000;2.974766
3943.000000;2.924044
3942.000000;2.900739
3941.000000;2.865398
3940.000000;2.747965
3939.000000;2.702002
3938.000000;2.759944
3937.000000;2.878063
3936.000000;2.948805
3935.000000;2.939168
3934.000000;2.918784
3933.000000;2.890411
3932.000000;2.808938
3931.000000;2.753109
3930.000000;2.816037
3929.000000;3.115206
3928.000000;3.953840
3927.000000;3.866766
3926.000000;3.414684
3925.000000;3.142326
3924.000000;3.010463
3923.000000;2.991531
3922.000000;3.091799
3921.000000;3.406295
3920.000000;3.406203
3919.000000;3.047419
3918.000000;2.941030
3917.000000;2.995849
3916.000000;3.208179
3915.000000;3.470829
3914.000000;3.562198
3913.000000;3.280065
3912.000000;2.906364
3911.000000;2.695818
3910.000000;2.586369
3909.000000;2.546311
3908.000000;2.563163
3907.000000;2.619141
3906.000000;2.728389
3905.000000;2.944018
3904.000000;3.264670
3903.000000;3.445010
3902.000000;3.700534
3901.000000;3.732381
3900.000000;3.090265
3899.000000;2.807686
3898.000000;2.687308
3897.000000;2.653063
3896.000000;2.699048
3895.000000;2.832313
3894.000000;3.075576
3893.000000;3.431395
3892.000000;3.996147
3891.000000;4.290146
3890.000000;3.611929
3889.000000;3.266024
3888.000000;3.148465
3887.000000;3.300008
3886.000000;3.506730
3885.000000;3.416624
3884.000000;3.572196
3883.000000;3.580266
3882.000000;3.322374
3881.000000;3.209801
3880.000000;3.143129
3879.000000;3.091305
3878.000000;3.010461
3877.000000;2.871018
3876.000000;2.751026
3875.000000;2.751638
3874.000000;2.930474
3873.000000;3.208234
3872.000000;3.311860
3871.000000;3.469623
3870.000000;3.658652
3869.000000;3.526338
3868.000000;3.468611
3867.000000;3.444930
3866.000000;3.580218
3865.000000;3.832757
3864.000000;3.942230
3863.000000;4.436156
3862.000000;4.115235
3861.000000;3.753281
3860.000000;3.559455
3859.000000;3.383816
3858.000000;3.261241
3857.000000;3.264886
3856.000000;3.559224
3855.000000;3.592188
3854.000000;3.278094
3853.000000;3.138681
3852.000000;3.043828
3851.000000;3.002085
3850.000000;3.107461
3849.000000;3.513705
3848.000000;3.555859
3847.000000;3.185792
3846.000000;3.045804
3845.000000;2.975366
3844.000000;2.970810
3843.000000;3.048892
3842.000000;3.208365
3841.000000;3.470989
3840.000000;3.978721
3839.000000;3.891296
3838.000000;3.609333
3837.000000;3.598316
3836.000000;3.538232
3835.000000;3.432954
3834.000000;3.326321
3833.000000;3.360197
3832.000000;3.617801
3831.000000;3.640357
3830.000000;3.544815
3829.000000;3.682246
3828.000000;3.613258
3827.000000;3.321570
3826.000000;3.168381
3825.000000;3.163298
3824.000000;3.235186
3823.000000;3.309292
3822.000000;3.378560
3821.000000;3.448912
3820.000000;3.493518
3819.000000;3.500870
3818.000000;3.521975
3817.000000;3.654659
3816.000000;3.854086
3815.000000;3.923444
3814.000000;3.823789
3813.000000;3.994552
3812.000000;4.296716
3811.000000;3.722031
3810.000000;3.512258
3809.000000;3.407807
3808.000000;3.344713
3807.000000;3.435560
3806.000000;3.648737
3805.000000;3.572958
3804.000000;3.289723
3803.000000;3.147821
3802.000000;3.121688
3801.000000;3.204262
3800.000000;3.353309
3799.000000;3.582880
3798.000000;3.860474
3797.000000;3.694730
3796.000000;3.560195
3795.000000;3.663772
3794.000000;3.673397
3793.000000;3.357203
3792.000000;3.151709
3791.000000;3.204283
3790.000000;3.351001
3789.000000;3.154296
3788.000000;2.993649
3787.000000;2.968899
3786.000000;3.010183
3785.000000;3.148507
3784.000000;3.324476
3783.000000;3.340472
3782.000000;3.263858
3781.000000;3.227148
3780.000000;3.191627
3779.000000;3.161866
3778.000000;3.188867
3777.000000;3.260982
3776.000000;3.349168
3775.000000;3.575837
3774.000000;3.556289
3773.000000;3.222595
3772.000000;3.036954
3771.000000;2.992165
3770.000000;3.094829
3769.000000;3.344672
3768.000000;3.612550
3767.000000;3.597061
3766.000000;3.444384
3765.000000;3.331089
3764.000000;3.239447
3763.000000;3.130779
3762.000000;3.059226
3761.000000;3.163288
3760.000000;3.353555
3759.000000;3.389257
3758.000000;3.480608
3757.000000;3.596209
3756.000000;3.514695
3755.000000;3.349392
3754.000000;3.268587
3753.000000;3.317900
3752.000000;3.467602
3751.000000;3.552494
3750.000000;3.476915
3749.000000;3.467655
3748.000000;3.645962
3747.000000;3.782352
3746.000000;3.556149
3745.000000;3.407377
3744.000000;3.360793
3743.000000;3.289810
3742.000000;3.175410
3741.000000;3.182223
3740.000000;3.471298
3739.000000;3.433512
3738.000000;3.202295
3737.000000;3.218714
3736.000000;3.297948
3735.000000;3.518979
3734.000000;4.044775
3733.000000;3.967563
3732.000000;3.799069
3731.000000;4.011775
3730.000000;3.832294
3729.000000;3.433012
3728.000000;3.196508
3727.000000;3.154166
3726.000000;3.256953
3725.000000;3.351749
3724.000000;3.320483
3723.000000;3.292064
3722.000000;3.395150
3721.000000;3.651871
3720.000000;3.895923
3719.000000;3.881352
3718.000000;3.856279
3717.000000;3.636608
3716.000000;3.439127
3715.000000;3.432991
3714.000000;3.638362
3713.000000;4.009355
3712.000000;3.689650
3711.000000;3.354904
3710.000000;3.207152
3709.000000;3.202212
3708.000000;3.337523
3707.000000;3.543130
3706.000000;3.769680
3705.000000;3.855585
3704.000000;4.093349
3703.000000;3.791631
3702.000000;3.463260
3701.000000;3.574062
3700.000000;3.613616
3699.000000;3.700092
3698.000000;3.613621
3697.000000;3.219758
3696.000000;3.183901
3695.000000;3.149766
3694.000000;2.920480
3693.000000;2.801777
3692.000000;2.823822
3691.000000;2.918247
3690.000000;3.020379
3689.000000;3.163452
3688.000000;3.413980
3687.000000;3.688688
3686.000000;3.618792
3685.000000;3.414409
3684.000000;3.302111
3683.000000;3.190344
3682.000000;3.159248
3681.000000;3.360368
3680.000000;3.577605
3679.000000;3.406638
3678.000000;3.297114
3677.000000;3.258587
3676.000000;3.299126
3675.000000;3.560214
3674.000000;3.901521
3673.000000;3.709417
3672.000000;3.579882
3671.000000;3.758638
3670.000000;4.418875
3669.000000;4.467872
3668.000000;4.046025
3667.000000;3.626244
3666.000000;3.388828
3665.000000;3.334897
3664.000000;3.438720
3663.000000;4.003873
3662.000000;3.518979
3661.000000;3.105894
3660.000000;2.999782
3659.000000;3.017452
3658.000000;3.110073
3657.000000;3.207088
3656.000000;3.324247
3655.000000;3.383006
3654.000000;3.378832
3653.000000;3.421975
3652.000000;3.312100
3651.000000;3.116534
3650.000000;3.089950
3649.000000;3.199340
3648.000000;3.415586
3647.000000;3.900010
3646.000000;4.144776
3645.000000;3.754751
3644.000000;3.581527
3643.000000;3.498031
3642.000000;3.664365
3641.000000;3.644517
3640.000000;3.402971
3639.000000;3.282803
3638.000000;3.118752
3637.000000;3.020216
3636.000000;3.020649
3635.000000;3.064272
3634.000000;3.115170
3633.000000;3.204623
3632.000000;3.352837
3631.000000;3.388967
3630.000000;3.374208
3629.000000;3.469677
3628.000000;3.606953
3627.000000;3.876877
3626.000000;3.543241
3625.000000;3.019489
3624.000000;2.847922
3623.000000;2.884644
3622.000000;3.022959
3621.000000;3.206117
3620.000000;3.302765
3619.000000;3.326657
3618.000000;3.264593
3617.000000;3.162501
3616.000000;3.119298
3615.000000;3.256284
3614.000000;3.739561
3613.000000;3.605725
3612.000000;3.324066
3611.000000;3.283785
3610.000000;3.197400
3609.000000;3.000164
3608.000000;2.823999
3607.000000;2.764228
3606.000000;2.841136
3605.000000;2.925632
3604.000000;2.880094
3603.000000;2.898925
3602.000000;3.056393
3601.000000;3.320435
3600.000000;3.591637
3599.000000;3.491471
3598.000000;3.334241
3597.000000;3.351753
3596.000000;3.415377
3595.000000;3.616894
3594.000000;3.705052
3593.000000;3.290804
3592.000000;3.116672
3591.000000;3.119802
3590.000000;3.201711
3589.000000;3.220807
3588.000000;3.136704
3587.000000;3.076874
3586.000000;3.033556
3585.000000;2.965348
3584.000000;2.925044
3583.000000;2.960767
3582.000000;3.081479
3581.000000;3.219866
3580.000000;3.482754
3579.000000;4.056753
3578.000000;3.610748
3577.000000;3.399553
3576.000000;3.317866
3575.000000;3.232366
3574.000000;3.162286
3573.000000;3.035892
3572.000000;2.911020
3571.000000;2.857392
3570.000000;2.972257
3569.000000;3.427888
3568.000000;3.406740
3567.000000;3.108044
3566.000000;3.391579
3565.000000;3.719681
3564.000000;3.419571
3563.000000;3.518853
3562.000000;3.352555
3561.000000;3.015138
3560.000000;2.852881
3559.000000;2.802622
3558.000000;2.838321
3557.000000;2.911818
3556.000000;2.946140
3555.000000;2.959410
3554.000000;2.999813
3553.000000;3.017589
3552.000000;3.003211
3551.000000;3.025588
3550.000000;3.105424
3549.000000;3.193950
3548.000000;3.202574
3547.000000;3.195815
3546.000000;3.339478
3545.000000;3.292964
3544.000000;2.969657
3543.000000;2.781939
3542.000000;2.720881
3541.000000;2.758377
3540.000000;2.887896
3539.000000;3.323948
3538.000000;3.383931
3537.000000;2.945051
3536.000000;2.870324
3535.000000;2.873610
3534.000000;2.963532
3533.000000;3.192943
3532.000000;3.297829
3531.000000;3.269834
3530.000000;3.530921
3529.000000;3.732187
3528.000000;3.218349
3527.000000;3.019352
3526.000000;3.015388
3525.000000;3.189008
3524.000000;3.388450
3523.000000;3.162813
3522.000000;3.019188
3521.000000;2.988882
3520.000000;3.008955
3519.000000;3.075971
3518.000000;3.223947
3517.000000;3.545998
3516.000000;3.580452
3515.000000;3.396832
3514.000000;3.472498
3513.000000;3.474826
3512.000000;3.522021
3511.000000;3.598753
3510.000000;3.254401
3509.000000;3.039016
3508.000000;2.999194
3507.000000;3.076634
3506.000000;3.137270
3505.000000;2.985660
3504.000000;2.826912
3503.000000;2.768052
3502.000000;2.801650
3501.000000;2.925438
3500.000000;3.126912
3499.000000;3.381145
3498.000000;3.615476
3497.000000;3.659392
3496.000000;3.597523
3495.000000;3.371991
3494.000000;3.124585
3493.000000;2.949274
3492.000000;2.845270
3491.000000;2.826558
3490.000000;2.867579
3489.000000;2.897382
3488.000000;2.929075
3487.000000;3.390433
3486.000000;3.588072
3485.000000;3.010213
3484.000000;3.269182
3483.000000;3.434709
3482.000000;2.973572
3481.000000;2.912948
3480.000000;3.096179
3479.000000;3.474689
3478.000000;3.870015
3477.000000;3.499387
3476.000000;3.203943
3475.000000;3.070536
3474.000000;3.057748
3473.000000;3.137217
3472.000000;3.184999
3471.000000;3.207501
3470.000000;3.308991
3469.000000;3.368243
3468.000000;3.328833
3467.000000;3.465522
3466.000000;3.945822
3465.000000;3.830554
3464.000000;3.300615
3463.000000;3.064167
3462.000000;2.993914
3461.000000;3.064797
3460.000000;3.255419
3459.000000;3.325070
3458.000000;3.146541
3457.000000;3.065957
3456.000000;3.172846
3455.000000;3.241154
3454.000000;3.078456
3453.000000;2.954322
3452.000000;2.899233
3451.000000;2.885181
3450.000000;2.916287
3449.000000;2.983202
3448.000000;3.029011
3447.000000;2.947076
3446.000000;2.820019
3445.000000;2.756346
3444.000000;2.757505
3443.000000;2.808298
3442.000000;2.904714
3441.000000;3.102777
3440.000000;3.345447
3439.000000;3.116174
3438.000000;2.914336
3437.000000;2.878576
3436.000000;2.978518
3435.000000;3.156022
3434.000000;3.227730
3433.000000;3.235407
3432.000000;3.427670
3431.000000;3.619220
3430.000000;3.427873
3429.000000;3.419830
3428.000000;3.721572
3427.000000;4.474869
3426.000000;3.894215
3425.000000;3.293716
3424.000000;2.956407
3423.000000;2.769913
3422.000000;2.672684
3421.000000;2.663030
3420.000000;2.748701
3419.000000;3.013199
3418.000000;3.886512
3417.000000;3.234548
3416.000000;3.045731
3415.000000;3.065121
3414.000000;3.173261
3413.000000;3.566143
3412.000000;3.574667
3411.000000;3.110212
3410.000000;2.998403
3409.000000;3.000570
3408.000000;3.058937
3407.000000;3.112925
3406.000000;3.075495
3405.000000;3.031912
3404.000000;3.114759
3403.000000;3.345849
3402.000000;3.711342
3401.000000;3.641649
3400.000000;3.176974
3399.000000;2.920044
3398.000000;2.821835
3397.000000;2.778390
3396.000000;2.721273
3395.000000;2.714190
3394.000000;2.807931
3393.000000;2.935591
3392.000000;2.953181
3391.000000;2.934586
3390.000000;2.977687
3389.000000;3.071739
3388.000000;3.074402
3387.000000;2.930995
3386.000000;2.842637
3385.000000;2.907132
3384.000000;3.308859
3383.000000;3.352412
3382.000000;2.893372
3381.000000;2.842341
3380.000000;2.896028
3379.000000;3.007592
3378.000000;3.105738
3377.000000;3.377213
3376.000000;3.659271
3375.000000;3.255709
3374.000000;3.130275
3373.000000;3.313803
3372.000000;3.318790
3371.000000;3.071420
3370.000000;3.010146
3369.000000;3.108975
3368.000000;3.327265
3367.000000;3.514835
3366.000000;3.431980
3365.000000;3.287860
3364.000000;3.221562
3363.000000;3.249114
3362.000000;3.257074
3361.000000;3.137063
3360.000000;3.008291
3359.000000;2.914179
3358.000000;2.862988
3357.000000;2.877550
3356.000000;2.985776
3355.000000;3.206710
3354.000000;3.697781
3353.000000;4.190285
3352.000000;3.614188
3351.000000;3.439741
3350.000000;3.254781
3349.000000;3.091011
3348.000000;3.003111
3347.000000;3.026980
3346.000000;3.264900
3345.000000;3.399518
3344.000000;2.975634
3343.000000;2.714223
3342.000000;2.599502
3341.000000;2.600676
3340.000000;2.743337
3339.000000;2.984312
3338.000000;2.874835
3337.000000;2.784146
3336.000000;2.837633
3335.000000;2.873624
3334.000000;2.880852
3333.000000;2.999363
3332.000000;3.373590
3331.000000;4.284864
3330.000000;3.930635
3329.000000;3.789541
3328.000000;3.308245
3327.000000;3.307564
3326.000000;3.664825
3325.000000;3.285517
3324.000000;2.862048
3323.000000;2.681117
3322.000000;2.587275
3321.000000;2.578653
3320.000000;2.658744
3319.000000;2.836970
3318.000000;3.261744
3317.000000;3.399619
3316.000000;3.049344
3315.000000;2.927247
3314.000000;2.953164
3313.000000;3.148004
3312.000000;3.562556
3311.000000;3.381309
3310.000000;3.117035
3309.000000;2.987949
3308.000000;2.952401
3307.000000;2.918321
3306.000000;2.843950
3305.000000;2.801019
3304.000000;2.831943
3303.000000;2.932796
3302.000000;3.012928
3301.000000;3.063302
3300.000000;3.268152
3299.000000;3.357316
3298.000000;3.137210
3297.000000;3.072737
3296.000000;3.087685
3295.000000;3.057327
3294.000000;2.927835
3293.000000;2.809793
3292.000000;2.761864
3291.000000;2.803075
3290.000000;2.934589
3289.000000;3.144914
3288.000000;3.261197
3287.000000;3.061506
3286.000000;2.887980
3285.000000;2.812041
3284.000000;2.799788
3283.000000;2.826581
3282.000000;2.866584
3281.000000;2.906544
3280.000000;2.980664
3279.000000;3.119230
3278.000000;3.191412
3277.000000;3.180285
3276.000000;3.093560
3275.000000;2.950214
3274.000000;2.921582
3273.000000;2.949712
3272.000000;3.003012
3271.000000;3.235484
3270.000000;3.290370
3269.000000;3.072148
3268.000000;3.182552
3267.000000;3.565923
3266.000000;3.292576
3265.000000;3.126024
3264.000000;3.620936
3263.000000;3.242543
3262.000000;2.972883
3261.000000;3.043300
3260.000000;3.379950
3259.000000;3.523389
3258.000000;3.702251
3257.000000;3.387160
3256.000000;3.087625
3255.000000;3.012384
3254.000000;3.037468
3253.000000;3.213826
3252.000000;3.660795
3251.000000;3.148150
3250.000000;2.955500
3249.000000;2.926483
3248.000000;2.974887
3247.000000;3.011175
3246.000000;3.272430
3245.000000;3.681791
3244.000000;3.158407
3243.000000;3.052530
3242.000000;3.172096
3241.000000;3.226308
3240.000000;3.003041
3239.000000;2.869082
3238.000000;2.892015
3237.000000;3.202291
3236.000000;3.382098
3235.000000;3.017183
3234.000000;2.856855
3233.000000;2.799602
3232.000000;2.769721
3231.000000;2.731607
3230.000000;2.701842
3229.000000;2.718761
3228.000000;2.801838
3227.000000;2.949858
3226.000000;3.111109
3225.000000;3.210593
3224.000000;3.233956
3223.000000;3.161313
3222.000000;3.044203
3221.000000;2.946299
3220.000000;2.917229
3219.000000;2.987277
3218.000000;3.275949
3217.000000;3.284715
3216.000000;2.976375
3215.000000;2.932663
3214.000000;3.004904
3213.000000;3.136524
3212.000000;3.216648
3211.000000;3.130105
3210.000000;3.001035
3209.000000;2.967756
3208.000000;2.990682
3207.000000;2.998437
3206.000000;3.045478
3205.000000;3.209139
3204.000000;3.400419
3203.000000;3.016310
3202.000000;2.761594
3201.000000;2.682183
3200.000000;2.755266
3199.000000;2.972910
3198.000000;3.221661
3197.000000;3.301773
3196.000000;3.641607
3195.000000;3.803564
3194.000000;3.125574
3193.000000;2.954747
3192.000000;2.914118
3191.000000;3.004787
3190.000000;3.096774
3189.000000;3.113779
3188.000000;3.231036
3187.000000;3.471795
3186.000000;3.526032
3185.000000;3.537912
3184.000000;3.491922
3183.000000;3.422896
3182.000000;3.448512
3181.000000;3.395339
3180.000000;3.219919
3179.000000;3.127318
3178.000000;3.122898
3177.000000;3.143885
3176.000000;3.200578
3175.000000;3.325800
3174.000000;3.545038
3173.000000;3.808248
3172.000000;3.697375
3171.000000;3.773536
3170.000000;3.609931
3169.000000;3.291301
3168.000000;3.299884
3167.000000;3.366207
3166.000000;3.227359
3165.000000;3.136003
3164.000000;3.112222
3163.000000;3.098255
3162.000000;3.012585
3161.000000;2.928224
3160.000000;2.950345
3159.000000;3.198423
3158.000000;3.671192
3157.000000;3.309450
3156.000000;3.565989
3155.000000;3.394476
3154.000000;2.972542
3153.000000;2.919430
3152.000000;3.163531
3151.000000;3.334131
3150.000000;3.157118
3149.000000;3.298486
3148.000000;3.886603
3147.000000;3.309737
3146.000000;3.166628
3145.000000;3.365117
3144.000000;3.738575
3143.000000;3.066170
3142.000000;2.964262
3141.000000;2.982926
3140.000000;2.976033
3139.000000;2.871720
3138.000000;2.842098
3137.000000;3.029159
3136.000000;3.464696
3135.000000;3.153662
3134.000000;2.962783
3133.000000;3.013388
3132.000000;3.094655
3131.000000;3.220344
3130.000000;3.502818
3129.000000;3.529127
3128.000000;3.403759
3127.000000;3.329521
3126.000000;3.228011
3125.000000;3.181692
3124.000000;3.086710
3123.000000;2.957331
3122.000000;2.904737
3121.000000;2.967746
3120.000000;3.201500
3119.000000;3.468167
3118.000000;3.168832
3117.000000;3.195017
3116.000000;3.331272
3115.000000;3.132003
3114.000000;3.071872
3113.000000;3.179404
3112.000000;3.343489
3111.000000;3.426147
3110.000000;3.493639
3109.000000;3.479890
3108.000000;3.443669
3107.000000;3.280498
3106.000000;3.050864
3105.000000;2.921707
3104.000000;2.883034
3103.000000;2.928875
3102.000000;3.135534
3101.000000;2.935942
3100.000000;2.682443
3099.000000;2.609830
3098.000000;2.634349
3097.000000;2.689950
3096.000000;2.722146
3095.000000;2.761568
3094.000000;2.892405
3093.000000;3.223105
3092.000000;4.140264
3091.000000;3.559760
3090.000000;3.237034
3089.000000;3.020031
3088.000000;3.034986
3087.000000;3.267204
3086.000000;3.198247
3085.000000;3.026652
3084.000000;3.063435
3083.000000;3.226367
3082.000000;3.474671
3081.000000;3.481312
3080.000000;3.550943
3079.000000;3.604909
3078.000000;3.371232
3077.000000;3.168910
3076.000000;3.095933
3075.000000;3.112765
3074.000000;3.060729
3073.000000;2.946223
3072.000000;2.938668
3071.000000;3.146038
3070.000000;3.574688
3069.000000;3.079312
3068.000000;2.872736
3067.000000;2.820086
3066.000000;2.829363
3065.000000;2.855345
3064.000000;2.894956
3063.000000;3.065860
3062.000000;3.459131
3061.000000;3.197320
3060.000000;3.021475
3059.000000;3.155512
3058.000000;3.460965
3057.000000;3.199129
3056.000000;3.022232
3055.000000;3.088408
3054.000000;3.524187
3053.000000;3.551258
3052.000000;3.150532
3051.000000;3.079293
3050.000000;3.057456
3049.000000;3.084488
3048.000000;3.232327
3047.000000;3.171825
3046.000000;2.905957
3045.000000;2.755806
3044.000000;2.712068
3043.000000;2.767392
3042.000000;2.931513
3041.000000;3.188918
3040.000000;3.405207
3039.000000;3.705727
3038.000000;4.088800
3037.000000;3.538154
3036.000000;3.412327
3035.000000;3.281134
3034.000000;3.207637
3033.000000;3.224156
3032.000000;3.244234
3031.000000;3.187316
3030.000000;3.148863
3029.000000;3.190876
3028.000000;3.499488
3027.000000;3.928002
3026.000000;3.570650
3025.000000;3.652775
3024.000000;3.516238
3023.000000;3.445602
3022.000000;3.749532
3021.000000;3.342849
3020.000000;3.095321
3019.000000;3.060198
3018.000000;3.140525
3017.000000;3.320527
3016.000000;3.436980
3015.000000;3.364120
3014.000000;3.190031
3013.000000;3.152736
3012.000000;3.281879
3011.000000;3.293395
3010.000000;3.253514
3009.000000;3.351280
3008.000000;3.305804
3007.000000;3.152334
3006.000000;3.012830
3005.000000;2.867223
3004.000000;2.790978
3003.000000;2.819169
3002.000000;2.917781
3001.000000;3.008814
3000.000000;3.083772
2999.000000;3.115761
2998.000000;3.085636
2997.000000;3.090622
2996.000000;3.191693
2995.000000;3.386744
2994.000000;3.474708
2993.000000;3.381781
2992.000000;3.392177
2991.000000;3.661965
2990.000000;3.679464
2989.000000;3.247865
2988.000000;2.927775
2987.000000;2.799734
2986.000000;2.859277
2985.000000;3.203175
2984.000000;4.248132
2983.000000;3.381550
2982.000000;3.287266
2981.000000;3.155693
2980.000000;3.048433
2979.000000;2.995266
2978.000000;2.961725
2977.000000;2.981094
2976.000000;3.121810
2975.000000;3.658945
2974.000000;3.608032
2973.000000;3.184149
2972.000000;3.078293
2971.000000;2.948958
2970.000000;2.882821
2969.000000;2.921819
2968.000000;3.159870
2967.000000;3.250964
2966.000000;3.101808
2965.000000;3.081071
2964.000000;2.949084
2963.000000;2.866068
2962.000000;2.961297
2961.000000;3.052119
2960.000000;3.029846
2959.000000;3.131916
2958.000000;3.156513
2957.000000;2.989798
2956.000000;2.879642
2955.000000;2.875120
2954.000000;3.100105
2953.000000;3.478501
2952.000000;3.178879
2951.000000;3.039750
2950.000000;3.028536
2949.000000;3.089096
2948.000000;3.318433
2947.000000;3.645438
2946.000000;3.388629
2945.000000;3.209157
2944.000000;3.280436
2943.000000;3.260929
2942.000000;3.039433
2941.000000;2.898410
2940.000000;2.841090
2939.000000;2.791744
2938.000000;2.765014
2937.000000;2.806349
2936.000000;2.914722
2935.000000;3.056770
2934.000000;3.383807
2933.000000;3.631342
2932.000000;3.115160
2931.000000;2.978966
2930.000000;3.022995
2929.000000;3.159950
2928.000000;3.276710
2927.000000;3.149577
2926.000000;2.912314
2925.000000;2.756757
2924.000000;2.710244
2923.000000;2.743691
2922.000000;2.836153
2921.000000;3.012227
2920.000000;3.405264
2919.000000;3.770209
2918.000000;3.317041
2917.000000;3.079935
2916.000000;2.981689
2915.000000;2.963210
2914.000000;3.015112
2913.000000;3.188488
2912.000000;3.870012
2911.000000;3.539543
2910.000000;3.346095
2909.000000;3.453164
2908.000000;3.135715
2907.000000;2.976480
2906.000000;3.008266
2905.000000;3.126083
2904.000000;3.144195
2903.000000;3.087281
2902.000000;3.141744
2901.000000;3.526305
2900.000000;3.812686
2899.000000;3.186369
2898.000000;3.031299
2897.000000;3.004367
2896.000000;2.991894
2895.000000;2.931737
2894.000000;2.927223
2893.000000;3.006917
2892.000000;2.989211
2891.000000;2.937251
2890.000000;3.003316
2889.000000;3.076708
2888.000000;2.974299
2887.000000;2.847578
2886.000000;2.788923
2885.000000;2.764403
2884.000000;2.745119
2883.000000;2.765166
2882.000000;2.894772
2881.000000;3.132420
2880.000000;3.226313
2879.000000;3.146785
2878.000000;3.132619
2877.000000;3.175301
2876.000000;2.986889
2875.000000;2.824096
2874.000000;2.863864
2873.000000;3.074758
2872.000000;3.523702
2871.000000;3.493804
2870.000000;3.049631
2869.000000;2.949331
2868.000000;3.006185
2867.000000;3.267634
2866.000000;3.535198
2865.000000;3.403282
2864.000000;3.335682
2863.000000;3.082950
2862.000000;2.908940
2861.000000;2.950970
2860.000000;3.159649
2859.000000;3.305273
2858.000000;3.330410
2857.000000;3.236134
2856.000000;3.047849
2855.000000;2.950744
2854.000000;2.984027
2853.000000;3.099993
2852.000000;3.362751
2851.000000;3.821377
2850.000000;3.359494
2849.000000;3.106902
2848.000000;2.925521
2847.000000;2.801020
2846.000000;2.794082
2845.000000;2.879271
2844.000000;3.004090
2843.000000;3.087372
2842.000000;3.125169
2841.000000;3.085098
2840.000000;3.024868
2839.000000;3.080213
2838.000000;3.094675
2837.000000;2.872386
2836.000000;2.705863
2835.000000;2.693246
2834.000000;2.769557
2833.000000;2.769302
2832.000000;2.731791
2831.000000;2.794212
2830.000000;2.910126
2829.000000;2.917527
2828.000000;2.853285
2827.000000;2.841352
2826.000000;2.889286
2825.000000;2.957813
2824.000000;2.990319
2823.000000;2.978224
2822.000000;2.951888
2821.000000;2.933348
2820.000000;2.911128
2819.000000;2.893047
2818.000000;2.915813
2817.000000;3.014111
2816.000000;3.357999
2815.000000;3.753838
2814.000000;3.238467
2813.000000;3.052782
2812.000000;3.369751
2811.000000;3.489385
2810.000000;2.937439
2809.000000;2.785840
2808.000000;2.831212
2807.000000;3.065737
2806.000000;3.285669
2805.000000;3.129748
2804.000000;3.042750
2803.000000;3.061524
2802.000000;3.245133
2801.000000;3.435205
2800.000000;3.210037
2799.000000;3.082430
2798.000000;3.076607
2797.000000;3.058215
2796.000000;3.025864
2795.000000;3.037666
2794.000000;3.292841
2793.000000;3.496300
2792.000000;3.169536
2791.000000;3.090775
2790.000000;2.968762
2789.000000;2.841800
2788.000000;2.811729
2787.000000;2.825032
2786.000000;2.813666
2785.000000;2.787197
2784.000000;2.807746
2783.000000;2.917238
2782.000000;3.347854
2781.000000;3.342572
2780.000000;2.913704
2779.000000;2.791592
2778.000000;2.792000
2777.000000;2.897737
2776.000000;3.043307
2775.000000;3.124339
2774.000000;3.117887
2773.000000;2.961016
2772.000000;2.808568
2771.000000;2.723216
2770.000000;2.665526
2769.000000;2.614835
2768.000000;2.600415
2767.000000;2.660714
2766.000000;2.850401
2765.000000;3.106511
2764.000000;3.074843
2763.000000;2.990562
2762.000000;2.949004
2761.000000;2.978436
2760.000000;3.115345
2759.000000;3.099021
2758.000000;3.008549
2757.000000;3.108383
2756.000000;3.577260
2755.000000;3.486887
2754.000000;3.163597
2753.000000;3.122297
2752.000000;3.090245
2751.000000;3.182133
2750.000000;3.155058
2749.000000;2.925465
2748.000000;2.831454
2747.000000;2.841994
2746.000000;2.874408
2745.000000;2.899951
2744.000000;2.945387
2743.000000;3.037643
2742.000000;3.183870
2741.000000;3.370926
2740.000000;3.444354
2739.000000;3.301132
2738.000000;3.134218
2737.000000;3.013389
2736.000000;2.975390
2735.000000;2.965547
2734.000000;3.098988
2733.000000;3.511094
2732.000000;3.213328
2731.000000;2.934145
2730.000000;2.961088
2729.000000;3.291028
2728.000000;3.497989
2727.000000;3.107592
2726.000000;2.947186
2725.000000;2.899306
2724.000000;2.886747
2723.000000;2.986494
2722.000000;3.431871
2721.000000;3.476329
2720.000000;3.125303
2719.000000;3.119213
2718.000000;3.197334
2717.000000;3.087066
2716.000000;2.818787
2715.000000;2.681863
2714.000000;2.699909
2713.000000;2.893689
2712.000000;3.405570
2711.000000;3.465691
2710.000000;3.081267
2709.000000;3.032893
2708.000000;3.046324
2707.000000;3.133027
2706.000000;3.619179
2705.000000;4.034292
2704.000000;3.720431
2703.000000;3.534346
2702.000000;3.057361
2701.000000;2.849997
2700.000000;2.802909
2699.000000;2.893638
2698.000000;3.297635
2697.000000;3.469897
2696.000000;3.185908
2695.000000;3.237282
2694.000000;3.258065
2693.000000;3.021655
2692.000000;2.861431
2691.000000;2.822302
2690.000000;2.944053
2689.000000;3.120030
2688.000000;2.966699
2687.000000;2.821251
2686.000000;2.799808
2685.000000;2.840043
2684.000000;2.909501
2683.000000;2.963322
2682.000000;2.954317
2681.000000;2.912809
2680.000000;2.925192
2679.000000;3.011719
2678.000000;3.112277
2677.000000;3.198695
2676.000000;3.357400
2675.000000;3.192015
2674.000000;2.926447
2673.000000;2.826154
2672.000000;2.813978
2671.000000;2.879477
2670.000000;2.990636
2669.000000;3.011193
2668.000000;2.956529
2667.000000;2.988484
2666.000000;3.171423
2665.000000;3.424924
2664.000000;3.455102
2663.000000;3.444394
2662.000000;3.304159
2661.000000;2.980333
2660.000000;2.812110
2659.000000;2.796149
2658.000000;2.995945
2657.000000;3.317184
2656.000000;3.792347
2655.000000;3.789925
2654.000000;2.980800
2653.000000;2.808273
2652.000000;2.860408
2651.000000;3.027925
2650.000000;3.295719
2649.000000;3.101933
2648.000000;2.815497
2647.000000;2.705800
2646.000000;2.777306
2645.000000;3.106914
2644.000000;3.152296
2643.000000;2.904852
2642.000000;2.886823
2641.000000;3.020708
2640.000000;3.347490
2639.000000;3.446129
2638.000000;3.433693
2637.000000;3.521112
2636.000000;3.459689
2635.000000;3.546383
2634.000000;3.243954
2633.000000;3.365699
2632.000000;3.544576
2631.000000;2.912139
2630.000000;2.748302
2629.000000;2.769287
2628.000000;2.913499
2627.000000;3.149068
2626.000000;3.042742
2625.000000;2.826814
2624.000000;2.724348
2623.000000;2.710641
2622.000000;2.749076
2621.000000;2.829323
2620.000000;2.933762
2619.000000;3.002617
2618.000000;2.975067
2617.000000;2.926678
2616.000000;2.927491
2615.000000;2.935888
2614.000000;2.852964
2613.000000;2.727203
2612.000000;2.660421
2611.000000;2.689774
2610.000000;2.806372
2609.000000;2.959127
2608.000000;3.088744
2607.000000;3.214903
2606.000000;3.533538
2605.000000;3.453485
2604.000000;3.030051
2603.000000;2.891219
2602.000000;2.932764
2601.000000;3.191416
2600.000000;3.268878
2599.000000;3.017067
2598.000000;2.969577
2597.000000;3.032766
2596.000000;3.080412
2595.000000;3.001455
2594.000000;2.926519
2593.000000;2.909386
2592.000000;2.901276
2591.000000;2.891175
2590.000000;2.871477
2589.000000;2.827918
2588.000000;2.788446
2587.000000;2.792296
2586.000000;2.910915
2585.000000;3.095467
2584.000000;2.955335
2583.000000;2.809183
2582.000000;2.827191
2581.000000;2.995491
2580.000000;3.342264
2579.000000;3.513102
2578.000000;3.374734
2577.000000;3.259493
2576.000000;3.177634
2575.000000;3.158306
2574.000000;3.183526
2573.000000;3.242922
2572.000000;3.251191
2571.000000;3.156757
2570.000000;3.062012
2569.000000;3.057805
2568.000000;3.159389
2567.000000;3.364537
2566.000000;3.740522
2565.000000;3.556341
2564.000000;3.280310
2563.000000;3.266695
2562.000000;3.399878
2561.000000;3.481395
2560.000000;3.374685
2559.000000;3.238098
2558.000000;3.358487
2557.000000;3.675171
2556.000000;3.466738
2555.000000;3.362810
2554.000000;3.106641
2553.000000;2.868786
2552.000000;2.908762
2551.000000;3.304651
2550.000000;3.188126
2549.000000;2.853485
2548.000000;2.831476
2547.000000;2.901576
2546.000000;2.996045
2545.000000;3.281049
2544.000000;3.661199
2543.000000;3.274908
2542.000000;3.317517
2541.000000;3.717244
2540.000000;3.268955
2539.000000;2.997483
2538.000000;2.830713
2537.000000;2.710736
2536.000000;2.708499
2535.000000;2.855815
2534.000000;3.049690
2533.000000;2.955252
2532.000000;2.819240
2531.000000;2.791661
2530.000000;2.849590
2529.000000;3.027713
2528.000000;3.358576
2527.000000;3.438330
2526.000000;3.192683
2525.000000;3.066246
2524.000000;3.007548
2523.000000;2.980558
2522.000000;2.931424
2521.000000;2.874058
2520.000000;2.873641
2519.000000;2.986768
2518.000000;3.363689
2517.000000;3.518950
2516.000000;3.171831
2515.000000;3.072407
2514.000000;3.077592
2513.000000;3.215151
2512.000000;3.481131
2511.000000;3.482744
2510.000000;3.176771
2509.000000;2.949563
2508.000000;2.834191
2507.000000;2.781818
2506.000000;2.757645
2505.000000;2.815978
2504.000000;2.930234
2503.000000;3.045561
2502.000000;3.387894
2501.000000;3.263044
2500.000000;2.941502
2499.000000;2.901918
2498.000000;2.949384
2497.000000;3.050554
2496.000000;3.217978
2495.000000;3.283005
2494.000000;3.126481
2493.000000;2.986080
2492.000000;3.022404
2491.000000;3.229037
2490.000000;3.603656
2489.000000;3.863860
2488.000000;3.381560
2487.000000;3.189405
2486.000000;3.098906
2485.000000;3.017272
2484.000000;2.960104
2483.000000;3.040602
2482.000000;3.500314
2481.000000;3.153821
2480.000000;2.814100
2479.000000;2.725410
2478.000000;2.714332
2477.000000;2.747234
2476.000000;2.805267
2475.000000;2.925277
2474.000000;3.075380
2473.000000;3.148823
2472.000000;3.208406
2471.000000;3.519583
2470.000000;3.348427
2469.000000;2.929155
2468.000000;2.833804
2467.000000;2.905168
2466.000000;3.153816
2465.000000;3.502994
2464.000000;3.404700
2463.000000;3.293504
2462.000000;3.172434
2461.000000;3.038666
2460.000000;2.989092
2459.000000;3.103628
2458.000000;3.517857
2457.000000;3.432797
2456.000000;3.279771
2455.000000;3.479504
2454.000000;3.580087
2453.000000;3.485995
2452.000000;3.616735
2451.000000;3.853975
2450.000000;3.268571
2449.000000;2.958472
2448.000000;2.837946
2447.000000;2.832092
2446.000000;2.921488
2445.000000;3.071752
2444.000000;3.201080
2443.000000;3.153055
2442.000000;3.031575
2441.000000;2.957845
2440.000000;2.977125
2439.000000;3.100874
2438.000000;3.098883
2437.000000;2.966744
2436.000000;2.919210
2435.000000;2.928434
2434.000000;2.913743
2433.000000;2.867264
2432.000000;2.828014
2431.000000;2.922822
2430.000000;3.322878
2429.000000;3.112640
2428.000000;2.835401
2427.000000;2.800447
2426.000000;2.842479
2425.000000;2.971192
2424.000000;3.229385
2423.000000;3.337470
2422.000000;3.124428
2421.000000;3.065877
2420.000000;3.112092
2419.000000;3.109290
2418.000000;3.069817
2417.000000;3.025429
2416.000000;2.962155
2415.000000;2.984688
2414.000000;3.165024
2413.000000;3.246582
2412.000000;3.103461
2411.000000;3.010277
2410.000000;3.010971
2409.000000;3.059863
2408.000000;3.059488
2407.000000;3.042742
2406.000000;3.126905
2405.000000;3.780999
2404.000000;3.547775
2403.000000;3.082590
2402.000000;3.037864
2401.000000;3.246611
2400.000000;3.438353
2399.000000;2.922736
2398.000000;2.697520
2397.000000;2.676282
2396.000000;2.783613
2395.000000;2.986745
2394.000000;3.125896
2393.000000;3.135714
2392.000000;3.099983
2391.000000;3.079469
2390.000000;3.178835
2389.000000;3.453954
2388.000000;3.700835
2387.000000;3.421603
2386.000000;3.085647
2385.000000;2.928327
2384.000000;2.923484
2383.000000;3.055762
2382.000000;3.148016
2381.000000;3.062828
2380.000000;3.033336
2379.000000;3.236911
2378.000000;3.634831
2377.000000;3.183874
2376.000000;2.965847
2375.000000;3.008576
2374.000000;3.142371
2373.000000;3.238383
2372.000000;3.193554
2371.000000;3.155898
2370.000000;3.225056
2369.000000;3.287407
2368.000000;3.133063
2367.000000;3.000851
2366.000000;2.988947
2365.000000;3.173642
2364.000000;3.729443
2363.000000;3.388792
2362.000000;3.321915
2361.000000;3.470287
2360.000000;3.407799
2359.000000;3.534182
2358.000000;3.219560
2357.000000;2.946005
2356.000000;2.969371
2355.000000;3.064150
2354.000000;3.077234
2353.000000;3.164261
2352.000000;3.249159
2351.000000;3.057268
2350.000000;2.929404
2349.000000;2.930635
2348.000000;3.014952
2347.000000;3.249909
2346.000000;3.180428
2345.000000;3.020622
2344.000000;3.125142
2343.000000;3.577255
2342.000000;3.273985
2341.000000;3.086046
2340.000000;3.042912
2339.000000;2.999770
2338.000000;3.046306
2337.000000;3.248517
2336.000000;3.717085
2335.000000;4.132392
2334.000000;3.806266
2333.000000;3.571157
2332.000000;3.486534
2331.000000;3.450772
2330.000000;3.192132
2329.000000;3.021045
2328.000000;2.989569
2327.000000;3.028244
2326.000000;3.073177
2325.000000;3.073571
2324.000000;3.054867
2323.000000;3.055809
2322.000000;3.068215
2321.000000;3.077504
2320.000000;3.079609
2319.000000;3.096878
2318.000000;3.216385
2317.000000;3.644156
2316.000000;3.725646
2315.000000;3.510464
2314.000000;3.493921
2313.000000;3.311056
2312.000000;3.090157
2311.000000;3.042868
2310.000000;3.095959
2309.000000;3.020363
2308.000000;3.037860
2307.000000;3.368509
2306.000000;3.662020
2305.000000;3.323667
2304.000000;3.285340
2303.000000;3.257333
2302.000000;3.198214
2301.000000;3.102270
2300.000000;3.026370
2299.000000;3.026395
2298.000000;3.118603
2297.000000;3.709634
2296.000000;3.209920
2295.000000;2.835560
2294.000000;2.795178
2293.000000;2.890032
2292.000000;2.964153
2291.000000;2.890415
2290.000000;2.881565
2289.000000;2.968151
2288.000000;3.052669
2287.000000;3.028803
2286.000000;2.958032
2285.000000;2.960946
2284.000000;3.063624
2283.000000;3.180084
2282.000000;3.160885
2281.000000;3.178959
2280.000000;3.354996
2279.000000;3.569773
2278.000000;3.503702
2277.000000;3.385196
2276.000000;3.378413
2275.000000;3.250150
2274.000000;3.093821
2273.000000;3.046880
2272.000000;2.976533
2271.000000;2.889697
2270.000000;2.856508
2269.000000;2.857554
2268.000000;2.882651
2267.000000;2.934124
2266.000000;2.978085
2265.000000;2.983184
2264.000000;2.974228
2263.000000;2.971761
2262.000000;2.956437
2261.000000;2.958393
2260.000000;3.051607
2259.000000;3.273537
2258.000000;3.311853
2257.000000;3.086262
2256.000000;2.947605
2255.000000;2.914521
2254.000000;2.998037
2253.000000;3.107773
2252.000000;3.087338
2251.000000;3.220756
2250.000000;3.574604
2249.000000;3.270129
2248.000000;3.112223
2247.000000;3.204764
2246.000000;3.587260
2245.000000;3.425694
2244.000000;3.038001
2243.000000;2.940331
2242.000000;3.007197
2241.000000;3.105975
2240.000000;2.960019
2239.000000;2.796982
2238.000000;2.715423
2237.000000;2.708600
2236.000000;2.773589
2235.000000;2.883955
2234.000000;2.902173
2233.000000;2.810999
2232.000000;2.778648
2231.000000;2.811416
2230.000000;2.823707
2229.000000;2.801273
2228.000000;2.820108
2227.000000;2.921284
2226.000000;3.118316
2225.000000;3.200677
2224.000000;3.186822
2223.000000;3.342747
2222.000000;3.267447
2221.000000;3.157968
2220.000000;3.032869
2219.000000;2.896140
2218.000000;2.927023
2217.000000;3.159404
2216.000000;3.150123
2215.000000;2.975656
2214.000000;2.941877
2213.000000;2.953312
2212.000000;2.969639
2211.000000;2.981319
2210.000000;2.976257
2209.000000;2.997297
2208.000000;3.155643
2207.000000;3.730411
2206.000000;3.201917
2205.000000;3.044018
2204.000000;3.071490
2203.000000;3.125608
2202.000000;3.138502
2201.000000;3.163894
2200.000000;3.134628
2199.000000;2.971542
2198.000000;2.825629
2197.000000;2.790107
2196.000000;2.907260
2195.000000;3.223196
2194.000000;3.456513
2193.000000;3.758480
2192.000000;3.381177
2191.000000;3.048147
2190.000000;3.112700
2189.000000;3.284384
2188.000000;3.267867
2187.000000;3.173872
2186.000000;3.071773
2185.000000;2.947668
2184.000000;2.897636
2183.000000;2.945964
2182.000000;3.105380
2181.000000;3.413895
2180.000000;3.690911
2179.000000;3.202286
2178.000000;2.992375
2177.000000;3.004894
2176.000000;3.338916
2175.000000;3.338135
2174.000000;3.020834
2173.000000;3.114539
2172.000000;3.372884
2171.000000;3.298250
2170.000000;3.122799
2169.000000;2.982665
2168.000000;2.913199
2167.000000;2.966929
2166.000000;3.060130
2165.000000;3.085524
2164.000000;3.125771
2163.000000;3.197908
2162.000000;3.322047
2161.000000;3.679337
2160.000000;3.475426
2159.000000;3.505687
2158.000000;3.904309
2157.000000;3.360785
2156.000000;3.224375
2155.000000;3.338609
2154.000000;3.568265
2153.000000;3.109770
2152.000000;2.866885
2151.000000;2.773061
2150.000000;2.779509
2149.000000;2.860328
2148.000000;2.993488
2147.000000;3.104802
2146.000000;3.052509
2145.000000;2.993151
2144.000000;3.061242
2143.000000;3.197641
2142.000000;3.163529
2141.000000;3.023846
2140.000000;2.937637
2139.000000;2.894558
2138.000000;2.879752
2137.000000;2.841793
2136.000000;2.759153
2135.000000;2.695025
2134.000000;2.685523
2133.000000;2.765761
2132.000000;2.996783
2131.000000;3.704380
2130.000000;3.195502
2129.000000;3.127882
2128.000000;3.435397
2127.000000;3.214033
2126.000000;3.173790
2125.000000;3.359251
2124.000000;3.522978
2123.000000;3.492821
2122.000000;3.497628
2121.000000;3.483135
2120.000000;3.292074
2119.000000;3.105642
2118.000000;2.972345
2117.000000;2.891828
2116.000000;2.896936
2115.000000;2.968308
2114.000000;3.470743
2113.000000;3.584516
2112.000000;3.043072
2111.000000;3.093927
2110.000000;3.461475
2109.000000;3.453923
2108.000000;3.143117
2107.000000;3.042352
2106.000000;2.915599
2105.000000;2.859329
2104.000000;2.836204
2103.000000;2.787691
2102.000000;2.756461
2101.000000;2.808743
2100.000000;2.998460
2099.000000;3.442644
2098.000000;3.992271
2097.000000;3.856503
2096.000000;3.508705
2095.000000;3.578794
2094.000000;3.474377
2093.000000;2.987948
2092.000000;2.865069
2091.000000;2.881220
2090.000000;2.952099
2089.000000;2.993615
2088.000000;3.072522
2087.000000;3.090851
2086.000000;3.016228
2085.000000;3.050582
2084.000000;3.171707
2083.000000;3.155790
2082.000000;3.053941
2081.000000;3.032096
2080.000000;3.129675
2079.000000;3.197735
2078.000000;3.102236
2077.000000;3.057071
2076.000000;3.099916
2075.000000;3.192668
2074.000000;3.251941
2073.000000;3.231767
2072.000000;3.094220
2071.000000;2.885042
2070.000000;2.768455
2069.000000;2.773704
2068.000000;2.873388
2067.000000;2.973195
2066.000000;3.012593
2065.000000;3.078860
2064.000000;3.220961
2063.000000;3.170050
2062.000000;2.974907
2061.000000;2.941243
2060.000000;3.129201
2059.000000;3.488063
2058.000000;3.293468
2057.000000;3.154111
2056.000000;3.033033
2055.000000;2.822391
2054.000000;2.720073
2053.000000;2.769271
2052.000000;2.979887
2051.000000;3.393469
2050.000000;3.444321
2049.000000;3.226826
2048.000000;3.162069
2047.000000;3.282540
2046.000000;3.513323
2045.000000;3.302174
2044.000000;3.197787
2043.000000;3.168264
2042.000000;3.120852
2041.000000;3.064577
2040.000000;3.008115
2039.000000;2.966219
2038.000000;2.929038
2037.000000;2.890173
2036.000000;2.884557
2035.000000;2.949809
2034.000000;3.080938
2033.000000;3.235108
2032.000000;3.453327
2031.000000;3.439970
2030.000000;3.209517
2029.000000;3.104486
2028.000000;3.045997
2027.000000;2.920926
2026.000000;2.823222
2025.000000;2.862530
2024.000000;3.048520
2023.000000;3.278648
2022.000000;3.492086
2021.000000;4.174377
2020.000000;3.464426
2019.000000;3.161659
2018.000000;2.919014
2017.000000;2.732306
2016.000000;2.637127
2015.000000;2.628988
2014.000000;2.692532
2013.000000;2.789538
2012.000000;2.885115
2011.000000;3.007601
2010.000000;3.299583
2009.000000;3.877361
2008.000000;3.626578
2007.000000;3.427778
2006.000000;3.453209
2005.000000;3.532730
2004.000000;3.360754
2003.000000;3.191978
2002.000000;3.067167
2001.000000;2.961553
2000.000000;2.951600
1999.000000;3.052457
1998.000000;3.256999
1997.000000;3.301055
1996.000000;3.216303
1995.000000;3.162096
1994.000000;3.033128
1993.000000;2.880246
1992.000000;2.820509
1991.000000;2.869435
1990.000000;2.929818
1989.000000;2.918192
1988.000000;2.968790
1987.000000;3.182915
1986.000000;3.371824
1985.000000;3.250626
1984.000000;3.150439
1983.000000;3.005606
1982.000000;2.860801
1981.000000;2.793570
1980.000000;2.832312
1979.000000;2.934148
1978.000000;2.938249
1977.000000;2.853521
1976.000000;2.836121
1975.000000;2.931162
1974.000000;3.232375
1973.000000;3.449439
1972.000000;3.212785
1971.000000;3.197765
1970.000000;3.593256
1969.000000;3.076635
1968.000000;2.768277
1967.000000;2.692036
1966.000000;2.759458
1965.000000;3.000362
1964.000000;3.297177
1963.000000;3.140216
1962.000000;3.036381
1961.000000;2.960600
1960.000000;2.902697
1959.000000;2.875207
1958.000000;3.081117
1957.000000;3.610122
1956.000000;3.053225
1955.000000;2.840669
1954.000000;2.732010
1953.000000;2.664455
1952.000000;2.675199
1951.000000;2.765340
1950.000000;2.871559
1949.000000;2.970916
1948.000000;3.149674
1947.000000;3.351681
1946.000000;3.218822
1945.000000;2.986669
1944.000000;2.873661
1943.000000;2.880108
1942.000000;2.986177
1941.000000;3.056191
1940.000000;2.926957
1939.000000;2.786632
1938.000000;2.735509
1937.000000;2.751481
1936.000000;2.802091
1935.000000;2.888243
1934.000000;3.156079
1933.000000;3.415666
1932.000000;2.919357
1931.000000;2.762198
1930.000000;2.747968
1929.000000;2.849352
1928.000000;3.078961
1927.000000;3.251506
1926.000000;3.158698
1925.000000;3.098036
1924.000000;3.026393
1923.000000;2.930148
1922.000000;2.887375
1921.000000;2.866500
1920.000000;2.845382
1919.000000;2.883096
1918.000000;3.055264
1917.000000;3.255679
1916.000000;3.192164
1915.000000;3.111833
1914.000000;3.049280
1913.000000;2.914976
1912.000000;2.768409
1911.000000;2.677331
1910.000000;2.684050
1909.000000;2.814083
1908.000000;3.199383
1907.000000;3.863852
1906.000000;3.140339
1905.000000;3.019393
1904.000000;3.044501
1903.000000;3.423228
1902.000000;3.997866
1901.000000;3.286487
1900.000000;3.436314
1899.000000;3.475193
1898.000000;3.173958
1897.000000;3.102334
1896.000000;3.215003
1895.000000;3.248635
1894.000000;3.066918
1893.000000;2.952347
1892.000000;2.968309
1891.000000;3.135246
1890.000000;3.391764
1889.000000;3.618091
1888.000000;3.964615
1887.000000;3.604509
1886.000000;3.212717
1885.000000;3.024641
1884.000000;2.954912
1883.000000;2.935764
1882.000000;2.922147
1881.000000;2.935873
1880.000000;2.997242
1879.000000;3.052835
1878.000000;3.028567
1877.000000;2.993029
1876.000000;3.013631
1875.000000;3.027320
1874.000000;2.986395
1873.000000;2.946969
1872.000000;2.910390
1871.000000;2.867549
1870.000000;2.878216
1869.000000;2.979869
1868.000000;2.999086
1867.000000;2.904527
1866.000000;2.858573
1865.000000;2.866760
1864.000000;2.940821
1863.000000;3.113976
1862.000000;3.400155
1861.000000;3.506870
1860.000000;3.322471
1859.000000;3.220074
1858.000000;3.399625
1857.000000;3.805145
1856.000000;3.249047
1855.000000;3.063759
1854.000000;3.142729
1853.000000;3.402968
1852.000000;3.825372
1851.000000;3.687190
1850.000000;3.085043
1849.000000;2.906423
1848.000000;2.927007
1847.000000;3.155419
1846.000000;3.421503
1845.000000;3.116140
1844.000000;2.982585
1843.000000;3.105033
1842.000000;3.194982
1841.000000;3.046427
1840.000000;3.015794
1839.000000;3.332430
1838.000000;3.578887
1837.000000;3.192553
1836.000000;3.165679
1835.000000;3.720380
1834.000000;3.387727
1833.000000;3.010437
1832.000000;2.909243
1831.000000;2.875294
1830.000000;2.861386
1829.000000;2.877109
1828.000000;2.958147
1827.000000;3.103248
1826.000000;3.299896
1825.000000;3.442574
1824.000000;3.448300
1823.000000;3.358416
1822.000000;3.244228
1821.000000;3.160167
1820.000000;3.056482
1819.000000;2.976258
1818.000000;3.042940
1817.000000;3.256574
1816.000000;3.264185
1815.000000;3.138358
1814.000000;3.066574
1813.000000;3.016128
1812.000000;3.040720
1811.000000;3.019691
1810.000000;2.948756
1809.000000;2.970784
1808.000000;3.097675
1807.000000;3.250153
1806.000000;3.220196
1805.000000;3.070841
1804.000000;3.000073
1803.000000;3.126994
1802.000000;3.245521
1801.000000;3.020022
1800.000000;2.937052
1799.000000;3.078505
1798.000000;3.483711
1797.000000;3.483997
1796.000000;3.210418
1795.000000;3.094725
1794.000000;3.009695
1793.000000;3.082216
1792.000000;3.509871
1791.000000;3.656058
1790.000000;3.392646
1789.000000;3.372458
1788.000000;3.094799
1787.000000;2.915634
1786.000000;2.956983
1785.000000;3.215572
1784.000000;3.320657
1783.000000;3.195569
1782.000000;3.136155
1781.000000;3.115284
1780.000000;3.185220
1779.000000;3.316971
1778.000000;3.317957
1777.000000;3.094595
1776.000000;2.923265
1775.000000;2.854492
1774.000000;2.873024
1773.000000;3.027567
1772.000000;3.313786
1771.000000;3.412624
1770.000000;3.397219
1769.000000;3.330150
1768.000000;3.192695
1767.000000;3.122485
1766.000000;3.133434
1765.000000;3.339626
1764.000000;3.389011
1763.000000;3.078930
1762.000000;2.876142
1761.000000;2.751876
1760.000000;2.711185
1759.000000;2.712539
1758.000000;2.737935
1757.000000;2.812043
1756.000000;2.951572
1755.000000;3.098726
1754.000000;3.328310
1753.000000;3.659917
1752.000000;3.140377
1751.000000;2.954212
1750.000000;3.044410
1749.000000;3.169979
1748.000000;3.153490
1747.000000;3.015532
1746.000000;2.938308
1745.000000;2.956394
1744.000000;3.020749
1743.000000;3.054873
1742.000000;3.084199
1741.000000;3.159001
1740.000000;3.580033
1739.000000;3.687690
1738.000000;3.219317
1737.000000;3.338512
1736.000000;3.559283
1735.000000;3.310996
1734.000000;3.121663
1733.000000;3.045044
1732.000000;2.994455
1731.000000;2.961583
1730.000000;3.012818
1729.000000;3.108851
1728.000000;3.225236
1727.000000;3.535783
1726.000000;3.390700
1725.000000;3.035891
1724.000000;2.884764
1723.000000;2.830378
1722.000000;2.859278
1721.000000;2.950561
1720.000000;3.179709
1719.000000;3.213687
1718.000000;2.883416
1717.000000;2.819319
1716.000000;2.954969
1715.000000;3.064247
1714.000000;3.072797
1713.000000;3.150157
1712.000000;3.443208
1711.000000;3.713452
1710.000000;3.405387
1709.000000;3.178236
1708.000000;3.115674
1707.000000;3.189541
1706.000000;3.288748
1705.000000;3.296018
1704.000000;3.374663
1703.000000;3.480803
1702.000000;3.487090
1701.000000;3.506801
1700.000000;3.732192
1699.000000;3.464594
1698.000000;3.089266
1697.000000;2.939655
1696.000000;3.043203
1695.000000;3.210599
1694.000000;3.003634
1693.000000;2.933124
1692.000000;3.012482
1691.000000;3.138586
1690.000000;3.341503
1689.000000;3.325689
1688.000000;3.167281
1687.000000;3.241459
1686.000000;3.289076
1685.000000;3.111379
1684.000000;2.990632
1683.000000;2.914416
1682.000000;2.839260
1681.000000;2.806493
1680.000000;2.854067
1679.000000;2.993606
1678.000000;3.209070
1677.000000;3.254278
1676.000000;3.017612
1675.000000;3.006066
1674.000000;3.410591
1673.000000;3.355391
1672.000000;2.974731
1671.000000;2.852709
1670.000000;2.876655
1669.000000;3.052806
1668.000000;3.306027
1667.000000;3.262473
1666.000000;3.052548
1665.000000;2.908561
1664.000000;2.882361
1663.000000;2.942444
1662.000000;2.922402
1661.000000;2.847015
1660.000000;2.851475
1659.000000;2.928856
1658.000000;3.079930
1657.000000;3.526951
1656.000000;3.568754
1655.000000;3.052775
1654.000000;2.850414
1653.000000;2.764599
1652.000000;2.774264
1651.000000;2.789518
1650.000000;2.784322
1649.000000;2.790308
1648.000000;2.772291
1647.000000;2.825372
1646.000000;3.052796
1645.000000;3.357519
1644.000000;3.247392
1643.000000;3.207563
1642.000000;3.363271
1641.000000;3.170914
1640.000000;2.868412
1639.000000;2.712269
1638.000000;2.665486
1637.000000;2.722959
1636.000000;2.867464
1635.000000;2.930152
1634.000000;2.978625
1633.000000;3.385452
1632.000000;3.488505
1631.000000;3.088468
1630.000000;3.023278
1629.000000;2.984464
1628.000000;3.000374
1627.000000;3.065264
1626.000000;3.108063
1625.000000;3.102143
1624.000000;2.982128
1623.000000;2.901106
1622.000000;2.933892
1621.000000;3.054026
1620.000000;3.142601
1619.000000;3.129644
1618.000000;3.090461
1617.000000;3.163651
1616.000000;3.323444
1615.000000;3.586919
1614.000000;3.794661
1613.000000;3.290368
1612.000000;3.036638
1611.000000;3.060940
1610.000000;3.307879
1609.000000;3.301397
1608.000000;3.176441
1607.000000;3.240389
1606.000000;3.198835
1605.000000;3.096706
1604.000000;3.044494
1603.000000;3.276166
1602.000000;3.621755
1601.000000;3.117165
1600.000000;2.905912
1599.000000;2.882880
1598.000000;2.909352
1597.000000;2.938536
1596.000000;2.972973
1595.000000;3.050402
1594.000000;3.136390
1593.000000;3.214507
1592.000000;3.260875
1591.000000;3.229250
1590.000000;3.163935
1589.000000;3.127435
1588.000000;3.117211
1587.000000;3.085710
1586.000000;3.112774
1585.000000;3.246162
1584.000000;3.591912
1583.000000;3.914391
1582.000000;3.255961
1581.000000;2.999262
1580.000000;3.196484
1579.000000;3.406405
1578.000000;2.905029
1577.000000;2.756429
1576.000000;2.775807
1575.000000;2.884870
1574.000000;3.038661
1573.000000;3.114733
1572.000000;3.682811
1571.000000;3.412974
1570.000000;2.878194
1569.000000;2.746147
1568.000000;2.702063
1567.000000;2.658344
1566.000000;2.613194
1565.000000;2.617769
1564.000000;2.703223
1563.000000;2.829197
1562.000000;2.914921
1561.000000;2.935439
1560.000000;2.955004
1559.000000;2.994649
1558.000000;3.047746
1557.000000;3.086699
1556.000000;3.074583
1555.000000;3.224865
1554.000000;3.717812
1553.000000;3.749960
1552.000000;3.699420
1551.000000;3.374891
1550.000000;3.044339
1549.000000;3.003321
1548.000000;3.076736
1547.000000;3.185636
1546.000000;3.355571
1545.000000;3.354911
1544.000000;3.247496
1543.000000;3.263136
1542.000000;3.165931
1541.000000;2.903154
1540.000000;2.733042
1539.000000;2.724276
1538.000000;2.809919
1537.000000;2.856077
1536.000000;2.859338
1535.000000;2.908862
1534.000000;2.943569
1533.000000;2.896158
1532.000000;2.894345
1531.000000;2.961215
1530.000000;3.076732
1529.000000;3.146034
1528.000000;3.246038
1527.000000;3.519986
1526.000000;3.265578
1525.000000;3.018336
1524.000000;2.984246
1523.000000;2.955860
1522.000000;2.856297
1521.000000;2.784470
1520.000000;2.793395
1519.000000;2.832072
1518.000000;2.864709
1517.000000;2.880405
1516.000000;2.892743
1515.000000;2.871330
1514.000000;2.793448
1513.000000;2.738068
1512.000000;2.803143
1511.000000;2.986209
1510.000000;3.027274
1509.000000;2.946287
1508.000000;2.988214
1507.000000;3.100435
1506.000000;3.333013
1505.000000;3.731972
1504.000000;3.292279
1503.000000;3.039091
1502.000000;3.079859
1501.000000;3.216184
1500.000000;3.016659
1499.000000;2.788568
1498.000000;2.757880
1497.000000;2.906427
1496.000000;3.187604
1495.000000;3.219875
1494.000000;2.933409
1493.000000;2.722231
1492.000000;2.661945
1491.000000;2.771630
1490.000000;3.097326
1489.000000;3.379461
1488.000000;3.219331
1487.000000;3.144189
1486.000000;3.195858
1485.000000;3.358558
1484.000000;3.503707
1483.000000;3.537090
1482.000000;3.445509
1481.000000;3.182337
1480.000000;3.070345
1479.000000;3.041987
1478.000000;2.947494
1477.000000;2.891995
1476.000000;3.013255
1475.000000;3.416674
1474.000000;3.484940
1473.000000;3.088178
1472.000000;2.921141
1471.000000;2.886436
1470.000000;2.919803
1469.000000;2.941058
1468.000000;2.995661
1467.000000;3.249969
1466.000000;3.645362
1465.000000;3.636754
1464.000000;3.600891
1463.000000;3.743515
1462.000000;3.655521
1461.000000;3.285340
1460.000000;3.125012
1459.000000;3.105121
1458.000000;3.361591
1457.000000;3.472358
1456.000000;2.958647
1455.000000;2.765310
1454.000000;2.744801
1453.000000;2.825726
1452.000000;2.947284
1451.000000;3.006483
1450.000000;3.055268
1449.000000;3.146375
1448.000000;3.251017
1447.000000;3.321563
1446.000000;3.331076
1445.000000;3.200306
1444.000000;3.019087
1443.000000;2.895331
1442.000000;2.866211
1441.000000;2.939731
1440.000000;3.103426
1439.000000;3.345287
1438.000000;3.653948
1437.000000;3.596645
1436.000000;3.568824
1435.000000;3.996201
1434.000000;3.924755
1433.000000;3.703306
1432.000000;3.762366
1431.000000;3.677595
1430.000000;3.568738
1429.000000;3.444653
1428.000000;3.253514
1427.000000;3.125671
1426.000000;3.098493
1425.000000;3.168834
1424.000000;3.353838
1423.000000;3.663972
1422.000000;3.735820
1421.000000;3.806262
1420.000000;3.865856
1419.000000;3.459469
1418.000000;3.291847
1417.000000;3.197175
1416.000000;3.077228
1415.000000;2.927965
1414.000000;2.817834
1413.000000;2.797309
1412.000000;2.821618
1411.000000;2.786480
1410.000000;2.717778
1409.000000;2.721107
1408.000000;2.840334
1407.000000;3.162226
1406.000000;3.421700
1405.000000;3.193046
1404.000000;3.110088
1403.000000;3.135242
1402.000000;3.153738
1401.000000;3.105476
1400.000000;2.991012
1399.000000;2.891825
1398.000000;2.846926
1397.000000;2.861440
1396.000000;2.946735
1395.000000;3.147373
1394.000000;3.440116
1393.000000;3.511921
1392.000000;3.330999
1391.000000;3.049905
1390.000000;2.805906
1389.000000;2.682030
1388.000000;2.696874
1387.000000;2.837913
1386.000000;3.005494
1385.000000;2.930328
1384.000000;2.780787
1383.000000;2.738010
1382.000000;2.867259
1381.000000;3.573069
1380.000000;3.227638
1379.000000;3.033276
1378.000000;3.591846
1377.000000;3.130980
1376.000000;2.905254
1375.000000;2.971720
1374.000000;3.122297
1373.000000;3.226847
1372.000000;3.135184
1371.000000;3.018685
1370.000000;2.958911
1369.000000;2.996536
1368.000000;3.056396
1367.000000;2.937871
1366.000000;2.777858
1365.000000;2.737416
1364.000000;2.854141
1363.000000;3.179477
1362.000000;3.625022
1361.000000;3.595176
1360.000000;3.527914
1359.000000;3.487404
1358.000000;3.385981
1357.000000;3.681070
1356.000000;3.454731
1355.000000;2.965949
1354.000000;2.784893
1353.000000;2.736574
1352.000000;2.770019
1351.000000;2.878896
1350.000000;3.114277
1349.000000;3.602298
1348.000000;4.054541
1347.000000;3.253089
1346.000000;2.866387
1345.000000;2.749403
1344.000000;2.821487
1343.000000;3.139829
1342.000000;3.551246
1341.000000;3.335922
1340.000000;3.269544
1339.000000;3.105764
1338.000000;2.984702
1337.000000;2.949636
1336.000000;2.952307
1335.000000;2.982787
1334.000000;3.023571
1333.000000;3.063062
1332.000000;3.000140
1331.000000;2.901779
1330.000000;2.840646
1329.000000;2.813627
1328.000000;2.844343
1327.000000;2.949716
1326.000000;3.044128
1325.000000;3.095616
1324.000000;3.318756
1323.000000;3.289204
1322.000000;3.059114
1321.000000;3.022993
1320.000000;3.072523
1319.000000;3.151432
1318.000000;3.210966
1317.000000;3.161186
1316.000000;3.155446
1315.000000;3.277517
1314.000000;3.437085
1313.000000;3.451912
1312.000000;3.428113
1311.000000;3.518410
1310.000000;3.622893
1309.000000;3.395592
1308.000000;3.132184
1307.000000;3.068013
1306.000000;3.180631
1305.000000;3.214443
1304.000000;3.154033
1303.000000;3.220840
1302.000000;3.228318
1301.000000;3.082143
1300.000000;2.988094
1299.000000;3.012572
1298.000000;3.070091
1297.000000;3.079737
1296.000000;3.085790
1295.000000;3.138313
1294.000000;3.282845
1293.000000;3.317481
1292.000000;3.189735
1291.000000;3.220976
1290.000000;3.535108
1289.000000;3.558225
1288.000000;3.157960
1287.000000;3.000350
1286.000000;2.950980
1285.000000;2.973807
1284.000000;3.050008
1283.000000;3.172156
1282.000000;3.331674
1281.000000;3.459508
1280.000000;3.528328
1279.000000;3.432692
1278.000000;3.175313
1277.000000;2.958623
1276.000000;2.823330
1275.000000;2.748800
1274.000000;2.693283
1273.000000;2.659087
1272.000000;2.707553
1271.000000;2.898090
1270.000000;3.163994
1269.000000;3.281407
1268.000000;3.500885
1267.000000;3.459847
1266.000000;3.272285
1265.000000;3.468260
1264.000000;3.830947
1263.000000;3.327064
1262.000000;3.272081
1261.000000;3.382919
1260.000000;3.346321
1259.000000;3.201859
1258.000000;3.495039
1257.000000;3.663695
1256.000000;3.051837
1255.000000;2.982047
1254.000000;2.917798
1253.000000;2.782999
1252.000000;2.727947
1251.000000;2.823537
1250.000000;3.222822
1249.000000;3.663294
1248.000000;3.329090
1247.000000;3.254276
1246.000000;3.166070
1245.000000;3.049541
1244.000000;3.020265
1243.000000;3.190480
1242.000000;3.412698
1241.000000;3.069805
1240.000000;2.935896
1239.000000;3.026262
1238.000000;3.309057
1237.000000;3.453541
1236.000000;3.189979
1235.000000;2.964422
1234.000000;2.796952
1233.000000;2.709263
1232.000000;2.707881
1231.000000;2.791412
1230.000000;2.953530
1229.000000;3.163353
1228.000000;3.287500
1227.000000;3.138295
1226.000000;2.947138
1225.000000;2.885392
1224.000000;2.921639
1223.000000;2.981827
1222.000000;3.047597
1221.000000;3.123457
1220.000000;3.110061
1219.000000;3.085927
1218.000000;3.125689
1217.000000;3.142536
1216.000000;3.507656
1215.000000;3.333376
1214.000000;2.911933
1213.000000;2.768031
1212.000000;2.725051
1211.000000;2.717513
1210.000000;2.727914
1209.000000;2.763638
1208.000000;2.828149
1207.000000;2.949743
1206.000000;3.193073
1205.000000;3.143792
1204.000000;2.938991
1203.000000;2.997822
1202.000000;3.282604
1201.000000;3.739382
1200.000000;3.581394
