Criado como novo conjunto de dados;"e0108.spp","-4210000.8 Secs"
cm-1;Abs
10000.000000;1.087361
9999.000000;1.087425
9998.000000;1.087703
9997.000000;1.087578
9996.000000;1.086578
9995.000000;1.084912
9994.000000;1.083295
9993.000000;1.082425
9992.000000;1.082621
9991.000000;1.083706
9990.000000;1.085184
9989.000000;1.086617
9988.000000;1.087740
9987.000000;1.088070
9986.000000;1.086851
9985.000000;1.083952
9984.000000;1.080598
9983.000000;1.078471
9982.000000;1.078106
9981.000000;1.078698
9980.000000;1.079393
9979.000000;1.080093
9978.000000;1.080805
9977.000000;1.080922
9976.000000;1.079800
9975.000000;1.077813
9974.000000;1.076154
9973.000000;1.075568
9972.000000;1.075724
9971.000000;1.075822
9970.000000;1.075482
9969.000000;1.075037
9968.000000;1.075142
9967.000000;1.076097
9966.000000;1.077398
9965.000000;1.077993
9964.000000;1.077215
9963.000000;1.075548
9962.000000;1.074273
9961.000000;1.074190
9960.000000;1.074786
9959.000000;1.074881
9958.000000;1.074093
9957.000000;1.073350
9956.000000;1.073730
9955.000000;1.075009
9954.000000;1.075795
9953.000000;1.075193
9952.000000;1.073856
9951.000000;1.073004
9950.000000;1.072836
9949.000000;1.072408
9948.000000;1.070929
9947.000000;1.068776
9946.000000;1.067013
9945.000000;1.066206
9944.000000;1.066104
9943.000000;1.066301
9942.000000;1.066733
9941.000000;1.067354
9940.000000;1.067659
9939.000000;1.066984
9938.000000;1.065313
9937.000000;1.063465
9936.000000;1.062289
9935.000000;1.061871
9934.000000;1.061635
9933.000000;1.060987
9932.000000;1.059672
9931.000000;1.057783
9930.000000;1.055794
9929.000000;1.054525
9928.000000;1.054688
9927.000000;1.056272
9926.000000;1.058491
9925.000000;1.060365
9924.000000;1.061279
9923.000000;1.061132
9922.000000;1.060299
9921.000000;1.059405
9920.000000;1.058777
9919.000000;1.058116
9918.000000;1.056999
9917.000000;1.055679
9916.000000;1.054889
9915.000000;1.054798
9914.000000;1.054637
9913.000000;1.053623
9912.000000;1.051931
9911.000000;1.050507
9910.000000;1.050172
9909.000000;1.051104
9908.000000;1.052798
9907.000000;1.054269
9906.000000;1.054667
9905.000000;1.053928
9904.000000;1.052649
9903.000000;1.051348
9902.000000;1.050182
9901.000000;1.049327
9900.000000;1.049045
9899.000000;1.049187
9898.000000;1.049094
9897.000000;1.048363
9896.000000;1.047424
9895.000000;1.046921
9894.000000;1.046780
9893.000000;1.046319
9892.000000;1.045201
9891.000000;1.043935
9890.000000;1.043425
9889.000000;1.044184
9888.000000;1.045818
9887.000000;1.047118
9886.000000;1.046912
9885.000000;1.045107
9884.000000;1.042784
9883.000000;1.041193
9882.000000;1.040849
9881.000000;1.041584
9880.000000;1.043022
9879.000000;1.044723
9878.000000;1.046145
9877.000000;1.046831
9876.000000;1.046591
9875.000000;1.045390
9874.000000;1.043286
9873.000000;1.040690
9872.000000;1.038387
9871.000000;1.037008
9870.000000;1.036623
9869.000000;1.036912
9868.000000;1.037424
9867.000000;1.037511
9866.000000;1.036527
9865.000000;1.034631
9864.000000;1.033095
9863.000000;1.033182
9862.000000;1.034715
9861.000000;1.036163
9860.000000;1.036177
9859.000000;1.034804
9858.000000;1.033178
9857.000000;1.032370
9856.000000;1.032611
9855.000000;1.033263
9854.000000;1.033416
9853.000000;1.032690
9852.000000;1.031570
9851.000000;1.030915
9850.000000;1.031172
9849.000000;1.032087
9848.000000;1.032966
9847.000000;1.033049
9846.000000;1.031877
9845.000000;1.029699
9844.000000;1.027533
9843.000000;1.026438
9842.000000;1.026564
9841.000000;1.027017
9840.000000;1.026710
9839.000000;1.025317
9838.000000;1.023469
9837.000000;1.022187
9836.000000;1.022112
9835.000000;1.023101
9834.000000;1.024437
9833.000000;1.025444
9832.000000;1.025906
9831.000000;1.025985
9830.000000;1.025871
9829.000000;1.025548
9828.000000;1.024756
9827.000000;1.023209
9826.000000;1.021032
9825.000000;1.018966
9824.000000;1.017866
9823.000000;1.017910
9822.000000;1.018495
9821.000000;1.018965
9820.000000;1.019148
9819.000000;1.019151
9818.000000;1.019063
9817.000000;1.019017
9816.000000;1.019099
9815.000000;1.018959
9814.000000;1.017976
9813.000000;1.016105
9812.000000;1.014230
9811.000000;1.013324
9810.000000;1.013472
9809.000000;1.014041
9808.000000;1.014535
9807.000000;1.014877
9806.000000;1.015111
9805.000000;1.015232
9804.000000;1.015221
9803.000000;1.014980
9802.000000;1.014271
9801.000000;1.013058
9800.000000;1.011808
9799.000000;1.011127
9798.000000;1.011103
9797.000000;1.011336
9796.000000;1.011457
9795.000000;1.011224
9794.000000;1.010315
9793.000000;1.008599
9792.000000;1.006564
9791.000000;1.005016
9790.000000;1.004278
9789.000000;1.004019
9788.000000;1.003928
9787.000000;1.004147
9786.000000;1.004858
9785.000000;1.005796
9784.000000;1.006413
9783.000000;1.006361
9782.000000;1.005700
9781.000000;1.004796
9780.000000;1.004110
9779.000000;1.003943
9778.000000;1.004282
9777.000000;1.004946
9776.000000;1.005811
9775.000000;1.006695
9774.000000;1.007123
9773.000000;1.006580
9772.000000;1.005161
9771.000000;1.003665
9770.000000;1.002865
9769.000000;1.002833
9768.000000;1.003025
9767.000000;1.002776
9766.000000;1.001608
9765.000000;0.999462
9764.000000;0.996944
9763.000000;0.995147
9762.000000;0.994841
9761.000000;0.995716
9760.000000;0.996629
9759.000000;0.996728
9758.000000;0.996183
9757.000000;0.995670
9756.000000;0.995378
9755.000000;0.994852
9754.000000;0.993772
9753.000000;0.992457
9752.000000;0.991414
9751.000000;0.990718
9750.000000;0.990184
9749.000000;0.989939
9748.000000;0.990310
9747.000000;0.991082
9746.000000;0.991455
9745.000000;0.990956
9744.000000;0.990051
9743.000000;0.989606
9742.000000;0.989980
9741.000000;0.990806
9740.000000;0.991345
9739.000000;0.990878
9738.000000;0.989113
9737.000000;0.986620
9736.000000;0.984673
9735.000000;0.984248
9734.000000;0.985234
9733.000000;0.986783
9732.000000;0.988205
9731.000000;0.989165
9730.000000;0.989299
9729.000000;0.988348
9728.000000;0.986725
9727.000000;0.985383
9726.000000;0.984892
9725.000000;0.984943
9724.000000;0.984901
9723.000000;0.984497
9722.000000;0.983768
9721.000000;0.982696
9720.000000;0.981279
9719.000000;0.979785
9718.000000;0.978639
9717.000000;0.978107
9716.000000;0.978245
9715.000000;0.978966
9714.000000;0.979860
9713.000000;0.980176
9712.000000;0.979419
9711.000000;0.977991
9710.000000;0.976801
9709.000000;0.976172
9708.000000;0.975557
9707.000000;0.974496
9706.000000;0.973411
9705.000000;0.973025
9704.000000;0.973287
9703.000000;0.973450
9702.000000;0.973136
9701.000000;0.972724
9700.000000;0.972526
9699.000000;0.972224
9698.000000;0.971485
9697.000000;0.970659
9696.000000;0.970366
9695.000000;0.970692
9694.000000;0.971258
9693.000000;0.971857
9692.000000;0.972505
9691.000000;0.973007
9690.000000;0.973041
9689.000000;0.972707
9688.000000;0.972443
9687.000000;0.972300
9686.000000;0.971829
9685.000000;0.970871
9684.000000;0.969940
9683.000000;0.969536
9682.000000;0.969499
9681.000000;0.969365
9680.000000;0.969051
9679.000000;0.968886
9678.000000;0.969181
9677.000000;0.969999
9676.000000;0.971111
9675.000000;0.971934
9674.000000;0.971734
9673.000000;0.970212
9672.000000;0.967777
9671.000000;0.965092
9670.000000;0.962625
9669.000000;0.960787
9668.000000;0.960083
9667.000000;0.960722
9666.000000;0.962245
9665.000000;0.963934
9664.000000;0.965497
9663.000000;0.966975
9662.000000;0.968066
9661.000000;0.968072
9660.000000;0.966710
9659.000000;0.964625
9658.000000;0.962831
9657.000000;0.961806
9656.000000;0.961240
9655.000000;0.960509
9654.000000;0.959272
9653.000000;0.957734
9652.000000;0.956519
9651.000000;0.956292
9650.000000;0.957282
9649.000000;0.958976
9648.000000;0.960277
9647.000000;0.960204
9646.000000;0.958674
9645.000000;0.956611
9644.000000;0.955097
9643.000000;0.954468
9642.000000;0.954316
9641.000000;0.954195
9640.000000;0.954023
9639.000000;0.953784
9638.000000;0.953253
9637.000000;0.952292
9636.000000;0.951224
9635.000000;0.950614
9634.000000;0.950648
9633.000000;0.950854
9632.000000;0.950534
9631.000000;0.949490
9630.000000;0.948333
9629.000000;0.947966
9628.000000;0.948680
9627.000000;0.949828
9626.000000;0.950475
9625.000000;0.950230
9624.000000;0.949356
9623.000000;0.948367
9622.000000;0.947767
9621.000000;0.947907
9620.000000;0.948630
9619.000000;0.949212
9618.000000;0.949126
9617.000000;0.948719
9616.000000;0.948584
9615.000000;0.948464
9614.000000;0.947555
9613.000000;0.945958
9612.000000;0.944894
9611.000000;0.945060
9610.000000;0.945527
9609.000000;0.944902
9608.000000;0.943124
9607.000000;0.941432
9606.000000;0.940843
9605.000000;0.941289
9604.000000;0.942064
9603.000000;0.942486
9602.000000;0.942148
9601.000000;0.941002
9600.000000;0.939394
9599.000000;0.937880
9598.000000;0.936959
9597.000000;0.936865
9596.000000;0.937401
9595.000000;0.937911
9594.000000;0.937774
9593.000000;0.937205
9592.000000;0.937206
9591.000000;0.938366
9590.000000;0.939967
9589.000000;0.940655
9588.000000;0.939835
9587.000000;0.938064
9586.000000;0.936273
9585.000000;0.935086
9584.000000;0.934764
9583.000000;0.935230
9582.000000;0.936026
9581.000000;0.936531
9580.000000;0.936368
9579.000000;0.935571
9578.000000;0.934463
9577.000000;0.933507
9576.000000;0.933083
9575.000000;0.933195
9574.000000;0.933489
9573.000000;0.933650
9572.000000;0.933575
9571.000000;0.933081
9570.000000;0.931904
9569.000000;0.930263
9568.000000;0.928986
9567.000000;0.928620
9566.000000;0.928705
9565.000000;0.928402
9564.000000;0.927640
9563.000000;0.927131
9562.000000;0.927421
9561.000000;0.928415
9560.000000;0.929700
9559.000000;0.930800
9558.000000;0.931116
9557.000000;0.930217
9556.000000;0.928382
9555.000000;0.926490
9554.000000;0.925232
9553.000000;0.924665
9552.000000;0.924528
9551.000000;0.924576
9550.000000;0.924484
9549.000000;0.923809
9548.000000;0.922417
9547.000000;0.920795
9546.000000;0.919709
9545.000000;0.919533
9544.000000;0.919977
9543.000000;0.920463
9542.000000;0.920684
9541.000000;0.920743
9540.000000;0.920749
9539.000000;0.920558
9538.000000;0.920207
9537.000000;0.920375
9536.000000;0.921766
9535.000000;0.923925
9534.000000;0.925270
9533.000000;0.924718
9532.000000;0.922866
9531.000000;0.921059
9530.000000;0.919774
9529.000000;0.918542
9528.000000;0.917098
9527.000000;0.915832
9526.000000;0.915181
9525.000000;0.915240
9524.000000;0.916003
9523.000000;0.917337
9522.000000;0.918595
9521.000000;0.918898
9520.000000;0.918119
9519.000000;0.917176
9518.000000;0.916992
9517.000000;0.917465
9516.000000;0.917717
9515.000000;0.917116
9514.000000;0.915785
9513.000000;0.914259
9512.000000;0.912920
9511.000000;0.911799
9510.000000;0.910845
9509.000000;0.910251
9508.000000;0.910320
9507.000000;0.910929
9506.000000;0.911368
9505.000000;0.910982
9504.000000;0.909841
9503.000000;0.908517
9502.000000;0.907430
9501.000000;0.906748
9500.000000;0.906729
9499.000000;0.907584
9498.000000;0.908928
9497.000000;0.909853
9496.000000;0.909800
9495.000000;0.909097
9494.000000;0.908507
9493.000000;0.908482
9492.000000;0.908903
9491.000000;0.909280
9490.000000;0.909088
9489.000000;0.908136
9488.000000;0.906685
9487.000000;0.905100
9486.000000;0.903522
9485.000000;0.902090
9484.000000;0.901255
9483.000000;0.901408
9482.000000;0.902264
9481.000000;0.903074
9480.000000;0.903461
9479.000000;0.903576
9478.000000;0.903433
9477.000000;0.902714
9476.000000;0.901483
9475.000000;0.900470
9474.000000;0.900235
9473.000000;0.900447
9472.000000;0.900434
9471.000000;0.900169
9470.000000;0.900179
9469.000000;0.900655
9468.000000;0.901154
9467.000000;0.901235
9466.000000;0.901025
9465.000000;0.900931
9464.000000;0.900995
9463.000000;0.900756
9462.000000;0.899811
9461.000000;0.898425
9460.000000;0.897437
9459.000000;0.897438
9458.000000;0.898131
9457.000000;0.898719
9456.000000;0.898881
9455.000000;0.898978
9454.000000;0.899217
9453.000000;0.899058
9452.000000;0.897815
9451.000000;0.895612
9450.000000;0.893368
9449.000000;0.891888
9448.000000;0.891284
9447.000000;0.891184
9446.000000;0.891247
9445.000000;0.891469
9444.000000;0.892144
9443.000000;0.893499
9442.000000;0.895220
9441.000000;0.896413
9440.000000;0.896290
9439.000000;0.895001
9438.000000;0.893566
9437.000000;0.892892
9436.000000;0.893005
9435.000000;0.893321
9434.000000;0.893430
9433.000000;0.893317
9432.000000;0.892923
9431.000000;0.891955
9430.000000;0.890439
9429.000000;0.889167
9428.000000;0.889096
9427.000000;0.890199
9426.000000;0.891267
9425.000000;0.891118
9424.000000;0.889830
9423.000000;0.888465
9422.000000;0.887805
9421.000000;0.887753
9420.000000;0.887871
9419.000000;0.888004
9418.000000;0.888190
9417.000000;0.888289
9416.000000;0.887999
9415.000000;0.887190
9414.000000;0.886050
9413.000000;0.884958
9412.000000;0.884295
9411.000000;0.884215
9410.000000;0.884438
9409.000000;0.884408
9408.000000;0.883870
9407.000000;0.883209
9406.000000;0.882969
9405.000000;0.883088
9404.000000;0.882876
9403.000000;0.881842
9402.000000;0.880354
9401.000000;0.879327
9400.000000;0.879344
9399.000000;0.880191
9398.000000;0.881196
9397.000000;0.881837
9396.000000;0.881941
9395.000000;0.881478
9394.000000;0.880426
9393.000000;0.878896
9392.000000;0.877241
9391.000000;0.875957
9390.000000;0.875472
9389.000000;0.875985
9388.000000;0.877307
9387.000000;0.878802
9386.000000;0.879699
9385.000000;0.879724
9384.000000;0.879330
9383.000000;0.879125
9382.000000;0.879150
9381.000000;0.878964
9380.000000;0.878347
9379.000000;0.877582
9378.000000;0.876972
9377.000000;0.876404
9376.000000;0.875699
9375.000000;0.875130
9374.000000;0.875193
9373.000000;0.875845
9372.000000;0.876341
9371.000000;0.876074
9370.000000;0.875344
9369.000000;0.874991
9368.000000;0.875323
9367.000000;0.875749
9366.000000;0.875552
9365.000000;0.874756
9364.000000;0.873979
9363.000000;0.873611
9362.000000;0.873462
9361.000000;0.873214
9360.000000;0.872926
9359.000000;0.872909
9358.000000;0.873240
9357.000000;0.873585
9356.000000;0.873521
9355.000000;0.872968
9354.000000;0.872308
9353.000000;0.872035
9352.000000;0.872199
9351.000000;0.872268
9350.000000;0.871640
9349.000000;0.870281
9348.000000;0.868775
9347.000000;0.867742
9346.000000;0.867363
9345.000000;0.867430
9344.000000;0.867655
9343.000000;0.867896
9342.000000;0.868196
9341.000000;0.868631
9340.000000;0.869044
9339.000000;0.869021
9338.000000;0.868362
9337.000000;0.867534
9336.000000;0.867281
9335.000000;0.867736
9334.000000;0.868205
9333.000000;0.867967
9332.000000;0.867023
9331.000000;0.865893
9330.000000;0.865000
9329.000000;0.864521
9328.000000;0.864537
9327.000000;0.864887
9326.000000;0.865054
9325.000000;0.864608
9324.000000;0.863753
9323.000000;0.863070
9322.000000;0.862775
9321.000000;0.862567
9320.000000;0.862254
9319.000000;0.862126
9318.000000;0.862522
9317.000000;0.863270
9316.000000;0.863803
9315.000000;0.863706
9314.000000;0.862961
9313.000000;0.861738
9312.000000;0.860199
9311.000000;0.858564
9310.000000;0.857205
9309.000000;0.856507
9308.000000;0.856600
9307.000000;0.857306
9306.000000;0.858309
9305.000000;0.859256
9304.000000;0.859708
9303.000000;0.859279
9302.000000;0.858114
9301.000000;0.857104
9300.000000;0.857246
9299.000000;0.858674
9298.000000;0.860445
9297.000000;0.861328
9296.000000;0.860736
9295.000000;0.858979
9294.000000;0.856915
9293.000000;0.855460
9292.000000;0.855099
9291.000000;0.855558
9290.000000;0.856084
9289.000000;0.856198
9288.000000;0.856017
9287.000000;0.855740
9286.000000;0.855224
9285.000000;0.854323
9284.000000;0.853395
9283.000000;0.853090
9282.000000;0.853693
9281.000000;0.854881
9280.000000;0.855954
9279.000000;0.856134
9278.000000;0.854935
9277.000000;0.852656
9276.000000;0.850411
9275.000000;0.849315
9274.000000;0.849597
9273.000000;0.850669
9272.000000;0.851850
9271.000000;0.852756
9270.000000;0.853187
9269.000000;0.853113
9268.000000;0.852815
9267.000000;0.852622
9266.000000;0.852457
9265.000000;0.851916
9264.000000;0.850903
9263.000000;0.849879
9262.000000;0.849370
9261.000000;0.849446
9260.000000;0.849757
9259.000000;0.849878
9258.000000;0.849536
9257.000000;0.848729
9256.000000;0.847722
9255.000000;0.846835
9254.000000;0.846167
9253.000000;0.845620
9252.000000;0.845170
9251.000000;0.844889
9250.000000;0.844720
9249.000000;0.844481
9248.000000;0.844180
9247.000000;0.844095
9246.000000;0.844423
9245.000000;0.845009
9244.000000;0.845522
9243.000000;0.845766
9242.000000;0.845707
9241.000000;0.845354
9240.000000;0.844788
9239.000000;0.844227
9238.000000;0.843894
9237.000000;0.843807
9236.000000;0.843785
9235.000000;0.843709
9234.000000;0.843666
9233.000000;0.843764
9232.000000;0.843842
9231.000000;0.843538
9230.000000;0.842790
9229.000000;0.842130
9228.000000;0.842216
9227.000000;0.843053
9226.000000;0.843943
9225.000000;0.844263
9224.000000;0.844023
9223.000000;0.843518
9222.000000;0.842813
9221.000000;0.841895
9220.000000;0.841030
9219.000000;0.840525
9218.000000;0.840266
9217.000000;0.839924
9216.000000;0.839544
9215.000000;0.839508
9214.000000;0.839877
9213.000000;0.840182
9212.000000;0.840002
9211.000000;0.839408
9210.000000;0.838722
9209.000000;0.838127
9208.000000;0.837710
9207.000000;0.837593
9206.000000;0.837804
9205.000000;0.838139
9204.000000;0.838316
9203.000000;0.838165
9202.000000;0.837618
9201.000000;0.836700
9200.000000;0.835664
9199.000000;0.834983
9198.000000;0.835023
9197.000000;0.835741
9196.000000;0.836733
9195.000000;0.837489
9194.000000;0.837621
9193.000000;0.837029
9192.000000;0.835976
9191.000000;0.834959
9190.000000;0.834416
9189.000000;0.834531
9188.000000;0.835185
9187.000000;0.835917
9186.000000;0.836036
9185.000000;0.835051
9184.000000;0.833172
9183.000000;0.831263
9182.000000;0.830157
9181.000000;0.829980
9180.000000;0.830126
9179.000000;0.829863
9178.000000;0.829022
9177.000000;0.828194
9176.000000;0.828187
9175.000000;0.829192
9174.000000;0.830552
9173.000000;0.831436
9172.000000;0.831649
9171.000000;0.831599
9170.000000;0.831583
9169.000000;0.831426
9168.000000;0.830847
9167.000000;0.829883
9166.000000;0.828864
9165.000000;0.828135
9164.000000;0.827876
9163.000000;0.828033
9162.000000;0.828340
9161.000000;0.828532
9160.000000;0.828617
9159.000000;0.828849
9158.000000;0.829457
9157.000000;0.830483
9156.000000;0.831744
9155.000000;0.832749
9154.000000;0.832825
9153.000000;0.831731
9152.000000;0.830105
9151.000000;0.828889
9150.000000;0.828252
9149.000000;0.827516
9148.000000;0.826236
9147.000000;0.824877
9146.000000;0.824145
9145.000000;0.824059
9144.000000;0.824100
9143.000000;0.824000
9142.000000;0.823947
9141.000000;0.824121
9140.000000;0.824460
9139.000000;0.824850
9138.000000;0.825191
9137.000000;0.825252
9136.000000;0.824835
9135.000000;0.824189
9134.000000;0.823949
9133.000000;0.824476
9132.000000;0.825370
9131.000000;0.825829
9130.000000;0.825426
9129.000000;0.824439
9128.000000;0.823501
9127.000000;0.823051
9126.000000;0.823099
9125.000000;0.823334
9124.000000;0.823374
9123.000000;0.822959
9122.000000;0.822052
9121.000000;0.820876
9120.000000;0.819806
9119.000000;0.819152
9118.000000;0.819006
9117.000000;0.819318
9116.000000;0.820016
9115.000000;0.820917
9114.000000;0.821607
9113.000000;0.821643
9112.000000;0.820962
9111.000000;0.819935
9110.000000;0.818956
9109.000000;0.818164
9108.000000;0.817658
9107.000000;0.817697
9106.000000;0.818425
9105.000000;0.819499
9104.000000;0.820301
9103.000000;0.820571
9102.000000;0.820594
9101.000000;0.820718
9100.000000;0.820890
9099.000000;0.820781
9098.000000;0.820165
9097.000000;0.819075
9096.000000;0.817730
9095.000000;0.816482
9094.000000;0.815735
9093.000000;0.815690
9092.000000;0.816142
9091.000000;0.816649
9090.000000;0.816929
9089.000000;0.817000
9088.000000;0.816922
9087.000000;0.816620
9086.000000;0.816078
9085.000000;0.815552
9084.000000;0.815376
9083.000000;0.815574
9082.000000;0.815836
9081.000000;0.815906
9080.000000;0.815869
9079.000000;0.816029
9078.000000;0.816574
9077.000000;0.817382
9076.000000;0.818038
9075.000000;0.818036
9074.000000;0.817168
9073.000000;0.815791
9072.000000;0.814563
9071.000000;0.813844
9070.000000;0.813507
9069.000000;0.813358
9068.000000;0.813478
9067.000000;0.813943
9066.000000;0.814444
9065.000000;0.814550
9064.000000;0.814236
9063.000000;0.813852
9062.000000;0.813560
9061.000000;0.813190
9060.000000;0.812710
9059.000000;0.812467
9058.000000;0.812735
9057.000000;0.813223
9056.000000;0.813297
9055.000000;0.812620
9054.000000;0.811429
9053.000000;0.810262
9052.000000;0.809572
9051.000000;0.809554
9050.000000;0.810094
9049.000000;0.810796
9048.000000;0.811197
9047.000000;0.811077
9046.000000;0.810611
9045.000000;0.810202
9044.000000;0.810144
9043.000000;0.810423
9042.000000;0.810828
9041.000000;0.811198
9040.000000;0.811482
9039.000000;0.811578
9038.000000;0.811276
9037.000000;0.810510
9036.000000;0.809584
9035.000000;0.808959
9034.000000;0.808813
9033.000000;0.808922
9032.000000;0.808991
9031.000000;0.808959
9030.000000;0.808946
9029.000000;0.808998
9028.000000;0.808955
9027.000000;0.808530
9026.000000;0.807541
9025.000000;0.806169
9024.000000;0.804974
9023.000000;0.804519
9022.000000;0.804903
9021.000000;0.805705
9020.000000;0.806410
9019.000000;0.806802
9018.000000;0.806922
9017.000000;0.806820
9016.000000;0.806456
9015.000000;0.805771
9014.000000;0.804774
9013.000000;0.803634
9012.000000;0.802740
9011.000000;0.802544
9010.000000;0.803213
9009.000000;0.804427
9008.000000;0.805583
9007.000000;0.806186
9006.000000;0.806057
9005.000000;0.805320
9004.000000;0.804314
9003.000000;0.803472
9002.000000;0.803116
9001.000000;0.803279
9000.000000;0.803727
8999.000000;0.804126
8998.000000;0.804218
8997.000000;0.803940
8996.000000;0.803454
8995.000000;0.803042
8994.000000;0.802874
8993.000000;0.802893
8992.000000;0.802915
8991.000000;0.802839
8990.000000;0.802724
8989.000000;0.802675
8988.000000;0.802708
8987.000000;0.802711
8986.000000;0.802512
8985.000000;0.801993
8984.000000;0.801195
8983.000000;0.800371
8982.000000;0.799901
8981.000000;0.800061
8980.000000;0.800755
8979.000000;0.801501
8978.000000;0.801812
8977.000000;0.801667
8976.000000;0.801510
8975.000000;0.801688
8974.000000;0.802014
8973.000000;0.802059
8972.000000;0.801791
8971.000000;0.801657
8970.000000;0.801942
8969.000000;0.802315
8968.000000;0.802185
8967.000000;0.801442
8966.000000;0.800624
8965.000000;0.800367
8964.000000;0.800807
8963.000000;0.801490
8962.000000;0.801759
8961.000000;0.801256
8960.000000;0.800212
8959.000000;0.799322
8958.000000;0.799209
8957.000000;0.799876
8956.000000;0.800676
8955.000000;0.800905
8954.000000;0.800440
8953.000000;0.799723
8952.000000;0.799175
8951.000000;0.798810
8950.000000;0.798481
8949.000000;0.798284
8948.000000;0.798474
8947.000000;0.798987
8946.000000;0.799299
8945.000000;0.798897
8944.000000;0.797791
8943.000000;0.796509
8942.000000;0.795668
8941.000000;0.795604
8940.000000;0.796222
8939.000000;0.797042
8938.000000;0.797465
8937.000000;0.797193
8936.000000;0.796428
8935.000000;0.795674
8934.000000;0.795373
8933.000000;0.795680
8932.000000;0.796389
8931.000000;0.796948
8930.000000;0.796772
8929.000000;0.795786
8928.000000;0.794587
8927.000000;0.793880
8926.000000;0.793827
8925.000000;0.794120
8924.000000;0.794512
8923.000000;0.794993
8922.000000;0.795500
8921.000000;0.795824
8920.000000;0.795890
8919.000000;0.795870
8918.000000;0.795892
8917.000000;0.795823
8916.000000;0.795442
8915.000000;0.794697
8914.000000;0.793773
8913.000000;0.793037
8912.000000;0.792888
8911.000000;0.793400
8910.000000;0.794094
8909.000000;0.794305
8908.000000;0.793876
8907.000000;0.793256
8906.000000;0.792840
8905.000000;0.792538
8904.000000;0.792099
8903.000000;0.791566
8902.000000;0.791181
8901.000000;0.791082
8900.000000;0.791324
8899.000000;0.791964
8898.000000;0.792863
8897.000000;0.793580
8896.000000;0.793743
8895.000000;0.793424
8894.000000;0.792924
8893.000000;0.792379
8892.000000;0.791871
8891.000000;0.791730
8890.000000;0.792292
8889.000000;0.793374
8888.000000;0.794323
8887.000000;0.794648
8886.000000;0.794355
8885.000000;0.793723
8884.000000;0.793035
8883.000000;0.792533
8882.000000;0.792311
8881.000000;0.792158
8880.000000;0.791772
8879.000000;0.791194
8878.000000;0.790782
8877.000000;0.790727
8876.000000;0.790860
8875.000000;0.791017
8874.000000;0.791265
8873.000000;0.791626
8872.000000;0.791901
8871.000000;0.791965
8870.000000;0.791968
8869.000000;0.791995
8868.000000;0.791791
8867.000000;0.791162
8866.000000;0.790460
8865.000000;0.790286
8864.000000;0.790735
8863.000000;0.791276
8862.000000;0.791406
8861.000000;0.791165
8860.000000;0.790920
8859.000000;0.790888
8858.000000;0.790997
8857.000000;0.791069
8856.000000;0.790998
8855.000000;0.790794
8854.000000;0.790572
8853.000000;0.790459
8852.000000;0.790478
8851.000000;0.790509
8850.000000;0.790385
8849.000000;0.789998
8848.000000;0.789378
8847.000000;0.788704
8846.000000;0.788226
8845.000000;0.788129
8844.000000;0.788480
8843.000000;0.789300
8842.000000;0.790568
8841.000000;0.792070
8840.000000;0.793336
8839.000000;0.793904
8838.000000;0.793677
8837.000000;0.792953
8836.000000;0.792138
8835.000000;0.791539
8834.000000;0.791342
8833.000000;0.791568
8832.000000;0.792000
8831.000000;0.792278
8830.000000;0.792183
8829.000000;0.791744
8828.000000;0.791098
8827.000000;0.790355
8826.000000;0.789654
8825.000000;0.789174
8824.000000;0.788947
8823.000000;0.788739
8822.000000;0.788297
8821.000000;0.787741
8820.000000;0.787560
8819.000000;0.788108
8818.000000;0.789120
8817.000000;0.789865
8816.000000;0.789856
8815.000000;0.789365
8814.000000;0.789100
8813.000000;0.789404
8812.000000;0.789938
8811.000000;0.790232
8810.000000;0.790290
8809.000000;0.790483
8808.000000;0.790976
8807.000000;0.791585
8806.000000;0.792126
8805.000000;0.792595
8804.000000;0.792894
8803.000000;0.792717
8802.000000;0.791952
8801.000000;0.791013
8800.000000;0.790510
8799.000000;0.790626
8798.000000;0.791017
8797.000000;0.791280
8796.000000;0.791352
8795.000000;0.791412
8794.000000;0.791573
8793.000000;0.791783
8792.000000;0.791998
8791.000000;0.792313
8790.000000;0.792822
8789.000000;0.793347
8788.000000;0.793427
8787.000000;0.792750
8786.000000;0.791591
8785.000000;0.790661
8784.000000;0.790448
8783.000000;0.790818
8782.000000;0.791292
8781.000000;0.791582
8780.000000;0.791754
8779.000000;0.791985
8778.000000;0.792318
8777.000000;0.792611
8776.000000;0.792646
8775.000000;0.792317
8774.000000;0.791783
8773.000000;0.791377
8772.000000;0.791308
8771.000000;0.791506
8770.000000;0.791779
8769.000000;0.792001
8768.000000;0.792099
8767.000000;0.792025
8766.000000;0.791886
8765.000000;0.791986
8764.000000;0.792539
8763.000000;0.793388
8762.000000;0.794140
8761.000000;0.794546
8760.000000;0.794620
8759.000000;0.794474
8758.000000;0.794219
8757.000000;0.794021
8756.000000;0.794057
8755.000000;0.794354
8754.000000;0.794748
8753.000000;0.795002
8752.000000;0.794942
8751.000000;0.794583
8750.000000;0.794230
8749.000000;0.794329
8748.000000;0.795060
8747.000000;0.796090
8746.000000;0.796863
8745.000000;0.797094
8744.000000;0.796878
8743.000000;0.796437
8742.000000;0.795993
8741.000000;0.795796
8740.000000;0.795984
8739.000000;0.796396
8738.000000;0.796744
8737.000000;0.796980
8736.000000;0.797288
8735.000000;0.797713
8734.000000;0.798049
8733.000000;0.798154
8732.000000;0.798105
8731.000000;0.797943
8730.000000;0.797542
8729.000000;0.796914
8728.000000;0.796441
8727.000000;0.796577
8726.000000;0.797365
8725.000000;0.798385
8724.000000;0.799119
8723.000000;0.799338
8722.000000;0.799257
8721.000000;0.799349
8720.000000;0.799864
8719.000000;0.800466
8718.000000;0.800494
8717.000000;0.799746
8716.000000;0.798827
8715.000000;0.798547
8714.000000;0.799073
8713.000000;0.799868
8712.000000;0.800348
8711.000000;0.800375
8710.000000;0.800128
8709.000000;0.799756
8708.000000;0.799301
8707.000000;0.798846
8706.000000;0.798568
8705.000000;0.798583
8704.000000;0.798806
8703.000000;0.799073
8702.000000;0.799405
8701.000000;0.800023
8700.000000;0.800984
8699.000000;0.801924
8698.000000;0.802399
8697.000000;0.802445
8696.000000;0.802556
8695.000000;0.803034
8694.000000;0.803593
8693.000000;0.803717
8692.000000;0.803225
8691.000000;0.802349
8690.000000;0.801458
8689.000000;0.800883
8688.000000;0.800851
8687.000000;0.801301
8686.000000;0.801829
8685.000000;0.802018
8684.000000;0.801841
8683.000000;0.801628
8682.000000;0.801706
8681.000000;0.802167
8680.000000;0.802888
8679.000000;0.803585
8678.000000;0.803919
8677.000000;0.803759
8676.000000;0.803315
8675.000000;0.802886
8674.000000;0.802533
8673.000000;0.802187
8672.000000;0.801990
8671.000000;0.802238
8670.000000;0.802934
8669.000000;0.803652
8668.000000;0.803989
8667.000000;0.803985
8666.000000;0.803974
8665.000000;0.804147
8664.000000;0.804401
8663.000000;0.804524
8662.000000;0.804405
8661.000000;0.804129
8660.000000;0.803976
8659.000000;0.804261
8658.000000;0.805015
8657.000000;0.805833
8656.000000;0.806189
8655.000000;0.805942
8654.000000;0.805442
8653.000000;0.805072
8652.000000;0.804832
8651.000000;0.804452
8650.000000;0.803854
8649.000000;0.803310
8648.000000;0.803116
8647.000000;0.803258
8646.000000;0.803498
8645.000000;0.803667
8644.000000;0.803761
8643.000000;0.803782
8642.000000;0.803693
8641.000000;0.803526
8640.000000;0.803393
8639.000000;0.803340
8638.000000;0.803296
8637.000000;0.803220
8636.000000;0.803181
8635.000000;0.803238
8634.000000;0.803360
8633.000000;0.803531
8632.000000;0.803816
8631.000000;0.804218
8630.000000;0.804565
8629.000000;0.804676
8628.000000;0.804618
8627.000000;0.804684
8626.000000;0.805095
8625.000000;0.805738
8624.000000;0.806190
8623.000000;0.806010
8622.000000;0.805135
8621.000000;0.804050
8620.000000;0.803464
8619.000000;0.803703
8618.000000;0.804444
8617.000000;0.805101
8616.000000;0.805394
8615.000000;0.805460
8614.000000;0.805520
8613.000000;0.805622
8612.000000;0.805675
8611.000000;0.805581
8610.000000;0.805298
8609.000000;0.804884
8608.000000;0.804519
8607.000000;0.804401
8606.000000;0.804562
8605.000000;0.804819
8604.000000;0.804940
8603.000000;0.804841
8602.000000;0.804617
8601.000000;0.804413
8600.000000;0.804295
8599.000000;0.804253
8598.000000;0.804342
8597.000000;0.804710
8596.000000;0.805329
8595.000000;0.805768
8594.000000;0.805486
8593.000000;0.804510
8592.000000;0.803600
8591.000000;0.803503
8590.000000;0.804132
8589.000000;0.804723
8588.000000;0.804768
8587.000000;0.804493
8586.000000;0.804362
8585.000000;0.804443
8584.000000;0.804448
8583.000000;0.804238
8582.000000;0.803993
8581.000000;0.803916
8580.000000;0.804014
8579.000000;0.804216
8578.000000;0.804521
8577.000000;0.804865
8576.000000;0.804973
8575.000000;0.804559
8574.000000;0.803710
8573.000000;0.802940
8572.000000;0.802736
8571.000000;0.803084
8570.000000;0.803506
8569.000000;0.803546
8568.000000;0.803168
8567.000000;0.802714
8566.000000;0.802544
8565.000000;0.802717
8564.000000;0.802984
8563.000000;0.803077
8562.000000;0.803005
8561.000000;0.803008
8560.000000;0.803222
8559.000000;0.803518
8558.000000;0.803733
8557.000000;0.803915
8556.000000;0.804144
8555.000000;0.804232
8554.000000;0.803877
8553.000000;0.803131
8552.000000;0.802467
8551.000000;0.802297
8550.000000;0.802588
8549.000000;0.802998
8548.000000;0.803205
8547.000000;0.803033
8546.000000;0.802509
8545.000000;0.801945
8544.000000;0.801754
8543.000000;0.802008
8542.000000;0.802308
8541.000000;0.802285
8540.000000;0.802089
8539.000000;0.802133
8538.000000;0.802516
8537.000000;0.802952
8536.000000;0.803235
8535.000000;0.803463
8534.000000;0.803763
8533.000000;0.804046
8532.000000;0.804150
8531.000000;0.804061
8530.000000;0.803874
8529.000000;0.803649
8528.000000;0.803407
8527.000000;0.803207
8526.000000;0.803141
8525.000000;0.803258
8524.000000;0.803499
8523.000000;0.803672
8522.000000;0.803503
8521.000000;0.802854
8520.000000;0.801915
8519.000000;0.801115
8518.000000;0.800781
8517.000000;0.800894
8516.000000;0.801175
8515.000000;0.801374
8514.000000;0.801473
8513.000000;0.801591
8512.000000;0.801740
8511.000000;0.801711
8510.000000;0.801314
8509.000000;0.800709
8508.000000;0.800339
8507.000000;0.800468
8506.000000;0.800917
8505.000000;0.801357
8504.000000;0.801710
8503.000000;0.802083
8502.000000;0.802417
8501.000000;0.802473
8500.000000;0.802187
8499.000000;0.801827
8498.000000;0.801721
8497.000000;0.801963
8496.000000;0.802437
8495.000000;0.802922
8494.000000;0.803118
8493.000000;0.802747
8492.000000;0.801830
8491.000000;0.800793
8490.000000;0.800151
8489.000000;0.800073
8488.000000;0.800322
8487.000000;0.800565
8486.000000;0.800676
8485.000000;0.800738
8484.000000;0.800881
8483.000000;0.801168
8482.000000;0.801552
8481.000000;0.801833
8480.000000;0.801690
8479.000000;0.800913
8478.000000;0.799699
8477.000000;0.798650
8476.000000;0.798353
8475.000000;0.798932
8474.000000;0.800022
8473.000000;0.801097
8472.000000;0.801742
8471.000000;0.801744
8470.000000;0.801181
8469.000000;0.800470
8468.000000;0.800093
8467.000000;0.800136
8466.000000;0.800256
8465.000000;0.800212
8464.000000;0.800220
8463.000000;0.800586
8462.000000;0.801130
8461.000000;0.801279
8460.000000;0.800712
8459.000000;0.799706
8458.000000;0.798846
8457.000000;0.798537
8456.000000;0.798770
8455.000000;0.799175
8454.000000;0.799311
8453.000000;0.799092
8452.000000;0.798919
8451.000000;0.799247
8450.000000;0.800016
8449.000000;0.800703
8448.000000;0.800947
8447.000000;0.800885
8446.000000;0.800812
8445.000000;0.800766
8444.000000;0.800607
8443.000000;0.800312
8442.000000;0.800009
8441.000000;0.799791
8440.000000;0.799651
8439.000000;0.799565
8438.000000;0.799536
8437.000000;0.799553
8436.000000;0.799576
8435.000000;0.799574
8434.000000;0.799513
8433.000000;0.799370
8432.000000;0.799197
8431.000000;0.799140
8430.000000;0.799322
8429.000000;0.799676
8428.000000;0.799908
8427.000000;0.799667
8426.000000;0.798855
8425.000000;0.797828
8424.000000;0.797218
8423.000000;0.797391
8422.000000;0.798073
8421.000000;0.798635
8420.000000;0.798732
8419.000000;0.798585
8418.000000;0.798590
8417.000000;0.798829
8416.000000;0.799038
8415.000000;0.798947
8414.000000;0.798558
8413.000000;0.798129
8412.000000;0.797970
8411.000000;0.798226
8410.000000;0.798767
8409.000000;0.799287
8408.000000;0.799518
8407.000000;0.799368
8406.000000;0.798915
8405.000000;0.798356
8404.000000;0.797930
8403.000000;0.797816
8402.000000;0.798044
8401.000000;0.798512
8400.000000;0.799036
8399.000000;0.799374
8398.000000;0.799302
8397.000000;0.798809
8396.000000;0.798193
8395.000000;0.797839
8394.000000;0.797874
8393.000000;0.798118
8392.000000;0.798364
8391.000000;0.798560
8390.000000;0.798717
8389.000000;0.798800
8388.000000;0.798758
8387.000000;0.798593
8386.000000;0.798355
8385.000000;0.798134
8384.000000;0.798043
8383.000000;0.798116
8382.000000;0.798245
8381.000000;0.798316
8380.000000;0.798364
8379.000000;0.798447
8378.000000;0.798449
8377.000000;0.798230
8376.000000;0.797953
8375.000000;0.797983
8374.000000;0.798366
8373.000000;0.798655
8372.000000;0.798402
8371.000000;0.797658
8370.000000;0.796882
8369.000000;0.796497
8368.000000;0.796644
8367.000000;0.797167
8366.000000;0.797686
8365.000000;0.797850
8364.000000;0.797691
8363.000000;0.797602
8362.000000;0.797847
8361.000000;0.798231
8360.000000;0.798400
8359.000000;0.798271
8358.000000;0.797971
8357.000000;0.797531
8356.000000;0.796899
8355.000000;0.796182
8354.000000;0.795622
8353.000000;0.795390
8352.000000;0.795575
8351.000000;0.796259
8350.000000;0.797340
8349.000000;0.798363
8348.000000;0.798824
8347.000000;0.798671
8346.000000;0.798277
8345.000000;0.797945
8344.000000;0.797689
8343.000000;0.797475
8342.000000;0.797379
8341.000000;0.797400
8340.000000;0.797380
8339.000000;0.797245
8338.000000;0.797108
8337.000000;0.797042
8336.000000;0.796926
8335.000000;0.796667
8334.000000;0.796385
8333.000000;0.796230
8332.000000;0.796177
8331.000000;0.796149
8330.000000;0.796191
8329.000000;0.796359
8328.000000;0.796530
8327.000000;0.796517
8326.000000;0.796336
8325.000000;0.796214
8324.000000;0.796337
8323.000000;0.796705
8322.000000;0.797154
8321.000000;0.797426
8320.000000;0.797277
8319.000000;0.796661
8318.000000;0.795827
8317.000000;0.795126
8316.000000;0.794763
8315.000000;0.794773
8314.000000;0.795133
8313.000000;0.795737
8312.000000;0.796288
8311.000000;0.796437
8310.000000;0.796114
8309.000000;0.795607
8308.000000;0.795236
8307.000000;0.795067
8306.000000;0.794996
8305.000000;0.794998
8304.000000;0.795131
8303.000000;0.795339
8302.000000;0.795421
8301.000000;0.795265
8300.000000;0.795004
8299.000000;0.794864
8298.000000;0.794906
8297.000000;0.794999
8296.000000;0.795015
8295.000000;0.794949
8294.000000;0.794835
8293.000000;0.794678
8292.000000;0.794538
8291.000000;0.794611
8290.000000;0.795075
8289.000000;0.795848
8288.000000;0.796573
8287.000000;0.796883
8286.000000;0.796673
8285.000000;0.796115
8284.000000;0.795503
8283.000000;0.795097
8282.000000;0.795026
8281.000000;0.795256
8280.000000;0.795610
8279.000000;0.795853
8278.000000;0.795808
8277.000000;0.795484
8276.000000;0.795095
8275.000000;0.794900
8274.000000;0.794957
8273.000000;0.795092
8272.000000;0.795144
8271.000000;0.795149
8270.000000;0.795167
8269.000000;0.795041
8268.000000;0.794547
8267.000000;0.793779
8266.000000;0.793148
8265.000000;0.792906
8264.000000;0.792902
8263.000000;0.792906
8262.000000;0.792990
8261.000000;0.793351
8260.000000;0.793888
8259.000000;0.794215
8258.000000;0.794106
8257.000000;0.793729
8256.000000;0.793386
8255.000000;0.793170
8254.000000;0.792979
8253.000000;0.792759
8252.000000;0.792632
8251.000000;0.792759
8250.000000;0.793109
8249.000000;0.793396
8248.000000;0.793322
8247.000000;0.792900
8246.000000;0.792457
8245.000000;0.792275
8244.000000;0.792324
8243.000000;0.792431
8242.000000;0.792594
8241.000000;0.792954
8240.000000;0.793507
8239.000000;0.794014
8238.000000;0.794246
8237.000000;0.794181
8236.000000;0.793951
8235.000000;0.793724
8234.000000;0.793653
8233.000000;0.793787
8232.000000;0.793979
8231.000000;0.793991
8230.000000;0.793781
8229.000000;0.793581
8228.000000;0.793596
8227.000000;0.793734
8226.000000;0.793703
8225.000000;0.793328
8224.000000;0.792685
8223.000000;0.791997
8222.000000;0.791480
8221.000000;0.791265
8220.000000;0.791380
8219.000000;0.791777
8218.000000;0.792363
8217.000000;0.792978
8216.000000;0.793385
8215.000000;0.793401
8214.000000;0.793094
8213.000000;0.792732
8212.000000;0.792487
8211.000000;0.792279
8210.000000;0.791998
8209.000000;0.791751
8208.000000;0.791750
8207.000000;0.792036
8206.000000;0.792437
8205.000000;0.792785
8204.000000;0.793048
8203.000000;0.793255
8202.000000;0.793416
8201.000000;0.793518
8200.000000;0.793535
8199.000000;0.793430
8198.000000;0.793185
8197.000000;0.792830
8196.000000;0.792391
8195.000000;0.791880
8194.000000;0.791415
8193.000000;0.791251
8192.000000;0.791517
8191.000000;0.791951
8190.000000;0.792084
8189.000000;0.791765
8188.000000;0.791337
8187.000000;0.791212
8186.000000;0.791393
8185.000000;0.791572
8184.000000;0.791596
8183.000000;0.791659
8182.000000;0.792004
8181.000000;0.792570
8180.000000;0.793039
8179.000000;0.793197
8178.000000;0.793148
8177.000000;0.793142
8176.000000;0.793254
8175.000000;0.793350
8174.000000;0.793338
8173.000000;0.793329
8172.000000;0.793453
8171.000000;0.793619
8170.000000;0.793570
8169.000000;0.793183
8168.000000;0.792568
8167.000000;0.791903
8166.000000;0.791294
8165.000000;0.790844
8164.000000;0.790683
8163.000000;0.790857
8162.000000;0.791238
8161.000000;0.791661
8160.000000;0.792069
8159.000000;0.792442
8158.000000;0.792647
8157.000000;0.792522
8156.000000;0.792130
8155.000000;0.791792
8154.000000;0.791767
8153.000000;0.791962
8152.000000;0.792066
8151.000000;0.791944
8150.000000;0.791777
8149.000000;0.791772
8148.000000;0.791838
8147.000000;0.791675
8146.000000;0.791163
8145.000000;0.790547
8144.000000;0.790202
8143.000000;0.790279
8142.000000;0.790642
8141.000000;0.791052
8140.000000;0.791344
8139.000000;0.791505
8138.000000;0.791642
8137.000000;0.791860
8136.000000;0.792112
8135.000000;0.792228
8134.000000;0.792158
8133.000000;0.792090
8132.000000;0.792217
8131.000000;0.792447
8130.000000;0.792512
8129.000000;0.792342
8128.000000;0.792166
8127.000000;0.792199
8126.000000;0.792383
8125.000000;0.792498
8124.000000;0.792403
8123.000000;0.792128
8122.000000;0.791819
8121.000000;0.791655
8120.000000;0.791706
8119.000000;0.791827
8118.000000;0.791788
8117.000000;0.791569
8116.000000;0.791409
8115.000000;0.791481
8114.000000;0.791650
8113.000000;0.791679
8112.000000;0.791559
8111.000000;0.791492
8110.000000;0.791612
8109.000000;0.791854
8108.000000;0.792067
8107.000000;0.792131
8106.000000;0.791992
8105.000000;0.791703
8104.000000;0.791421
8103.000000;0.791253
8102.000000;0.791124
8101.000000;0.790901
8100.000000;0.790621
8099.000000;0.790478
8098.000000;0.790573
8097.000000;0.790791
8096.000000;0.790940
8095.000000;0.790941
8094.000000;0.790852
8093.000000;0.790794
8092.000000;0.790862
8091.000000;0.791029
8090.000000;0.791132
8089.000000;0.791015
8088.000000;0.790719
8087.000000;0.790460
8086.000000;0.790411
8085.000000;0.790577
8084.000000;0.790852
8083.000000;0.791108
8082.000000;0.791209
8081.000000;0.791057
8080.000000;0.790707
8079.000000;0.790357
8078.000000;0.790164
8077.000000;0.790093
8076.000000;0.790006
8075.000000;0.789821
8074.000000;0.789572
8073.000000;0.789366
8072.000000;0.789333
8071.000000;0.789568
8070.000000;0.790045
8069.000000;0.790606
8068.000000;0.791054
8067.000000;0.791261
8066.000000;0.791208
8065.000000;0.791009
8064.000000;0.790884
8063.000000;0.790998
8062.000000;0.791260
8061.000000;0.791386
8060.000000;0.791237
8059.000000;0.791017
8058.000000;0.791016
8057.000000;0.791243
8056.000000;0.791462
8055.000000;0.791537
8054.000000;0.791571
8053.000000;0.791679
8052.000000;0.791812
8051.000000;0.791882
8050.000000;0.791938
8049.000000;0.792077
8048.000000;0.792233
8047.000000;0.792206
8046.000000;0.791880
8045.000000;0.791354
8044.000000;0.790857
8043.000000;0.790598
8042.000000;0.790666
8041.000000;0.790972
8040.000000;0.791271
8039.000000;0.791338
8038.000000;0.791175
8037.000000;0.791003
8036.000000;0.790997
8035.000000;0.791098
8034.000000;0.791150
8033.000000;0.791143
8032.000000;0.791206
8031.000000;0.791367
8030.000000;0.791467
8029.000000;0.791380
8028.000000;0.791214
8027.000000;0.791162
8026.000000;0.791208
8025.000000;0.791110
8024.000000;0.790717
8023.000000;0.790196
8022.000000;0.789880
8021.000000;0.789902
8020.000000;0.790067
8019.000000;0.790110
8018.000000;0.790022
8017.000000;0.790071
8016.000000;0.790460
8015.000000;0.791009
8014.000000;0.791278
8013.000000;0.791025
8012.000000;0.790475
8011.000000;0.790082
8010.000000;0.790075
8009.000000;0.790319
8008.000000;0.790564
8007.000000;0.790697
8006.000000;0.790747
8005.000000;0.790761
8004.000000;0.790769
8003.000000;0.790806
8002.000000;0.790867
8001.000000;0.790883
8000.000000;0.790806
7999.000000;0.790694
7998.000000;0.790656
7997.000000;0.790725
7996.000000;0.790842
7995.000000;0.790938
7994.000000;0.790976
7993.000000;0.790944
7992.000000;0.790881
7991.000000;0.790880
7990.000000;0.790983
7989.000000;0.791080
7988.000000;0.791011
7987.000000;0.790786
7986.000000;0.790608
7985.000000;0.790616
7984.000000;0.790741
7983.000000;0.790855
7982.000000;0.790971
7981.000000;0.791155
7980.000000;0.791322
7979.000000;0.791281
7978.000000;0.790984
7977.000000;0.790596
7976.000000;0.790274
7975.000000;0.789993
7974.000000;0.789654
7973.000000;0.789287
7972.000000;0.789051
7971.000000;0.789064
7970.000000;0.789312
7969.000000;0.789693
7968.000000;0.790083
7967.000000;0.790361
7966.000000;0.790463
7965.000000;0.790454
7964.000000;0.790518
7963.000000;0.790819
7962.000000;0.791332
7961.000000;0.791815
7960.000000;0.791984
7959.000000;0.791747
7958.000000;0.791254
7957.000000;0.790738
7956.000000;0.790340
7955.000000;0.790127
7954.000000;0.790190
7953.000000;0.790547
7952.000000;0.790959
7951.000000;0.791042
7950.000000;0.790701
7949.000000;0.790319
7948.000000;0.790356
7947.000000;0.790813
7946.000000;0.791266
7945.000000;0.791388
7944.000000;0.791234
7943.000000;0.790987
7942.000000;0.790658
7941.000000;0.790206
7940.000000;0.789791
7939.000000;0.789688
7938.000000;0.789958
7937.000000;0.790346
7936.000000;0.790530
7935.000000;0.790401
7934.000000;0.790115
7933.000000;0.789944
7932.000000;0.790076
7931.000000;0.790444
7930.000000;0.790760
7929.000000;0.790768
7928.000000;0.790497
7927.000000;0.790203
7926.000000;0.790078
7925.000000;0.790083
7924.000000;0.790070
7923.000000;0.789955
7922.000000;0.789767
7921.000000;0.789599
7920.000000;0.789579
7919.000000;0.789798
7918.000000;0.790205
7917.000000;0.790621
7916.000000;0.790906
7915.000000;0.791083
7914.000000;0.791241
7913.000000;0.791403
7912.000000;0.791529
7911.000000;0.791621
7910.000000;0.791725
7909.000000;0.791855
7908.000000;0.791979
7907.000000;0.792059
7906.000000;0.792036
7905.000000;0.791799
7904.000000;0.791302
7903.000000;0.790697
7902.000000;0.790260
7901.000000;0.790138
7900.000000;0.790235
7899.000000;0.790378
7898.000000;0.790503
7897.000000;0.790632
7896.000000;0.790741
7895.000000;0.790778
7894.000000;0.790765
7893.000000;0.790802
7892.000000;0.790942
7891.000000;0.791125
7890.000000;0.791253
7889.000000;0.791294
7888.000000;0.791309
7887.000000;0.791393
7886.000000;0.791583
7885.000000;0.791786
7884.000000;0.791820
7883.000000;0.791594
7882.000000;0.791217
7881.000000;0.790899
7880.000000;0.790742
7879.000000;0.790713
7878.000000;0.790802
7877.000000;0.791094
7876.000000;0.791613
7875.000000;0.792180
7874.000000;0.792522
7873.000000;0.792520
7872.000000;0.792275
7871.000000;0.791965
7870.000000;0.791723
7869.000000;0.791613
7868.000000;0.791639
7867.000000;0.791702
7866.000000;0.791655
7865.000000;0.791456
7864.000000;0.791256
7863.000000;0.791235
7862.000000;0.791374
7861.000000;0.791454
7860.000000;0.791318
7859.000000;0.791081
7858.000000;0.791029
7857.000000;0.791294
7856.000000;0.791695
7855.000000;0.791920
7854.000000;0.791848
7853.000000;0.791653
7852.000000;0.791590
7851.000000;0.791733
7850.000000;0.791928
7849.000000;0.791992
7848.000000;0.791902
7847.000000;0.791791
7846.000000;0.791788
7845.000000;0.791898
7844.000000;0.792036
7843.000000;0.792126
7842.000000;0.792141
7841.000000;0.792070
7840.000000;0.791929
7839.000000;0.791809
7838.000000;0.791862
7837.000000;0.792135
7836.000000;0.792460
7835.000000;0.792584
7834.000000;0.792428
7833.000000;0.792160
7832.000000;0.791981
7831.000000;0.791920
7830.000000;0.791894
7829.000000;0.791878
7828.000000;0.791937
7827.000000;0.792106
7826.000000;0.792346
7825.000000;0.792596
7824.000000;0.792809
7823.000000;0.792922
7822.000000;0.792894
7821.000000;0.792775
7820.000000;0.792692
7819.000000;0.792696
7818.000000;0.792679
7817.000000;0.792509
7816.000000;0.792218
7815.000000;0.792014
7814.000000;0.792107
7813.000000;0.792538
7812.000000;0.793146
7811.000000;0.793673
7810.000000;0.793924
7809.000000;0.793872
7808.000000;0.793646
7807.000000;0.793418
7806.000000;0.793281
7805.000000;0.793227
7804.000000;0.793198
7803.000000;0.793156
7802.000000;0.793107
7801.000000;0.793073
7800.000000;0.793041
7799.000000;0.792955
7798.000000;0.792809
7797.000000;0.792743
7796.000000;0.792975
7795.000000;0.793571
7794.000000;0.794303
7793.000000;0.794785
7792.000000;0.794795
7791.000000;0.794451
7790.000000;0.794064
7789.000000;0.793857
7788.000000;0.793829
7787.000000;0.793848
7786.000000;0.793834
7785.000000;0.793823
7784.000000;0.793886
7783.000000;0.794022
7782.000000;0.794173
7781.000000;0.794300
7780.000000;0.794426
7779.000000;0.794566
7778.000000;0.794666
7777.000000;0.794644
7776.000000;0.794476
7775.000000;0.794237
7774.000000;0.794041
7773.000000;0.793983
7772.000000;0.794113
7771.000000;0.794429
7770.000000;0.794888
7769.000000;0.795420
7768.000000;0.795936
7767.000000;0.796335
7766.000000;0.796528
7765.000000;0.796483
7764.000000;0.796261
7763.000000;0.795960
7762.000000;0.795632
7761.000000;0.795277
7760.000000;0.794921
7759.000000;0.794682
7758.000000;0.794689
7757.000000;0.794939
7756.000000;0.795241
7755.000000;0.795364
7754.000000;0.795259
7753.000000;0.795137
7752.000000;0.795297
7751.000000;0.795839
7750.000000;0.796548
7749.000000;0.797081
7748.000000;0.797252
7747.000000;0.797136
7746.000000;0.796932
7745.000000;0.796794
7744.000000;0.796787
7743.000000;0.796910
7742.000000;0.797115
7741.000000;0.797312
7740.000000;0.797435
7739.000000;0.797492
7738.000000;0.797524
7737.000000;0.797546
7736.000000;0.797539
7735.000000;0.797522
7734.000000;0.797559
7733.000000;0.797718
7732.000000;0.798024
7731.000000;0.798445
7730.000000;0.798851
7729.000000;0.799014
7728.000000;0.798768
7727.000000;0.798218
7726.000000;0.797746
7725.000000;0.797699
7724.000000;0.798073
7723.000000;0.798551
7722.000000;0.798830
7721.000000;0.798848
7720.000000;0.798703
7719.000000;0.798466
7718.000000;0.798152
7717.000000;0.797847
7716.000000;0.797746
7715.000000;0.798001
7714.000000;0.798549
7713.000000;0.799125
7712.000000;0.799470
7711.000000;0.799531
7710.000000;0.799447
7709.000000;0.799404
7708.000000;0.799505
7707.000000;0.799762
7706.000000;0.800103
7705.000000;0.800368
7704.000000;0.800391
7703.000000;0.800169
7702.000000;0.799921
7701.000000;0.799881
7700.000000;0.800052
7699.000000;0.800229
7698.000000;0.800253
7697.000000;0.800169
7696.000000;0.800114
7695.000000;0.800154
7694.000000;0.800276
7693.000000;0.800463
7692.000000;0.800710
7691.000000;0.800990
7690.000000;0.801253
7689.000000;0.801448
7688.000000;0.801512
7687.000000;0.801395
7686.000000;0.801147
7685.000000;0.800948
7684.000000;0.800975
7683.000000;0.801237
7682.000000;0.801569
7681.000000;0.801792
7680.000000;0.801870
7679.000000;0.801932
7678.000000;0.802156
7677.000000;0.802592
7676.000000;0.803069
7675.000000;0.803339
7674.000000;0.803338
7673.000000;0.803271
7672.000000;0.803370
7671.000000;0.803647
7670.000000;0.803936
7669.000000;0.804130
7668.000000;0.804228
7667.000000;0.804209
7666.000000;0.804034
7665.000000;0.803817
7664.000000;0.803808
7663.000000;0.804104
7662.000000;0.804474
7661.000000;0.804623
7660.000000;0.804541
7659.000000;0.804477
7658.000000;0.804575
7657.000000;0.804714
7656.000000;0.804754
7655.000000;0.804770
7654.000000;0.804950
7653.000000;0.805323
7652.000000;0.805698
7651.000000;0.805891
7650.000000;0.805902
7649.000000;0.805857
7648.000000;0.805855
7647.000000;0.805906
7646.000000;0.805993
7645.000000;0.806120
7644.000000;0.806306
7643.000000;0.806559
7642.000000;0.806859
7641.000000;0.807146
7640.000000;0.807342
7639.000000;0.807421
7638.000000;0.807461
7637.000000;0.807552
7636.000000;0.807688
7635.000000;0.807785
7634.000000;0.807832
7633.000000;0.807957
7632.000000;0.808275
7631.000000;0.808724
7630.000000;0.809103
7629.000000;0.809275
7628.000000;0.809282
7627.000000;0.809275
7626.000000;0.809377
7625.000000;0.809621
7624.000000;0.809949
7623.000000;0.810255
7622.000000;0.810452
7621.000000;0.810541
7620.000000;0.810611
7619.000000;0.810768
7618.000000;0.811047
7617.000000;0.811378
7616.000000;0.811633
7615.000000;0.811720
7614.000000;0.811653
7613.000000;0.811539
7612.000000;0.811485
7611.000000;0.811533
7610.000000;0.811682
7609.000000;0.811931
7608.000000;0.812270
7607.000000;0.812653
7606.000000;0.813010
7605.000000;0.813280
7604.000000;0.813440
7603.000000;0.813513
7602.000000;0.813586
7601.000000;0.813780
7600.000000;0.814140
7599.000000;0.814565
7598.000000;0.814879
7597.000000;0.814992
7596.000000;0.814977
7595.000000;0.815012
7594.000000;0.815241
7593.000000;0.815671
7592.000000;0.816163
7591.000000;0.816542
7590.000000;0.816759
7589.000000;0.816927
7588.000000;0.817167
7587.000000;0.817456
7586.000000;0.817679
7585.000000;0.817800
7584.000000;0.817922
7583.000000;0.818163
7582.000000;0.818535
7581.000000;0.818930
7580.000000;0.819187
7579.000000;0.819202
7578.000000;0.819028
7577.000000;0.818880
7576.000000;0.818963
7575.000000;0.819274
7574.000000;0.819615
7573.000000;0.819810
7572.000000;0.819861
7571.000000;0.819918
7570.000000;0.820162
7569.000000;0.820687
7568.000000;0.821412
7567.000000;0.822073
7566.000000;0.822419
7565.000000;0.822462
7564.000000;0.822474
7563.000000;0.822693
7562.000000;0.823096
7561.000000;0.823507
7560.000000;0.823816
7559.000000;0.824022
7558.000000;0.824130
7557.000000;0.824148
7556.000000;0.824158
7555.000000;0.824280
7554.000000;0.824524
7553.000000;0.824755
7552.000000;0.824845
7551.000000;0.824824
7550.000000;0.824851
7549.000000;0.825049
7548.000000;0.825414
7547.000000;0.825858
7546.000000;0.826315
7545.000000;0.826775
7544.000000;0.827220
7543.000000;0.827564
7542.000000;0.827725
7541.000000;0.827759
7540.000000;0.827890
7539.000000;0.828320
7538.000000;0.829009
7537.000000;0.829691
7536.000000;0.830121
7535.000000;0.830298
7534.000000;0.830412
7533.000000;0.830614
7532.000000;0.830881
7531.000000;0.831117
7530.000000;0.831324
7529.000000;0.831606
7528.000000;0.832017
7527.000000;0.832492
7526.000000;0.832926
7525.000000;0.833270
7524.000000;0.833495
7523.000000;0.833548
7522.000000;0.833438
7521.000000;0.833314
7520.000000;0.833378
7519.000000;0.833708
7518.000000;0.834240
7517.000000;0.834900
7516.000000;0.835642
7515.000000;0.836352
7514.000000;0.836851
7513.000000;0.837069
7512.000000;0.837135
7511.000000;0.837245
7510.000000;0.837493
7509.000000;0.837871
7508.000000;0.838330
7507.000000;0.838775
7506.000000;0.839066
7505.000000;0.839148
7504.000000;0.839162
7503.000000;0.839324
7502.000000;0.839668
7501.000000;0.840007
7500.000000;0.840147
7499.000000;0.840111
7498.000000;0.840119
7497.000000;0.840392
7496.000000;0.840914
7495.000000;0.841478
7494.000000;0.841853
7493.000000;0.842028
7492.000000;0.842241
7491.000000;0.842707
7490.000000;0.843352
7489.000000;0.843889
7488.000000;0.844148
7487.000000;0.844268
7486.000000;0.844518
7485.000000;0.845003
7484.000000;0.845586
7483.000000;0.846069
7482.000000;0.846388
7481.000000;0.846626
7480.000000;0.846901
7479.000000;0.847254
7478.000000;0.847643
7477.000000;0.848005
7476.000000;0.848307
7475.000000;0.848555
7474.000000;0.848775
7473.000000;0.848991
7472.000000;0.849209
7471.000000;0.849425
7470.000000;0.849642
7469.000000;0.849881
7468.000000;0.850154
7467.000000;0.850439
7466.000000;0.850717
7465.000000;0.851019
7464.000000;0.851415
7463.000000;0.851927
7462.000000;0.852477
7461.000000;0.852945
7460.000000;0.853270
7459.000000;0.853484
7458.000000;0.853671
7457.000000;0.853903
7456.000000;0.854190
7455.000000;0.854462
7454.000000;0.854633
7453.000000;0.854692
7452.000000;0.854722
7451.000000;0.854822
7450.000000;0.855034
7449.000000;0.855359
7448.000000;0.855795
7447.000000;0.856338
7446.000000;0.856929
7445.000000;0.857468
7444.000000;0.857877
7443.000000;0.858146
7442.000000;0.858340
7441.000000;0.858564
7440.000000;0.858902
7439.000000;0.859355
7438.000000;0.859824
7437.000000;0.860183
7436.000000;0.860384
7435.000000;0.860493
7434.000000;0.860632
7433.000000;0.860899
7432.000000;0.861307
7431.000000;0.861786
7430.000000;0.862233
7429.000000;0.862584
7428.000000;0.862859
7427.000000;0.863125
7426.000000;0.863422
7425.000000;0.863726
7424.000000;0.863970
7423.000000;0.864130
7422.000000;0.864286
7421.000000;0.864592
7420.000000;0.865130
7419.000000;0.865778
7418.000000;0.866279
7417.000000;0.866473
7416.000000;0.866452
7415.000000;0.866475
7414.000000;0.866746
7413.000000;0.867282
7412.000000;0.867933
7411.000000;0.868485
7410.000000;0.868780
7409.000000;0.868806
7408.000000;0.868711
7407.000000;0.868706
7406.000000;0.868925
7405.000000;0.869363
7404.000000;0.869912
7403.000000;0.870436
7402.000000;0.870822
7401.000000;0.871009
7400.000000;0.871009
7399.000000;0.870919
7398.000000;0.870896
7397.000000;0.871086
7396.000000;0.871534
7395.000000;0.872161
7394.000000;0.872807
7393.000000;0.873319
7392.000000;0.873645
7391.000000;0.873884
7390.000000;0.874195
7389.000000;0.874635
7388.000000;0.875060
7387.000000;0.875283
7386.000000;0.875305
7385.000000;0.875321
7384.000000;0.875481
7383.000000;0.875729
7382.000000;0.875941
7381.000000;0.876122
7380.000000;0.876355
7379.000000;0.876614
7378.000000;0.876793
7377.000000;0.876901
7376.000000;0.877077
7375.000000;0.877387
7374.000000;0.877744
7373.000000;0.878059
7372.000000;0.878370
7371.000000;0.878755
7370.000000;0.879234
7369.000000;0.879807
7368.000000;0.880488
7367.000000;0.881210
7366.000000;0.881808
7365.000000;0.882152
7364.000000;0.882254
7363.000000;0.882217
7362.000000;0.882162
7361.000000;0.882236
7360.000000;0.882558
7359.000000;0.883076
7358.000000;0.883573
7357.000000;0.883906
7356.000000;0.884143
7355.000000;0.884406
7354.000000;0.884684
7353.000000;0.884899
7352.000000;0.885054
7351.000000;0.885194
7350.000000;0.885357
7349.000000;0.885632
7348.000000;0.886157
7347.000000;0.886886
7346.000000;0.887517
7345.000000;0.887814
7344.000000;0.887892
7343.000000;0.888021
7342.000000;0.888254
7341.000000;0.888456
7340.000000;0.888602
7339.000000;0.888824
7338.000000;0.889161
7337.000000;0.889509
7336.000000;0.889818
7335.000000;0.890152
7334.000000;0.890557
7333.000000;0.891029
7332.000000;0.891580
7331.000000;0.892154
7330.000000;0.892548
7329.000000;0.892649
7328.000000;0.892719
7327.000000;0.893162
7326.000000;0.893974
7325.000000;0.894704
7324.000000;0.895027
7323.000000;0.895075
7322.000000;0.895182
7321.000000;0.895530
7320.000000;0.896140
7319.000000;0.896974
7318.000000;0.897876
7317.000000;0.898580
7316.000000;0.898957
7315.000000;0.899165
7314.000000;0.899417
7313.000000;0.899740
7312.000000;0.900080
7311.000000;0.900479
7310.000000;0.900970
7309.000000;0.901447
7308.000000;0.901808
7307.000000;0.902127
7306.000000;0.902535
7305.000000;0.903026
7304.000000;0.903541
7303.000000;0.904152
7302.000000;0.904959
7301.000000;0.905880
7300.000000;0.906710
7299.000000;0.907362
7298.000000;0.907892
7297.000000;0.908305
7296.000000;0.908575
7295.000000;0.908842
7294.000000;0.909393
7293.000000;0.910350
7292.000000;0.911484
7291.000000;0.912462
7290.000000;0.913151
7289.000000;0.913657
7288.000000;0.914165
7287.000000;0.914813
7286.000000;0.915633
7285.000000;0.916557
7284.000000;0.917502
7283.000000;0.918454
7282.000000;0.919448
7281.000000;0.920442
7280.000000;0.921294
7279.000000;0.921915
7278.000000;0.922424
7277.000000;0.923074
7276.000000;0.924033
7275.000000;0.925225
7274.000000;0.926391
7273.000000;0.927309
7272.000000;0.927965
7271.000000;0.928526
7270.000000;0.929165
7269.000000;0.929957
7268.000000;0.930926
7267.000000;0.932096
7266.000000;0.933433
7265.000000;0.934783
7264.000000;0.935983
7263.000000;0.937041
7262.000000;0.938144
7261.000000;0.939443
7260.000000;0.940879
7259.000000;0.942254
7258.000000;0.943431
7257.000000;0.944439
7256.000000;0.945413
7255.000000;0.946472
7254.000000;0.947640
7253.000000;0.948863
7252.000000;0.950059
7251.000000;0.951171
7250.000000;0.952208
7249.000000;0.953260
7248.000000;0.954464
7247.000000;0.955880
7246.000000;0.957358
7245.000000;0.958654
7244.000000;0.959733
7243.000000;0.960889
7242.000000;0.962463
7241.000000;0.964459
7240.000000;0.966555
7239.000000;0.968477
7238.000000;0.970217
7237.000000;0.971898
7236.000000;0.973582
7235.000000;0.975252
7234.000000;0.976912
7233.000000;0.978615
7232.000000;0.980416
7231.000000;0.982346
7230.000000;0.984388
7229.000000;0.986452
7228.000000;0.988436
7227.000000;0.990343
7226.000000;0.992310
7225.000000;0.994495
7224.000000;0.996890
7223.000000;0.999280
7222.000000;1.001436
7221.000000;1.003357
7220.000000;1.005297
7219.000000;1.007533
7218.000000;1.010107
7217.000000;1.012819
7216.000000;1.015452
7215.000000;1.017947
7214.000000;1.020379
7213.000000;1.022830
7212.000000;1.025329
7211.000000;1.027922
7210.000000;1.030695
7209.000000;1.033674
7208.000000;1.036728
7207.000000;1.039645
7206.000000;1.042335
7205.000000;1.044906
7204.000000;1.047540
7203.000000;1.050307
7202.000000;1.053160
7201.000000;1.056078
7200.000000;1.059099
7199.000000;1.062206
7198.000000;1.065298
7197.000000;1.068350
7196.000000;1.071517
7195.000000;1.074973
7194.000000;1.078660
7193.000000;1.082304
7192.000000;1.085724
7191.000000;1.089008
7190.000000;1.092345
7189.000000;1.095758
7188.000000;1.099096
7187.000000;1.102284
7186.000000;1.105481
7185.000000;1.108942
7184.000000;1.112751
7183.000000;1.116711
7182.000000;1.120508
7181.000000;1.124002
7180.000000;1.127364
7179.000000;1.130912
7178.000000;1.134789
7177.000000;1.138873
7176.000000;1.142984
7175.000000;1.147082
7174.000000;1.151196
7173.000000;1.155284
7172.000000;1.159288
7171.000000;1.163281
7170.000000;1.167413
7169.000000;1.171694
7168.000000;1.175958
7167.000000;1.180090
7166.000000;1.184138
7165.000000;1.188145
7164.000000;1.192058
7163.000000;1.195967
7162.000000;1.200247
7161.000000;1.205183
7160.000000;1.210509
7159.000000;1.215577
7158.000000;1.220051
7157.000000;1.224169
7156.000000;1.228284
7155.000000;1.232440
7154.000000;1.236521
7153.000000;1.240626
7152.000000;1.245033
7151.000000;1.249883
7150.000000;1.255056
7149.000000;1.260292
7148.000000;1.265289
7147.000000;1.269815
7146.000000;1.273939
7145.000000;1.278082
7144.000000;1.282631
7143.000000;1.287479
7142.000000;1.292158
7141.000000;1.296466
7140.000000;1.300724
7139.000000;1.305330
7138.000000;1.310278
7137.000000;1.315270
7136.000000;1.320103
7135.000000;1.324736
7134.000000;1.329122
7133.000000;1.333256
7132.000000;1.337326
7131.000000;1.341578
7130.000000;1.346084
7129.000000;1.350782
7128.000000;1.355671
7127.000000;1.360746
7126.000000;1.365790
7125.000000;1.370510
7124.000000;1.374942
7123.000000;1.379444
7122.000000;1.384185
7121.000000;1.388861
7120.000000;1.393090
7119.000000;1.396925
7118.000000;1.400772
7117.000000;1.404911
7116.000000;1.409281
7115.000000;1.413727
7114.000000;1.418203
7113.000000;1.422652
7112.000000;1.426912
7111.000000;1.430926
7110.000000;1.434979
7109.000000;1.439481
7108.000000;1.444417
7107.000000;1.449117
7106.000000;1.452791
7105.000000;1.455400
7104.000000;1.457845
7103.000000;1.461164
7102.000000;1.465571
7101.000000;1.470346
7100.000000;1.474625
7099.000000;1.478231
7098.000000;1.481737
7097.000000;1.485781
7096.000000;1.490432
7095.000000;1.495177
7094.000000;1.499450
7093.000000;1.503114
7092.000000;1.506424
7091.000000;1.509632
7090.000000;1.512810
7089.000000;1.516030
7088.000000;1.519508
7087.000000;1.523365
7086.000000;1.527365
7085.000000;1.531095
7084.000000;1.534402
7083.000000;1.537515
7082.000000;1.540755
7081.000000;1.544242
7080.000000;1.547905
7079.000000;1.551577
7078.000000;1.555028
7077.000000;1.558021
7076.000000;1.560476
7075.000000;1.562584
7074.000000;1.564717
7073.000000;1.567225
7072.000000;1.570287
7071.000000;1.573879
7070.000000;1.577812
7069.000000;1.581787
7068.000000;1.585435
7067.000000;1.588387
7066.000000;1.590482
7065.000000;1.592005
7064.000000;1.593615
7063.000000;1.595897
7062.000000;1.598932
7061.000000;1.602339
7060.000000;1.605721
7059.000000;1.609044
7058.000000;1.612564
7057.000000;1.616364
7056.000000;1.619986
7055.000000;1.622626
7054.000000;1.623896
7053.000000;1.624365
7052.000000;1.625066
7051.000000;1.626453
7050.000000;1.628122
7049.000000;1.629602
7048.000000;1.631067
7047.000000;1.633008
7046.000000;1.635519
7045.000000;1.638272
7044.000000;1.641004
7043.000000;1.643631
7042.000000;1.645984
7041.000000;1.647818
7040.000000;1.649129
7039.000000;1.650194
7038.000000;1.651299
7037.000000;1.652666
7036.000000;1.654533
7035.000000;1.656896
7034.000000;1.659224
7033.000000;1.660922
7032.000000;1.662197
7031.000000;1.663957
7030.000000;1.666621
7029.000000;1.669450
7028.000000;1.671442
7027.000000;1.672572
7026.000000;1.673639
7025.000000;1.675089
7024.000000;1.676561
7023.000000;1.677651
7022.000000;1.678613
7021.000000;1.679981
7020.000000;1.681787
7019.000000;1.683516
7018.000000;1.684753
7017.000000;1.685625
7016.000000;1.686540
7015.000000;1.687655
7014.000000;1.688786
7013.000000;1.689760
7012.000000;1.690672
7011.000000;1.691707
7010.000000;1.692871
7009.000000;1.694087
7008.000000;1.695392
7007.000000;1.696746
7006.000000;1.697706
7005.000000;1.697722
7004.000000;1.697022
7003.000000;1.696793
7002.000000;1.697991
7001.000000;1.700123
7000.000000;1.701728
6999.000000;1.702158
6998.000000;1.702347
6997.000000;1.703488
6996.000000;1.705467
6995.000000;1.707160
6994.000000;1.708031
6993.000000;1.708699
6992.000000;1.709801
6991.000000;1.710963
6990.000000;1.711348
6989.000000;1.710946
6988.000000;1.710767
6987.000000;1.711754
6986.000000;1.713849
6985.000000;1.716185
6984.000000;1.717933
6983.000000;1.718829
6982.000000;1.719048
6981.000000;1.718892
6980.000000;1.718693
6979.000000;1.718804
6978.000000;1.719400
6977.000000;1.720198
6976.000000;1.720605
6975.000000;1.720335
6974.000000;1.719788
6973.000000;1.719588
6972.000000;1.719820
6971.000000;1.720006
6970.000000;1.719860
6969.000000;1.719681
6968.000000;1.719849
6967.000000;1.720282
6966.000000;1.720702
6965.000000;1.721170
6964.000000;1.721953
6963.000000;1.722925
6962.000000;1.723543
6961.000000;1.723501
6960.000000;1.723130
6959.000000;1.723017
6958.000000;1.723463
6957.000000;1.724414
6956.000000;1.725704
6955.000000;1.727161
6954.000000;1.728506
6953.000000;1.729334
6952.000000;1.729274
6951.000000;1.728247
6950.000000;1.726627
6949.000000;1.725118
6948.000000;1.724421
6947.000000;1.724904
6946.000000;1.726411
6945.000000;1.728198
6944.000000;1.729200
6943.000000;1.728795
6942.000000;1.727500
6941.000000;1.726591
6940.000000;1.726800
6939.000000;1.727648
6938.000000;1.728261
6937.000000;1.728508
6936.000000;1.728848
6935.000000;1.729279
6934.000000;1.729104
6933.000000;1.727846
6932.000000;1.725950
6931.000000;1.724389
6930.000000;1.723855
6929.000000;1.724384
6928.000000;1.725445
6927.000000;1.726250
6926.000000;1.726227
6925.000000;1.725392
6924.000000;1.724209
6923.000000;1.723148
6922.000000;1.722551
6921.000000;1.722750
6920.000000;1.723882
6919.000000;1.725535
6918.000000;1.726878
6917.000000;1.727328
6916.000000;1.726956
6915.000000;1.726264
6914.000000;1.725783
6913.000000;1.725839
6912.000000;1.726351
6911.000000;1.726819
6910.000000;1.726763
6909.000000;1.726198
6908.000000;1.725431
6907.000000;1.724549
6906.000000;1.723521
6905.000000;1.722670
6904.000000;1.722484
6903.000000;1.722911
6902.000000;1.723318
6901.000000;1.723284
6900.000000;1.723017
6899.000000;1.722826
6898.000000;1.722660
6897.000000;1.722338
6896.000000;1.721805
6895.000000;1.720984
6894.000000;1.719809
6893.000000;1.718634
6892.000000;1.718075
6891.000000;1.718161
6890.000000;1.718112
6889.000000;1.717375
6888.000000;1.716465
6887.000000;1.716286
6886.000000;1.716994
6885.000000;1.718033
6884.000000;1.719005
6883.000000;1.719887
6882.000000;1.720493
6881.000000;1.720374
6880.000000;1.719429
6879.000000;1.718181
6878.000000;1.717227
6877.000000;1.716635
6876.000000;1.716024
6875.000000;1.715094
6874.000000;1.713990
6873.000000;1.713198
6872.000000;1.713131
6871.000000;1.713765
6870.000000;1.714708
6869.000000;1.715564
6868.000000;1.716091
6867.000000;1.716063
6866.000000;1.715301
6865.000000;1.714024
6864.000000;1.712860
6863.000000;1.712246
6862.000000;1.711960
6861.000000;1.711445
6860.000000;1.710499
6859.000000;1.709464
6858.000000;1.708851
6857.000000;1.708903
6856.000000;1.709389
6855.000000;1.709701
6854.000000;1.709327
6853.000000;1.708388
6852.000000;1.707560
6851.000000;1.707349
6850.000000;1.707587
6849.000000;1.707718
6848.000000;1.707394
6847.000000;1.706672
6846.000000;1.705828
6845.000000;1.705105
6844.000000;1.704493
6843.000000;1.703711
6842.000000;1.702580
6841.000000;1.701412
6840.000000;1.700694
6839.000000;1.700351
6838.000000;1.699727
6837.000000;1.698420
6836.000000;1.696731
6835.000000;1.695097
6834.000000;1.693583
6833.000000;1.692219
6832.000000;1.691374
6831.000000;1.691332
6830.000000;1.691773
6829.000000;1.692056
6828.000000;1.691809
6827.000000;1.690967
6826.000000;1.689570
6825.000000;1.687968
6824.000000;1.686830
6823.000000;1.686439
6822.000000;1.686158
6821.000000;1.685167
6820.000000;1.683551
6819.000000;1.682122
6818.000000;1.681250
6817.000000;1.680425
6816.000000;1.678991
6815.000000;1.676825
6814.000000;1.674249
6813.000000;1.671747
6812.000000;1.669838
6811.000000;1.668799
6810.000000;1.668308
6809.000000;1.667625
6808.000000;1.666263
6807.000000;1.664314
6806.000000;1.662201
6805.000000;1.660386
6804.000000;1.659222
6803.000000;1.658653
6802.000000;1.658053
6801.000000;1.656757
6800.000000;1.654818
6799.000000;1.652909
6798.000000;1.651469
6797.000000;1.650297
6796.000000;1.648987
6795.000000;1.647362
6794.000000;1.645352
6793.000000;1.642925
6792.000000;1.640346
6791.000000;1.638149
6790.000000;1.636578
6789.000000;1.635317
6788.000000;1.633970
6787.000000;1.632558
6786.000000;1.631290
6785.000000;1.630102
6784.000000;1.628729
6783.000000;1.627086
6782.000000;1.625317
6781.000000;1.623525
6780.000000;1.621714
6779.000000;1.619921
6778.000000;1.618200
6777.000000;1.616485
6776.000000;1.614669
6775.000000;1.612780
6774.000000;1.610900
6773.000000;1.608980
6772.000000;1.606917
6771.000000;1.604794
6770.000000;1.602872
6769.000000;1.601273
6768.000000;1.599797
6767.000000;1.598125
6766.000000;1.596139
6765.000000;1.593952
6764.000000;1.591716
6763.000000;1.589496
6762.000000;1.587340
6761.000000;1.585359
6760.000000;1.583653
6759.000000;1.582179
6758.000000;1.580766
6757.000000;1.579262
6756.000000;1.577644
6755.000000;1.575968
6754.000000;1.574243
6753.000000;1.572365
6752.000000;1.570182
6751.000000;1.567709
6750.000000;1.565322
6749.000000;1.563602
6748.000000;1.562761
6747.000000;1.562220
6746.000000;1.561026
6745.000000;1.558813
6744.000000;1.556182
6743.000000;1.553961
6742.000000;1.552270
6741.000000;1.550517
6740.000000;1.548189
6739.000000;1.545400
6738.000000;1.542673
6737.000000;1.540413
6736.000000;1.538644
6735.000000;1.537107
6734.000000;1.535498
6733.000000;1.533672
6732.000000;1.531705
6731.000000;1.529769
6730.000000;1.527990
6729.000000;1.526384
6728.000000;1.524836
6727.000000;1.523133
6726.000000;1.521147
6725.000000;1.519042
6724.000000;1.517166
6723.000000;1.515598
6722.000000;1.513928
6721.000000;1.511704
6720.000000;1.509044
6719.000000;1.506564
6718.000000;1.504680
6717.000000;1.503197
6716.000000;1.501627
6715.000000;1.499764
6714.000000;1.497806
6713.000000;1.496020
6712.000000;1.494427
6711.000000;1.492816
6710.000000;1.490996
6709.000000;1.488999
6708.000000;1.487052
6707.000000;1.485345
6706.000000;1.483856
6705.000000;1.482380
6704.000000;1.480709
6703.000000;1.478759
6702.000000;1.476684
6701.000000;1.474695
6700.000000;1.472984
6699.000000;1.471514
6698.000000;1.469996
6697.000000;1.468166
6696.000000;1.466063
6695.000000;1.463965
6694.000000;1.462069
6693.000000;1.460338
6692.000000;1.458652
6691.000000;1.456971
6690.000000;1.455302
6689.000000;1.453602
6688.000000;1.451812
6687.000000;1.449946
6686.000000;1.448065
6685.000000;1.446172
6684.000000;1.444207
6683.000000;1.442171
6682.000000;1.440225
6681.000000;1.438573
6680.000000;1.437228
6679.000000;1.435926
6678.000000;1.434322
6677.000000;1.432284
6676.000000;1.429946
6675.000000;1.427553
6674.000000;1.425295
6673.000000;1.423276
6672.000000;1.421501
6671.000000;1.419875
6670.000000;1.418283
6669.000000;1.416711
6668.000000;1.415203
6667.000000;1.413699
6666.000000;1.412075
6665.000000;1.410366
6664.000000;1.408782
6663.000000;1.407395
6662.000000;1.405949
6661.000000;1.404149
6660.000000;1.402035
6659.000000;1.399906
6658.000000;1.397967
6657.000000;1.396222
6656.000000;1.394651
6655.000000;1.393264
6654.000000;1.391959
6653.000000;1.390532
6652.000000;1.388892
6651.000000;1.387163
6650.000000;1.385502
6649.000000;1.383943
6648.000000;1.382449
6647.000000;1.380982
6646.000000;1.379482
6645.000000;1.377860
6644.000000;1.376131
6643.000000;1.374469
6642.000000;1.373035
6641.000000;1.371783
6640.000000;1.370496
6639.000000;1.368996
6638.000000;1.367276
6637.000000;1.365450
6636.000000;1.363647
6635.000000;1.361932
6634.000000;1.360298
6633.000000;1.358714
6632.000000;1.357191
6631.000000;1.355771
6630.000000;1.354456
6629.000000;1.353151
6628.000000;1.351730
6627.000000;1.350136
6626.000000;1.348416
6625.000000;1.346645
6624.000000;1.344850
6623.000000;1.343014
6622.000000;1.341140
6621.000000;1.339311
6620.000000;1.337680
6619.000000;1.336371
6618.000000;1.335370
6617.000000;1.334481
6616.000000;1.333414
6615.000000;1.331999
6614.000000;1.330359
6613.000000;1.328821
6612.000000;1.327574
6611.000000;1.326414
6610.000000;1.324921
6609.000000;1.322914
6608.000000;1.320686
6607.000000;1.318745
6606.000000;1.317385
6605.000000;1.316498
6604.000000;1.315726
6603.000000;1.314721
6602.000000;1.313341
6601.000000;1.311680
6600.000000;1.309950
6599.000000;1.308298
6598.000000;1.306752
6597.000000;1.305313
6596.000000;1.304017
6595.000000;1.302875
6594.000000;1.301842
6593.000000;1.300898
6592.000000;1.300059
6591.000000;1.299242
6590.000000;1.298174
6589.000000;1.296607
6588.000000;1.294606
6587.000000;1.292559
6586.000000;1.290854
6585.000000;1.289610
6584.000000;1.288647
6583.000000;1.287662
6582.000000;1.286438
6581.000000;1.284996
6580.000000;1.283562
6579.000000;1.282336
6578.000000;1.281278
6577.000000;1.280160
6576.000000;1.278815
6575.000000;1.277289
6574.000000;1.275734
6573.000000;1.274246
6572.000000;1.272815
6571.000000;1.271415
6570.000000;1.270071
6569.000000;1.268853
6568.000000;1.267794
6567.000000;1.266818
6566.000000;1.265796
6565.000000;1.264688
6564.000000;1.263600
6563.000000;1.262641
6562.000000;1.261774
6561.000000;1.260846
6560.000000;1.259758
6559.000000;1.258532
6558.000000;1.257224
6557.000000;1.255824
6556.000000;1.254282
6555.000000;1.252589
6554.000000;1.250852
6553.000000;1.249277
6552.000000;1.248061
6551.000000;1.247216
6550.000000;1.246530
6549.000000;1.245738
6548.000000;1.244742
6547.000000;1.243649
6546.000000;1.242609
6545.000000;1.241670
6544.000000;1.240753
6543.000000;1.239733
6542.000000;1.238543
6541.000000;1.237244
6540.000000;1.235974
6539.000000;1.234772
6538.000000;1.233514
6537.000000;1.232087
6536.000000;1.230573
6535.000000;1.229197
6534.000000;1.228098
6533.000000;1.227226
6532.000000;1.226430
6531.000000;1.225553
6530.000000;1.224473
6529.000000;1.223175
6528.000000;1.221823
6527.000000;1.220654
6526.000000;1.219749
6525.000000;1.218962
6524.000000;1.218095
6523.000000;1.217083
6522.000000;1.215986
6521.000000;1.214878
6520.000000;1.213802
6519.000000;1.212767
6518.000000;1.211749
6517.000000;1.210718
6516.000000;1.209695
6515.000000;1.208739
6514.000000;1.207854
6513.000000;1.206965
6512.000000;1.206022
6511.000000;1.205070
6510.000000;1.204180
6509.000000;1.203340
6508.000000;1.202468
6507.000000;1.201500
6506.000000;1.200423
6505.000000;1.199264
6504.000000;1.198071
6503.000000;1.196896
6502.000000;1.195777
6501.000000;1.194742
6500.000000;1.193814
6499.000000;1.192991
6498.000000;1.192197
6497.000000;1.191320
6496.000000;1.190318
6495.000000;1.189261
6494.000000;1.188253
6493.000000;1.187339
6492.000000;1.186487
6491.000000;1.185638
6490.000000;1.184746
6489.000000;1.183836
6488.000000;1.183014
6487.000000;1.182360
6486.000000;1.181787
6485.000000;1.181081
6484.000000;1.180111
6483.000000;1.178952
6482.000000;1.177768
6481.000000;1.176646
6480.000000;1.175587
6479.000000;1.174592
6478.000000;1.173673
6477.000000;1.172824
6476.000000;1.172065
6475.000000;1.171463
6474.000000;1.171028
6473.000000;1.170610
6472.000000;1.169984
6471.000000;1.169065
6470.000000;1.167981
6469.000000;1.166935
6468.000000;1.166037
6467.000000;1.165246
6466.000000;1.164427
6465.000000;1.163454
6464.000000;1.162335
6463.000000;1.161230
6462.000000;1.160307
6461.000000;1.159564
6460.000000;1.158842
6459.000000;1.158023
6458.000000;1.157158
6457.000000;1.156367
6456.000000;1.155675
6455.000000;1.154983
6454.000000;1.154187
6453.000000;1.153286
6452.000000;1.152372
6451.000000;1.151534
6450.000000;1.150783
6449.000000;1.150052
6448.000000;1.149267
6447.000000;1.148408
6446.000000;1.147516
6445.000000;1.146650
6444.000000;1.145863
6443.000000;1.145177
6442.000000;1.144546
6441.000000;1.143862
6440.000000;1.143043
6439.000000;1.142129
6438.000000;1.141245
6437.000000;1.140466
6436.000000;1.139734
6435.000000;1.138949
6434.000000;1.138098
6433.000000;1.137279
6432.000000;1.136600
6431.000000;1.136067
6430.000000;1.135579
6429.000000;1.135000
6428.000000;1.134266
6427.000000;1.133430
6426.000000;1.132624
6425.000000;1.131941
6424.000000;1.131374
6423.000000;1.130838
6422.000000;1.130238
6421.000000;1.129527
6420.000000;1.128715
6419.000000;1.127851
6418.000000;1.126984
6417.000000;1.126138
6416.000000;1.125314
6415.000000;1.124531
6414.000000;1.123841
6413.000000;1.123300
6412.000000;1.122894
6411.000000;1.122513
6410.000000;1.122014
6409.000000;1.121331
6408.000000;1.120531
6407.000000;1.119729
6406.000000;1.118973
6405.000000;1.118232
6404.000000;1.117493
6403.000000;1.116812
6402.000000;1.116221
6401.000000;1.115636
6400.000000;1.114932
6399.000000;1.114110
6398.000000;1.113312
6397.000000;1.112654
6396.000000;1.112093
6395.000000;1.111499
6394.000000;1.110810
6393.000000;1.110065
6392.000000;1.109319
6391.000000;1.108580
6390.000000;1.107845
6389.000000;1.107155
6388.000000;1.106569
6387.000000;1.106083
6386.000000;1.105604
6385.000000;1.105035
6384.000000;1.104386
6383.000000;1.103782
6382.000000;1.103315
6381.000000;1.102913
6380.000000;1.102410
6379.000000;1.101727
6378.000000;1.100942
6377.000000;1.100177
6376.000000;1.099462
6375.000000;1.098753
6374.000000;1.098027
6373.000000;1.097314
6372.000000;1.096654
6371.000000;1.096066
6370.000000;1.095546
6369.000000;1.095061
6368.000000;1.094563
6367.000000;1.094033
6366.000000;1.093498
6365.000000;1.092973
6364.000000;1.092427
6363.000000;1.091824
6362.000000;1.091187
6361.000000;1.090565
6360.000000;1.089960
6359.000000;1.089338
6358.000000;1.088696
6357.000000;1.088087
6356.000000;1.087540
6355.000000;1.087012
6354.000000;1.086441
6353.000000;1.085827
6352.000000;1.085235
6351.000000;1.084722
6350.000000;1.084282
6349.000000;1.083853
6348.000000;1.083372
6347.000000;1.082820
6346.000000;1.082226
6345.000000;1.081622
6344.000000;1.081020
6343.000000;1.080438
6342.000000;1.079908
6341.000000;1.079436
6340.000000;1.078974
6339.000000;1.078473
6338.000000;1.077936
6337.000000;1.077400
6336.000000;1.076874
6335.000000;1.076339
6334.000000;1.075807
6333.000000;1.075317
6332.000000;1.074876
6331.000000;1.074437
6330.000000;1.073956
6329.000000;1.073426
6328.000000;1.072858
6327.000000;1.072269
6326.000000;1.071698
6325.000000;1.071190
6324.000000;1.070741
6323.000000;1.070294
6322.000000;1.069819
6321.000000;1.069340
6320.000000;1.068878
6319.000000;1.068403
6318.000000;1.067883
6317.000000;1.067322
6316.000000;1.066734
6315.000000;1.066118
6314.000000;1.065496
6313.000000;1.064938
6312.000000;1.064491
6311.000000;1.064101
6310.000000;1.063674
6309.000000;1.063202
6308.000000;1.062758
6307.000000;1.062386
6306.000000;1.062035
6305.000000;1.061612
6304.000000;1.061073
6303.000000;1.060449
6302.000000;1.059830
6301.000000;1.059324
6300.000000;1.058974
6299.000000;1.058715
6298.000000;1.058438
6297.000000;1.058106
6296.000000;1.057769
6295.000000;1.057464
6294.000000;1.057154
6293.000000;1.056786
6292.000000;1.056350
6291.000000;1.055857
6290.000000;1.055294
6289.000000;1.054657
6288.000000;1.054000
6287.000000;1.053411
6286.000000;1.052931
6285.000000;1.052532
6284.000000;1.052166
6283.000000;1.051814
6282.000000;1.051481
6281.000000;1.051155
6280.000000;1.050809
6279.000000;1.050414
6278.000000;1.049971
6277.000000;1.049511
6276.000000;1.049076
6275.000000;1.048685
6274.000000;1.048333
6273.000000;1.048016
6272.000000;1.047741
6271.000000;1.047508
6270.000000;1.047275
6269.000000;1.046977
6268.000000;1.046576
6267.000000;1.046091
6266.000000;1.045582
6265.000000;1.045098
6264.000000;1.044646
6263.000000;1.044190
6262.000000;1.043701
6261.000000;1.043188
6260.000000;1.042708
6259.000000;1.042318
6258.000000;1.042034
6257.000000;1.041815
6256.000000;1.041603
6255.000000;1.041360
6254.000000;1.041089
6253.000000;1.040810
6252.000000;1.040529
6251.000000;1.040224
6250.000000;1.039860
6249.000000;1.039419
6248.000000;1.038934
6247.000000;1.038474
6246.000000;1.038103
6245.000000;1.037818
6244.000000;1.037548
6243.000000;1.037222
6242.000000;1.036845
6241.000000;1.036473
6240.000000;1.036147
6239.000000;1.035852
6238.000000;1.035557
6237.000000;1.035251
6236.000000;1.034927
6235.000000;1.034574
6234.000000;1.034197
6233.000000;1.033838
6232.000000;1.033523
6231.000000;1.033217
6230.000000;1.032874
6229.000000;1.032523
6228.000000;1.032251
6227.000000;1.032088
6226.000000;1.031951
6225.000000;1.031714
6224.000000;1.031339
6223.000000;1.030907
6222.000000;1.030522
6221.000000;1.030218
6220.000000;1.029948
6219.000000;1.029662
6218.000000;1.029364
6217.000000;1.029077
6216.000000;1.028795
6215.000000;1.028477
6214.000000;1.028113
6213.000000;1.027748
6212.000000;1.027438
6211.000000;1.027210
6210.000000;1.027061
6209.000000;1.026970
6208.000000;1.026878
6207.000000;1.026688
6206.000000;1.026338
6205.000000;1.025871
6204.000000;1.025374
6203.000000;1.024887
6202.000000;1.024398
6201.000000;1.023933
6200.000000;1.023571
6199.000000;1.023359
6198.000000;1.023248
6197.000000;1.023143
6196.000000;1.022989
6195.000000;1.022779
6194.000000;1.022532
6193.000000;1.022269
6192.000000;1.022015
6191.000000;1.021772
6190.000000;1.021520
6189.000000;1.021249
6188.000000;1.020986
6187.000000;1.020758
6186.000000;1.020535
6185.000000;1.020242
6184.000000;1.019836
6183.000000;1.019370
6182.000000;1.018976
6181.000000;1.018781
6180.000000;1.018783
6179.000000;1.018826
6178.000000;1.018714
6177.000000;1.018383
6176.000000;1.017955
6175.000000;1.017597
6174.000000;1.017362
6173.000000;1.017189
6172.000000;1.017000
6171.000000;1.016772
6170.000000;1.016510
6169.000000;1.016225
6168.000000;1.015944
6167.000000;1.015704
6166.000000;1.015514
6165.000000;1.015345
6164.000000;1.015168
6163.000000;1.014991
6162.000000;1.014838
6161.000000;1.014694
6160.000000;1.014506
6159.000000;1.014231
6158.000000;1.013896
6157.000000;1.013576
6156.000000;1.013317
6155.000000;1.013085
6154.000000;1.012815
6153.000000;1.012511
6152.000000;1.012254
6151.000000;1.012101
6150.000000;1.012009
6149.000000;1.011885
6148.000000;1.011694
6147.000000;1.011467
6146.000000;1.011238
6145.000000;1.010998
6144.000000;1.010735
6143.000000;1.010468
6142.000000;1.010219
6141.000000;1.009987
6140.000000;1.009761
6139.000000;1.009572
6138.000000;1.009483
6137.000000;1.009524
6136.000000;1.009637
6135.000000;1.009693
6134.000000;1.009585
6133.000000;1.009313
6132.000000;1.008981
6131.000000;1.008707
6130.000000;1.008531
6129.000000;1.008412
6128.000000;1.008294
6127.000000;1.008148
6126.000000;1.007951
6125.000000;1.007672
6124.000000;1.007288
6123.000000;1.006821
6122.000000;1.006350
6121.000000;1.005977
6120.000000;1.005772
6119.000000;1.005708
6118.000000;1.005681
6117.000000;1.005607
6116.000000;1.005507
6115.000000;1.005453
6114.000000;1.005442
6113.000000;1.005373
6112.000000;1.005162
6111.000000;1.004845
6110.000000;1.004531
6109.000000;1.004281
6108.000000;1.004060
6107.000000;1.003814
6106.000000;1.003550
6105.000000;1.003346
6104.000000;1.003283
6103.000000;1.003359
6102.000000;1.003453
6101.000000;1.003410
6100.000000;1.003186
6099.000000;1.002904
6098.000000;1.002714
6097.000000;1.002639
6096.000000;1.002569
6095.000000;1.002408
6094.000000;1.002174
6093.000000;1.001941
6092.000000;1.001748
6091.000000;1.001573
6090.000000;1.001391
6089.000000;1.001204
6088.000000;1.001035
6087.000000;1.000896
6086.000000;1.000780
6085.000000;1.000678
6084.000000;1.000607
6083.000000;1.000592
6082.000000;1.000599
6081.000000;1.000523
6080.000000;1.000293
6079.000000;0.999972
6078.000000;0.999719
6077.000000;0.999620
6076.000000;0.999616
6075.000000;0.999599
6074.000000;0.999521
6073.000000;0.999396
6072.000000;0.999243
6071.000000;0.999081
6070.000000;0.998942
6069.000000;0.998845
6068.000000;0.998763
6067.000000;0.998651
6066.000000;0.998513
6065.000000;0.998396
6064.000000;0.998340
6063.000000;0.998349
6062.000000;0.998392
6061.000000;0.998413
6060.000000;0.998353
6059.000000;0.998210
6058.000000;0.998049
6057.000000;0.997926
6056.000000;0.997812
6055.000000;0.997644
6054.000000;0.997439
6053.000000;0.997290
6052.000000;0.997253
6051.000000;0.997283
6050.000000;0.997303
6049.000000;0.997284
6048.000000;0.997236
6047.000000;0.997172
6046.000000;0.997092
6045.000000;0.996996
6044.000000;0.996870
6043.000000;0.996710
6042.000000;0.996547
6041.000000;0.996446
6040.000000;0.996431
6039.000000;0.996462
6038.000000;0.996494
6037.000000;0.996525
6036.000000;0.996559
6035.000000;0.996559
6034.000000;0.996487
6033.000000;0.996371
6032.000000;0.996270
6031.000000;0.996190
6030.000000;0.996086
6029.000000;0.995953
6028.000000;0.995859
6027.000000;0.995854
6026.000000;0.995892
6025.000000;0.995889
6024.000000;0.995827
6023.000000;0.995774
6022.000000;0.995797
6021.000000;0.995888
6020.000000;0.995993
6019.000000;0.996077
6018.000000;0.996131
6017.000000;0.996142
6016.000000;0.996087
6015.000000;0.995973
6014.000000;0.995846
6013.000000;0.995738
6012.000000;0.995635
6011.000000;0.995503
6010.000000;0.995352
6009.000000;0.995238
6008.000000;0.995209
6007.000000;0.995255
6006.000000;0.995327
6005.000000;0.995372
6004.000000;0.995392
6003.000000;0.995447
6002.000000;0.995616
6001.000000;0.995889
6000.000000;0.996143
5999.000000;0.996241
5998.000000;0.996181
5997.000000;0.996087
5996.000000;0.996063
5995.000000;0.996102
5994.000000;0.996167
5993.000000;0.996274
5992.000000;0.996445
5991.000000;0.996626
5990.000000;0.996725
5989.000000;0.996747
5988.000000;0.996794
5987.000000;0.996930
5986.000000;0.997099
5985.000000;0.997200
5984.000000;0.997219
5983.000000;0.997238
5982.000000;0.997339
5981.000000;0.997525
5980.000000;0.997733
5979.000000;0.997908
5978.000000;0.998050
5977.000000;0.998201
5976.000000;0.998377
5975.000000;0.998531
5974.000000;0.998597
5973.000000;0.998579
5972.000000;0.998569
5971.000000;0.998677
5970.000000;0.998925
5969.000000;0.999241
5968.000000;0.999525
5967.000000;0.999737
5966.000000;0.999904
5965.000000;1.000077
5964.000000;1.000289
5963.000000;1.000553
5962.000000;1.000882
5961.000000;1.001263
5960.000000;1.001635
5959.000000;1.001915
5958.000000;1.002075
5957.000000;1.002168
5956.000000;1.002275
5955.000000;1.002442
5954.000000;1.002675
5953.000000;1.002976
5952.000000;1.003337
5951.000000;1.003727
5950.000000;1.004111
5949.000000;1.004483
5948.000000;1.004852
5947.000000;1.005201
5946.000000;1.005478
5945.000000;1.005655
5944.000000;1.005770
5943.000000;1.005915
5942.000000;1.006169
5941.000000;1.006526
5940.000000;1.006881
5939.000000;1.007105
5938.000000;1.007176
5937.000000;1.007220
5936.000000;1.007382
5935.000000;1.007664
5934.000000;1.007934
5933.000000;1.008092
5932.000000;1.008185
5931.000000;1.008342
5930.000000;1.008625
5929.000000;1.008977
5928.000000;1.009287
5927.000000;1.009481
5926.000000;1.009581
5925.000000;1.009683
5924.000000;1.009879
5923.000000;1.010170
5922.000000;1.010473
5921.000000;1.010723
5920.000000;1.010926
5919.000000;1.011112
5918.000000;1.011267
5917.000000;1.011357
5916.000000;1.011400
5915.000000;1.011453
5914.000000;1.011542
5913.000000;1.011628
5912.000000;1.011660
5911.000000;1.011633
5910.000000;1.011576
5909.000000;1.011522
5908.000000;1.011497
5907.000000;1.011511
5906.000000;1.011552
5905.000000;1.011589
5904.000000;1.011610
5903.000000;1.011641
5902.000000;1.011704
5901.000000;1.011780
5900.000000;1.011820
5899.000000;1.011798
5898.000000;1.011745
5897.000000;1.011708
5896.000000;1.011702
5895.000000;1.011698
5894.000000;1.011659
5893.000000;1.011581
5892.000000;1.011493
5891.000000;1.011431
5890.000000;1.011422
5889.000000;1.011482
5888.000000;1.011603
5887.000000;1.011737
5886.000000;1.011817
5885.000000;1.011817
5884.000000;1.011780
5883.000000;1.011776
5882.000000;1.011824
5881.000000;1.011878
5880.000000;1.011884
5879.000000;1.011846
5878.000000;1.011827
5877.000000;1.011898
5876.000000;1.012079
5875.000000;1.012330
5874.000000;1.012580
5873.000000;1.012778
5872.000000;1.012926
5871.000000;1.013070
5870.000000;1.013255
5869.000000;1.013486
5868.000000;1.013725
5867.000000;1.013932
5866.000000;1.014113
5865.000000;1.014330
5864.000000;1.014647
5863.000000;1.015065
5862.000000;1.015500
5861.000000;1.015854
5860.000000;1.016094
5859.000000;1.016271
5858.000000;1.016466
5857.000000;1.016721
5856.000000;1.017025
5855.000000;1.017349
5854.000000;1.017687
5853.000000;1.018056
5852.000000;1.018466
5851.000000;1.018901
5850.000000;1.019323
5849.000000;1.019700
5848.000000;1.020028
5847.000000;1.020328
5846.000000;1.020645
5845.000000;1.021023
5844.000000;1.021463
5843.000000;1.021912
5842.000000;1.022292
5841.000000;1.022587
5840.000000;1.022860
5839.000000;1.023198
5838.000000;1.023633
5837.000000;1.024127
5836.000000;1.024618
5835.000000;1.025067
5834.000000;1.025462
5833.000000;1.025818
5832.000000;1.026172
5831.000000;1.026564
5830.000000;1.027011
5829.000000;1.027492
5828.000000;1.027960
5827.000000;1.028373
5826.000000;1.028732
5825.000000;1.029094
5824.000000;1.029535
5823.000000;1.030057
5822.000000;1.030569
5821.000000;1.030988
5820.000000;1.031355
5819.000000;1.031798
5818.000000;1.032378
5817.000000;1.033015
5816.000000;1.033594
5815.000000;1.034086
5814.000000;1.034552
5813.000000;1.035034
5812.000000;1.035527
5811.000000;1.036019
5810.000000;1.036523
5809.000000;1.037039
5808.000000;1.037551
5807.000000;1.038065
5806.000000;1.038611
5805.000000;1.039190
5804.000000;1.039744
5803.000000;1.040219
5802.000000;1.040630
5801.000000;1.041040
5800.000000;1.041494
5799.000000;1.041989
5798.000000;1.042515
5797.000000;1.043084
5796.000000;1.043701
5795.000000;1.044326
5794.000000;1.044901
5793.000000;1.045401
5792.000000;1.045871
5791.000000;1.046383
5790.000000;1.046975
5789.000000;1.047615
5788.000000;1.048229
5787.000000;1.048757
5786.000000;1.049190
5785.000000;1.049579
5784.000000;1.050009
5783.000000;1.050539
5782.000000;1.051146
5781.000000;1.051743
5780.000000;1.052269
5779.000000;1.052766
5778.000000;1.053321
5777.000000;1.053945
5776.000000;1.054552
5775.000000;1.055089
5774.000000;1.055620
5773.000000;1.056236
5772.000000;1.056901
5771.000000;1.057471
5770.000000;1.057875
5769.000000;1.058216
5768.000000;1.058653
5767.000000;1.059223
5766.000000;1.059826
5765.000000;1.060356
5764.000000;1.060790
5763.000000;1.061179
5762.000000;1.061586
5761.000000;1.062056
5760.000000;1.062595
5759.000000;1.063163
5758.000000;1.063698
5757.000000;1.064174
5756.000000;1.064610
5755.000000;1.065043
5754.000000;1.065500
5753.000000;1.065986
5752.000000;1.066489
5751.000000;1.066980
5750.000000;1.067432
5749.000000;1.067862
5748.000000;1.068314
5747.000000;1.068791
5746.000000;1.069244
5745.000000;1.069647
5744.000000;1.070046
5743.000000;1.070510
5742.000000;1.071040
5741.000000;1.071573
5740.000000;1.072060
5739.000000;1.072512
5738.000000;1.072965
5737.000000;1.073450
5736.000000;1.074001
5735.000000;1.074629
5734.000000;1.075276
5733.000000;1.075848
5732.000000;1.076320
5731.000000;1.076770
5730.000000;1.077285
5729.000000;1.077850
5728.000000;1.078385
5727.000000;1.078854
5726.000000;1.079286
5725.000000;1.079710
5724.000000;1.080121
5723.000000;1.080534
5722.000000;1.081006
5721.000000;1.081577
5720.000000;1.082218
5719.000000;1.082859
5718.000000;1.083464
5717.000000;1.084051
5716.000000;1.084653
5715.000000;1.085274
5714.000000;1.085869
5713.000000;1.086368
5712.000000;1.086729
5711.000000;1.087002
5710.000000;1.087317
5709.000000;1.087789
5708.000000;1.088411
5707.000000;1.089064
5706.000000;1.089632
5705.000000;1.090099
5704.000000;1.090543
5703.000000;1.091059
5702.000000;1.091696
5701.000000;1.092418
5700.000000;1.093130
5699.000000;1.093731
5698.000000;1.094196
5697.000000;1.094576
5696.000000;1.094985
5695.000000;1.095489
5694.000000;1.096068
5693.000000;1.096643
5692.000000;1.097148
5691.000000;1.097583
5690.000000;1.098018
5689.000000;1.098530
5688.000000;1.099133
5687.000000;1.099766
5686.000000;1.100350
5685.000000;1.100865
5684.000000;1.101358
5683.000000;1.101881
5682.000000;1.102442
5681.000000;1.103014
5680.000000;1.103584
5679.000000;1.104156
5678.000000;1.104733
5677.000000;1.105287
5676.000000;1.105783
5675.000000;1.106209
5674.000000;1.106605
5673.000000;1.107037
5672.000000;1.107554
5671.000000;1.108137
5670.000000;1.108709
5669.000000;1.109193
5668.000000;1.109583
5667.000000;1.109935
5666.000000;1.110315
5665.000000;1.110751
5664.000000;1.111241
5663.000000;1.111778
5662.000000;1.112339
5661.000000;1.112872
5660.000000;1.113336
5659.000000;1.113744
5658.000000;1.114160
5657.000000;1.114632
5656.000000;1.115140
5655.000000;1.115618
5654.000000;1.116023
5653.000000;1.116362
5652.000000;1.116670
5651.000000;1.116980
5650.000000;1.117312
5649.000000;1.117685
5648.000000;1.118121
5647.000000;1.118631
5646.000000;1.119191
5645.000000;1.119745
5644.000000;1.120223
5643.000000;1.120591
5642.000000;1.120894
5641.000000;1.121235
5640.000000;1.121687
5639.000000;1.122218
5638.000000;1.122715
5637.000000;1.123104
5636.000000;1.123422
5635.000000;1.123757
5634.000000;1.124142
5633.000000;1.124520
5632.000000;1.124828
5631.000000;1.125071
5630.000000;1.125328
5629.000000;1.125670
5628.000000;1.126105
5627.000000;1.126563
5626.000000;1.126961
5625.000000;1.127274
5624.000000;1.127559
5623.000000;1.127871
5622.000000;1.128189
5621.000000;1.128442
5620.000000;1.128620
5619.000000;1.128795
5618.000000;1.129034
5617.000000;1.129336
5616.000000;1.129683
5615.000000;1.130087
5614.000000;1.130545
5613.000000;1.130964
5612.000000;1.131230
5611.000000;1.131335
5610.000000;1.131405
5609.000000;1.131569
5608.000000;1.131862
5607.000000;1.132238
5606.000000;1.132624
5605.000000;1.132941
5604.000000;1.133137
5603.000000;1.133219
5602.000000;1.133247
5601.000000;1.133277
5600.000000;1.133335
5599.000000;1.133443
5598.000000;1.133635
5597.000000;1.133904
5596.000000;1.134185
5595.000000;1.134413
5594.000000;1.134594
5593.000000;1.134781
5592.000000;1.134998
5591.000000;1.135211
5590.000000;1.135375
5589.000000;1.135467
5588.000000;1.135506
5587.000000;1.135547
5586.000000;1.135647
5585.000000;1.135824
5584.000000;1.136045
5583.000000;1.136263
5582.000000;1.136445
5581.000000;1.136575
5580.000000;1.136648
5579.000000;1.136686
5578.000000;1.136711
5577.000000;1.136711
5576.000000;1.136655
5575.000000;1.136566
5574.000000;1.136524
5573.000000;1.136560
5572.000000;1.136609
5571.000000;1.136605
5570.000000;1.136595
5569.000000;1.136673
5568.000000;1.136845
5567.000000;1.137020
5566.000000;1.137134
5565.000000;1.137206
5564.000000;1.137262
5563.000000;1.137285
5562.000000;1.137258
5561.000000;1.137209
5560.000000;1.137178
5559.000000;1.137168
5558.000000;1.137159
5557.000000;1.137120
5556.000000;1.137017
5555.000000;1.136858
5554.000000;1.136738
5553.000000;1.136780
5552.000000;1.136988
5551.000000;1.137216
5550.000000;1.137317
5549.000000;1.137287
5548.000000;1.137201
5547.000000;1.137080
5546.000000;1.136883
5545.000000;1.136611
5544.000000;1.136354
5543.000000;1.136202
5542.000000;1.136167
5541.000000;1.136194
5540.000000;1.136236
5539.000000;1.136288
5538.000000;1.136370
5537.000000;1.136486
5536.000000;1.136583
5535.000000;1.136591
5534.000000;1.136498
5533.000000;1.136384
5532.000000;1.136341
5531.000000;1.136382
5530.000000;1.136435
5529.000000;1.136426
5528.000000;1.136337
5527.000000;1.136214
5526.000000;1.136120
5525.000000;1.136090
5524.000000;1.136113
5523.000000;1.136156
5522.000000;1.136207
5521.000000;1.136288
5520.000000;1.136398
5519.000000;1.136488
5518.000000;1.136510
5517.000000;1.136468
5516.000000;1.136408
5515.000000;1.136361
5514.000000;1.136331
5513.000000;1.136320
5512.000000;1.136322
5511.000000;1.136301
5510.000000;1.136224
5509.000000;1.136105
5508.000000;1.136000
5507.000000;1.135940
5506.000000;1.135914
5505.000000;1.135921
5504.000000;1.136003
5503.000000;1.136185
5502.000000;1.136414
5501.000000;1.136607
5500.000000;1.136725
5499.000000;1.136799
5498.000000;1.136863
5497.000000;1.136904
5496.000000;1.136902
5495.000000;1.136905
5494.000000;1.136993
5493.000000;1.137187
5492.000000;1.137417
5491.000000;1.137596
5490.000000;1.137708
5489.000000;1.137793
5488.000000;1.137882
5487.000000;1.137988
5486.000000;1.138135
5485.000000;1.138338
5484.000000;1.138571
5483.000000;1.138780
5482.000000;1.138961
5481.000000;1.139181
5480.000000;1.139495
5479.000000;1.139851
5478.000000;1.140131
5477.000000;1.140268
5476.000000;1.140291
5475.000000;1.140292
5474.000000;1.140356
5473.000000;1.140541
5472.000000;1.140897
5471.000000;1.141433
5470.000000;1.142061
5469.000000;1.142594
5468.000000;1.142865
5467.000000;1.142894
5466.000000;1.142899
5465.000000;1.143080
5464.000000;1.143421
5463.000000;1.143771
5462.000000;1.144043
5461.000000;1.144287
5460.000000;1.144577
5459.000000;1.144936
5458.000000;1.145382
5457.000000;1.145944
5456.000000;1.146594
5455.000000;1.147240
5454.000000;1.147835
5453.000000;1.148428
5452.000000;1.149096
5451.000000;1.149857
5450.000000;1.150638
5449.000000;1.151309
5448.000000;1.151776
5447.000000;1.152092
5446.000000;1.152442
5445.000000;1.152960
5444.000000;1.153602
5443.000000;1.154257
5442.000000;1.154918
5441.000000;1.155659
5440.000000;1.156482
5439.000000;1.157281
5438.000000;1.157992
5437.000000;1.158692
5436.000000;1.159491
5435.000000;1.160402
5434.000000;1.161352
5433.000000;1.162271
5432.000000;1.163175
5431.000000;1.164138
5430.000000;1.165196
5429.000000;1.166317
5428.000000;1.167453
5427.000000;1.168581
5426.000000;1.169704
5425.000000;1.170835
5424.000000;1.171997
5423.000000;1.173235
5422.000000;1.174581
5421.000000;1.176029
5420.000000;1.177561
5419.000000;1.179173
5418.000000;1.180827
5417.000000;1.182433
5416.000000;1.183918
5415.000000;1.185324
5414.000000;1.186766
5413.000000;1.188279
5412.000000;1.189778
5411.000000;1.191209
5410.000000;1.192646
5409.000000;1.194204
5408.000000;1.195932
5407.000000;1.197825
5406.000000;1.199871
5405.000000;1.202029
5404.000000;1.204215
5403.000000;1.206387
5402.000000;1.208614
5401.000000;1.210964
5400.000000;1.213396
5399.000000;1.215855
5398.000000;1.218360
5397.000000;1.220948
5396.000000;1.223600
5395.000000;1.226287
5394.000000;1.229038
5393.000000;1.231873
5392.000000;1.234754
5391.000000;1.237650
5390.000000;1.240609
5389.000000;1.243675
5388.000000;1.246786
5387.000000;1.249875
5386.000000;1.253026
5385.000000;1.256408
5384.000000;1.260072
5383.000000;1.263965
5382.000000;1.268055
5381.000000;1.272298
5380.000000;1.276562
5379.000000;1.280770
5378.000000;1.285052
5377.000000;1.289568
5376.000000;1.294214
5375.000000;1.298744
5374.000000;1.303167
5373.000000;1.307771
5372.000000;1.312764
5371.000000;1.318083
5370.000000;1.323598
5369.000000;1.329297
5368.000000;1.335188
5367.000000;1.341184
5366.000000;1.347222
5365.000000;1.353364
5364.000000;1.359664
5363.000000;1.366074
5362.000000;1.372576
5361.000000;1.379271
5360.000000;1.386269
5359.000000;1.393566
5358.000000;1.401104
5357.000000;1.408853
5356.000000;1.416808
5355.000000;1.425001
5354.000000;1.433538
5353.000000;1.442504
5352.000000;1.451778
5351.000000;1.461106
5350.000000;1.470417
5349.000000;1.479892
5348.000000;1.489690
5347.000000;1.499788
5346.000000;1.510180
5345.000000;1.520992
5344.000000;1.532256
5343.000000;1.543736
5342.000000;1.555209
5341.000000;1.566812
5340.000000;1.578902
5339.000000;1.591679
5338.000000;1.605047
5337.000000;1.618712
5336.000000;1.632389
5335.000000;1.645997
5334.000000;1.659752
5333.000000;1.674016
5332.000000;1.688964
5331.000000;1.704460
5330.000000;1.720307
5329.000000;1.736523
5328.000000;1.753265
5327.000000;1.770587
5326.000000;1.788365
5325.000000;1.806431
5324.000000;1.824751
5323.000000;1.843510
5322.000000;1.863049
5321.000000;1.883584
5320.000000;1.904913
5319.000000;1.926529
5318.000000;1.948092
5317.000000;1.969670
5316.000000;1.991515
5315.000000;2.013794
5314.000000;2.036539
5313.000000;2.059684
5312.000000;2.083080
5311.000000;2.106613
5310.000000;2.130346
5309.000000;2.154455
5308.000000;2.179129
5307.000000;2.204675
5306.000000;2.231443
5305.000000;2.259371
5304.000000;2.287764
5303.000000;2.315808
5302.000000;2.343116
5301.000000;2.369644
5300.000000;2.395567
5299.000000;2.421559
5298.000000;2.448481
5297.000000;2.476139
5296.000000;2.503071
5295.000000;2.528431
5294.000000;2.553318
5293.000000;2.579089
5292.000000;2.605108
5291.000000;2.629587
5290.000000;2.652107
5289.000000;2.673741
5288.000000;2.695053
5287.000000;2.715586
5286.000000;2.735020
5285.000000;2.753543
5284.000000;2.771377
5283.000000;2.788793
5282.000000;2.805994
5281.000000;2.822324
5280.000000;2.836894
5279.000000;2.850559
5278.000000;2.864774
5277.000000;2.877733
5276.000000;2.884772
5275.000000;2.884668
5274.000000;2.882671
5273.000000;2.884989
5272.000000;2.893263
5271.000000;2.905294
5270.000000;2.917370
5269.000000;2.924254
5268.000000;2.921692
5267.000000;2.912827
5266.000000;2.908060
5265.000000;2.915860
5264.000000;2.935077
5263.000000;2.955865
5262.000000;2.968302
5261.000000;2.969334
5260.000000;2.962077
5259.000000;2.953208
5258.000000;2.949828
5257.000000;2.954263
5256.000000;2.961972
5255.000000;2.966807
5254.000000;2.968019
5253.000000;2.969011
5252.000000;2.971265
5251.000000;2.973898
5250.000000;2.977009
5249.000000;2.981057
5248.000000;2.983905
5247.000000;2.982633
5246.000000;2.977710
5245.000000;2.971427
5244.000000;2.964258
5243.000000;2.956949
5242.000000;2.953622
5241.000000;2.957981
5240.000000;2.967374
5239.000000;2.974265
5238.000000;2.974239
5237.000000;2.969560
5236.000000;2.964424
5235.000000;2.961037
5234.000000;2.960585
5233.000000;2.963646
5232.000000;2.968390
5231.000000;2.971547
5230.000000;2.972630
5229.000000;2.974430
5228.000000;2.978138
5227.000000;2.980685
5226.000000;2.978579
5225.000000;2.972928
5224.000000;2.968085
5223.000000;2.966658
5222.000000;2.967692
5221.000000;2.968136
5220.000000;2.965905
5219.000000;2.962409
5218.000000;2.961340
5217.000000;2.964052
5216.000000;2.967311
5215.000000;2.967637
5214.000000;2.967053
5213.000000;2.971452
5212.000000;2.982774
5211.000000;2.994839
5210.000000;2.998609
5209.000000;2.991763
5208.000000;2.980588
5207.000000;2.972882
5206.000000;2.971797
5205.000000;2.974893
5204.000000;2.976713
5203.000000;2.972937
5202.000000;2.963455
5201.000000;2.951969
5200.000000;2.942951
5199.000000;2.938995
5198.000000;2.940242
5197.000000;2.945261
5196.000000;2.952255
5195.000000;2.959647
5194.000000;2.965709
5193.000000;2.968114
5192.000000;2.965508
5191.000000;2.960598
5190.000000;2.958870
5189.000000;2.963125
5188.000000;2.970881
5187.000000;2.977223
5186.000000;2.979699
5185.000000;2.979285
5184.000000;2.977346
5183.000000;2.974295
5182.000000;2.970886
5181.000000;2.968434
5180.000000;2.967703
5179.000000;2.969177
5178.000000;2.974034
5177.000000;2.982695
5176.000000;2.992040
5175.000000;2.996512
5174.000000;2.993724
5173.000000;2.986719
5172.000000;2.979230
5171.000000;2.971727
5170.000000;2.963723
5169.000000;2.957424
5168.000000;2.956332
5167.000000;2.960778
5166.000000;2.966773
5165.000000;2.969639
5164.000000;2.967863
5163.000000;2.963110
5162.000000;2.958002
5161.000000;2.954883
5160.000000;2.955355
5159.000000;2.959340
5158.000000;2.964575
5157.000000;2.968004
5156.000000;2.968018
5155.000000;2.965095
5154.000000;2.960613
5153.000000;2.956223
5152.000000;2.954151
5151.000000;2.956070
5150.000000;2.960949
5149.000000;2.965797
5148.000000;2.969608
5147.000000;2.974465
5146.000000;2.980888
5145.000000;2.984369
5144.000000;2.979856
5143.000000;2.968852
5142.000000;2.957987
5141.000000;2.951298
5140.000000;2.947948
5139.000000;2.946957
5138.000000;2.949639
5137.000000;2.955642
5136.000000;2.960379
5135.000000;2.959384
5134.000000;2.953666
5133.000000;2.948321
5132.000000;2.947011
5131.000000;2.949598
5130.000000;2.953994
5129.000000;2.958051
5128.000000;2.959595
5127.000000;2.956900
5126.000000;2.950330
5125.000000;2.942621
5124.000000;2.936915
5123.000000;2.934920
5122.000000;2.936923
5121.000000;2.942351
5120.000000;2.949497
5119.000000;2.955492
5118.000000;2.957849
5117.000000;2.956189
5116.000000;2.952141
5115.000000;2.948013
5114.000000;2.945710
5113.000000;2.946161
5112.000000;2.949157
5111.000000;2.953111
5110.000000;2.955104
5109.000000;2.952635
5108.000000;2.946551
5107.000000;2.941648
5106.000000;2.943021
5105.000000;2.951137
5104.000000;2.960397
5103.000000;2.963802
5102.000000;2.960306
5101.000000;2.955624
5100.000000;2.955006
5099.000000;2.957574
5098.000000;2.957859
5097.000000;2.952113
5096.000000;2.942463
5095.000000;2.934584
5094.000000;2.932792
5093.000000;2.937208
5092.000000;2.944267
5091.000000;2.949866
5090.000000;2.952419
5089.000000;2.952405
5088.000000;2.949704
5087.000000;2.943750
5086.000000;2.936366
5085.000000;2.932169
5084.000000;2.934408
5083.000000;2.940940
5082.000000;2.946035
5081.000000;2.946478
5080.000000;2.944274
5079.000000;2.943053
5078.000000;2.943941
5077.000000;2.945519
5076.000000;2.945803
5075.000000;2.943070
5074.000000;2.936742
5073.000000;2.929054
5072.000000;2.924446
5071.000000;2.925887
5070.000000;2.932321
5069.000000;2.940134
5068.000000;2.946063
5067.000000;2.948030
5066.000000;2.945070
5065.000000;2.938722
5064.000000;2.933756
5063.000000;2.935256
5062.000000;2.943580
5061.000000;2.953044
5060.000000;2.957301
5059.000000;2.955217
5058.000000;2.949891
5057.000000;2.943898
5056.000000;2.937859
5055.000000;2.932486
5054.000000;2.929027
5053.000000;2.927255
5052.000000;2.924961
5051.000000;2.919832
5050.000000;2.911673
5049.000000;2.903273
5048.000000;2.898810
5047.000000;2.900308
5046.000000;2.904979
5045.000000;2.906796
5044.000000;2.902270
5043.000000;2.893740
5042.000000;2.885831
5041.000000;2.880884
5040.000000;2.878859
5039.000000;2.879298
5038.000000;2.881003
5037.000000;2.880840
5036.000000;2.875964
5035.000000;2.867889
5034.000000;2.861971
5033.000000;2.861998
5032.000000;2.866630
5031.000000;2.871457
5030.000000;2.873821
5029.000000;2.874885
5028.000000;2.876810
5027.000000;2.879062
5026.000000;2.878593
5025.000000;2.873061
5024.000000;2.863166
5023.000000;2.852010
5022.000000;2.842817
5021.000000;2.837608
5020.000000;2.837060
5019.000000;2.840372
5018.000000;2.845480
5017.000000;2.850184
5016.000000;2.852976
5015.000000;2.852654
5014.000000;2.848423
5013.000000;2.841797
5012.000000;2.837245
5011.000000;2.838194
5010.000000;2.841945
5009.000000;2.840827
5008.000000;2.830453
5007.000000;2.814772
5006.000000;2.800833
5005.000000;2.792293
5004.000000;2.789908
5003.000000;2.794455
5002.000000;2.805189
5001.000000;2.816233
5000.000000;2.819236
4999.000000;2.812290
4998.000000;2.802060
4997.000000;2.794850
4996.000000;2.790055
4995.000000;2.783740
4994.000000;2.775262
4993.000000;2.767877
4992.000000;2.764205
4991.000000;2.763416
4990.000000;2.762568
4989.000000;2.759277
4988.000000;2.753269
4987.000000;2.746458
4986.000000;2.741521
4985.000000;2.739621
4984.000000;2.739324
4983.000000;2.738188
4982.000000;2.735336
4981.000000;2.731707
4980.000000;2.728105
4979.000000;2.724177
4978.000000;2.719348
4977.000000;2.713943
4976.000000;2.709023
4975.000000;2.705430
4974.000000;2.703217
4973.000000;2.701728
4972.000000;2.699874
4971.000000;2.696673
4970.000000;2.692045
4969.000000;2.687068
4968.000000;2.683404
4967.000000;2.682077
4966.000000;2.682199
4965.000000;2.681045
4964.000000;2.676330
4963.000000;2.669061
4962.000000;2.663289
4961.000000;2.662078
4960.000000;2.663970
4959.000000;2.663900
4958.000000;2.658205
4957.000000;2.648462
4956.000000;2.639544
4955.000000;2.634483
4954.000000;2.631914
4953.000000;2.628191
4952.000000;2.621644
4951.000000;2.614177
4950.000000;2.608572
4949.000000;2.605305
4948.000000;2.602527
4947.000000;2.598468
4946.000000;2.592988
4945.000000;2.586874
4944.000000;2.580766
4943.000000;2.575251
4942.000000;2.571065
4941.000000;2.568383
4940.000000;2.566431
4939.000000;2.564485
4938.000000;2.562740
4937.000000;2.561468
4936.000000;2.559854
4935.000000;2.556710
4934.000000;2.552030
4933.000000;2.546942
4932.000000;2.542277
4931.000000;2.538037
4930.000000;2.534131
4929.000000;2.530478
4928.000000;2.526124
4927.000000;2.519586
4926.000000;2.510859
4925.000000;2.502322
4924.000000;2.496924
4923.000000;2.495736
4922.000000;2.497428
4921.000000;2.499612
4920.000000;2.500450
4919.000000;2.499310
4918.000000;2.496446
4917.000000;2.492378
4916.000000;2.487429
4915.000000;2.481779
4914.000000;2.476063
4913.000000;2.471407
4912.000000;2.468350
4911.000000;2.465949
4910.000000;2.462543
4909.000000;2.457449
4908.000000;2.451431
4907.000000;2.445548
4906.000000;2.440265
4905.000000;2.435730
4904.000000;2.432136
4903.000000;2.429437
4902.000000;2.427130
4901.000000;2.424615
4900.000000;2.421512
4899.000000;2.417566
4898.000000;2.412755
4897.000000;2.407692
4896.000000;2.403404
4895.000000;2.400316
4894.000000;2.397654
4893.000000;2.394230
4892.000000;2.389669
4891.000000;2.384465
4890.000000;2.379156
4889.000000;2.374077
4888.000000;2.369752
4887.000000;2.366762
4886.000000;2.364929
4885.000000;2.363061
4884.000000;2.359935
4883.000000;2.355492
4882.000000;2.350848
4881.000000;2.347180
4880.000000;2.344736
4879.000000;2.342848
4878.000000;2.340702
4877.000000;2.337940
4876.000000;2.334570
4875.000000;2.330584
4874.000000;2.326043
4873.000000;2.321423
4872.000000;2.317476
4871.000000;2.314530
4870.000000;2.312143
4869.000000;2.309573
4868.000000;2.306371
4867.000000;2.302345
4866.000000;2.297344
4865.000000;2.291534
4864.000000;2.285770
4863.000000;2.281166
4862.000000;2.278152
4861.000000;2.276207
4860.000000;2.274552
4859.000000;2.272850
4858.000000;2.271224
4857.000000;2.269844
4856.000000;2.268630
4855.000000;2.267227
4854.000000;2.265174
4853.000000;2.262161
4852.000000;2.258154
4851.000000;2.253288
4850.000000;2.247831
4849.000000;2.242295
4848.000000;2.237350
4847.000000;2.233315
4846.000000;2.229857
4845.000000;2.226525
4844.000000;2.223490
4843.000000;2.221306
4842.000000;2.219877
4841.000000;2.218128
4840.000000;2.215036
4839.000000;2.210738
4838.000000;2.206275
4837.000000;2.202393
4836.000000;2.198985
4835.000000;2.195646
4834.000000;2.192381
4833.000000;2.189553
4832.000000;2.187275
4831.000000;2.185149
4830.000000;2.182696
4829.000000;2.179915
4828.000000;2.177173
4827.000000;2.174543
4826.000000;2.171486
4825.000000;2.167439
4824.000000;2.162642
4823.000000;2.158121
4822.000000;2.154805
4821.000000;2.152750
4820.000000;2.151176
4819.000000;2.149138
4818.000000;2.146190
4817.000000;2.142600
4816.000000;2.139058
4815.000000;2.136152
4814.000000;2.133996
4813.000000;2.132263
4812.000000;2.130457
4811.000000;2.128152
4810.000000;2.125125
4809.000000;2.121496
4808.000000;2.117724
4807.000000;2.114307
4806.000000;2.111370
4805.000000;2.108596
4804.000000;2.105572
4803.000000;2.102129
4802.000000;2.098348
4801.000000;2.094398
4800.000000;2.090505
4799.000000;2.086954
4798.000000;2.083931
4797.000000;2.081315
4796.000000;2.078759
4795.000000;2.076079
4794.000000;2.073467
4793.000000;2.071157
4792.000000;2.068914
4791.000000;2.066143
4790.000000;2.062639
4789.000000;2.059016
4788.000000;2.056121
4787.000000;2.054107
4786.000000;2.052334
4785.000000;2.050121
4784.000000;2.047332
4783.000000;2.044217
4782.000000;2.041033
4781.000000;2.037990
4780.000000;2.035268
4779.000000;2.032793
4778.000000;2.030138
4777.000000;2.026916
4776.000000;2.023225
4775.000000;2.019570
4774.000000;2.016379
4773.000000;2.013690
4772.000000;2.011165
4771.000000;2.008344
4770.000000;2.005035
4769.000000;2.001572
4768.000000;1.998505
4767.000000;1.995936
4766.000000;1.993368
4765.000000;1.990376
4764.000000;1.987187
4763.000000;1.984372
4762.000000;1.982163
4761.000000;1.980321
4760.000000;1.978581
4759.000000;1.976876
4758.000000;1.975126
4757.000000;1.973115
4756.000000;1.970724
4755.000000;1.968108
4754.000000;1.965519
4753.000000;1.963000
4752.000000;1.960321
4751.000000;1.957218
4750.000000;1.953746
4749.000000;1.950376
4748.000000;1.947571
4747.000000;1.945234
4746.000000;1.942782
4745.000000;1.939870
4744.000000;1.936791
4743.000000;1.933960
4742.000000;1.931317
4741.000000;1.928595
4740.000000;1.925918
4739.000000;1.923656
4738.000000;1.921712
4737.000000;1.919456
4736.000000;1.916500
4735.000000;1.913214
4734.000000;1.910265
4733.000000;1.907894
4732.000000;1.905839
4731.000000;1.903745
4730.000000;1.901486
4729.000000;1.899154
4728.000000;1.896869
4727.000000;1.894602
4726.000000;1.892211
4725.000000;1.889691
4724.000000;1.887254
4723.000000;1.884988
4722.000000;1.882578
4721.000000;1.879651
4720.000000;1.876380
4719.000000;1.873431
4718.000000;1.871233
4717.000000;1.869536
4716.000000;1.867755
4715.000000;1.865563
4714.000000;1.863089
4713.000000;1.860682
4712.000000;1.858564
4711.000000;1.856584
4710.000000;1.854314
4709.000000;1.851527
4708.000000;1.848551
4707.000000;1.845973
4706.000000;1.844006
4705.000000;1.842372
4704.000000;1.840750
4703.000000;1.839069
4702.000000;1.837295
4701.000000;1.835260
4700.000000;1.832867
4699.000000;1.830270
4698.000000;1.827692
4697.000000;1.825221
4696.000000;1.822906
4695.000000;1.820864
4694.000000;1.819156
4693.000000;1.817643
4692.000000;1.816071
4691.000000;1.814249
4690.000000;1.812119
4689.000000;1.809793
4688.000000;1.807535
4687.000000;1.805527
4686.000000;1.803646
4685.000000;1.801637
4684.000000;1.799508
4683.000000;1.797513
4682.000000;1.795706
4681.000000;1.793803
4680.000000;1.791615
4679.000000;1.789322
4678.000000;1.787170
4677.000000;1.785116
4676.000000;1.782993
4675.000000;1.780844
4674.000000;1.778885
4673.000000;1.777232
4672.000000;1.775840
4671.000000;1.774597
4670.000000;1.773344
4669.000000;1.771917
4668.000000;1.770308
4667.000000;1.768687
4666.000000;1.767155
4665.000000;1.765621
4664.000000;1.764023
4663.000000;1.762494
4662.000000;1.761140
4661.000000;1.759769
4660.000000;1.758056
4659.000000;1.755895
4658.000000;1.753427
4657.000000;1.750853
4656.000000;1.748376
4655.000000;1.746229
4654.000000;1.744530
4653.000000;1.743141
4652.000000;1.741815
4651.000000;1.740447
4650.000000;1.739078
4649.000000;1.737717
4648.000000;1.736323
4647.000000;1.734872
4646.000000;1.733344
4645.000000;1.731663
4644.000000;1.729786
4643.000000;1.727770
4642.000000;1.725638
4641.000000;1.723332
4640.000000;1.720953
4639.000000;1.718934
4638.000000;1.717719
4637.000000;1.717205
4636.000000;1.716705
4635.000000;1.715545
4634.000000;1.713645
4633.000000;1.711519
4632.000000;1.709775
4631.000000;1.708626
4630.000000;1.707775
4629.000000;1.706732
4628.000000;1.705248
4627.000000;1.703411
4626.000000;1.701395
4625.000000;1.699307
4624.000000;1.697354
4623.000000;1.695907
4622.000000;1.695156
4621.000000;1.694783
4620.000000;1.694178
4619.000000;1.692961
4618.000000;1.691164
4617.000000;1.689026
4616.000000;1.686855
4615.000000;1.685030
4614.000000;1.683817
4613.000000;1.683107
4612.000000;1.682508
4611.000000;1.681773
4610.000000;1.680966
4609.000000;1.680202
4608.000000;1.679413
4607.000000;1.678458
4606.000000;1.677312
4605.000000;1.676022
4604.000000;1.674638
4603.000000;1.673249
4602.000000;1.671998
4601.000000;1.670915
4600.000000;1.669854
4599.000000;1.668672
4598.000000;1.667422
4597.000000;1.666265
4596.000000;1.665230
4595.000000;1.664163
4594.000000;1.662896
4593.000000;1.661424
4592.000000;1.659948
4591.000000;1.658761
4590.000000;1.658034
4589.000000;1.657627
4588.000000;1.657153
4587.000000;1.656316
4586.000000;1.655177
4585.000000;1.654006
4584.000000;1.652947
4583.000000;1.651930
4582.000000;1.650928
4581.000000;1.650113
4580.000000;1.649600
4579.000000;1.649129
4578.000000;1.648207
4577.000000;1.646635
4576.000000;1.644761
4575.000000;1.643098
4574.000000;1.641803
4573.000000;1.640664
4572.000000;1.639502
4571.000000;1.638386
4570.000000;1.637434
4569.000000;1.636628
4568.000000;1.635919
4567.000000;1.635356
4566.000000;1.634973
4565.000000;1.634646
4564.000000;1.634214
4563.000000;1.633681
4562.000000;1.633148
4561.000000;1.632557
4560.000000;1.631668
4559.000000;1.630358
4558.000000;1.628853
4557.000000;1.627565
4556.000000;1.626704
4555.000000;1.626089
4554.000000;1.625368
4553.000000;1.624413
4552.000000;1.623441
4551.000000;1.622679
4550.000000;1.622016
4549.000000;1.621121
4548.000000;1.619952
4547.000000;1.618937
4546.000000;1.618514
4545.000000;1.618631
4544.000000;1.618793
4543.000000;1.618509
4542.000000;1.617577
4541.000000;1.616082
4540.000000;1.614333
4539.000000;1.612774
4538.000000;1.611755
4537.000000;1.611317
4536.000000;1.611238
4535.000000;1.611236
4534.000000;1.611051
4533.000000;1.610442
4532.000000;1.609344
4531.000000;1.608062
4530.000000;1.607094
4529.000000;1.606651
4528.000000;1.606445
4527.000000;1.606020
4526.000000;1.605209
4525.000000;1.604242
4524.000000;1.603511
4523.000000;1.603292
4522.000000;1.603550
4521.000000;1.603902
4520.000000;1.603841
4519.000000;1.603132
4518.000000;1.601996
4517.000000;1.600897
4516.000000;1.600172
4515.000000;1.599902
4514.000000;1.599978
4513.000000;1.600213
4512.000000;1.600401
4511.000000;1.600395
4510.000000;1.600160
4509.000000;1.599739
4508.000000;1.599173
4507.000000;1.598486
4506.000000;1.597762
4505.000000;1.597180
4504.000000;1.596920
4503.000000;1.597005
4502.000000;1.597212
4501.000000;1.597217
4500.000000;1.596890
4499.000000;1.596418
4498.000000;1.596073
4497.000000;1.595898
4496.000000;1.595730
4495.000000;1.595492
4494.000000;1.595307
4493.000000;1.595244
4492.000000;1.595119
4491.000000;1.594676
4490.000000;1.593922
4489.000000;1.593155
4488.000000;1.592672
4487.000000;1.592542
4486.000000;1.592627
4485.000000;1.592729
4484.000000;1.592698
4483.000000;1.592524
4482.000000;1.592374
4481.000000;1.592446
4480.000000;1.592742
4479.000000;1.593030
4478.000000;1.593095
4477.000000;1.593002
4476.000000;1.593020
4475.000000;1.593294
4474.000000;1.593702
4473.000000;1.594104
4472.000000;1.594615
4471.000000;1.595441
4470.000000;1.596467
4469.000000;1.597221
4468.000000;1.597380
4467.000000;1.597201
4466.000000;1.597258
4465.000000;1.597803
4464.000000;1.598565
4463.000000;1.599175
4462.000000;1.599605
4461.000000;1.600110
4460.000000;1.600847
4459.000000;1.601715
4458.000000;1.602501
4457.000000;1.603122
4456.000000;1.603711
4455.000000;1.604517
4454.000000;1.605695
4453.000000;1.607172
4452.000000;1.608738
4451.000000;1.610266
4450.000000;1.611752
4449.000000;1.613163
4448.000000;1.614374
4447.000000;1.615317
4446.000000;1.616076
4445.000000;1.616760
4444.000000;1.617424
4443.000000;1.618229
4442.000000;1.619515
4441.000000;1.621496
4440.000000;1.623929
4439.000000;1.626275
4438.000000;1.628163
4437.000000;1.629610
4436.000000;1.630839
4435.000000;1.632103
4434.000000;1.633640
4433.000000;1.635573
4432.000000;1.637781
4431.000000;1.640027
4430.000000;1.642257
4429.000000;1.644551
4428.000000;1.646785
4427.000000;1.648644
4426.000000;1.650116
4425.000000;1.651668
4424.000000;1.653697
4423.000000;1.656003
4422.000000;1.658103
4421.000000;1.659966
4420.000000;1.662113
4419.000000;1.664986
4418.000000;1.668499
4417.000000;1.672199
4416.000000;1.675628
4415.000000;1.678471
4414.000000;1.680636
4413.000000;1.682341
4412.000000;1.684039
4411.000000;1.686120
4410.000000;1.688714
4409.000000;1.691721
4408.000000;1.694891
4407.000000;1.697899
4406.000000;1.700558
4405.000000;1.703038
4404.000000;1.705743
4403.000000;1.708874
4402.000000;1.712198
4401.000000;1.715281
4400.000000;1.717846
4399.000000;1.719953
4398.000000;1.722012
4397.000000;1.724599
4396.000000;1.728010
4395.000000;1.731878
4394.000000;1.735407
4393.000000;1.738104
4392.000000;1.740145
4391.000000;1.742023
4390.000000;1.744117
4389.000000;1.746700
4388.000000;1.749994
4387.000000;1.753904
4386.000000;1.757879
4385.000000;1.761329
4384.000000;1.764139
4383.000000;1.766600
4382.000000;1.768990
4381.000000;1.771452
4380.000000;1.774072
4379.000000;1.776765
4378.000000;1.779191
4377.000000;1.781131
4376.000000;1.782910
4375.000000;1.785104
4374.000000;1.787774
4373.000000;1.790285
4372.000000;1.792002
4371.000000;1.792959
4370.000000;1.793806
4369.000000;1.795239
4368.000000;1.797504
4367.000000;1.800322
4366.000000;1.803201
4365.000000;1.805868
4364.000000;1.808387
4363.000000;1.810896
4362.000000;1.813377
4361.000000;1.815788
4360.000000;1.818212
4359.000000;1.820667
4358.000000;1.823055
4357.000000;1.825535
4356.000000;1.828618
4355.000000;1.832362
4354.000000;1.835698
4353.000000;1.837274
4352.000000;1.837124
4351.000000;1.836857
4350.000000;1.838001
4349.000000;1.840580
4348.000000;1.843467
4347.000000;1.845668
4346.000000;1.846940
4345.000000;1.847531
4344.000000;1.847869
4343.000000;1.848472
4342.000000;1.849822
4341.000000;1.852224
4340.000000;1.855729
4339.000000;1.859956
4338.000000;1.863975
4337.000000;1.866826
4336.000000;1.868375
4335.000000;1.869293
4334.000000;1.870035
4333.000000;1.870398
4332.000000;1.870374
4331.000000;1.870681
4330.000000;1.871808
4329.000000;1.873076
4328.000000;1.873490
4327.000000;1.873359
4326.000000;1.874106
4325.000000;1.876303
4324.000000;1.878793
4323.000000;1.880210
4322.000000;1.880756
4321.000000;1.881820
4320.000000;1.884166
4319.000000;1.887178
4318.000000;1.889868
4317.000000;1.892088
4316.000000;1.894419
4315.000000;1.897171
4314.000000;1.899916
4313.000000;1.902066
4312.000000;1.903689
4311.000000;1.905502
4310.000000;1.907957
4309.000000;1.910522
4308.000000;1.912055
4307.000000;1.911903
4306.000000;1.910657
4305.000000;1.909832
4304.000000;1.910737
4303.000000;1.913475
4302.000000;1.916929
4301.000000;1.919787
4300.000000;1.921708
4299.000000;1.923418
4298.000000;1.925729
4297.000000;1.928645
4296.000000;1.931552
4295.000000;1.934064
4294.000000;1.936337
4293.000000;1.938700
4292.000000;1.941424
4291.000000;1.944832
4290.000000;1.949158
4289.000000;1.954111
4288.000000;1.958895
4287.000000;1.962884
4286.000000;1.965987
4285.000000;1.968061
4284.000000;1.968539
4283.000000;1.967427
4282.000000;1.966346
4281.000000;1.967497
4280.000000;1.971477
4279.000000;1.976857
4278.000000;1.982039
4277.000000;1.986903
4276.000000;1.992086
4275.000000;1.997332
4274.000000;2.001881
4273.000000;2.006125
4272.000000;2.011190
4271.000000;2.017038
4270.000000;2.022430
4269.000000;2.026889
4268.000000;2.031237
4267.000000;2.035648
4266.000000;2.038753
4265.000000;2.039851
4264.000000;2.040675
4263.000000;2.043361
4262.000000;2.047599
4261.000000;2.051515
4260.000000;2.054881
4259.000000;2.059388
4258.000000;2.065747
4257.000000;2.072389
4256.000000;2.077560
4255.000000;2.081442
4254.000000;2.085166
4253.000000;2.088921
4252.000000;2.092364
4251.000000;2.095791
4250.000000;2.099262
4249.000000;2.101398
4248.000000;2.101065
4247.000000;2.100165
4246.000000;2.102549
4245.000000;2.110428
4244.000000;2.122082
4243.000000;2.133205
4242.000000;2.140480
4241.000000;2.143862
4240.000000;2.145603
4239.000000;2.147619
4238.000000;2.150054
4237.000000;2.152212
4236.000000;2.154329
4235.000000;2.157801
4234.000000;2.163627
4233.000000;2.170905
4232.000000;2.176899
4231.000000;2.178934
4230.000000;2.176933
4229.000000;2.173987
4228.000000;2.174023
4227.000000;2.178617
4226.000000;2.185874
4225.000000;2.192529
4224.000000;2.197146
4223.000000;2.200658
4222.000000;2.204021
4221.000000;2.207034
4220.000000;2.209688
4219.000000;2.213001
4218.000000;2.217874
4217.000000;2.224271
4216.000000;2.231870
4215.000000;2.240308
4214.000000;2.248189
4213.000000;2.253476
4212.000000;2.256460
4211.000000;2.260922
4210.000000;2.269921
4209.000000;2.280875
4208.000000;2.287635
4207.000000;2.289360
4206.000000;2.294282
4205.000000;2.311074
4204.000000;2.337688
4203.000000;2.359649
4202.000000;2.363033
4201.000000;2.349907
4200.000000;2.334401
4199.000000;2.327616
4198.000000;2.330782
4197.000000;2.338712
4196.000000;2.346186
4195.000000;2.350988
4194.000000;2.353698
4193.000000;2.356567
4192.000000;2.362182
4191.000000;2.370818
4190.000000;2.377611
4189.000000;2.375002
4188.000000;2.361388
4187.000000;2.345378
4186.000000;2.338338
4185.000000;2.345015
4184.000000;2.361924
4183.000000;2.382231
4182.000000;2.401500
4181.000000;2.418874
4180.000000;2.433043
4179.000000;2.438685
4178.000000;2.429530
4177.000000;2.408352
4176.000000;2.389628
4175.000000;2.387932
4174.000000;2.408337
4173.000000;2.444705
4172.000000;2.483167
4171.000000;2.509919
4170.000000;2.515339
4169.000000;2.493673
4168.000000;2.450793
4167.000000;2.407850
4166.000000;2.386942
4165.000000;2.397989
4164.000000;2.436401
4163.000000;2.485512
4162.000000;2.524047
4161.000000;2.538012
4160.000000;2.529468
4159.000000;2.512514
4158.000000;2.499047
4157.000000;2.490648
4156.000000;2.479265
4155.000000;2.457731
4154.000000;2.430887
4153.000000;2.411002
4152.000000;2.405710
4151.000000;2.415378
4150.000000;2.436301
4149.000000;2.461225
4148.000000;2.480831
4147.000000;2.490311
4146.000000;2.495380
4145.000000;2.508176
4144.000000;2.535307
4143.000000;2.572168
4142.000000;2.608186
4141.000000;2.631671
4140.000000;2.626785
4139.000000;2.580165
4138.000000;2.504778
4137.000000;2.437451
4136.000000;2.407092
4135.000000;2.418506
4134.000000;2.452626
4133.000000;2.477812
4132.000000;2.478972
4131.000000;2.469957
4130.000000;2.467288
4129.000000;2.473475
4128.000000;2.485312
4127.000000;2.501030
4126.000000;2.513664
4125.000000;2.512019
4124.000000;2.507346
4123.000000;2.529162
4122.000000;2.585227
4121.000000;2.635160
4120.000000;2.623150
4119.000000;2.559057
4118.000000;2.496654
4117.000000;2.473199
4116.000000;2.490185
4115.000000;2.518224
4114.000000;2.523543
4113.000000;2.506019
4112.000000;2.489504
4111.000000;2.486934
4110.000000;2.497187
4109.000000;2.518240
4108.000000;2.545431
4107.000000;2.560739
4106.000000;2.534602
4105.000000;2.462944
4104.000000;2.387514
4103.000000;2.352639
4102.000000;2.377827
4101.000000;2.461110
4100.000000;2.580504
4099.000000;2.688186
4098.000000;2.727686
4097.000000;2.706774
4096.000000;2.672633
4095.000000;2.641471
4094.000000;2.619102
4093.000000;2.610185
4092.000000;2.607466
4091.000000;2.608030
4090.000000;2.619490
4089.000000;2.636528
4088.000000;2.627362
4087.000000;2.569723
4086.000000;2.498971
4085.000000;2.465644
4084.000000;2.483630
4083.000000;2.523970
4082.000000;2.540567
4081.000000;2.532461
4080.000000;2.546419
4079.000000;2.609047
4078.000000;2.687014
4077.000000;2.695028
4076.000000;2.615267
4075.000000;2.533434
4074.000000;2.512922
4073.000000;2.578344
4072.000000;2.730519
4071.000000;2.842563
4070.000000;2.750656
4069.000000;2.561978
4068.000000;2.419517
4067.000000;2.360961
4066.000000;2.369776
4065.000000;2.434282
4064.000000;2.566786
4063.000000;2.767765
4062.000000;2.939041
4061.000000;2.903528
4060.000000;2.773722
4059.000000;2.690806
4058.000000;2.654882
4057.000000;2.631740
4056.000000;2.603155
4055.000000;2.574307
4054.000000;2.557190
4053.000000;2.527332
4052.000000;2.458431
4051.000000;2.412151
4050.000000;2.417323
4049.000000;2.438407
4048.000000;2.449891
4047.000000;2.427714
4046.000000;2.391139
4045.000000;2.400944
4044.000000;2.462139
4043.000000;2.512590
4042.000000;2.526365
4041.000000;2.515325
4040.000000;2.467193
4039.000000;2.411009
4038.000000;2.389733
4037.000000;2.407133
4036.000000;2.430206
4035.000000;2.424605
4034.000000;2.406470
4033.000000;2.426514
4032.000000;2.512442
4031.000000;2.670489
4030.000000;2.863393
4029.000000;2.851071
4028.000000;2.678964
4027.000000;2.522905
4026.000000;2.380925
4025.000000;2.288031
4024.000000;2.264592
4023.000000;2.298701
4022.000000;2.366862
4021.000000;2.471720
4020.000000;2.631704
4019.000000;2.778891
4018.000000;2.774481
4017.000000;2.697684
4016.000000;2.646559
4015.000000;2.599841
4014.000000;2.514640
4013.000000;2.425745
4012.000000;2.394027
4011.000000;2.444812
4010.000000;2.566476
4009.000000;2.713808
4008.000000;2.826660
4007.000000;2.839183
4006.000000;2.759037
4005.000000;2.665944
4004.000000;2.586067
4003.000000;2.515344
4002.000000;2.425468
4001.000000;2.327096
4000.000000;2.282868
3999.000000;2.327645
3998.000000;2.435225
3997.000000;2.491367
3996.000000;2.424348
3995.000000;2.350650
3994.000000;2.366030
3993.000000;2.467387
3992.000000;2.580420
3991.000000;2.696731
3990.000000;2.943124
3989.000000;2.962353
3988.000000;2.831178
3987.000000;2.835188
3986.000000;2.923746
3985.000000;2.991351
3984.000000;2.893394
3983.000000;2.699281
3982.000000;2.537047
3981.000000;2.441903
3980.000000;2.413460
3979.000000;2.442659
3978.000000;2.469138
3977.000000;2.426433
3976.000000;2.397621
3975.000000;2.439063
3974.000000;2.517696
3973.000000;2.591617
3972.000000;2.679054
3971.000000;2.829320
3970.000000;2.782551
3969.000000;2.650058
3968.000000;2.709827
3967.000000;3.022156
3966.000000;3.254637
3965.000000;3.565126
3964.000000;3.302305
3963.000000;2.722336
3962.000000;2.474594
3961.000000;2.403515
3960.000000;2.488134
3959.000000;2.721062
3958.000000;2.883529
3957.000000;2.812370
3956.000000;2.834313
3955.000000;2.909924
3954.000000;2.887007
3953.000000;2.703397
3952.000000;2.505151
3951.000000;2.415442
3950.000000;2.474526
3949.000000;2.778827
3948.000000;3.138443
3947.000000;2.907610
3946.000000;2.944515
3945.000000;3.000797
3944.000000;3.041870
3943.000000;2.999591
3942.000000;2.960456
3941.000000;3.062627
3940.000000;3.127497
3939.000000;2.952860
3938.000000;2.868382
3937.000000;2.775558
3936.000000;2.613160
3935.000000;2.529165
3934.000000;2.563362
3933.000000;2.734050
3932.000000;3.254119
3931.000000;3.236263
3930.000000;3.299028
3929.000000;3.611731
3928.000000;3.096758
3927.000000;3.076729
3926.000000;3.184055
3925.000000;2.945370
3924.000000;2.921364
3923.000000;3.333234
3922.000000;3.337235
3921.000000;3.027618
3920.000000;3.036356
3919.000000;3.148885
3918.000000;3.315619
3917.000000;3.195663
3916.000000;2.963618
3915.000000;2.857072
3914.000000;2.869981
3913.000000;2.942132
3912.000000;2.845530
3911.000000;2.713639
3910.000000;2.714490
3909.000000;2.803819
3908.000000;2.876918
3907.000000;2.952417
3906.000000;3.109263
3905.000000;3.427857
3904.000000;3.469433
3903.000000;3.251102
3902.000000;3.156790
3901.000000;3.097241
3900.000000;3.091509
3899.000000;3.368377
3898.000000;3.353399
3897.000000;2.896040
3896.000000;2.843795
3895.000000;3.151751
3894.000000;3.713802
3893.000000;2.846073
3892.000000;2.691740
3891.000000;2.759779
3890.000000;3.226236
3889.000000;3.258491
3888.000000;3.078141
3887.000000;3.106718
3886.000000;3.238054
3885.000000;3.881678
3884.000000;3.849043
3883.000000;3.865518
3882.000000;3.886286
3881.000000;3.307634
3880.000000;3.058673
3879.000000;3.013361
3878.000000;3.080400
3877.000000;3.148679
3876.000000;3.178889
3875.000000;3.229634
3874.000000;3.659256
3873.000000;3.473017
3872.000000;3.217197
3871.000000;3.126038
3870.000000;3.091401
3869.000000;3.173295
3868.000000;3.295939
3867.000000;3.285616
3866.000000;3.120202
3865.000000;2.933202
3864.000000;2.860808
3863.000000;2.924779
3862.000000;3.046916
3861.000000;3.123577
3860.000000;3.098322
3859.000000;3.087994
3858.000000;3.242282
3857.000000;3.680622
3856.000000;3.960990
3855.000000;3.880875
3854.000000;3.724738
3853.000000;3.572486
3852.000000;3.528605
3851.000000;3.439189
3850.000000;3.263741
3849.000000;3.130360
3848.000000;3.058102
3847.000000;2.987204
3846.000000;2.941642
3845.000000;2.974911
3844.000000;3.080088
3843.000000;3.238757
3842.000000;3.419708
3841.000000;3.358796
3840.000000;3.350206
3839.000000;3.666310
3838.000000;3.428553
3837.000000;3.203723
3836.000000;3.297130
3835.000000;3.450437
3834.000000;3.543221
3833.000000;3.360327
3832.000000;3.033208
3831.000000;2.800143
3830.000000;2.709369
3829.000000;2.736946
3828.000000;2.916191
3827.000000;3.179903
3826.000000;2.907491
3825.000000;2.950155
3824.000000;3.268778
3823.000000;4.168127
3822.000000;3.528157
3821.000000;3.184547
3820.000000;3.216826
3819.000000;3.469075
3818.000000;3.700877
3817.000000;3.754586
3816.000000;3.572827
3815.000000;3.303527
3814.000000;3.086267
3813.000000;2.937339
3812.000000;2.878618
3811.000000;2.998500
3810.000000;3.347890
3809.000000;3.774652
3808.000000;3.699837
3807.000000;3.437406
3806.000000;3.329008
3805.000000;3.390601
3804.000000;3.489905
3803.000000;3.495479
3802.000000;3.374404
3801.000000;3.920526
3800.000000;3.444927
3799.000000;3.137238
3798.000000;3.024321
3797.000000;2.947678
3796.000000;2.930073
3795.000000;2.975872
3794.000000;3.085371
3793.000000;3.205226
3792.000000;3.141357
3791.000000;2.987126
3790.000000;3.030159
3789.000000;3.339246
3788.000000;2.995790
3787.000000;2.708913
3786.000000;2.596519
3785.000000;2.595301
3784.000000;2.751242
3783.000000;3.026558
3782.000000;3.221829
3781.000000;3.263881
3780.000000;3.632623
3779.000000;3.675563
3778.000000;3.061448
3777.000000;2.878447
3776.000000;2.842644
3775.000000;2.942003
3774.000000;3.174451
3773.000000;3.591449
3772.000000;3.863767
3771.000000;3.618360
3770.000000;3.609522
3769.000000;3.742879
3768.000000;4.048564
3767.000000;3.628864
3766.000000;3.286038
3765.000000;3.288260
3764.000000;4.100740
3763.000000;3.198956
3762.000000;2.977575
3761.000000;2.905104
3760.000000;2.940165
3759.000000;2.896077
3758.000000;2.785905
3757.000000;2.809232
3756.000000;2.925547
3755.000000;3.069588
3754.000000;3.233326
3753.000000;3.437989
3752.000000;3.665880
3751.000000;3.885004
3750.000000;4.126734
3749.000000;4.046368
3748.000000;4.079098
3747.000000;4.268085
3746.000000;4.166487
3745.000000;4.023700
3744.000000;3.896982
3743.000000;3.766447
3742.000000;3.633038
3741.000000;3.409669
3740.000000;3.180605
3739.000000;3.054207
3738.000000;3.039012
3737.000000;3.062276
3736.000000;3.065711
3735.000000;3.174104
3734.000000;3.360277
3733.000000;3.259391
3732.000000;3.183902
3731.000000;3.142011
3730.000000;3.125208
3729.000000;3.124462
3728.000000;3.095538
3727.000000;3.043756
3726.000000;3.107697
3725.000000;3.054177
3724.000000;2.891357
3723.000000;2.863010
3722.000000;2.903836
3721.000000;2.986503
3720.000000;3.119923
3719.000000;3.210461
3718.000000;3.022575
3717.000000;2.859475
3716.000000;2.865763
3715.000000;2.996976
3714.000000;3.162304
3713.000000;3.274545
3712.000000;3.349380
3711.000000;3.155071
3710.000000;3.075329
3709.000000;3.246724
3708.000000;3.473542
3707.000000;3.270882
3706.000000;3.211565
3705.000000;3.222286
3704.000000;3.210249
3703.000000;3.178916
3702.000000;3.143774
3701.000000;3.100216
3700.000000;3.042068
3699.000000;3.044062
3698.000000;3.158333
3697.000000;3.413786
3696.000000;3.967096
3695.000000;4.070991
3694.000000;4.249361
3693.000000;3.769235
3692.000000;3.525474
3691.000000;3.487335
3690.000000;3.831362
3689.000000;3.619045
3688.000000;3.132172
3687.000000;2.975112
3686.000000;2.966055
3685.000000;3.103426
3684.000000;3.121528
3683.000000;2.909055
3682.000000;2.880561
3681.000000;2.896544
3680.000000;2.916163
3679.000000;3.044095
3678.000000;3.296678
3677.000000;3.598598
3676.000000;3.829111
3675.000000;3.648599
3674.000000;3.547740
3673.000000;3.493734
3672.000000;3.319181
3671.000000;3.065930
3670.000000;2.848602
3669.000000;2.810423
3668.000000;2.939714
3667.000000;3.264167
3666.000000;3.527943
3665.000000;3.339360
3664.000000;3.243145
3663.000000;2.925924
3662.000000;2.760115
3661.000000;2.746504
3660.000000;2.835999
3659.000000;2.986702
3658.000000;3.140415
3657.000000;3.264954
3656.000000;3.337371
3655.000000;3.342287
3654.000000;3.386719
3653.000000;3.476226
3652.000000;3.545910
3651.000000;3.533706
3650.000000;3.415735
3649.000000;3.259533
3648.000000;3.176309
3647.000000;3.168570
3646.000000;3.141367
3645.000000;3.035252
3644.000000;2.904400
3643.000000;2.821708
3642.000000;2.819130
3641.000000;2.848184
3640.000000;2.848600
3639.000000;2.878745
3638.000000;3.032736
3637.000000;3.124572
3636.000000;3.007555
3635.000000;2.994398
3634.000000;3.340408
3633.000000;3.439384
3632.000000;3.209227
3631.000000;3.248213
3630.000000;3.277663
3629.000000;3.275116
3628.000000;3.487255
3627.000000;3.831778
3626.000000;3.300975
3625.000000;3.164479
3624.000000;3.471936
3623.000000;3.542831
3622.000000;3.059988
3621.000000;2.983041
3620.000000;2.917323
3619.000000;2.949854
3618.000000;2.941436
3617.000000;2.889981
3616.000000;2.917831
3615.000000;3.006528
3614.000000;3.066578
3613.000000;3.050262
3612.000000;3.213843
3611.000000;3.686158
3610.000000;3.563610
3609.000000;3.288218
3608.000000;3.135084
3607.000000;3.222872
3606.000000;3.674332
3605.000000;3.317757
3604.000000;3.210736
3603.000000;2.924559
3602.000000;2.782168
3601.000000;2.835343
3600.000000;2.959133
3599.000000;2.905441
3598.000000;2.885788
3597.000000;2.934146
3596.000000;2.937504
3595.000000;2.835139
3594.000000;2.739322
3593.000000;2.759437
3592.000000;2.841980
3591.000000;2.892033
3590.000000;2.924351
3589.000000;2.928823
3588.000000;2.768504
3587.000000;2.624357
3586.000000;2.720227
3585.000000;3.027861
3584.000000;3.253169
3583.000000;3.631593
3582.000000;3.341199
3581.000000;2.894335
3580.000000;2.707933
3579.000000;2.651867
3578.000000;2.693632
3577.000000;2.840616
3576.000000;3.018453
3575.000000;2.951692
3574.000000;2.908977
3573.000000;2.972822
3572.000000;3.059019
3571.000000;3.115025
3570.000000;3.297021
3569.000000;3.376523
3568.000000;2.817546
3567.000000;2.527262
3566.000000;2.510918
3565.000000;2.639359
3564.000000;2.752484
3563.000000;2.855547
3562.000000;3.194724
3561.000000;3.374175
3560.000000;3.148589
3559.000000;3.175200
3558.000000;3.154036
3557.000000;2.979662
3556.000000;2.864087
3555.000000;2.897820
3554.000000;3.173817
3553.000000;3.627410
3552.000000;3.061141
3551.000000;2.997258
3550.000000;3.139732
3549.000000;3.668495
3548.000000;2.936670
3547.000000;2.541401
3546.000000;2.379188
3545.000000;2.402280
3544.000000;2.549937
3543.000000;2.678328
3542.000000;2.715720
3541.000000;2.777354
3540.000000;2.918272
3539.000000;2.897770
3538.000000;2.732344
3537.000000;2.716443
3536.000000;2.811511
3535.000000;2.842460
3534.000000;2.878158
3533.000000;3.047915
3532.000000;3.427656
3531.000000;3.949565
3530.000000;3.510751
3529.000000;3.461077
3528.000000;3.305441
3527.000000;2.879722
3526.000000;2.757804
3525.000000;2.901649
3524.000000;3.554044
3523.000000;3.339894
3522.000000;3.222545
3521.000000;3.094682
3520.000000;3.069835
3519.000000;2.945696
3518.000000;2.852502
3517.000000;2.900442
3516.000000;3.027301
3515.000000;3.068019
3514.000000;3.039091
3513.000000;3.033108
3512.000000;3.045592
3511.000000;3.055396
3510.000000;3.340466
3509.000000;3.077313
3508.000000;2.729287
3507.000000;2.617024
3506.000000;2.561908
3505.000000;2.572906
3504.000000;2.697498
3503.000000;2.865996
3502.000000;2.738090
3501.000000;2.635701
3500.000000;2.610834
3499.000000;2.631061
3498.000000;2.719204
3497.000000;2.920680
3496.000000;3.140137
3495.000000;3.056234
3494.000000;3.052201
3493.000000;3.185440
3492.000000;3.343117
3491.000000;3.108262
3490.000000;2.884348
3489.000000;2.795497
3488.000000;2.796254
3487.000000;2.843142
3486.000000;2.875908
3485.000000;2.821872
3484.000000;2.702883
3483.000000;2.613263
3482.000000;2.605184
3481.000000;2.663736
3480.000000;2.705069
3479.000000;2.749059
3478.000000;2.863758
3477.000000;3.005498
3476.000000;3.012454
3475.000000;2.992918
3474.000000;3.137802
3473.000000;3.015111
3472.000000;2.845739
3471.000000;2.884265
3470.000000;3.037819
3469.000000;2.954185
3468.000000;2.894463
3467.000000;2.963754
3466.000000;3.062790
3465.000000;3.051002
3464.000000;2.991527
3463.000000;2.979309
3462.000000;2.992870
3461.000000;2.936260
3460.000000;2.779045
3459.000000;2.637348
3458.000000;2.584192
3457.000000;2.642149
3456.000000;2.809182
3455.000000;3.130414
3454.000000;3.279894
3453.000000;3.044947
3452.000000;2.957622
3451.000000;3.021322
3450.000000;3.146543
3449.000000;3.248851
3448.000000;3.379312
3447.000000;3.809329
3446.000000;3.670013
3445.000000;3.227094
3444.000000;2.992878
3443.000000;2.852435
3442.000000;2.834620
3441.000000;3.045367
3440.000000;3.388329
3439.000000;2.946049
3438.000000;2.839500
3437.000000;2.868474
3436.000000;3.008735
3435.000000;3.154355
3434.000000;3.252644
3433.000000;3.156197
3432.000000;2.869417
3431.000000;2.678196
3430.000000;2.634482
3429.000000;2.741823
3428.000000;3.131982
3427.000000;3.157054
3426.000000;2.948357
3425.000000;2.998313
3424.000000;3.150789
3423.000000;3.697526
3422.000000;3.289216
3421.000000;3.333484
3420.000000;3.071712
3419.000000;2.802671
3418.000000;2.756699
3417.000000;2.832902
3416.000000;3.014004
3415.000000;3.420657
3414.000000;3.475646
3413.000000;3.167314
3412.000000;3.200942
3411.000000;3.257577
3410.000000;3.129387
3409.000000;3.295468
3408.000000;3.511346
3407.000000;2.995392
3406.000000;2.862229
3405.000000;2.880305
3404.000000;2.898451
3403.000000;2.765811
3402.000000;2.631682
3401.000000;2.607586
3400.000000;2.697267
3399.000000;3.094570
3398.000000;3.224028
3397.000000;2.887612
3396.000000;2.844987
3395.000000;2.946546
3394.000000;3.112825
3393.000000;3.101680
3392.000000;3.010811
3391.000000;3.054839
3390.000000;3.328800
3389.000000;3.646687
3388.000000;3.572756
3387.000000;3.549621
3386.000000;2.935402
3385.000000;2.711361
3384.000000;2.637367
3383.000000;2.669549
3382.000000;2.757540
3381.000000;2.872120
3380.000000;2.930768
3379.000000;2.893701
3378.000000;2.922626
3377.000000;3.150406
3376.000000;3.022184
3375.000000;2.810361
3374.000000;2.854548
3373.000000;3.184931
3372.000000;3.697085
3371.000000;3.490437
3370.000000;3.230968
3369.000000;2.915567
3368.000000;2.743041
3367.000000;2.693242
3366.000000;2.708648
3365.000000;2.733922
3364.000000;2.747532
3363.000000;2.778693
3362.000000;2.858273
3361.000000;3.024914
3360.000000;3.325764
3359.000000;3.396580
3358.000000;3.193774
3357.000000;3.050900
3356.000000;2.946932
3355.000000;3.010987
3354.000000;3.433647
3353.000000;3.164880
3352.000000;2.826002
3351.000000;2.830629
3350.000000;3.101631
3349.000000;3.339738
3348.000000;2.967878
3347.000000;2.819283
3346.000000;2.782066
3345.000000;2.831921
3344.000000;2.965558
3343.000000;3.265566
3342.000000;3.155801
3341.000000;2.961051
3340.000000;2.987447
3339.000000;3.169707
3338.000000;3.277125
3337.000000;3.602636
3336.000000;3.342570
3335.000000;3.035044
3334.000000;2.979972
3333.000000;3.022949
3332.000000;3.068844
3331.000000;3.081316
3330.000000;3.125948
3329.000000;3.287841
3328.000000;3.572372
3327.000000;3.371206
3326.000000;3.056663
3325.000000;2.963293
3324.000000;2.961029
3323.000000;3.410474
3322.000000;3.548620
3321.000000;2.990899
3320.000000;2.954885
3319.000000;2.990041
3318.000000;2.858519
3317.000000;2.756359
3316.000000;2.835541
3315.000000;3.161411
3314.000000;3.557399
3313.000000;3.224671
3312.000000;3.013089
3311.000000;2.853853
3310.000000;2.803561
3309.000000;2.902759
3308.000000;2.993553
3307.000000;2.864577
3306.000000;2.834922
3305.000000;2.973138
3304.000000;3.296410
3303.000000;3.359460
3302.000000;3.161521
3301.000000;3.083541
3300.000000;2.989773
3299.000000;2.898883
3298.000000;2.848819
3297.000000;2.846976
3296.000000;2.887131
3295.000000;3.154915
3294.000000;3.317418
3293.000000;3.037755
3292.000000;2.986758
3291.000000;3.011925
3290.000000;2.983672
3289.000000;2.930046
3288.000000;2.952777
3287.000000;3.058885
3286.000000;3.186290
3285.000000;3.276056
3284.000000;3.918247
3283.000000;3.254793
3282.000000;2.955715
3281.000000;2.907132
3280.000000;2.943361
3279.000000;2.944696
3278.000000;2.937037
3277.000000;2.884880
3276.000000;2.770153
3275.000000;2.698407
3274.000000;2.752032
3273.000000;2.996015
3272.000000;3.202386
3271.000000;3.400354
3270.000000;3.783610
3269.000000;3.319291
3268.000000;3.257688
3267.000000;3.502557
3266.000000;3.667596
3265.000000;3.396874
3264.000000;3.326717
3263.000000;3.104022
3262.000000;2.877950
3261.000000;2.855732
3260.000000;3.058941
3259.000000;3.643950
3258.000000;3.291727
3257.000000;3.161529
3256.000000;3.138071
3255.000000;3.079958
3254.000000;3.015876
3253.000000;2.873862
3252.000000;2.793233
3251.000000;2.995305
3250.000000;3.244805
3249.000000;2.736529
3248.000000;2.659856
3247.000000;2.718679
3246.000000;2.868000
3245.000000;3.024069
3244.000000;3.423135
3243.000000;3.298863
3242.000000;2.904946
3241.000000;2.854613
3240.000000;2.910239
3239.000000;2.916933
3238.000000;2.866104
3237.000000;2.850918
3236.000000;2.866989
3235.000000;2.926591
3234.000000;2.945938
3233.000000;2.901024
3232.000000;2.877591
3231.000000;2.891377
3230.000000;2.873656
3229.000000;2.836058
3228.000000;2.849306
3227.000000;2.898600
3226.000000;2.888290
3225.000000;2.820941
3224.000000;2.778734
3223.000000;2.798496
3222.000000;2.962114
3221.000000;3.370652
3220.000000;3.296009
3219.000000;3.094849
3218.000000;3.169842
3217.000000;3.199015
3216.000000;3.093832
3215.000000;3.029295
3214.000000;3.219230
3213.000000;3.242175
3212.000000;2.980061
3211.000000;2.915607
3210.000000;3.009963
3209.000000;3.282875
3208.000000;3.612521
3207.000000;3.461372
3206.000000;3.363841
3205.000000;3.261497
3204.000000;3.123870
3203.000000;3.107383
3202.000000;3.225032
3201.000000;3.358675
3200.000000;3.480243
3199.000000;3.648987
3198.000000;3.509301
3197.000000;3.259806
3196.000000;2.966775
3195.000000;2.841924
3194.000000;2.865763
3193.000000;2.948348
3192.000000;2.980977
3191.000000;3.020334
3190.000000;3.232303
3189.000000;3.376927
3188.000000;3.024479
3187.000000;2.821784
3186.000000;2.761902
3185.000000;2.807555
3184.000000;2.938726
3183.000000;3.215641
3182.000000;3.336245
3181.000000;3.078537
3180.000000;2.984671
3179.000000;3.034103
3178.000000;3.155702
3177.000000;3.321408
3176.000000;3.499514
3175.000000;4.177955
3174.000000;3.565356
3173.000000;3.459133
3172.000000;3.748408
3171.000000;3.283128
3170.000000;2.974383
3169.000000;2.859935
3168.000000;2.873253
3167.000000;2.991177
3166.000000;3.157969
3165.000000;3.154420
3164.000000;3.030941
3163.000000;2.881153
3162.000000;2.746022
3161.000000;2.737775
3160.000000;2.888929
3159.000000;2.999905
3158.000000;2.974125
3157.000000;3.049987
3156.000000;3.422460
3155.000000;3.406490
3154.000000;3.036187
3153.000000;2.919226
3152.000000;2.976999
3151.000000;3.417647
3150.000000;3.482714
3149.000000;3.164511
3148.000000;3.272030
3147.000000;3.282927
3146.000000;2.941685
3145.000000;2.800259
3144.000000;2.766592
3143.000000;2.792287
3142.000000;2.851338
3141.000000;2.924926
3140.000000;2.958842
3139.000000;2.919004
3138.000000;2.872362
3137.000000;2.916324
3136.000000;3.064964
3135.000000;3.093580
3134.000000;3.320951
3133.000000;3.569497
3132.000000;3.052266
3131.000000;2.891135
3130.000000;2.910852
3129.000000;3.026964
3128.000000;3.267722
3127.000000;3.264424
3126.000000;3.002986
3125.000000;2.875468
3124.000000;2.851385
3123.000000;2.870185
3122.000000;2.866831
3121.000000;2.812061
3120.000000;2.773526
3119.000000;2.809713
3118.000000;2.935610
3117.000000;3.129904
3116.000000;3.362200
3115.000000;3.616374
3114.000000;3.696734
3113.000000;3.719713
3112.000000;4.109238
3111.000000;3.735413
3110.000000;3.094488
3109.000000;2.831142
3108.000000;2.728898
3107.000000;2.776469
3106.000000;2.991172
3105.000000;3.216110
3104.000000;3.182484
3103.000000;3.218834
3102.000000;3.355949
3101.000000;3.215818
3100.000000;3.009632
3099.000000;2.911987
3098.000000;2.897301
3097.000000;2.950869
3096.000000;3.091936
3095.000000;3.396690
3094.000000;3.546156
3093.000000;3.166170
3092.000000;2.940395
3091.000000;2.841231
3090.000000;2.831515
3089.000000;2.839704
3088.000000;2.824924
3087.000000;2.833202
3086.000000;2.929413
3085.000000;3.146014
3084.000000;3.296677
3083.000000;3.251469
3082.000000;3.185765
3081.000000;3.505564
3080.000000;3.625880
3079.000000;3.050790
3078.000000;2.887316
3077.000000;2.850001
3076.000000;2.889072
3075.000000;2.952456
3074.000000;2.955313
3073.000000;2.891886
3072.000000;2.849682
3071.000000;2.858285
3070.000000;2.890792
3069.000000;2.945919
3068.000000;3.087577
3067.000000;3.396504
3066.000000;3.827509
3065.000000;3.402062
3064.000000;3.340630
3063.000000;3.476072
3062.000000;3.362016
3061.000000;3.208090
3060.000000;3.372810
3059.000000;3.765467
3058.000000;3.308982
3057.000000;3.153662
3056.000000;3.073768
3055.000000;2.941784
3054.000000;2.886367
3053.000000;2.912651
3052.000000;2.906345
3051.000000;2.880332
3050.000000;2.916028
3049.000000;3.035930
3048.000000;3.264170
3047.000000;3.584376
3046.000000;3.606147
3045.000000;3.537286
3044.000000;3.643034
3043.000000;3.529346
3042.000000;3.260948
3041.000000;3.144090
3040.000000;3.156434
3039.000000;3.199913
3038.000000;3.129132
3037.000000;3.059393
3036.000000;3.111686
3035.000000;3.232350
3034.000000;3.119306
3033.000000;3.004127
3032.000000;2.939190
3031.000000;2.834163
3030.000000;2.780553
3029.000000;2.995405
3028.000000;3.170370
3027.000000;2.808139
3026.000000;2.694632
3025.000000;2.761667
3024.000000;2.968456
3023.000000;3.143595
3022.000000;3.160099
3021.000000;3.196263
3020.000000;3.025327
3019.000000;2.792672
3018.000000;2.681218
3017.000000;2.676324
3016.000000;2.741704
3015.000000;2.860075
3014.000000;3.058984
3013.000000;3.558431
3012.000000;3.368297
3011.000000;3.107537
3010.000000;3.009010
3009.000000;2.908350
3008.000000;2.923449
3007.000000;3.050307
3006.000000;2.965649
3005.000000;2.831945
3004.000000;2.835981
3003.000000;2.910946
3002.000000;2.967361
3001.000000;2.982820
3000.000000;3.077625
2999.000000;3.267414
2998.000000;3.846200
2997.000000;3.650491
2996.000000;3.229371
2995.000000;3.083328
2994.000000;2.932498
2993.000000;2.796665
2992.000000;2.727546
2991.000000;2.779914
2990.000000;3.003221
2989.000000;3.246139
2988.000000;3.122504
2987.000000;3.190693
2986.000000;3.129304
2985.000000;2.950391
2984.000000;2.919594
2983.000000;2.890465
2982.000000;2.828876
2981.000000;2.838569
2980.000000;2.928411
2979.000000;3.064659
2978.000000;3.161938
2977.000000;3.104050
2976.000000;2.961436
2975.000000;2.825042
2974.000000;2.715054
2973.000000;2.636240
2972.000000;2.589230
2971.000000;2.567872
2970.000000;2.564079
2969.000000;2.584067
2968.000000;2.682051
2967.000000;2.913213
2966.000000;3.511738
2965.000000;3.272909
2964.000000;3.034453
2963.000000;3.017383
2962.000000;3.120526
2961.000000;3.413420
2960.000000;3.465697
2959.000000;3.378556
2958.000000;3.353190
2957.000000;3.221002
2956.000000;3.124761
2955.000000;3.083611
2954.000000;3.023500
2953.000000;2.951657
2952.000000;2.880203
2951.000000;2.818972
2950.000000;2.806199
2949.000000;2.868528
2948.000000;2.956022
2947.000000;2.921135
2946.000000;2.842358
2945.000000;2.818775
2944.000000;2.821398
2943.000000;2.823615
2942.000000;2.837353
2941.000000;2.900029
2940.000000;3.020171
2939.000000;3.171586
2938.000000;3.292729
2937.000000;3.370669
2936.000000;3.433317
2935.000000;3.376303
2934.000000;3.259975
2933.000000;3.231355
2932.000000;3.231204
2931.000000;3.115939
2930.000000;2.921870
2929.000000;2.775119
2928.000000;2.738342
2927.000000;2.836873
2926.000000;3.252050
2925.000000;3.337005
2924.000000;2.790596
2923.000000;2.709279
2922.000000;2.735266
2921.000000;3.064827
2920.000000;3.438176
2919.000000;2.946386
2918.000000;2.818695
2917.000000;2.898521
2916.000000;3.136900
2915.000000;3.214738
2914.000000;3.174168
2913.000000;3.142467
2912.000000;3.001384
2911.000000;2.906509
2910.000000;2.927778
2909.000000;3.079441
2908.000000;3.275710
2907.000000;3.112348
2906.000000;3.020816
2905.000000;3.124758
2904.000000;3.292796
2903.000000;3.031112
2902.000000;2.805657
2901.000000;2.695382
2900.000000;2.708520
2899.000000;2.843116
2898.000000;3.012911
2897.000000;3.073981
2896.000000;3.016502
2895.000000;2.896474
2894.000000;2.833200
2893.000000;2.893479
2892.000000;3.007393
2891.000000;2.856625
2890.000000;2.747531
2889.000000;2.827262
2888.000000;3.266985
2887.000000;3.153381
2886.000000;2.914353
2885.000000;3.188617
2884.000000;3.066431
2883.000000;2.764636
2882.000000;2.719721
2881.000000;2.848495
2880.000000;3.072985
2879.000000;3.198000
2878.000000;3.095092
2877.000000;2.913699
2876.000000;2.816545
2875.000000;2.868842
2874.000000;3.079834
2873.000000;3.254823
2872.000000;3.134248
2871.000000;2.984934
2870.000000;2.911159
2869.000000;2.953004
2868.000000;2.915157
2867.000000;2.731238
2866.000000;2.628791
2865.000000;2.634306
2864.000000;2.731868
2863.000000;2.873654
2862.000000;2.967835
2861.000000;2.954525
2860.000000;2.886525
2859.000000;2.854822
2858.000000;2.896266
2857.000000;2.969809
2856.000000;2.982271
2855.000000;2.940984
2854.000000;2.906260
2853.000000;2.919712
2852.000000;2.984776
2851.000000;3.044658
2850.000000;3.040091
2849.000000;3.006142
2848.000000;2.936781
2847.000000;2.828750
2846.000000;2.758602
2845.000000;2.733599
2844.000000;2.704786
2843.000000;2.664124
2842.000000;2.643618
2841.000000;2.679094
2840.000000;2.811970
2839.000000;3.189757
2838.000000;2.996318
2837.000000;2.655714
2836.000000;2.566716
2835.000000;2.564900
2834.000000;2.631939
2833.000000;2.729744
2832.000000;2.854662
2831.000000;2.930588
2830.000000;2.955922
2829.000000;3.204545
2828.000000;3.498724
2827.000000;2.991752
2826.000000;2.912400
2825.000000;3.057177
2824.000000;3.343637
2823.000000;3.502295
2822.000000;3.382545
2821.000000;3.310913
2820.000000;3.377081
2819.000000;3.402773
2818.000000;3.363619
2817.000000;3.444448
2816.000000;3.476170
2815.000000;3.387893
2814.000000;3.163147
2813.000000;2.961900
2812.000000;2.842887
2811.000000;2.822267
2810.000000;3.003400
2809.000000;3.420483
2808.000000;3.192876
2807.000000;3.010326
2806.000000;2.921273
2805.000000;2.787426
2804.000000;2.703178
2803.000000;2.675366
2802.000000;2.715442
2801.000000;2.838267
2800.000000;3.010906
2799.000000;3.116154
2798.000000;3.067101
2797.000000;2.876228
2796.000000;2.733504
2795.000000;2.658582
2794.000000;2.651080
2793.000000;2.741078
2792.000000;3.002318
2791.000000;3.425039
2790.000000;3.389290
2789.000000;3.329552
2788.000000;3.228727
2787.000000;3.047940
2786.000000;2.908765
2785.000000;2.848901
2784.000000;2.888096
2783.000000;3.074492
2782.000000;3.306864
2781.000000;3.284725
2780.000000;3.275273
2779.000000;3.431421
2778.000000;3.522430
2777.000000;3.329836
2776.000000;3.276921
2775.000000;3.405830
2774.000000;3.511136
2773.000000;3.570680
2772.000000;3.638821
2771.000000;3.587943
2770.000000;3.569194
2769.000000;3.646605
2768.000000;3.446648
2767.000000;3.146306
2766.000000;2.978632
2765.000000;2.929670
2764.000000;2.986235
2763.000000;3.087645
2762.000000;3.105258
2761.000000;3.041662
2760.000000;3.045747
2759.000000;3.173296
2758.000000;3.241617
2757.000000;3.211836
2756.000000;3.204650
2755.000000;3.175125
2754.000000;3.160644
2753.000000;3.374174
2752.000000;3.168035
2751.000000;2.912993
2750.000000;2.887273
2749.000000;2.955091
2748.000000;2.998511
2747.000000;3.027718
2746.000000;3.023749
2745.000000;2.953508
2744.000000;2.954441
2743.000000;3.111379
2742.000000;3.202204
2741.000000;2.995103
2740.000000;2.901785
2739.000000;2.892123
2738.000000;2.904968
2737.000000;2.862318
2736.000000;2.780449
2735.000000;2.738821
2734.000000;2.765241
2733.000000;2.813947
2732.000000;2.800130
2731.000000;2.728753
2730.000000;2.666358
2729.000000;2.675754
2728.000000;2.814575
2727.000000;3.127749
2726.000000;2.906715
2725.000000;2.657689
2724.000000;2.571574
2723.000000;2.555049
2722.000000;2.602302
2721.000000;2.700702
2720.000000;2.811780
2719.000000;2.853982
2718.000000;2.818519
2717.000000;2.704308
2716.000000;2.614060
2715.000000;2.611049
2714.000000;2.659065
2713.000000;2.689281
2712.000000;2.728593
2711.000000;2.811458
2710.000000;2.910250
2709.000000;2.978203
2708.000000;2.998157
2707.000000;3.079646
2706.000000;3.543782
2705.000000;3.538672
2704.000000;3.714586
2703.000000;3.318185
2702.000000;2.837588
2701.000000;2.750708
2700.000000;2.712086
2699.000000;2.675086
2698.000000;2.663273
2697.000000;2.740742
2696.000000;2.907113
2695.000000;3.093238
2694.000000;3.179220
2693.000000;3.156185
2692.000000;3.089546
2691.000000;3.073598
2690.000000;3.147210
2689.000000;3.235923
2688.000000;3.183340
2687.000000;3.061529
2686.000000;3.125048
2685.000000;3.496423
2684.000000;3.210069
2683.000000;2.998930
2682.000000;3.166634
2681.000000;3.582121
2680.000000;3.311155
2679.000000;3.155190
2678.000000;3.413555
2677.000000;3.630210
2676.000000;3.003028
2675.000000;2.728798
2674.000000;2.648752
2673.000000;2.676372
2672.000000;2.717105
2671.000000;2.715310
2670.000000;2.715380
2669.000000;2.785622
2668.000000;2.989498
2667.000000;3.348135
2666.000000;3.527425
2665.000000;3.603326
2664.000000;3.428635
2663.000000;3.336125
2662.000000;3.364470
2661.000000;3.384112
2660.000000;3.500503
2659.000000;4.009673
2658.000000;3.504090
2657.000000;3.248550
2656.000000;3.238756
2655.000000;3.354161
2654.000000;3.313284
2653.000000;3.105379
2652.000000;3.003259
2651.000000;3.020501
2650.000000;3.181701
2649.000000;3.305750
2648.000000;3.127092
2647.000000;2.999559
2646.000000;3.016737
2645.000000;3.263183
2644.000000;3.378298
2643.000000;3.102948
2642.000000;2.984420
2641.000000;3.004585
2640.000000;3.137518
2639.000000;3.506310
2638.000000;3.732182
2637.000000;3.526707
2636.000000;3.420993
2635.000000;3.234968
2634.000000;3.313095
2633.000000;3.402237
2632.000000;2.947398
2631.000000;2.748012
2630.000000;2.684078
2629.000000;2.713180
2628.000000;2.769812
2627.000000;2.796297
2626.000000;2.820329
2625.000000;2.911667
2624.000000;3.170645
2623.000000;3.342423
2622.000000;3.137551
2621.000000;3.053571
2620.000000;3.077533
2619.000000;3.163749
2618.000000;3.127638
2617.000000;3.043385
2616.000000;3.053373
2615.000000;3.161700
2614.000000;3.405967
2613.000000;3.879177
2612.000000;3.258748
2611.000000;3.077453
2610.000000;3.071507
2609.000000;3.080721
2608.000000;3.085842
2607.000000;3.203089
2606.000000;3.598304
2605.000000;3.520486
2604.000000;3.178499
2603.000000;3.076598
2602.000000;3.019773
2601.000000;3.021019
2600.000000;3.027446
2599.000000;2.923047
2598.000000;2.842053
2597.000000;2.844403
2596.000000;3.196479
2595.000000;3.391677
2594.000000;2.935641
2593.000000;2.864597
2592.000000;3.157512
2591.000000;3.195317
2590.000000;2.880317
2589.000000;2.816140
2588.000000;2.882413
2587.000000;3.017511
2586.000000;3.154582
2585.000000;3.011543
2584.000000;2.792445
2583.000000;2.737512
2582.000000;2.848339
2581.000000;3.081252
2580.000000;3.264996
2579.000000;3.238343
2578.000000;3.142021
2577.000000;3.070228
2576.000000;3.056263
2575.000000;3.053645
2574.000000;2.994900
2573.000000;2.930606
2572.000000;2.895469
2571.000000;2.852991
2570.000000;2.792006
2569.000000;2.770047
2568.000000;2.828274
2567.000000;2.871264
2566.000000;2.794820
2565.000000;2.725938
2564.000000;2.733054
2563.000000;2.844854
2562.000000;3.154235
2561.000000;3.698850
2560.000000;3.427961
2559.000000;3.253155
2558.000000;3.079592
2557.000000;2.961087
2556.000000;2.923363
2555.000000;2.908229
2554.000000;2.867584
2553.000000;2.764915
2552.000000;2.629327
2551.000000;2.539187
2550.000000;2.537399
2549.000000;2.637798
2548.000000;2.891372
2547.000000;3.128232
2546.000000;2.927333
2545.000000;2.844616
2544.000000;2.841505
2543.000000;2.799214
2542.000000;2.740701
2541.000000;2.765328
2540.000000;2.903503
2539.000000;3.225945
2538.000000;3.737861
2537.000000;3.220780
2536.000000;2.917070
2535.000000;2.829476
2534.000000;2.889751
2533.000000;3.101120
2532.000000;3.131609
2531.000000;3.033155
2530.000000;3.018400
2529.000000;3.026853
2528.000000;3.026686
2527.000000;3.026546
2526.000000;2.994198
2525.000000;2.895716
2524.000000;2.806469
2523.000000;2.786063
2522.000000;2.812546
2521.000000;2.856924
2520.000000;2.965924
2519.000000;3.243087
2518.000000;3.220631
2517.000000;2.969079
2516.000000;2.942381
2515.000000;2.961739
2514.000000;2.890672
2513.000000;2.808910
2512.000000;2.871385
2511.000000;3.081059
2510.000000;3.552258
2509.000000;3.595016
2508.000000;3.095003
2507.000000;2.980242
2506.000000;3.108425
2505.000000;3.407415
2504.000000;3.509443
2503.000000;3.413139
2502.000000;3.202615
2501.000000;2.926649
2500.000000;2.769012
2499.000000;2.734313
2498.000000;2.819694
2497.000000;3.052801
2496.000000;3.277829
2495.000000;3.178391
2494.000000;3.131850
2493.000000;3.019271
2492.000000;2.919015
2491.000000;2.877501
2490.000000;2.855425
2489.000000;2.832359
2488.000000;2.823636
2487.000000;2.861430
2486.000000;2.981463
2485.000000;3.176223
2484.000000;3.260081
2483.000000;3.340318
2482.000000;3.788699
2481.000000;3.436235
2480.000000;3.261976
2479.000000;3.154087
2478.000000;2.907813
2477.000000;2.765675
2476.000000;2.712887
2475.000000;2.685779
2474.000000;2.654067
2473.000000;2.642170
2472.000000;2.697400
2471.000000;2.847102
2470.000000;3.120440
2469.000000;3.440804
2468.000000;3.317461
2467.000000;3.098282
2466.000000;2.968839
2465.000000;2.902239
2464.000000;2.824056
2463.000000;2.708980
2462.000000;2.644943
2461.000000;2.697790
2460.000000;2.995215
2459.000000;3.343314
2458.000000;3.089123
2457.000000;2.992682
2456.000000;3.012604
2455.000000;3.090836
2454.000000;3.229257
2453.000000;3.320626
2452.000000;3.157932
2451.000000;2.967603
2450.000000;2.910277
2449.000000;3.004995
2448.000000;3.312988
2447.000000;3.270541
2446.000000;3.153868
2445.000000;3.143668
2444.000000;2.998464
2443.000000;2.834404
2442.000000;2.746114
2441.000000;2.753198
2440.000000;2.805145
2439.000000;2.818711
2438.000000;2.774510
2437.000000;2.722389
2436.000000;2.693555
2435.000000;2.686686
2434.000000;2.721774
2433.000000;2.827339
2432.000000;3.148767
2431.000000;3.000862
2430.000000;2.760848
2429.000000;2.793051
2428.000000;3.002247
2427.000000;3.515193
2426.000000;3.810614
2425.000000;3.283000
2424.000000;3.032945
2423.000000;2.898768
2422.000000;2.860992
2421.000000;2.971507
2420.000000;3.370933
2419.000000;3.468448
2418.000000;3.144127
2417.000000;2.973451
2416.000000;2.899976
2415.000000;2.854970
2414.000000;2.713430
2413.000000;2.620219
2412.000000;2.610864
2411.000000;2.642263
2410.000000;2.665441
2409.000000;2.705612
2408.000000;2.802439
2407.000000;3.184671
2406.000000;3.453502
2405.000000;3.157320
2404.000000;3.230328
2403.000000;3.358318
2402.000000;3.524784
2401.000000;3.465219
2400.000000;3.509954
2399.000000;3.948483
2398.000000;3.419635
2397.000000;3.271710
2396.000000;3.324396
2395.000000;3.283125
2394.000000;3.132822
2393.000000;3.107023
2392.000000;3.321260
2391.000000;3.911225
2390.000000;3.315791
2389.000000;3.151189
2388.000000;3.049870
2387.000000;2.965151
2386.000000;2.968037
2385.000000;3.198730
2384.000000;3.247095
2383.000000;2.988318
2382.000000;2.926023
2381.000000;2.932722
2380.000000;3.013625
2379.000000;3.312283
2378.000000;3.878704
2377.000000;4.496035
2376.000000;3.420632
2375.000000;3.050571
2374.000000;2.997250
2373.000000;3.159872
2372.000000;3.233630
2371.000000;2.968276
2370.000000;2.822510
2369.000000;2.808017
2368.000000;2.904151
2367.000000;3.121227
2366.000000;3.401342
2365.000000;3.199099
2364.000000;2.897382
2363.000000;2.756114
2362.000000;2.767823
2361.000000;2.929121
2360.000000;3.172909
2359.000000;3.016634
2358.000000;2.794775
2357.000000;2.745357
2356.000000;2.795609
2355.000000;2.881976
2354.000000;2.901925
2353.000000;2.852814
2352.000000;2.827425
2351.000000;2.850760
2350.000000;2.851400
2349.000000;2.821548
2348.000000;2.871989
2347.000000;3.050141
2346.000000;2.946972
2345.000000;2.803174
2344.000000;2.822324
2343.000000;2.988883
2342.000000;3.410547
2341.000000;3.443350
2340.000000;3.119218
2339.000000;2.984876
2338.000000;2.908426
2337.000000;2.883495
2336.000000;2.899412
2335.000000;2.901705
2334.000000;2.930461
2333.000000;2.981391
2332.000000;2.884108
2331.000000;2.814255
2330.000000;2.870317
2329.000000;3.308678
2328.000000;3.378714
2327.000000;2.882383
2326.000000;2.812381
2325.000000;2.870709
2324.000000;3.196352
2323.000000;3.647757
2322.000000;3.350044
2321.000000;3.261191
2320.000000;3.377609
2319.000000;3.283628
2318.000000;3.039545
2317.000000;2.943440
2316.000000;3.041496
2315.000000;3.420940
2314.000000;2.912116
2313.000000;2.719184
2312.000000;2.750538
2311.000000;2.991965
2310.000000;3.328959
2309.000000;3.405290
2308.000000;3.743894
2307.000000;3.289897
2306.000000;2.944698
2305.000000;2.777747
2304.000000;2.687821
2303.000000;2.650804
2302.000000;2.646977
2301.000000;2.659078
2300.000000;2.680073
2299.000000;2.721644
2298.000000;2.792333
2297.000000;2.856969
2296.000000;2.808808
2295.000000;2.711356
2294.000000;2.686737
2293.000000;2.788017
2292.000000;3.028190
2291.000000;3.631197
2290.000000;3.442826
2289.000000;3.121571
2288.000000;2.993722
2287.000000;2.945191
2286.000000;2.962629
2285.000000;3.020156
2284.000000;3.092800
2283.000000;3.213227
2282.000000;3.567958
2281.000000;3.849129
2280.000000;3.210475
2279.000000;2.978169
2278.000000;2.821644
2277.000000;2.752513
2276.000000;2.699868
2275.000000;2.624003
2274.000000;2.576270
2273.000000;2.602882
2272.000000;2.723300
2271.000000;2.980339
2270.000000;3.268398
2269.000000;3.183870
2268.000000;3.078994
2267.000000;3.231157
2266.000000;3.368599
2265.000000;3.010127
2264.000000;2.867640
2263.000000;2.890080
2262.000000;2.959333
2261.000000;2.939098
2260.000000;2.874414
2259.000000;2.915988
2258.000000;2.969889
2257.000000;2.830999
2256.000000;2.721995
2255.000000;2.678848
2254.000000;2.686315
2253.000000;2.760447
2252.000000;2.854817
2251.000000;2.916735
2250.000000;3.012869
2249.000000;3.420059
2248.000000;3.611935
2247.000000;3.120089
2246.000000;3.051862
2245.000000;3.444419
2244.000000;3.268634
2243.000000;2.880399
2242.000000;2.814108
2241.000000;2.849296
2240.000000;3.001131
2239.000000;3.276446
2238.000000;3.396250
2237.000000;3.215944
2236.000000;3.064022
2235.000000;3.057662
2234.000000;3.315342
2233.000000;3.405679
2232.000000;3.293651
2231.000000;3.597982
2230.000000;3.818635
2229.000000;3.291362
2228.000000;3.033107
2227.000000;2.919241
2226.000000;2.971410
2225.000000;3.110203
2224.000000;2.937207
2223.000000;2.724387
2222.000000;2.672229
2221.000000;2.720775
2220.000000;2.761900
2219.000000;2.799254
2218.000000;2.941938
2217.000000;3.581816
2216.000000;3.296238
2215.000000;2.967696
2214.000000;2.967331
2213.000000;2.960939
2212.000000;2.925724
2211.000000;2.930764
2210.000000;3.139834
2209.000000;3.609683
2208.000000;2.963766
2207.000000;2.747215
2206.000000;2.682334
2205.000000;2.710770
2204.000000;2.810969
2203.000000;2.932320
2202.000000;3.130443
2201.000000;3.635768
2200.000000;3.196362
2199.000000;2.882855
2198.000000;2.814508
2197.000000;2.913950
2196.000000;3.143327
2195.000000;3.118310
2194.000000;2.939535
2193.000000;2.873319
2192.000000;2.853008
2191.000000;2.830678
2190.000000;2.785110
2189.000000;2.764293
2188.000000;2.784924
2187.000000;2.797329
2186.000000;2.782126
2185.000000;2.807739
2184.000000;2.904582
2183.000000;3.094649
2182.000000;2.975229
2181.000000;2.699674
2180.000000;2.594645
2179.000000;2.615990
2178.000000;2.662784
2177.000000;2.671900
2176.000000;2.698814
2175.000000;2.758043
2174.000000;2.796752
2173.000000;2.779960
2172.000000;2.761139
2171.000000;2.782605
2170.000000;2.842655
2169.000000;2.898334
2168.000000;2.891059
2167.000000;2.839909
2166.000000;2.816716
2165.000000;2.867037
2164.000000;3.043074
2163.000000;3.141713
2162.000000;3.000838
2161.000000;2.928510
2160.000000;2.935791
2159.000000;2.943369
2158.000000;2.889786
2157.000000;2.806397
2156.000000;2.755373
2155.000000;2.767134
2154.000000;2.873907
2153.000000;3.117904
2152.000000;3.684635
2151.000000;3.551495
2150.000000;3.323173
2149.000000;3.325398
2148.000000;3.506243
2147.000000;3.790999
2146.000000;3.606560
2145.000000;3.533214
2144.000000;3.275482
2143.000000;2.938966
2142.000000;2.790226
2141.000000;2.791294
2140.000000;2.948025
2139.000000;3.186313
2138.000000;3.235650
2137.000000;3.169703
2136.000000;3.165545
2135.000000;3.284999
2134.000000;3.931179
2133.000000;3.335121
2132.000000;2.989251
2131.000000;2.906393
2130.000000;2.978460
2129.000000;3.237736
2128.000000;3.924579
2127.000000;3.759048
2126.000000;3.327317
2125.000000;3.080544
2124.000000;2.921147
2123.000000;2.823615
2122.000000;2.758413
2121.000000;2.719948
2120.000000;2.738840
2119.000000;2.823381
2118.000000;2.907843
2117.000000;2.950083
2116.000000;3.201917
2115.000000;3.245371
2114.000000;2.874962
2113.000000;2.789444
2112.000000;2.761448
2111.000000;2.702049
2110.000000;2.639048
2109.000000;2.618353
2108.000000;2.620161
2107.000000;2.653821
2106.000000;2.730581
2105.000000;2.877989
2104.000000;3.111184
2103.000000;3.759715
2102.000000;3.143398
2101.000000;2.835470
2100.000000;2.715083
2099.000000;2.680504
2098.000000;2.712952
2097.000000;2.806540
2096.000000;2.963508
2095.000000;3.164110
2094.000000;3.269436
2093.000000;3.150517
2092.000000;2.993688
2091.000000;2.925717
2090.000000;2.983137
2089.000000;3.175225
2088.000000;3.710622
2087.000000;3.512445
2086.000000;2.998083
2085.000000;2.808633
2084.000000;2.723592
2083.000000;2.747229
2082.000000;2.830574
2081.000000;2.907604
2080.000000;2.922038
2079.000000;2.922086
2078.000000;2.969260
2077.000000;3.098839
2076.000000;3.279598
2075.000000;3.600242
2074.000000;3.607781
2073.000000;3.140764
2072.000000;2.977037
2071.000000;2.992413
2070.000000;3.174417
2069.000000;3.467815
2068.000000;3.225007
2067.000000;2.896126
2066.000000;2.735146
2065.000000;2.719490
2064.000000;2.832262
2063.000000;3.028354
2062.000000;3.377688
2061.000000;3.594629
2060.000000;3.099233
2059.000000;2.892738
2058.000000;2.851512
2057.000000;2.956281
2056.000000;3.033642
2055.000000;2.876126
2054.000000;2.759008
2053.000000;2.760821
2052.000000;2.839851
2051.000000;2.972156
2050.000000;3.165408
2049.000000;3.182283
2048.000000;3.024045
2047.000000;2.951792
2046.000000;2.938657
2045.000000;2.992671
2044.000000;3.220141
2043.000000;3.553382
2042.000000;3.524406
2041.000000;3.494323
2040.000000;3.326162
2039.000000;3.437715
2038.000000;3.612050
2037.000000;3.323762
2036.000000;3.199246
2035.000000;3.114461
2034.000000;2.950861
2033.000000;2.862779
2032.000000;2.876286
2031.000000;3.287023
2030.000000;3.344666
2029.000000;2.889086
2028.000000;2.837036
2027.000000;2.915205
2026.000000;3.056349
2025.000000;3.132551
2024.000000;3.149383
2023.000000;3.148777
2022.000000;3.214640
2021.000000;3.569462
2020.000000;3.741626
2019.000000;3.293397
2018.000000;3.161179
2017.000000;3.120534
2016.000000;3.115555
2015.000000;3.160110
2014.000000;3.276051
2013.000000;3.381634
2012.000000;3.586409
2011.000000;3.617161
2010.000000;3.221246
2009.000000;3.083014
2008.000000;2.993834
2007.000000;2.942705
2006.000000;2.944649
2005.000000;3.127431
2004.000000;3.257952
2003.000000;2.984564
2002.000000;2.869422
2001.000000;2.911989
2000.000000;3.006643
1999.000000;3.017808
1998.000000;2.976111
1997.000000;3.027194
1996.000000;3.263724
1995.000000;3.124195
1994.000000;3.002575
1993.000000;3.031821
1992.000000;2.921586
1991.000000;2.779276
1990.000000;2.746458
1989.000000;2.832934
1988.000000;3.042047
1987.000000;3.389867
1986.000000;3.879049
1985.000000;3.638833
1984.000000;3.045973
1983.000000;2.813590
1982.000000;2.737092
1981.000000;2.760322
1980.000000;2.832641
1979.000000;2.908543
1978.000000;2.876315
1977.000000;2.771417
1976.000000;2.728429
1975.000000;2.768933
1974.000000;2.887433
1973.000000;3.098056
1972.000000;3.376629
1971.000000;3.367001
1970.000000;3.060966
1969.000000;2.865305
1968.000000;2.850561
1967.000000;3.016248
1966.000000;3.424286
1965.000000;3.686490
1964.000000;3.847861
1963.000000;3.791015
1962.000000;3.312199
1961.000000;3.060438
1960.000000;2.987815
1959.000000;3.227384
1958.000000;3.722744
1957.000000;3.135984
1956.000000;3.113281
1955.000000;3.090095
1954.000000;2.928980
1953.000000;2.828102
1952.000000;2.841467
1951.000000;2.844003
1950.000000;2.770551
1949.000000;2.728840
1948.000000;2.731936
1947.000000;2.743913
1946.000000;2.817648
1945.000000;3.015050
1944.000000;3.321585
1943.000000;3.436567
1942.000000;3.237329
1941.000000;3.041583
1940.000000;2.960634
1939.000000;3.048337
1938.000000;3.252188
1937.000000;3.046611
1936.000000;2.872776
1935.000000;2.798082
1934.000000;2.846456
1933.000000;3.051617
1932.000000;3.311952
1931.000000;3.269388
1930.000000;3.155580
1929.000000;3.067384
1928.000000;3.204522
1927.000000;3.303545
1926.000000;2.839697
1925.000000;2.620836
1924.000000;2.565942
1923.000000;2.627081
1922.000000;2.770504
1921.000000;2.862279
1920.000000;2.754405
1919.000000;2.668666
1918.000000;2.747310
1917.000000;2.960575
1916.000000;2.936570
1915.000000;2.875736
1914.000000;2.919140
1913.000000;2.977213
1912.000000;3.064608
1911.000000;3.176742
1910.000000;3.083350
1909.000000;2.961307
1908.000000;2.962474
1907.000000;3.026268
1906.000000;2.950309
1905.000000;2.861556
1904.000000;2.842318
1903.000000;2.838687
1902.000000;2.839992
1901.000000;2.817516
1900.000000;2.747469
1899.000000;2.717443
1898.000000;2.774284
1897.000000;3.065219
1896.000000;3.380792
1895.000000;3.113101
1894.000000;2.980778
1893.000000;2.897578
1892.000000;2.883438
1891.000000;3.402139
1890.000000;3.225763
1889.000000;2.972828
1888.000000;3.174466
1887.000000;3.718282
1886.000000;3.654888
1885.000000;3.622588
1884.000000;3.451965
1883.000000;3.474197
1882.000000;3.435586
1881.000000;3.187674
1880.000000;2.989784
1879.000000;2.857468
1878.000000;2.777336
1877.000000;2.772096
1876.000000;2.891500
1875.000000;3.226246
1874.000000;3.421219
1873.000000;3.644222
1872.000000;3.442764
1871.000000;2.960144
1870.000000;2.925646
1869.000000;3.009411
1868.000000;3.073460
1867.000000;3.005828
1866.000000;3.005649
1865.000000;3.172437
1864.000000;3.797347
1863.000000;3.291982
1862.000000;3.071983
1861.000000;3.176352
1860.000000;3.301725
1859.000000;3.212230
1858.000000;3.168487
1857.000000;3.154865
1856.000000;3.120698
1855.000000;2.968001
1854.000000;2.843511
1853.000000;2.913073
1852.000000;3.348495
1851.000000;3.092898
1850.000000;2.727517
1849.000000;2.628059
1848.000000;2.652918
1847.000000;2.772661
1846.000000;3.212535
1845.000000;3.672719
1844.000000;3.004622
1843.000000;3.022369
1842.000000;3.076282
1841.000000;3.167211
1840.000000;3.567235
1839.000000;3.361250
1838.000000;2.950669
1837.000000;2.870965
1836.000000;2.930954
1835.000000;3.333378
1834.000000;3.202493
1833.000000;2.874427
1832.000000;2.772036
1831.000000;2.784335
1830.000000;2.849667
1829.000000;2.906920
1828.000000;2.963912
1827.000000;3.033642
1826.000000;3.120750
1825.000000;3.221553
1824.000000;3.266602
1823.000000;3.188263
1822.000000;3.069980
1821.000000;2.947610
1820.000000;2.860381
1819.000000;2.869779
1818.000000;3.134198
1817.000000;3.391849
1816.000000;3.016893
1815.000000;2.816129
1814.000000;2.695977
1813.000000;2.654862
1812.000000;2.713928
1811.000000;2.895247
1810.000000;2.994573
1809.000000;2.877078
1808.000000;2.790488
1807.000000;2.742371
1806.000000;2.715345
1805.000000;2.734590
1804.000000;2.843877
1803.000000;3.111376
1802.000000;3.543895
1801.000000;3.110878
1800.000000;2.923080
1799.000000;2.828449
1798.000000;2.744256
1797.000000;2.643796
1796.000000;2.576997
1795.000000;2.576957
1794.000000;2.669229
1793.000000;2.841740
1792.000000;2.881493
1791.000000;2.768178
1790.000000;2.669385
1789.000000;2.606943
1788.000000;2.589111
1787.000000;2.630819
1786.000000;2.757972
1785.000000;3.011454
1784.000000;3.170900
1783.000000;3.103916
1782.000000;3.132077
1781.000000;3.241363
1780.000000;3.183182
1779.000000;2.947257
1778.000000;2.759812
1777.000000;2.701242
1776.000000;2.792426
1775.000000;2.952860
1774.000000;2.949943
1773.000000;2.922218
1772.000000;2.964248
1771.000000;3.013224
1770.000000;3.084201
1769.000000;3.204269
1768.000000;3.168919
1767.000000;3.069717
1766.000000;3.026570
1765.000000;2.989486
1764.000000;2.940811
1763.000000;2.906487
1762.000000;2.951574
1761.000000;2.986255
1760.000000;2.956013
1759.000000;2.948087
1758.000000;2.974915
1757.000000;3.072679
1756.000000;3.307157
1755.000000;3.092836
1754.000000;3.001541
1753.000000;3.231990
1752.000000;4.036576
1751.000000;3.450538
1750.000000;3.140494
1749.000000;2.995893
1748.000000;3.052368
1747.000000;3.375032
1746.000000;3.196981
1745.000000;2.974373
1744.000000;2.985310
1743.000000;3.139021
1742.000000;3.380788
1741.000000;3.702972
1740.000000;3.467452
1739.000000;3.038800
1738.000000;2.945350
1737.000000;3.040999
1736.000000;3.458150
1735.000000;3.117051
1734.000000;2.758658
1733.000000;2.738289
1732.000000;2.769246
1731.000000;2.793968
1730.000000;2.812407
1729.000000;2.916041
1728.000000;3.186146
1727.000000;4.062675
1726.000000;3.470733
1725.000000;3.280590
1724.000000;3.297021
1723.000000;3.340276
1722.000000;3.102820
1721.000000;2.830083
1720.000000;2.719698
1719.000000;2.787419
1718.000000;2.925052
1717.000000;2.957503
1716.000000;2.997602
1715.000000;3.114510
1714.000000;3.320249
1713.000000;3.350676
1712.000000;3.237028
1711.000000;3.275657
1710.000000;3.492591
1709.000000;3.745217
1708.000000;3.671880
1707.000000;3.496334
1706.000000;3.233240
1705.000000;3.099996
1704.000000;3.126243
1703.000000;3.164435
1702.000000;3.260279
1701.000000;2.896221
1700.000000;2.507292
1699.000000;2.514652
1698.000000;2.672175
1697.000000;2.791068
1696.000000;2.828262
1695.000000;2.806063
1694.000000;2.828201
1693.000000;2.939933
1692.000000;2.974474
1691.000000;2.809313
1690.000000;2.727520
1689.000000;2.745485
1688.000000;2.804388
1687.000000;2.869536
1686.000000;2.958369
1685.000000;3.227994
1684.000000;3.604084
1683.000000;3.421238
1682.000000;3.474385
1681.000000;3.372985
1680.000000;3.104217
1679.000000;2.903254
1678.000000;2.808868
1677.000000;2.794005
1676.000000;2.842651
1675.000000;2.924680
1674.000000;2.949394
1673.000000;2.892585
1672.000000;2.804506
1671.000000;2.730212
1670.000000;2.693440
1669.000000;2.654512
1668.000000;2.599606
1667.000000;2.592192
1666.000000;2.652134
1665.000000;2.802862
1664.000000;3.038269
1663.000000;2.888475
1662.000000;2.756361
1661.000000;2.788421
1660.000000;2.895317
1659.000000;3.101571
1658.000000;3.356997
1657.000000;3.232071
1656.000000;3.072387
1655.000000;3.245383
1654.000000;3.375809
1653.000000;2.831932
1652.000000;2.689993
1651.000000;2.776386
1650.000000;2.883093
1649.000000;2.938914
1648.000000;2.893839
1647.000000;2.868929
1646.000000;2.948064
1645.000000;3.292206
1644.000000;3.296216
1643.000000;3.056479
1642.000000;3.017566
1641.000000;3.155872
1640.000000;3.095537
1639.000000;2.794124
1638.000000;2.646515
1637.000000;2.622419
1636.000000;2.761197
1635.000000;2.868082
1634.000000;2.598985
1633.000000;2.510614
1632.000000;2.508748
1631.000000;2.553791
1630.000000;2.645797
1629.000000;2.816760
1628.000000;3.072449
1627.000000;3.147707
1626.000000;3.048659
1625.000000;3.047745
1624.000000;3.215691
1623.000000;3.483442
1622.000000;3.201484
1621.000000;3.105062
1620.000000;3.220510
1619.000000;3.909982
1618.000000;3.135211
1617.000000;2.842541
1616.000000;2.792843
1615.000000;2.871210
1614.000000;2.967355
1613.000000;2.909765
1612.000000;2.774141
1611.000000;2.720610
1610.000000;2.774376
1609.000000;2.918552
1608.000000;3.297993
1607.000000;3.249869
1606.000000;2.773557
1605.000000;2.636082
1604.000000;2.634805
1603.000000;2.786895
1602.000000;3.090888
1601.000000;2.942532
1600.000000;2.637728
1599.000000;2.536962
1598.000000;2.563399
1597.000000;2.678733
1596.000000;2.803658
1595.000000;2.899013
1594.000000;3.532829
1593.000000;3.128127
1592.000000;2.729554
1591.000000;2.612147
1590.000000;2.588116
1589.000000;2.619550
1588.000000;2.704662
1587.000000;2.895300
1586.000000;3.217566
1585.000000;3.141517
1584.000000;3.071917
1583.000000;3.160303
1582.000000;3.304154
1581.000000;3.357265
1580.000000;2.917267
1579.000000;2.659942
1578.000000;2.626511
1577.000000;2.771171
1576.000000;3.174808
1575.000000;3.381693
1574.000000;3.100467
1573.000000;3.022677
1572.000000;2.900871
1571.000000;2.774645
1570.000000;2.658819
1569.000000;2.594323
1568.000000;2.600514
1567.000000;2.689310
1566.000000;2.859508
1565.000000;3.227847
1564.000000;3.410992
1563.000000;3.153947
1562.000000;2.957630
1561.000000;2.697324
1560.000000;2.472486
1559.000000;2.458364
1558.000000;2.523987
1557.000000;2.716275
1556.000000;2.971368
1555.000000;3.108388
1554.000000;3.163893
1553.000000;3.159651
1552.000000;3.066025
1551.000000;2.944168
1550.000000;2.815188
1549.000000;2.696655
1548.000000;2.611510
1547.000000;2.541285
1546.000000;2.499103
1545.000000;2.537027
1544.000000;2.644406
1543.000000;2.731287
1542.000000;2.767994
1541.000000;2.845457
1540.000000;2.931830
1539.000000;2.962846
1538.000000;3.081040
1537.000000;3.429248
1536.000000;3.577970
1535.000000;3.123697
1534.000000;2.903921
1533.000000;2.835377
1532.000000;2.887640
1531.000000;3.076268
1530.000000;3.500179
1529.000000;3.290172
1528.000000;3.062463
1527.000000;3.130674
1526.000000;3.358524
1525.000000;3.405794
1524.000000;3.183998
1523.000000;3.007281
1522.000000;2.909734
1521.000000;2.885582
1520.000000;2.964419
1519.000000;3.180992
1518.000000;3.554141
1517.000000;3.482488
1516.000000;3.087784
1515.000000;2.908391
1514.000000;2.889139
1513.000000;3.036916
1512.000000;3.228238
1511.000000;4.102058
1510.000000;3.387558
1509.000000;3.116571
1508.000000;3.156147
1507.000000;3.366185
1506.000000;3.468216
1505.000000;3.163720
1504.000000;3.019268
1503.000000;2.887329
1502.000000;2.995628
1501.000000;3.485510
1500.000000;2.717463
1499.000000;2.482425
1498.000000;2.473575
1497.000000;2.621103
1496.000000;2.912840
1495.000000;3.147000
1494.000000;2.853698
1493.000000;2.628126
1492.000000;2.550563
1491.000000;2.643588
1490.000000;2.983934
1489.000000;3.179557
1488.000000;2.979567
1487.000000;2.881367
1486.000000;2.842609
1485.000000;2.828155
1484.000000;2.867355
1483.000000;2.999403
1482.000000;3.026429
1481.000000;2.904012
1480.000000;2.925543
1479.000000;3.195479
1478.000000;4.327069
1477.000000;3.362071
1476.000000;3.134169
1475.000000;2.872043
1474.000000;2.786982
1473.000000;2.851742
1472.000000;3.263452
1471.000000;3.187960
1470.000000;2.752529
1469.000000;2.736408
1468.000000;2.855537
1467.000000;3.027043
1466.000000;2.881983
1465.000000;2.717655
1464.000000;2.651459
1463.000000;2.627440
1462.000000;2.608166
1461.000000;2.618325
1460.000000;2.726738
1459.000000;3.028184
1458.000000;3.030052
1457.000000;2.997878
1456.000000;2.999026
1455.000000;2.755294
1454.000000;2.613541
1453.000000;2.556836
1452.000000;2.598743
1451.000000;2.779428
1450.000000;3.166460
1449.000000;3.912366
1448.000000;3.612696
1447.000000;3.359443
1446.000000;3.333423
1445.000000;3.262600
1444.000000;3.156342
1443.000000;2.980272
1442.000000;2.684439
1441.000000;2.481561
1440.000000;2.406779
1439.000000;2.413720
1438.000000;2.490391
1437.000000;2.667988
1436.000000;2.993390
1435.000000;3.390841
1434.000000;3.232363
1433.000000;2.953200
1432.000000;2.675449
1431.000000;2.492610
1430.000000;2.427798
1429.000000;2.435747
1428.000000;2.482564
1427.000000;2.561142
1426.000000;2.675742
1425.000000;2.858900
1424.000000;3.126963
1423.000000;3.060783
1422.000000;2.866805
1421.000000;2.803661
1420.000000;2.862759
1419.000000;2.966789
1418.000000;2.922263
1417.000000;2.813099
1416.000000;2.759518
1415.000000;2.806180
1414.000000;2.930788
1413.000000;3.000873
1412.000000;2.991145
1411.000000;2.894099
1410.000000;2.808289
1409.000000;2.840647
1408.000000;2.964268
1407.000000;2.981142
1406.000000;2.852245
1405.000000;2.785207
1404.000000;2.848706
1403.000000;3.068624
1402.000000;3.560065
1401.000000;3.340861
1400.000000;3.269429
1399.000000;3.614729
1398.000000;3.472854
1397.000000;3.405501
1396.000000;3.076761
1395.000000;2.891840
1394.000000;2.976107
1393.000000;2.802159
1392.000000;2.599277
1391.000000;2.632591
1390.000000;2.839207
1389.000000;3.177667
1388.000000;3.216300
1387.000000;2.967897
1386.000000;2.748092
1385.000000;2.632241
1384.000000;2.633831
1383.000000;2.756278
1382.000000;2.999580
1381.000000;2.977803
1380.000000;2.879827
1379.000000;2.998291
1378.000000;3.274235
1377.000000;3.487499
1376.000000;3.261965
1375.000000;2.945565
1374.000000;2.795414
1373.000000;2.735208
1372.000000;2.694734
1371.000000;2.666300
1370.000000;2.708800
1369.000000;2.882735
1368.000000;3.130904
1367.000000;3.075411
1366.000000;2.984246
1365.000000;2.868955
1364.000000;2.736294
1363.000000;2.652826
1362.000000;2.626311
1361.000000;2.672587
1360.000000;2.781477
1359.000000;2.804334
1358.000000;2.707924
1357.000000;2.692324
1356.000000;2.748262
1355.000000;3.202389
1354.000000;3.203825
1353.000000;2.750342
1352.000000;2.683132
1351.000000;2.895556
1350.000000;3.202042
1349.000000;2.833049
1348.000000;2.760413
1347.000000;2.875760
1346.000000;2.840275
1345.000000;2.790165
1344.000000;2.808693
1343.000000;2.795331
1342.000000;2.842508
1341.000000;2.991534
1340.000000;3.125803
1339.000000;3.168243
1338.000000;3.156820
1337.000000;3.182110
1336.000000;3.184078
1335.000000;3.046263
1334.000000;2.893822
1333.000000;2.726560
1332.000000;2.652970
1331.000000;2.714268
1330.000000;3.073389
1329.000000;3.116084
1328.000000;2.911539
1327.000000;3.235650
1326.000000;2.798956
1325.000000;2.543706
1324.000000;2.553120
1323.000000;2.663771
1322.000000;2.687628
1321.000000;2.591108
1320.000000;2.511759
1319.000000;2.485546
1318.000000;2.506517
1317.000000;2.622151
1316.000000;2.911710
1315.000000;2.765216
1314.000000;2.566913
1313.000000;2.557699
1312.000000;2.620457
1311.000000;2.609446
1310.000000;2.489550
1309.000000;2.390358
1308.000000;2.370504
1307.000000;2.413595
1306.000000;2.510421
1305.000000;2.638682
1304.000000;3.090524
1303.000000;2.953711
1302.000000;2.558369
1301.000000;2.490753
1300.000000;2.503081
1299.000000;2.543172
1298.000000;2.537666
1297.000000;2.504182
1296.000000;2.514442
1295.000000;2.596661
1294.000000;2.687848
1293.000000;2.675154
1292.000000;2.543391
1291.000000;2.447058
1290.000000;2.437251
1289.000000;2.479292
1288.000000;2.536689
1287.000000;2.607512
1286.000000;2.669715
1285.000000;2.750744
1284.000000;2.915134
1283.000000;3.056936
1282.000000;3.014692
1281.000000;3.112703
1280.000000;3.307841
1279.000000;3.019409
1278.000000;2.866797
1277.000000;2.878750
1276.000000;2.869159
1275.000000;2.845360
1274.000000;2.896795
1273.000000;2.783080
1272.000000;2.599409
1271.000000;2.561856
1270.000000;2.616805
1269.000000;2.625276
1268.000000;2.671562
1267.000000;2.954041
1266.000000;3.015653
1265.000000;2.703440
1264.000000;2.622700
1263.000000;2.716012
1262.000000;2.947596
1261.000000;3.004757
1260.000000;2.855253
1259.000000;2.813181
1258.000000;2.940187
1257.000000;2.965009
1256.000000;2.702956
1255.000000;2.516407
1254.000000;2.452570
1253.000000;2.555801
1252.000000;2.887475
1251.000000;3.015513
1250.000000;2.895270
1249.000000;3.025457
1248.000000;3.025293
1247.000000;2.793473
1246.000000;2.591771
1245.000000;2.516849
1244.000000;2.543324
1243.000000;2.603539
1242.000000;2.630582
1241.000000;2.616955
1240.000000;2.583218
1239.000000;2.596215
1238.000000;2.739994
1237.000000;3.131171
1236.000000;3.373752
1235.000000;3.229563
1234.000000;3.298501
1233.000000;3.233426
1232.000000;2.963231
1231.000000;2.804348
1230.000000;2.827461
1229.000000;3.197575
1228.000000;3.196124
1227.000000;2.628946
1226.000000;2.434399
1225.000000;2.362750
1224.000000;2.425961
1223.000000;2.618673
1222.000000;2.944042
1221.000000;2.961788
1220.000000;2.780952
1219.000000;2.703072
1218.000000;2.708592
1217.000000;2.825217
1216.000000;3.050296
1215.000000;3.432422
1214.000000;3.523245
1213.000000;3.062862
1212.000000;2.766839
1211.000000;2.579354
1210.000000;2.481640
1209.000000;2.451721
1208.000000;2.461993
1207.000000;2.502531
1206.000000;2.576184
1205.000000;2.857751
1204.000000;3.257284
1203.000000;2.642010
1202.000000;2.476663
1201.000000;2.419001
1200.000000;2.435106
