Criado como novo conjunto de dados;"e0108.spp","-4283264.9 Secs"
cm-1;Abs
10000.000000;0.873892
9999.000000;0.873318
9998.000000;0.872745
9997.000000;0.872173
9996.000000;0.871602
9995.000000;0.871030
9994.000000;0.870462
9993.000000;0.869890
9992.000000;0.869327
9991.000000;0.868750
9990.000000;0.868204
9989.000000;0.867508
9988.000000;0.866528
9987.000000;0.865478
9986.000000;0.864521
9985.000000;0.863526
9984.000000;0.862215
9983.000000;0.860690
9982.000000;0.859453
9981.000000;0.858889
9980.000000;0.858843
9979.000000;0.858789
9978.000000;0.858375
9977.000000;0.857818
9976.000000;0.857746
9975.000000;0.858520
9974.000000;0.859597
9973.000000;0.859815
9972.000000;0.858607
9971.000000;0.856791
9970.000000;0.855790
9969.000000;0.856175
9968.000000;0.857305
9967.000000;0.858292
9966.000000;0.858832
9965.000000;0.858956
9964.000000;0.858539
9963.000000;0.857530
9962.000000;0.856380
9961.000000;0.855692
9960.000000;0.855412
9959.000000;0.854790
9958.000000;0.853334
9957.000000;0.851537
9956.000000;0.850414
9955.000000;0.850426
9954.000000;0.851073
9953.000000;0.851512
9952.000000;0.851346
9951.000000;0.850777
9950.000000;0.850211
9949.000000;0.849934
9948.000000;0.849993
9947.000000;0.850162
9946.000000;0.850048
9945.000000;0.849443
9944.000000;0.848646
9943.000000;0.848232
9942.000000;0.848398
9941.000000;0.848637
9940.000000;0.848176
9939.000000;0.846817
9938.000000;0.845322
9937.000000;0.844868
9936.000000;0.845974
9935.000000;0.847864
9934.000000;0.848940
9933.000000;0.848147
9932.000000;0.846010
9931.000000;0.844178
9930.000000;0.843896
9929.000000;0.845070
9928.000000;0.846738
9927.000000;0.848066
9926.000000;0.848647
9925.000000;0.848211
9924.000000;0.846646
9923.000000;0.844380
9922.000000;0.842341
9921.000000;0.841295
9920.000000;0.841322
9919.000000;0.841885
9918.000000;0.842234
9917.000000;0.841794
9916.000000;0.840553
9915.000000;0.839236
9914.000000;0.838806
9913.000000;0.839503
9912.000000;0.840464
9911.000000;0.840572
9910.000000;0.839626
9909.000000;0.838382
9908.000000;0.837471
9907.000000;0.836736
9906.000000;0.835803
9905.000000;0.834887
9904.000000;0.834563
9903.000000;0.834864
9902.000000;0.835058
9901.000000;0.834500
9900.000000;0.833384
9899.000000;0.832372
9898.000000;0.831718
9897.000000;0.831107
9896.000000;0.830332
9895.000000;0.829707
9894.000000;0.829628
9893.000000;0.829952
9892.000000;0.830111
9891.000000;0.829802
9890.000000;0.829343
9889.000000;0.829259
9888.000000;0.829677
9887.000000;0.830232
9886.000000;0.830528
9885.000000;0.830527
9884.000000;0.830504
9883.000000;0.830727
9882.000000;0.831212
9881.000000;0.831712
9880.000000;0.831832
9879.000000;0.831229
9878.000000;0.829879
9877.000000;0.828225
9876.000000;0.826927
9875.000000;0.826315
9874.000000;0.826117
9873.000000;0.825790
9872.000000;0.825112
9871.000000;0.824349
9870.000000;0.823906
9869.000000;0.823903
9868.000000;0.824092
9867.000000;0.824121
9866.000000;0.823883
9865.000000;0.823630
9864.000000;0.823658
9863.000000;0.823859
9862.000000;0.823729
9861.000000;0.822965
9860.000000;0.821873
9859.000000;0.820999
9858.000000;0.820487
9857.000000;0.820096
9856.000000;0.819735
9855.000000;0.819613
9854.000000;0.819801
9853.000000;0.820005
9852.000000;0.819939
9851.000000;0.819640
9850.000000;0.819248
9849.000000;0.818738
9848.000000;0.818083
9847.000000;0.817469
9846.000000;0.817111
9845.000000;0.816971
9844.000000;0.816874
9843.000000;0.816793
9842.000000;0.816772
9841.000000;0.816636
9840.000000;0.816109
9839.000000;0.815221
9838.000000;0.814414
9837.000000;0.814145
9836.000000;0.814478
9835.000000;0.815018
9834.000000;0.815168
9833.000000;0.814526
9832.000000;0.813212
9831.000000;0.811798
9830.000000;0.810804
9829.000000;0.810283
9828.000000;0.809979
9827.000000;0.809763
9826.000000;0.809704
9825.000000;0.809821
9824.000000;0.809991
9823.000000;0.810071
9822.000000;0.809925
9821.000000;0.809374
9820.000000;0.808384
9819.000000;0.807321
9818.000000;0.806744
9817.000000;0.806848
9816.000000;0.807266
9815.000000;0.807481
9814.000000;0.807258
9813.000000;0.806635
9812.000000;0.805781
9811.000000;0.805006
9810.000000;0.804728
9809.000000;0.805149
9808.000000;0.805980
9807.000000;0.806631
9806.000000;0.806676
9805.000000;0.806056
9804.000000;0.804962
9803.000000;0.803677
9802.000000;0.802525
9801.000000;0.801832
9800.000000;0.801787
9799.000000;0.802278
9798.000000;0.802828
9797.000000;0.802834
9796.000000;0.802048
9795.000000;0.800880
9794.000000;0.800106
9793.000000;0.800160
9792.000000;0.800777
9791.000000;0.801340
9790.000000;0.801475
9789.000000;0.801240
9788.000000;0.800865
9787.000000;0.800474
9786.000000;0.800040
9785.000000;0.799473
9784.000000;0.798707
9783.000000;0.797808
9782.000000;0.797033
9781.000000;0.796699
9780.000000;0.796934
9779.000000;0.797544
9778.000000;0.798151
9777.000000;0.798456
9776.000000;0.798361
9775.000000;0.797890
9774.000000;0.797064
9773.000000;0.795958
9772.000000;0.794852
9771.000000;0.794198
9770.000000;0.794262
9769.000000;0.794790
9768.000000;0.795134
9767.000000;0.794797
9766.000000;0.793820
9765.000000;0.792682
9764.000000;0.791938
9763.000000;0.791949
9762.000000;0.792726
9761.000000;0.793809
9760.000000;0.794400
9759.000000;0.793905
9758.000000;0.792463
9757.000000;0.790846
9756.000000;0.789746
9755.000000;0.789252
9754.000000;0.789026
9753.000000;0.788828
9752.000000;0.788658
9751.000000;0.788449
9750.000000;0.787929
9749.000000;0.786973
9748.000000;0.785956
9747.000000;0.785493
9746.000000;0.785818
9745.000000;0.786548
9744.000000;0.787070
9743.000000;0.787063
9742.000000;0.786656
9741.000000;0.786224
9740.000000;0.786044
9739.000000;0.785987
9738.000000;0.785540
9737.000000;0.784336
9736.000000;0.782747
9735.000000;0.781697
9734.000000;0.781724
9733.000000;0.782451
9732.000000;0.783144
9731.000000;0.783526
9730.000000;0.783744
9729.000000;0.783747
9728.000000;0.783251
9727.000000;0.782334
9726.000000;0.781617
9725.000000;0.781650
9724.000000;0.782323
9723.000000;0.782967
9722.000000;0.782866
9721.000000;0.781698
9720.000000;0.779799
9719.000000;0.778151
9718.000000;0.777764
9717.000000;0.778763
9716.000000;0.780155
9715.000000;0.780671
9714.000000;0.779802
9713.000000;0.778017
9712.000000;0.776275
9711.000000;0.775395
9710.000000;0.775541
9709.000000;0.776038
9708.000000;0.775952
9707.000000;0.775137
9706.000000;0.774508
9705.000000;0.774984
9704.000000;0.776322
9703.000000;0.777304
9702.000000;0.776984
9701.000000;0.775450
9700.000000;0.773457
9699.000000;0.771762
9698.000000;0.770818
9697.000000;0.770738
9696.000000;0.771344
9695.000000;0.772368
9694.000000;0.773611
9693.000000;0.774784
9692.000000;0.775380
9691.000000;0.775029
9690.000000;0.773986
9689.000000;0.772915
9688.000000;0.772147
9687.000000;0.771430
9686.000000;0.770465
9685.000000;0.769331
9684.000000;0.768254
9683.000000;0.767295
9682.000000;0.766506
9681.000000;0.766123
9680.000000;0.766327
9679.000000;0.766947
9678.000000;0.767643
9677.000000;0.768264
9676.000000;0.768829
9675.000000;0.769228
9674.000000;0.769204
9673.000000;0.768662
9672.000000;0.767801
9671.000000;0.766897
9670.000000;0.766018
9669.000000;0.765018
9668.000000;0.763824
9667.000000;0.762700
9666.000000;0.762156
9665.000000;0.762478
9664.000000;0.763371
9663.000000;0.764208
9662.000000;0.764649
9661.000000;0.764872
9660.000000;0.765133
9659.000000;0.765320
9658.000000;0.765102
9657.000000;0.764416
9656.000000;0.763613
9655.000000;0.763064
9654.000000;0.762729
9653.000000;0.762212
9652.000000;0.761279
9651.000000;0.760227
9650.000000;0.759566
9649.000000;0.759338
9648.000000;0.758982
9647.000000;0.758095
9646.000000;0.757092
9645.000000;0.756743
9644.000000;0.757202
9643.000000;0.757890
9642.000000;0.758306
9641.000000;0.758491
9640.000000;0.758572
9639.000000;0.758343
9638.000000;0.757624
9637.000000;0.756686
9636.000000;0.755945
9635.000000;0.755459
9634.000000;0.755055
9633.000000;0.754752
9632.000000;0.754711
9631.000000;0.754863
9630.000000;0.754924
9629.000000;0.754735
9628.000000;0.754324
9627.000000;0.753683
9626.000000;0.752767
9625.000000;0.751699
9624.000000;0.750739
9623.000000;0.750051
9622.000000;0.749692
9621.000000;0.749748
9620.000000;0.750213
9619.000000;0.750790
9618.000000;0.751090
9617.000000;0.751070
9616.000000;0.751023
9615.000000;0.751121
9614.000000;0.751206
9613.000000;0.751074
9612.000000;0.750761
9611.000000;0.750442
9610.000000;0.750234
9609.000000;0.750166
9608.000000;0.750181
9607.000000;0.750107
9606.000000;0.749785
9605.000000;0.749305
9604.000000;0.748945
9603.000000;0.748841
9602.000000;0.748832
9601.000000;0.748659
9600.000000;0.748194
9599.000000;0.747477
9598.000000;0.746709
9597.000000;0.746233
9596.000000;0.746275
9595.000000;0.746623
9594.000000;0.746706
9593.000000;0.746141
9592.000000;0.745101
9591.000000;0.744103
9590.000000;0.743562
9589.000000;0.743573
9588.000000;0.743941
9587.000000;0.744269
9586.000000;0.744153
9585.000000;0.743493
9584.000000;0.742623
9583.000000;0.742066
9582.000000;0.742123
9581.000000;0.742652
9580.000000;0.743165
9579.000000;0.743185
9578.000000;0.742653
9577.000000;0.741982
9576.000000;0.741587
9575.000000;0.741376
9574.000000;0.740929
9573.000000;0.740148
9572.000000;0.739456
9571.000000;0.739219
9570.000000;0.739255
9569.000000;0.739130
9568.000000;0.738729
9567.000000;0.738267
9566.000000;0.737868
9565.000000;0.737468
9564.000000;0.737129
9563.000000;0.737156
9562.000000;0.737716
9561.000000;0.738491
9560.000000;0.738856
9559.000000;0.738431
9558.000000;0.737403
9557.000000;0.736334
9556.000000;0.735702
9555.000000;0.735588
9554.000000;0.735716
9553.000000;0.735715
9552.000000;0.735365
9551.000000;0.734721
9550.000000;0.734119
9549.000000;0.733946
9548.000000;0.734250
9547.000000;0.734566
9546.000000;0.734308
9545.000000;0.733396
9544.000000;0.732343
9543.000000;0.731693
9542.000000;0.731523
9541.000000;0.731530
9540.000000;0.731478
9539.000000;0.731381
9538.000000;0.731345
9537.000000;0.731400
9536.000000;0.731506
9535.000000;0.731612
9534.000000;0.731666
9533.000000;0.731605
9532.000000;0.731289
9531.000000;0.730511
9530.000000;0.729212
9529.000000;0.727761
9528.000000;0.726845
9527.000000;0.726882
9526.000000;0.727559
9525.000000;0.728160
9524.000000;0.728348
9523.000000;0.728430
9522.000000;0.728736
9521.000000;0.729003
9520.000000;0.728689
9519.000000;0.727841
9518.000000;0.727251
9517.000000;0.727532
9516.000000;0.728302
9515.000000;0.728619
9514.000000;0.728087
9513.000000;0.727134
9512.000000;0.726174
9511.000000;0.725016
9510.000000;0.723449
9509.000000;0.722028
9508.000000;0.721684
9507.000000;0.722547
9506.000000;0.723609
9505.000000;0.723770
9504.000000;0.722994
9503.000000;0.722202
9502.000000;0.722179
9501.000000;0.722802
9500.000000;0.723317
9499.000000;0.723228
9498.000000;0.722789
9497.000000;0.722611
9496.000000;0.722858
9495.000000;0.723041
9494.000000;0.722702
9493.000000;0.722071
9492.000000;0.721742
9491.000000;0.721838
9490.000000;0.721891
9489.000000;0.721549
9488.000000;0.721003
9487.000000;0.720551
9486.000000;0.720109
9485.000000;0.719457
9484.000000;0.718724
9483.000000;0.718312
9482.000000;0.718397
9481.000000;0.718703
9480.000000;0.718765
9479.000000;0.718261
9478.000000;0.717164
9477.000000;0.715784
9476.000000;0.714652
9475.000000;0.714223
9474.000000;0.714585
9473.000000;0.715400
9472.000000;0.716052
9471.000000;0.715966
9470.000000;0.715066
9469.000000;0.714062
9468.000000;0.714008
9467.000000;0.715339
9466.000000;0.717378
9465.000000;0.718959
9464.000000;0.719447
9463.000000;0.718998
9462.000000;0.718033
9461.000000;0.716799
9460.000000;0.715450
9459.000000;0.714202
9458.000000;0.713262
9457.000000;0.712714
9456.000000;0.712538
9455.000000;0.712643
9454.000000;0.712851
9453.000000;0.712989
9452.000000;0.713037
9451.000000;0.713097
9450.000000;0.713218
9449.000000;0.713306
9448.000000;0.713247
9447.000000;0.713037
9446.000000;0.712788
9445.000000;0.712673
9444.000000;0.712824
9443.000000;0.713197
9442.000000;0.713512
9441.000000;0.713412
9440.000000;0.712714
9439.000000;0.711536
9438.000000;0.710232
9437.000000;0.709239
9436.000000;0.708865
9435.000000;0.709072
9434.000000;0.709427
9433.000000;0.709396
9432.000000;0.708752
9431.000000;0.707759
9430.000000;0.706943
9429.000000;0.706690
9428.000000;0.706967
9427.000000;0.707421
9426.000000;0.707772
9425.000000;0.708102
9424.000000;0.708600
9423.000000;0.709057
9422.000000;0.708836
9421.000000;0.707558
9420.000000;0.705678
9419.000000;0.704169
9418.000000;0.703629
9417.000000;0.703828
9416.000000;0.704081
9415.000000;0.703930
9414.000000;0.703491
9413.000000;0.703271
9412.000000;0.703644
9411.000000;0.704434
9410.000000;0.705008
9409.000000;0.704848
9408.000000;0.704013
9407.000000;0.703004
9406.000000;0.702309
9405.000000;0.702144
9404.000000;0.702476
9403.000000;0.703052
9402.000000;0.703478
9401.000000;0.703447
9400.000000;0.702936
9399.000000;0.702109
9398.000000;0.701122
9397.000000;0.700166
9396.000000;0.699538
9395.000000;0.699421
9394.000000;0.699621
9393.000000;0.699795
9392.000000;0.699917
9391.000000;0.700254
9390.000000;0.700859
9389.000000;0.701388
9388.000000;0.701522
9387.000000;0.701333
9386.000000;0.701102
9385.000000;0.700951
9384.000000;0.700805
9383.000000;0.700545
9382.000000;0.700055
9381.000000;0.699252
9380.000000;0.698221
9379.000000;0.697222
9378.000000;0.696452
9377.000000;0.695924
9376.000000;0.695671
9375.000000;0.695874
9374.000000;0.696563
9373.000000;0.697318
9372.000000;0.697543
9371.000000;0.697092
9370.000000;0.696452
9369.000000;0.696260
9368.000000;0.696730
9367.000000;0.697527
9366.000000;0.698030
9365.000000;0.697748
9364.000000;0.696701
9363.000000;0.695482
9362.000000;0.694852
9361.000000;0.695133
9360.000000;0.695996
9359.000000;0.696808
9358.000000;0.697102
9357.000000;0.696719
9356.000000;0.695714
9355.000000;0.694327
9354.000000;0.692997
9353.000000;0.692187
9352.000000;0.692074
9351.000000;0.692425
9350.000000;0.692794
9349.000000;0.692810
9348.000000;0.692331
9347.000000;0.691464
9346.000000;0.690544
9345.000000;0.689988
9344.000000;0.690013
9343.000000;0.690455
9342.000000;0.690931
9341.000000;0.691191
9340.000000;0.691286
9339.000000;0.691401
9338.000000;0.691590
9337.000000;0.691715
9336.000000;0.691598
9335.000000;0.691214
9334.000000;0.690734
9333.000000;0.690401
9332.000000;0.690311
9331.000000;0.690315
9330.000000;0.690193
9329.000000;0.689913
9328.000000;0.689607
9327.000000;0.689278
9326.000000;0.688703
9325.000000;0.687787
9324.000000;0.686897
9323.000000;0.686610
9322.000000;0.687061
9321.000000;0.687715
9320.000000;0.687877
9319.000000;0.687394
9318.000000;0.686739
9317.000000;0.686459
9316.000000;0.686658
9315.000000;0.687019
9314.000000;0.687208
9313.000000;0.687149
9312.000000;0.686949
9311.000000;0.686710
9310.000000;0.686480
9309.000000;0.686286
9308.000000;0.686105
9307.000000;0.685861
9306.000000;0.685563
9305.000000;0.685391
9304.000000;0.685490
9303.000000;0.685727
9302.000000;0.685789
9301.000000;0.685565
9300.000000;0.685228
9299.000000;0.684910
9298.000000;0.684530
9297.000000;0.684068
9296.000000;0.683801
9295.000000;0.684013
9294.000000;0.684528
9293.000000;0.684777
9292.000000;0.684351
9291.000000;0.683396
9290.000000;0.682446
9289.000000;0.681963
9288.000000;0.682017
9287.000000;0.682309
9286.000000;0.682492
9285.000000;0.682484
9284.000000;0.682423
9283.000000;0.682324
9282.000000;0.681971
9281.000000;0.681266
9280.000000;0.680496
9279.000000;0.680035
9278.000000;0.679895
9277.000000;0.679811
9276.000000;0.679701
9275.000000;0.679743
9274.000000;0.679965
9273.000000;0.680064
9272.000000;0.679746
9271.000000;0.679082
9270.000000;0.678430
9269.000000;0.678121
9268.000000;0.678275
9267.000000;0.678735
9266.000000;0.679118
9265.000000;0.679075
9264.000000;0.678615
9263.000000;0.678085
9262.000000;0.677797
9261.000000;0.677803
9260.000000;0.678026
9259.000000;0.678392
9258.000000;0.678738
9257.000000;0.678800
9256.000000;0.678472
9255.000000;0.677949
9254.000000;0.677467
9253.000000;0.677014
9252.000000;0.676477
9251.000000;0.675970
9250.000000;0.675789
9249.000000;0.676026
9248.000000;0.676373
9247.000000;0.676351
9246.000000;0.675708
9245.000000;0.674645
9244.000000;0.673702
9243.000000;0.673363
9242.000000;0.673701
9241.000000;0.674431
9240.000000;0.675274
9239.000000;0.676132
9238.000000;0.676867
9237.000000;0.677159
9236.000000;0.676783
9235.000000;0.675966
9234.000000;0.675265
9233.000000;0.675100
9232.000000;0.675480
9231.000000;0.676102
9230.000000;0.676565
9229.000000;0.676526
9228.000000;0.675835
9227.000000;0.674585
9226.000000;0.673033
9225.000000;0.671524
9224.000000;0.670511
9223.000000;0.670399
9222.000000;0.671108
9221.000000;0.671896
9220.000000;0.671953
9219.000000;0.671248
9218.000000;0.670567
9217.000000;0.670599
9216.000000;0.671219
9215.000000;0.671778
9214.000000;0.671923
9213.000000;0.671898
9212.000000;0.672070
9211.000000;0.672416
9210.000000;0.672567
9209.000000;0.672271
9208.000000;0.671712
9207.000000;0.671339
9206.000000;0.671386
9205.000000;0.671607
9204.000000;0.671522
9203.000000;0.670908
9202.000000;0.670000
9201.000000;0.669234
9200.000000;0.668867
9199.000000;0.668870
9198.000000;0.669078
9197.000000;0.669345
9196.000000;0.669597
9195.000000;0.669825
9194.000000;0.670061
9193.000000;0.670322
9192.000000;0.670533
9191.000000;0.670518
9190.000000;0.670128
9189.000000;0.669414
9188.000000;0.668655
9187.000000;0.668148
9186.000000;0.667975
9185.000000;0.667999
9184.000000;0.668062
9183.000000;0.668093
9182.000000;0.668040
9181.000000;0.667838
9180.000000;0.667544
9179.000000;0.667355
9178.000000;0.667383
9177.000000;0.667478
9176.000000;0.667425
9175.000000;0.667235
9174.000000;0.667113
9173.000000;0.667150
9172.000000;0.667211
9171.000000;0.667107
9170.000000;0.666742
9169.000000;0.666098
9168.000000;0.665282
9167.000000;0.664598
9166.000000;0.664384
9165.000000;0.664652
9164.000000;0.665041
9163.000000;0.665218
9162.000000;0.665187
9161.000000;0.665119
9160.000000;0.665037
9159.000000;0.664826
9158.000000;0.664464
9157.000000;0.664060
9156.000000;0.663704
9155.000000;0.663411
9154.000000;0.663195
9153.000000;0.663109
9152.000000;0.663198
9151.000000;0.663474
9150.000000;0.663875
9149.000000;0.664171
9148.000000;0.664038
9147.000000;0.663401
9146.000000;0.662678
9145.000000;0.662492
9144.000000;0.663068
9143.000000;0.663989
9142.000000;0.664559
9141.000000;0.664373
9140.000000;0.663592
9139.000000;0.662783
9138.000000;0.662463
9137.000000;0.662669
9136.000000;0.662943
9135.000000;0.662869
9134.000000;0.662579
9133.000000;0.662551
9132.000000;0.662924
9131.000000;0.663275
9130.000000;0.663176
9129.000000;0.662714
9128.000000;0.662280
9127.000000;0.662058
9126.000000;0.661991
9125.000000;0.662098
9124.000000;0.662442
9123.000000;0.662780
9122.000000;0.662598
9121.000000;0.661711
9120.000000;0.660609
9119.000000;0.659990
9118.000000;0.660048
9117.000000;0.660402
9116.000000;0.660621
9115.000000;0.660627
9114.000000;0.660539
9113.000000;0.660384
9112.000000;0.660116
9111.000000;0.659819
9110.000000;0.659690
9109.000000;0.659777
9108.000000;0.659857
9107.000000;0.659672
9106.000000;0.659256
9105.000000;0.658934
9104.000000;0.658988
9103.000000;0.659394
9102.000000;0.659918
9101.000000;0.660371
9100.000000;0.660656
9099.000000;0.660639
9098.000000;0.660142
9097.000000;0.659164
9096.000000;0.658030
9095.000000;0.657196
9094.000000;0.656871
9093.000000;0.656877
9092.000000;0.656870
9091.000000;0.656673
9090.000000;0.656367
9089.000000;0.656130
9088.000000;0.656072
9087.000000;0.656258
9086.000000;0.656759
9085.000000;0.657527
9084.000000;0.658229
9083.000000;0.658391
9082.000000;0.657869
9081.000000;0.657084
9080.000000;0.656637
9079.000000;0.656710
9078.000000;0.656985
9077.000000;0.657128
9076.000000;0.657143
9075.000000;0.657192
9074.000000;0.657267
9073.000000;0.657191
9072.000000;0.656845
9071.000000;0.656255
9070.000000;0.655572
9069.000000;0.655067
9068.000000;0.655024
9067.000000;0.655435
9066.000000;0.655871
9065.000000;0.655853
9064.000000;0.655363
9063.000000;0.654827
9062.000000;0.654599
9061.000000;0.654669
9060.000000;0.654870
9059.000000;0.655135
9058.000000;0.655481
9057.000000;0.655892
9056.000000;0.656316
9055.000000;0.656623
9054.000000;0.656517
9053.000000;0.655714
9052.000000;0.654358
9051.000000;0.653079
9050.000000;0.652433
9049.000000;0.652351
9048.000000;0.652329
9047.000000;0.652080
9046.000000;0.651800
9045.000000;0.651812
9044.000000;0.652160
9043.000000;0.652605
9042.000000;0.652888
9041.000000;0.652910
9040.000000;0.652737
9039.000000;0.652493
9038.000000;0.652265
9037.000000;0.652128
9036.000000;0.652224
9035.000000;0.652656
9034.000000;0.653230
9033.000000;0.653488
9032.000000;0.653173
9031.000000;0.652539
9030.000000;0.652018
9029.000000;0.651686
9028.000000;0.651333
9027.000000;0.650946
9026.000000;0.650789
9025.000000;0.650977
9024.000000;0.651320
9023.000000;0.651652
9022.000000;0.652007
9021.000000;0.652307
9020.000000;0.652200
9019.000000;0.651512
9018.000000;0.650651
9017.000000;0.650290
9016.000000;0.650698
9015.000000;0.651552
9014.000000;0.652291
9013.000000;0.652472
9012.000000;0.651895
9011.000000;0.650718
9010.000000;0.649480
9009.000000;0.648786
9008.000000;0.648877
9007.000000;0.649556
9006.000000;0.650452
9005.000000;0.651229
9004.000000;0.651614
9003.000000;0.651459
9002.000000;0.650827
9001.000000;0.649940
9000.000000;0.649029
8999.000000;0.648326
8998.000000;0.648105
8997.000000;0.648500
8996.000000;0.649250
8995.000000;0.649807
8994.000000;0.649814
8993.000000;0.649397
8992.000000;0.649024
8991.000000;0.649136
8990.000000;0.649859
8989.000000;0.650888
8988.000000;0.651648
8987.000000;0.651709
8986.000000;0.651090
8985.000000;0.650098
8984.000000;0.648996
8983.000000;0.647997
8982.000000;0.647447
8981.000000;0.647639
8980.000000;0.648389
8979.000000;0.649107
8978.000000;0.649411
8977.000000;0.649418
8976.000000;0.649373
8975.000000;0.649274
8974.000000;0.649062
8973.000000;0.648910
8972.000000;0.649048
8971.000000;0.649441
8970.000000;0.649857
8969.000000;0.650157
8968.000000;0.650292
8967.000000;0.650166
8966.000000;0.649752
8965.000000;0.649282
8964.000000;0.649075
8963.000000;0.649173
8962.000000;0.649349
8961.000000;0.649440
8960.000000;0.649466
8959.000000;0.649454
8958.000000;0.649392
8957.000000;0.649358
8956.000000;0.649477
8955.000000;0.649662
8954.000000;0.649608
8953.000000;0.649150
8952.000000;0.648501
8951.000000;0.648024
8950.000000;0.647865
8949.000000;0.647898
8948.000000;0.647954
8947.000000;0.647990
8946.000000;0.648036
8945.000000;0.648038
8944.000000;0.647813
8943.000000;0.647238
8942.000000;0.646517
8941.000000;0.646140
8940.000000;0.646412
8939.000000;0.647068
8938.000000;0.647508
8937.000000;0.647404
8936.000000;0.646958
8935.000000;0.646599
8934.000000;0.646595
8933.000000;0.646954
8932.000000;0.647491
8931.000000;0.647902
8930.000000;0.647929
8929.000000;0.647569
8928.000000;0.647056
8927.000000;0.646603
8926.000000;0.646291
8925.000000;0.646177
8924.000000;0.646319
8923.000000;0.646601
8922.000000;0.646742
8921.000000;0.646591
8920.000000;0.646263
8919.000000;0.645897
8918.000000;0.645485
8917.000000;0.645084
8916.000000;0.644958
8915.000000;0.645240
8914.000000;0.645609
8913.000000;0.645622
8912.000000;0.645322
8911.000000;0.645217
8910.000000;0.645605
8909.000000;0.646199
8908.000000;0.646538
8907.000000;0.646530
8906.000000;0.646415
8905.000000;0.646372
8904.000000;0.646341
8903.000000;0.646194
8902.000000;0.645927
8901.000000;0.645667
8900.000000;0.645567
8899.000000;0.645682
8898.000000;0.645916
8897.000000;0.646142
8896.000000;0.646326
8895.000000;0.646486
8894.000000;0.646542
8893.000000;0.646365
8892.000000;0.646022
8891.000000;0.645828
8890.000000;0.646018
8889.000000;0.646455
8888.000000;0.646769
8887.000000;0.646740
8886.000000;0.646471
8885.000000;0.646228
8884.000000;0.646196
8883.000000;0.646323
8882.000000;0.646344
8881.000000;0.646039
8880.000000;0.645543
8879.000000;0.645293
8878.000000;0.645538
8877.000000;0.645990
8876.000000;0.646167
8875.000000;0.646009
8874.000000;0.645910
8873.000000;0.646141
8872.000000;0.646530
8871.000000;0.646820
8870.000000;0.647035
8869.000000;0.647306
8868.000000;0.647540
8867.000000;0.647563
8866.000000;0.647491
8865.000000;0.647628
8864.000000;0.647993
8863.000000;0.648187
8862.000000;0.647837
8861.000000;0.647005
8860.000000;0.646057
8859.000000;0.645319
8858.000000;0.644952
8857.000000;0.645021
8856.000000;0.645490
8855.000000;0.646160
8854.000000;0.646797
8853.000000;0.647331
8852.000000;0.647834
8851.000000;0.648283
8850.000000;0.648477
8849.000000;0.648256
8848.000000;0.647736
8847.000000;0.647241
8846.000000;0.647024
8845.000000;0.647112
8844.000000;0.647395
8843.000000;0.647770
8842.000000;0.648189
8841.000000;0.648603
8840.000000;0.648933
8839.000000;0.649056
8838.000000;0.648823
8837.000000;0.648173
8836.000000;0.647291
8835.000000;0.646615
8834.000000;0.646526
8833.000000;0.646989
8832.000000;0.647583
8831.000000;0.647919
8830.000000;0.647927
8829.000000;0.647723
8828.000000;0.647373
8827.000000;0.646950
8826.000000;0.646689
8825.000000;0.646845
8824.000000;0.647375
8823.000000;0.647941
8822.000000;0.648277
8821.000000;0.648442
8820.000000;0.648631
8819.000000;0.648879
8818.000000;0.649048
8817.000000;0.649039
8816.000000;0.648930
8815.000000;0.648901
8814.000000;0.649062
8813.000000;0.649334
8812.000000;0.649499
8811.000000;0.649451
8810.000000;0.649356
8809.000000;0.649473
8808.000000;0.649846
8807.000000;0.650319
8806.000000;0.650833
8805.000000;0.651476
8804.000000;0.652166
8803.000000;0.652539
8802.000000;0.652350
8801.000000;0.651836
8800.000000;0.651485
8799.000000;0.651531
8798.000000;0.651884
8797.000000;0.652412
8796.000000;0.653023
8795.000000;0.653512
8794.000000;0.653616
8793.000000;0.653324
8792.000000;0.652950
8791.000000;0.652815
8790.000000;0.652990
8789.000000;0.653325
8788.000000;0.653580
8787.000000;0.653510
8786.000000;0.653058
8785.000000;0.652513
8784.000000;0.652299
8783.000000;0.652503
8782.000000;0.652803
8781.000000;0.652949
8780.000000;0.653095
8779.000000;0.653488
8778.000000;0.654016
8777.000000;0.654321
8776.000000;0.654269
8775.000000;0.654038
8774.000000;0.653794
8773.000000;0.653543
8772.000000;0.653347
8771.000000;0.653425
8770.000000;0.653928
8769.000000;0.654722
8768.000000;0.655501
8767.000000;0.656033
8766.000000;0.656257
8765.000000;0.656287
8764.000000;0.656362
8763.000000;0.656691
8762.000000;0.657222
8761.000000;0.657651
8760.000000;0.657767
8759.000000;0.657704
8758.000000;0.657750
8757.000000;0.657976
8756.000000;0.658216
8755.000000;0.658391
8754.000000;0.658656
8753.000000;0.659165
8752.000000;0.659818
8751.000000;0.660357
8750.000000;0.660649
8749.000000;0.660792
8748.000000;0.660981
8747.000000;0.661320
8746.000000;0.661738
8745.000000;0.662008
8744.000000;0.661920
8743.000000;0.661507
8742.000000;0.661107
8741.000000;0.661072
8740.000000;0.661420
8739.000000;0.661854
8738.000000;0.662158
8737.000000;0.662431
8736.000000;0.662854
8735.000000;0.663340
8734.000000;0.663590
8733.000000;0.663466
8732.000000;0.663161
8731.000000;0.662971
8730.000000;0.663017
8729.000000;0.663238
8728.000000;0.663549
8727.000000;0.663883
8726.000000;0.664140
8725.000000;0.664242
8724.000000;0.664283
8723.000000;0.664505
8722.000000;0.665072
8721.000000;0.665891
8720.000000;0.666704
8719.000000;0.667313
8718.000000;0.667637
8717.000000;0.667647
8716.000000;0.667374
8715.000000;0.667012
8714.000000;0.666848
8713.000000;0.666997
8712.000000;0.667283
8711.000000;0.667480
8710.000000;0.667604
8709.000000;0.667815
8708.000000;0.668095
8707.000000;0.668205
8706.000000;0.668049
8705.000000;0.667905
8704.000000;0.668167
8703.000000;0.668910
8702.000000;0.669803
8701.000000;0.670413
8700.000000;0.670548
8699.000000;0.670364
8698.000000;0.670211
8697.000000;0.670327
8696.000000;0.670619
8695.000000;0.670797
8694.000000;0.670752
8693.000000;0.670717
8692.000000;0.670952
8691.000000;0.671374
8690.000000;0.671673
8689.000000;0.671736
8688.000000;0.671766
8687.000000;0.671962
8686.000000;0.672245
8685.000000;0.672383
8684.000000;0.672301
8683.000000;0.672198
8682.000000;0.672351
8681.000000;0.672821
8680.000000;0.673350
8679.000000;0.673583
8678.000000;0.673450
8677.000000;0.673273
8676.000000;0.673421
8675.000000;0.673924
8674.000000;0.674514
8673.000000;0.674968
8672.000000;0.675242
8671.000000;0.675304
8670.000000;0.675080
8669.000000;0.674615
8668.000000;0.674130
8667.000000;0.673827
8666.000000;0.673748
8665.000000;0.673859
8664.000000;0.674115
8663.000000;0.674383
8662.000000;0.674489
8661.000000;0.674482
8660.000000;0.674708
8659.000000;0.675464
8658.000000;0.676612
8657.000000;0.677645
8656.000000;0.678095
8655.000000;0.677828
8654.000000;0.677040
8653.000000;0.676093
8652.000000;0.675314
8651.000000;0.674854
8650.000000;0.674735
8649.000000;0.674988
8648.000000;0.675619
8647.000000;0.676401
8646.000000;0.676933
8645.000000;0.677032
8644.000000;0.676933
8643.000000;0.676960
8642.000000;0.677148
8641.000000;0.677381
8640.000000;0.677735
8639.000000;0.678368
8638.000000;0.679102
8637.000000;0.679430
8636.000000;0.679053
8635.000000;0.678211
8634.000000;0.677422
8633.000000;0.677037
8632.000000;0.677107
8631.000000;0.677491
8630.000000;0.677956
8629.000000;0.678285
8628.000000;0.678421
8627.000000;0.678501
8626.000000;0.678679
8625.000000;0.678944
8624.000000;0.679133
8623.000000;0.679103
8622.000000;0.678886
8621.000000;0.678701
8620.000000;0.678754
8619.000000;0.678983
8618.000000;0.679055
8617.000000;0.678742
8616.000000;0.678247
8615.000000;0.678015
8614.000000;0.678246
8613.000000;0.678738
8612.000000;0.679168
8611.000000;0.679349
8610.000000;0.679246
8609.000000;0.678949
8608.000000;0.678716
8607.000000;0.678781
8606.000000;0.679035
8605.000000;0.679102
8604.000000;0.678874
8603.000000;0.678756
8602.000000;0.679154
8601.000000;0.679884
8600.000000;0.680352
8599.000000;0.680253
8598.000000;0.679865
8597.000000;0.679632
8596.000000;0.679664
8595.000000;0.679747
8594.000000;0.679675
8593.000000;0.679479
8592.000000;0.679381
8591.000000;0.679590
8590.000000;0.680121
8589.000000;0.680765
8588.000000;0.681242
8587.000000;0.681371
8586.000000;0.681131
8585.000000;0.680653
8584.000000;0.680161
8583.000000;0.679837
8582.000000;0.679666
8581.000000;0.679510
8580.000000;0.679343
8579.000000;0.679318
8578.000000;0.679491
8577.000000;0.679637
8576.000000;0.679515
8575.000000;0.679219
8574.000000;0.679070
8573.000000;0.679199
8572.000000;0.679446
8571.000000;0.679670
8570.000000;0.679922
8569.000000;0.680240
8568.000000;0.680485
8567.000000;0.680523
8566.000000;0.680430
8565.000000;0.680386
8564.000000;0.680457
8563.000000;0.680600
8562.000000;0.680781
8561.000000;0.680964
8560.000000;0.681021
8559.000000;0.680821
8558.000000;0.680431
8557.000000;0.680094
8556.000000;0.679989
8555.000000;0.680085
8554.000000;0.680253
8553.000000;0.680425
8552.000000;0.680574
8551.000000;0.680626
8550.000000;0.680518
8549.000000;0.680330
8548.000000;0.680273
8547.000000;0.680475
8546.000000;0.680820
8545.000000;0.681051
8544.000000;0.681034
8543.000000;0.680866
8542.000000;0.680714
8541.000000;0.680624
8540.000000;0.680526
8539.000000;0.680403
8538.000000;0.680360
8537.000000;0.680507
8536.000000;0.680809
8535.000000;0.681085
8534.000000;0.681176
8533.000000;0.681087
8532.000000;0.680954
8531.000000;0.680859
8530.000000;0.680736
8529.000000;0.680490
8528.000000;0.680169
8527.000000;0.679928
8526.000000;0.679846
8525.000000;0.679875
8524.000000;0.679990
8523.000000;0.680259
8522.000000;0.680691
8521.000000;0.681104
8520.000000;0.681293
8519.000000;0.681293
8518.000000;0.681327
8517.000000;0.681503
8516.000000;0.681656
8515.000000;0.681545
8514.000000;0.681118
8513.000000;0.680531
8512.000000;0.679969
8511.000000;0.679516
8510.000000;0.679215
8509.000000;0.679163
8508.000000;0.679507
8507.000000;0.680266
8506.000000;0.681214
8505.000000;0.681995
8504.000000;0.682401
8503.000000;0.682484
8502.000000;0.682397
8501.000000;0.682235
8500.000000;0.682073
8499.000000;0.682034
8498.000000;0.682167
8497.000000;0.682325
8496.000000;0.682319
8495.000000;0.682164
8494.000000;0.682046
8493.000000;0.682069
8492.000000;0.682177
8491.000000;0.682277
8490.000000;0.682295
8489.000000;0.682109
8488.000000;0.681639
8487.000000;0.681082
8486.000000;0.680867
8485.000000;0.681215
8484.000000;0.681866
8483.000000;0.682367
8482.000000;0.682545
8481.000000;0.682559
8480.000000;0.682551
8479.000000;0.682447
8478.000000;0.682122
8477.000000;0.681663
8476.000000;0.681375
8475.000000;0.681522
8474.000000;0.682060
8473.000000;0.682600
8472.000000;0.682697
8471.000000;0.682258
8470.000000;0.681641
8469.000000;0.681323
8468.000000;0.681488
8467.000000;0.681937
8466.000000;0.682351
8465.000000;0.682574
8464.000000;0.682658
8463.000000;0.682714
8462.000000;0.682776
8461.000000;0.682799
8460.000000;0.682747
8459.000000;0.682643
8458.000000;0.682487
8457.000000;0.682224
8456.000000;0.681848
8455.000000;0.681538
8454.000000;0.681533
8453.000000;0.681885
8452.000000;0.682414
8451.000000;0.682940
8450.000000;0.683422
8449.000000;0.683831
8448.000000;0.684035
8447.000000;0.683952
8446.000000;0.683715
8445.000000;0.683555
8444.000000;0.683553
8443.000000;0.683621
8442.000000;0.683682
8441.000000;0.683747
8440.000000;0.683826
8439.000000;0.683890
8438.000000;0.683936
8437.000000;0.684020
8436.000000;0.684187
8435.000000;0.684392
8434.000000;0.684495
8433.000000;0.684306
8432.000000;0.683715
8431.000000;0.682879
8430.000000;0.682230
8429.000000;0.682170
8428.000000;0.682710
8427.000000;0.683443
8426.000000;0.683893
8425.000000;0.683878
8424.000000;0.683581
8423.000000;0.683332
8422.000000;0.683343
8421.000000;0.683585
8420.000000;0.683893
8419.000000;0.684182
8418.000000;0.684480
8417.000000;0.684762
8416.000000;0.684829
8415.000000;0.684506
8414.000000;0.683918
8413.000000;0.683452
8412.000000;0.683415
8411.000000;0.683791
8410.000000;0.684310
8409.000000;0.684692
8408.000000;0.684813
8407.000000;0.684717
8406.000000;0.684528
8405.000000;0.684350
8404.000000;0.684238
8403.000000;0.684248
8402.000000;0.684445
8401.000000;0.684808
8400.000000;0.685200
8399.000000;0.685505
8398.000000;0.685731
8397.000000;0.685917
8396.000000;0.685981
8395.000000;0.685816
8394.000000;0.685515
8393.000000;0.685331
8392.000000;0.685387
8391.000000;0.685562
8390.000000;0.685717
8389.000000;0.685903
8388.000000;0.686222
8387.000000;0.686568
8386.000000;0.686635
8385.000000;0.686222
8384.000000;0.685468
8383.000000;0.684771
8382.000000;0.684474
8381.000000;0.684602
8380.000000;0.684876
8379.000000;0.685007
8378.000000;0.684962
8377.000000;0.684936
8376.000000;0.685101
8375.000000;0.685429
8374.000000;0.685758
8373.000000;0.685933
8372.000000;0.685888
8371.000000;0.685663
8370.000000;0.685414
8369.000000;0.685349
8368.000000;0.685576
8367.000000;0.686019
8366.000000;0.686481
8365.000000;0.686782
8364.000000;0.686859
8363.000000;0.686803
8362.000000;0.686783
8361.000000;0.686865
8360.000000;0.686907
8359.000000;0.686708
8358.000000;0.686292
8357.000000;0.685950
8356.000000;0.685942
8355.000000;0.686237
8354.000000;0.686616
8353.000000;0.686920
8352.000000;0.687090
8351.000000;0.687060
8350.000000;0.686787
8349.000000;0.686421
8348.000000;0.686266
8347.000000;0.686467
8346.000000;0.686822
8345.000000;0.687010
8344.000000;0.686968
8343.000000;0.686917
8342.000000;0.687005
8341.000000;0.687090
8340.000000;0.686977
8339.000000;0.686767
8338.000000;0.686778
8337.000000;0.687107
8336.000000;0.687437
8335.000000;0.687382
8334.000000;0.686930
8333.000000;0.686412
8332.000000;0.686107
8331.000000;0.686053
8330.000000;0.686186
8329.000000;0.686496
8328.000000;0.686945
8327.000000;0.687378
8326.000000;0.687661
8325.000000;0.687832
8324.000000;0.688025
8323.000000;0.688256
8322.000000;0.688392
8321.000000;0.688337
8320.000000;0.688181
8319.000000;0.688105
8318.000000;0.688200
8317.000000;0.688410
8316.000000;0.688641
8315.000000;0.688855
8314.000000;0.689015
8313.000000;0.689004
8312.000000;0.688717
8311.000000;0.688247
8310.000000;0.687909
8309.000000;0.687954
8308.000000;0.688288
8307.000000;0.688581
8306.000000;0.688656
8305.000000;0.688654
8304.000000;0.688773
8303.000000;0.688967
8302.000000;0.689034
8301.000000;0.688927
8300.000000;0.688834
8299.000000;0.688903
8298.000000;0.689004
8297.000000;0.688875
8296.000000;0.688457
8295.000000;0.687998
8294.000000;0.687799
8293.000000;0.687909
8292.000000;0.688148
8291.000000;0.688346
8290.000000;0.688507
8289.000000;0.688705
8288.000000;0.688903
8287.000000;0.688947
8286.000000;0.688720
8285.000000;0.688297
8284.000000;0.687935
8283.000000;0.687893
8282.000000;0.688215
8281.000000;0.688704
8280.000000;0.689131
8279.000000;0.689450
8278.000000;0.689722
8277.000000;0.689871
8276.000000;0.689680
8275.000000;0.689110
8274.000000;0.688489
8273.000000;0.688255
8272.000000;0.688538
8271.000000;0.689077
8270.000000;0.689495
8269.000000;0.689563
8268.000000;0.689280
8267.000000;0.688847
8266.000000;0.688542
8265.000000;0.688513
8264.000000;0.688669
8263.000000;0.688843
8262.000000;0.689024
8261.000000;0.689295
8260.000000;0.689605
8259.000000;0.689761
8258.000000;0.689678
8257.000000;0.689497
8256.000000;0.689408
8255.000000;0.689459
8254.000000;0.689590
8253.000000;0.689747
8252.000000;0.689914
8251.000000;0.690074
8250.000000;0.690181
8249.000000;0.690119
8248.000000;0.689734
8247.000000;0.689043
8246.000000;0.688397
8245.000000;0.688254
8244.000000;0.688727
8243.000000;0.689479
8242.000000;0.690105
8241.000000;0.690483
8240.000000;0.690692
8239.000000;0.690779
8238.000000;0.690745
8237.000000;0.690654
8236.000000;0.690574
8235.000000;0.690476
8234.000000;0.690325
8233.000000;0.690209
8232.000000;0.690263
8231.000000;0.690493
8230.000000;0.690788
8229.000000;0.691046
8228.000000;0.691202
8227.000000;0.691188
8226.000000;0.690998
8225.000000;0.690769
8224.000000;0.690685
8223.000000;0.690784
8222.000000;0.690955
8221.000000;0.691112
8220.000000;0.691283
8219.000000;0.691537
8218.000000;0.691901
8217.000000;0.692314
8216.000000;0.692602
8215.000000;0.692552
8214.000000;0.692131
8213.000000;0.691610
8212.000000;0.691356
8211.000000;0.691501
8210.000000;0.691876
8209.000000;0.692236
8208.000000;0.692423
8207.000000;0.692370
8206.000000;0.692109
8205.000000;0.691838
8204.000000;0.691855
8203.000000;0.692293
8202.000000;0.692976
8201.000000;0.693544
8200.000000;0.693715
8199.000000;0.693439
8198.000000;0.692889
8197.000000;0.692345
8196.000000;0.692009
8195.000000;0.691889
8194.000000;0.691889
8193.000000;0.691975
8192.000000;0.692181
8191.000000;0.692448
8190.000000;0.692611
8189.000000;0.692596
8188.000000;0.692532
8187.000000;0.692574
8186.000000;0.692672
8185.000000;0.692629
8184.000000;0.692364
8183.000000;0.692017
8182.000000;0.691781
8181.000000;0.691719
8180.000000;0.691776
8179.000000;0.691921
8178.000000;0.692190
8177.000000;0.692561
8176.000000;0.692860
8175.000000;0.692870
8174.000000;0.692571
8173.000000;0.692207
8172.000000;0.692046
8171.000000;0.692118
8170.000000;0.692264
8169.000000;0.692404
8168.000000;0.692621
8167.000000;0.692960
8166.000000;0.693279
8165.000000;0.693417
8164.000000;0.693425
8163.000000;0.693495
8162.000000;0.693691
8161.000000;0.693878
8160.000000;0.693924
8159.000000;0.693874
8158.000000;0.693834
8157.000000;0.693777
8156.000000;0.693594
8155.000000;0.693329
8154.000000;0.693252
8153.000000;0.693597
8152.000000;0.694275
8151.000000;0.694921
8150.000000;0.695243
8149.000000;0.695252
8148.000000;0.695127
8147.000000;0.694957
8146.000000;0.694687
8145.000000;0.694308
8144.000000;0.693977
8143.000000;0.693923
8142.000000;0.694228
8141.000000;0.694739
8140.000000;0.695184
8139.000000;0.695398
8138.000000;0.695439
8137.000000;0.695485
8136.000000;0.695634
8135.000000;0.695844
8134.000000;0.696047
8133.000000;0.696220
8132.000000;0.696324
8131.000000;0.696275
8130.000000;0.696095
8129.000000;0.695991
8128.000000;0.696147
8127.000000;0.696426
8126.000000;0.696456
8125.000000;0.696037
8124.000000;0.695372
8123.000000;0.694854
8122.000000;0.694726
8121.000000;0.695002
8120.000000;0.695559
8119.000000;0.696181
8118.000000;0.696604
8117.000000;0.696673
8116.000000;0.696476
8115.000000;0.696234
8114.000000;0.696089
8113.000000;0.696060
8112.000000;0.696160
8111.000000;0.696412
8110.000000;0.696749
8109.000000;0.697018
8108.000000;0.697139
8107.000000;0.697153
8106.000000;0.697098
8105.000000;0.696953
8104.000000;0.696763
8103.000000;0.696696
8102.000000;0.696852
8101.000000;0.697085
8100.000000;0.697141
8099.000000;0.696962
8098.000000;0.696737
8097.000000;0.696653
8096.000000;0.696715
8095.000000;0.696831
8094.000000;0.696952
8093.000000;0.697086
8092.000000;0.697245
8091.000000;0.697431
8090.000000;0.697626
8089.000000;0.697752
8088.000000;0.697729
8087.000000;0.697635
8086.000000;0.697709
8085.000000;0.698097
8084.000000;0.698624
8083.000000;0.698942
8082.000000;0.698886
8081.000000;0.698592
8080.000000;0.698285
8079.000000;0.698074
8078.000000;0.697980
8077.000000;0.698007
8076.000000;0.698118
8075.000000;0.698215
8074.000000;0.698237
8073.000000;0.698242
8072.000000;0.698316
8071.000000;0.698467
8070.000000;0.698639
8069.000000;0.698822
8068.000000;0.699038
8067.000000;0.699260
8066.000000;0.699417
8065.000000;0.699471
8064.000000;0.699443
8063.000000;0.699331
8062.000000;0.699105
8061.000000;0.698780
8060.000000;0.698476
8059.000000;0.698332
8058.000000;0.698389
8057.000000;0.698559
8056.000000;0.698707
8055.000000;0.698761
8054.000000;0.698752
8053.000000;0.698765
8052.000000;0.698848
8051.000000;0.698979
8050.000000;0.699117
8049.000000;0.699256
8048.000000;0.699410
8047.000000;0.699553
8046.000000;0.699627
8045.000000;0.699599
8044.000000;0.699508
8043.000000;0.699435
8042.000000;0.699445
8041.000000;0.699553
8040.000000;0.699721
8039.000000;0.699889
8038.000000;0.700013
8037.000000;0.700074
8036.000000;0.700064
8035.000000;0.699983
8034.000000;0.699863
8033.000000;0.699782
8032.000000;0.699819
8031.000000;0.699994
8030.000000;0.700257
8029.000000;0.700511
8028.000000;0.700640
8027.000000;0.700565
8026.000000;0.700313
8025.000000;0.700029
8024.000000;0.699889
8023.000000;0.699980
8022.000000;0.700259
8021.000000;0.700602
8020.000000;0.700888
8019.000000;0.701059
8018.000000;0.701150
8017.000000;0.701226
8016.000000;0.701297
8015.000000;0.701313
8014.000000;0.701287
8013.000000;0.701336
8012.000000;0.701564
8011.000000;0.701922
8010.000000;0.702271
8009.000000;0.702547
8008.000000;0.702751
8007.000000;0.702786
8006.000000;0.702473
8005.000000;0.701821
8004.000000;0.701181
8003.000000;0.700988
8002.000000;0.701332
8001.000000;0.701866
8000.000000;0.702160
7999.000000;0.702092
7998.000000;0.701906
7997.000000;0.701923
7996.000000;0.702256
7995.000000;0.702760
7994.000000;0.703198
7993.000000;0.703458
7992.000000;0.703595
7991.000000;0.703700
7990.000000;0.703766
7989.000000;0.703718
7988.000000;0.703541
7987.000000;0.703328
7986.000000;0.703185
7985.000000;0.703141
7984.000000;0.703188
7983.000000;0.703353
7982.000000;0.703651
7981.000000;0.703989
7980.000000;0.704214
7979.000000;0.704286
7978.000000;0.704349
7977.000000;0.704556
7976.000000;0.704860
7975.000000;0.705052
7974.000000;0.704984
7973.000000;0.704711
7972.000000;0.704403
7971.000000;0.704195
7970.000000;0.704113
7969.000000;0.704089
7968.000000;0.704000
7967.000000;0.703763
7966.000000;0.703437
7965.000000;0.703217
7964.000000;0.703279
7963.000000;0.703639
7962.000000;0.704164
7961.000000;0.704694
7960.000000;0.705114
7959.000000;0.705357
7958.000000;0.705390
7957.000000;0.705228
7956.000000;0.704935
7955.000000;0.704624
7954.000000;0.704433
7953.000000;0.704459
7952.000000;0.704674
7951.000000;0.704944
7950.000000;0.705163
7949.000000;0.705352
7948.000000;0.705575
7947.000000;0.705801
7946.000000;0.705930
7945.000000;0.705949
7944.000000;0.705995
7943.000000;0.706197
7942.000000;0.706515
7941.000000;0.706783
7940.000000;0.706901
7939.000000;0.706930
7938.000000;0.706977
7937.000000;0.707029
7936.000000;0.706976
7935.000000;0.706777
7934.000000;0.706573
7933.000000;0.706560
7932.000000;0.706781
7931.000000;0.707087
7930.000000;0.707278
7929.000000;0.707259
7928.000000;0.707059
7927.000000;0.706797
7926.000000;0.706646
7925.000000;0.706771
7924.000000;0.707202
7923.000000;0.707782
7922.000000;0.708264
7921.000000;0.708454
7920.000000;0.708302
7919.000000;0.707919
7918.000000;0.707547
7917.000000;0.707415
7916.000000;0.707563
7915.000000;0.707816
7914.000000;0.707997
7913.000000;0.708132
7912.000000;0.708373
7911.000000;0.708752
7910.000000;0.709100
7909.000000;0.709217
7908.000000;0.709058
7907.000000;0.708746
7906.000000;0.708455
7905.000000;0.708285
7904.000000;0.708222
7903.000000;0.708211
7902.000000;0.708272
7901.000000;0.708496
7900.000000;0.708868
7899.000000;0.709182
7898.000000;0.709228
7897.000000;0.709035
7896.000000;0.708833
7895.000000;0.708783
7894.000000;0.708862
7893.000000;0.709005
7892.000000;0.709215
7891.000000;0.709496
7890.000000;0.709773
7889.000000;0.709962
7888.000000;0.710064
7887.000000;0.710116
7886.000000;0.710134
7885.000000;0.710146
7884.000000;0.710206
7883.000000;0.710330
7882.000000;0.710475
7881.000000;0.710633
7880.000000;0.710869
7879.000000;0.711181
7878.000000;0.711410
7877.000000;0.711396
7876.000000;0.711198
7875.000000;0.711053
7874.000000;0.711129
7873.000000;0.711386
7872.000000;0.711668
7871.000000;0.711846
7870.000000;0.711875
7869.000000;0.711799
7868.000000;0.711735
7867.000000;0.711791
7866.000000;0.711987
7865.000000;0.712275
7864.000000;0.712614
7863.000000;0.712965
7862.000000;0.713233
7861.000000;0.713304
7860.000000;0.713172
7859.000000;0.712981
7858.000000;0.712902
7857.000000;0.713010
7856.000000;0.713281
7855.000000;0.713645
7854.000000;0.714006
7853.000000;0.714252
7852.000000;0.714323
7851.000000;0.714256
7850.000000;0.714150
7849.000000;0.714082
7848.000000;0.714064
7847.000000;0.714064
7846.000000;0.714035
7845.000000;0.713948
7844.000000;0.713822
7843.000000;0.713737
7842.000000;0.713782
7841.000000;0.714000
7840.000000;0.714355
7839.000000;0.714745
7838.000000;0.715027
7837.000000;0.715071
7836.000000;0.714858
7835.000000;0.714523
7834.000000;0.714278
7833.000000;0.714252
7832.000000;0.714415
7831.000000;0.714673
7830.000000;0.714979
7829.000000;0.715323
7828.000000;0.715614
7827.000000;0.715698
7826.000000;0.715543
7825.000000;0.715378
7824.000000;0.715514
7823.000000;0.715999
7822.000000;0.716525
7821.000000;0.716730
7820.000000;0.716557
7819.000000;0.716250
7818.000000;0.716049
7817.000000;0.716000
7816.000000;0.716065
7815.000000;0.716294
7814.000000;0.716776
7813.000000;0.717463
7812.000000;0.718135
7811.000000;0.718570
7810.000000;0.718700
7809.000000;0.718604
7808.000000;0.718406
7807.000000;0.718214
7806.000000;0.718097
7805.000000;0.718060
7804.000000;0.718041
7803.000000;0.718001
7802.000000;0.718006
7801.000000;0.718174
7800.000000;0.718507
7799.000000;0.718851
7798.000000;0.719062
7797.000000;0.719169
7796.000000;0.719312
7795.000000;0.719535
7794.000000;0.719744
7793.000000;0.719859
7792.000000;0.719926
7791.000000;0.720028
7790.000000;0.720169
7789.000000;0.720298
7788.000000;0.720416
7787.000000;0.720581
7786.000000;0.720836
7785.000000;0.721166
7784.000000;0.721504
7783.000000;0.721747
7782.000000;0.721792
7781.000000;0.721648
7780.000000;0.721467
7779.000000;0.721421
7778.000000;0.721539
7777.000000;0.721709
7776.000000;0.721833
7775.000000;0.721921
7774.000000;0.722034
7773.000000;0.722194
7772.000000;0.722387
7771.000000;0.722606
7770.000000;0.722870
7769.000000;0.723189
7768.000000;0.723516
7767.000000;0.723742
7766.000000;0.723759
7765.000000;0.723565
7764.000000;0.723282
7763.000000;0.723052
7762.000000;0.722941
7761.000000;0.722963
7760.000000;0.723139
7759.000000;0.723451
7758.000000;0.723798
7757.000000;0.724073
7756.000000;0.724287
7755.000000;0.724505
7754.000000;0.724702
7753.000000;0.724797
7752.000000;0.724839
7751.000000;0.724994
7750.000000;0.725317
7749.000000;0.725644
7748.000000;0.725811
7747.000000;0.725846
7746.000000;0.725863
7745.000000;0.725865
7744.000000;0.725816
7743.000000;0.725818
7742.000000;0.726044
7741.000000;0.726489
7740.000000;0.726946
7739.000000;0.727225
7738.000000;0.727309
7737.000000;0.727281
7736.000000;0.727217
7735.000000;0.727215
7734.000000;0.727378
7733.000000;0.727718
7732.000000;0.728114
7731.000000;0.728437
7730.000000;0.728669
7729.000000;0.728865
7728.000000;0.729042
7727.000000;0.729186
7726.000000;0.729318
7725.000000;0.729476
7724.000000;0.729652
7723.000000;0.729796
7722.000000;0.729887
7721.000000;0.729955
7720.000000;0.730038
7719.000000;0.730142
7718.000000;0.730241
7717.000000;0.730315
7716.000000;0.730377
7715.000000;0.730493
7714.000000;0.730741
7713.000000;0.731146
7712.000000;0.731638
7711.000000;0.732095
7710.000000;0.732407
7709.000000;0.732536
7708.000000;0.732518
7707.000000;0.732457
7706.000000;0.732460
7705.000000;0.732575
7704.000000;0.732763
7703.000000;0.732929
7702.000000;0.732986
7701.000000;0.732910
7700.000000;0.732795
7699.000000;0.732826
7698.000000;0.733144
7697.000000;0.733692
7696.000000;0.734224
7695.000000;0.734498
7694.000000;0.734469
7693.000000;0.734311
7692.000000;0.734290
7691.000000;0.734582
7690.000000;0.735128
7689.000000;0.735640
7688.000000;0.735816
7687.000000;0.735623
7686.000000;0.735320
7685.000000;0.735180
7684.000000;0.735242
7683.000000;0.735381
7682.000000;0.735549
7681.000000;0.735831
7680.000000;0.736276
7679.000000;0.736795
7678.000000;0.737267
7677.000000;0.737654
7676.000000;0.737979
7675.000000;0.738229
7674.000000;0.738367
7673.000000;0.738409
7672.000000;0.738428
7671.000000;0.738467
7670.000000;0.738493
7669.000000;0.738481
7668.000000;0.738497
7667.000000;0.738658
7666.000000;0.738995
7665.000000;0.739414
7664.000000;0.739798
7663.000000;0.740088
7662.000000;0.740256
7661.000000;0.740270
7660.000000;0.740189
7659.000000;0.740238
7658.000000;0.740636
7657.000000;0.741308
7656.000000;0.741919
7655.000000;0.742234
7654.000000;0.742356
7653.000000;0.742521
7652.000000;0.742784
7651.000000;0.743029
7650.000000;0.743210
7649.000000;0.743406
7648.000000;0.743642
7647.000000;0.743824
7646.000000;0.743898
7645.000000;0.743946
7644.000000;0.744077
7643.000000;0.744288
7642.000000;0.744486
7641.000000;0.744602
7640.000000;0.744657
7639.000000;0.744753
7638.000000;0.745019
7637.000000;0.745487
7636.000000;0.746006
7635.000000;0.746365
7634.000000;0.746531
7633.000000;0.746696
7632.000000;0.747020
7631.000000;0.747420
7630.000000;0.747690
7629.000000;0.747761
7628.000000;0.747757
7627.000000;0.747829
7626.000000;0.748027
7625.000000;0.748333
7624.000000;0.748715
7623.000000;0.749126
7622.000000;0.749514
7621.000000;0.749868
7620.000000;0.750216
7619.000000;0.750575
7618.000000;0.750934
7617.000000;0.751302
7616.000000;0.751697
7615.000000;0.752085
7614.000000;0.752366
7613.000000;0.752481
7612.000000;0.752500
7611.000000;0.752572
7610.000000;0.752787
7609.000000;0.753105
7608.000000;0.753427
7607.000000;0.753707
7606.000000;0.753988
7605.000000;0.754331
7604.000000;0.754731
7603.000000;0.755103
7602.000000;0.755363
7601.000000;0.755501
7600.000000;0.755574
7599.000000;0.755638
7598.000000;0.755704
7597.000000;0.755784
7596.000000;0.755942
7595.000000;0.756276
7594.000000;0.756807
7593.000000;0.757429
7592.000000;0.757990
7591.000000;0.758451
7590.000000;0.758913
7589.000000;0.759466
7588.000000;0.760033
7587.000000;0.760418
7586.000000;0.760497
7585.000000;0.760344
7584.000000;0.760181
7583.000000;0.760224
7582.000000;0.760559
7581.000000;0.761088
7580.000000;0.761597
7579.000000;0.761903
7578.000000;0.761991
7577.000000;0.761995
7576.000000;0.762080
7575.000000;0.762346
7574.000000;0.762802
7573.000000;0.763358
7572.000000;0.763869
7571.000000;0.764258
7570.000000;0.764610
7569.000000;0.765074
7568.000000;0.765656
7567.000000;0.766185
7566.000000;0.766502
7565.000000;0.766625
7564.000000;0.766692
7563.000000;0.766822
7562.000000;0.767089
7561.000000;0.767526
7560.000000;0.768090
7559.000000;0.768648
7558.000000;0.769097
7557.000000;0.769463
7556.000000;0.769811
7555.000000;0.770131
7554.000000;0.770370
7553.000000;0.770565
7552.000000;0.770822
7551.000000;0.771178
7550.000000;0.771581
7549.000000;0.772002
7548.000000;0.772469
7547.000000;0.772982
7546.000000;0.773469
7545.000000;0.773873
7544.000000;0.774217
7543.000000;0.774543
7542.000000;0.774854
7541.000000;0.775172
7540.000000;0.775578
7539.000000;0.776135
7538.000000;0.776781
7537.000000;0.777360
7536.000000;0.777738
7535.000000;0.777894
7534.000000;0.777931
7533.000000;0.778014
7532.000000;0.778276
7531.000000;0.778722
7530.000000;0.779238
7529.000000;0.779713
7528.000000;0.780138
7527.000000;0.780562
7526.000000;0.781000
7525.000000;0.781416
7524.000000;0.781763
7523.000000;0.782015
7522.000000;0.782157
7521.000000;0.782211
7520.000000;0.782259
7519.000000;0.782425
7518.000000;0.782802
7517.000000;0.783395
7516.000000;0.784112
7515.000000;0.784802
7514.000000;0.785348
7513.000000;0.785757
7512.000000;0.786166
7511.000000;0.786711
7510.000000;0.787390
7509.000000;0.788049
7508.000000;0.788501
7507.000000;0.788685
7506.000000;0.788719
7505.000000;0.788841
7504.000000;0.789234
7503.000000;0.789859
7502.000000;0.790453
7501.000000;0.790777
7500.000000;0.790864
7499.000000;0.790988
7498.000000;0.791367
7497.000000;0.791951
7496.000000;0.792521
7495.000000;0.792954
7494.000000;0.793319
7493.000000;0.793744
7492.000000;0.794261
7491.000000;0.794793
7490.000000;0.795236
7489.000000;0.795587
7488.000000;0.795871
7487.000000;0.796169
7486.000000;0.796557
7485.000000;0.797045
7484.000000;0.797575
7483.000000;0.798072
7482.000000;0.798506
7481.000000;0.798886
7480.000000;0.799244
7479.000000;0.799622
7478.000000;0.800051
7477.000000;0.800534
7476.000000;0.801045
7475.000000;0.801563
7474.000000;0.802068
7473.000000;0.802508
7472.000000;0.802835
7471.000000;0.803104
7470.000000;0.803486
7469.000000;0.804074
7468.000000;0.804729
7467.000000;0.805215
7466.000000;0.805492
7465.000000;0.805764
7464.000000;0.806207
7463.000000;0.806757
7462.000000;0.807232
7461.000000;0.807596
7460.000000;0.807990
7459.000000;0.808520
7458.000000;0.809104
7457.000000;0.809551
7456.000000;0.809765
7455.000000;0.809856
7454.000000;0.810070
7453.000000;0.810587
7452.000000;0.811361
7451.000000;0.812170
7450.000000;0.812818
7449.000000;0.813263
7448.000000;0.813546
7447.000000;0.813695
7446.000000;0.813774
7445.000000;0.813956
7444.000000;0.814392
7443.000000;0.815023
7442.000000;0.815607
7441.000000;0.815985
7440.000000;0.816234
7439.000000;0.816536
7438.000000;0.816976
7437.000000;0.817523
7436.000000;0.818109
7435.000000;0.818660
7434.000000;0.819094
7433.000000;0.819374
7432.000000;0.819575
7431.000000;0.819822
7430.000000;0.820161
7429.000000;0.820535
7428.000000;0.820889
7427.000000;0.821246
7426.000000;0.821660
7425.000000;0.822133
7424.000000;0.822612
7423.000000;0.823050
7422.000000;0.823434
7421.000000;0.823783
7420.000000;0.824150
7419.000000;0.824605
7418.000000;0.825160
7417.000000;0.825694
7416.000000;0.826019
7415.000000;0.826104
7414.000000;0.826186
7413.000000;0.826574
7412.000000;0.827327
7411.000000;0.828163
7410.000000;0.828740
7409.000000;0.828963
7408.000000;0.829016
7407.000000;0.829126
7406.000000;0.829375
7405.000000;0.829704
7404.000000;0.830049
7403.000000;0.830403
7402.000000;0.830781
7401.000000;0.831176
7400.000000;0.831585
7399.000000;0.832048
7398.000000;0.832604
7397.000000;0.833184
7396.000000;0.833643
7395.000000;0.833941
7394.000000;0.834204
7393.000000;0.834539
7392.000000;0.834879
7391.000000;0.835115
7390.000000;0.835293
7389.000000;0.835549
7388.000000;0.835866
7387.000000;0.836095
7386.000000;0.836217
7385.000000;0.836402
7384.000000;0.836754
7383.000000;0.837194
7382.000000;0.837667
7381.000000;0.838281
7380.000000;0.839076
7379.000000;0.839820
7378.000000;0.840253
7377.000000;0.840427
7376.000000;0.840613
7375.000000;0.840947
7374.000000;0.841356
7373.000000;0.841751
7372.000000;0.842093
7371.000000;0.842330
7370.000000;0.842466
7369.000000;0.842675
7368.000000;0.843132
7367.000000;0.843766
7366.000000;0.844371
7365.000000;0.844934
7364.000000;0.845579
7363.000000;0.846250
7362.000000;0.846732
7361.000000;0.847031
7360.000000;0.847406
7359.000000;0.847916
7358.000000;0.848270
7357.000000;0.848294
7356.000000;0.848248
7355.000000;0.848483
7354.000000;0.848991
7353.000000;0.849511
7352.000000;0.849943
7351.000000;0.850395
7350.000000;0.850954
7349.000000;0.851586
7348.000000;0.852191
7347.000000;0.852642
7346.000000;0.852875
7345.000000;0.853016
7344.000000;0.853271
7343.000000;0.853605
7342.000000;0.853775
7341.000000;0.853782
7340.000000;0.854031
7339.000000;0.854795
7338.000000;0.855776
7337.000000;0.856496
7336.000000;0.856920
7335.000000;0.857363
7334.000000;0.857986
7333.000000;0.858672
7332.000000;0.859299
7331.000000;0.859796
7330.000000;0.860063
7329.000000;0.860139
7328.000000;0.860325
7327.000000;0.860842
7326.000000;0.861471
7325.000000;0.861898
7324.000000;0.862277
7323.000000;0.863033
7322.000000;0.864175
7321.000000;0.865242
7320.000000;0.865971
7319.000000;0.866633
7318.000000;0.867559
7317.000000;0.868686
7316.000000;0.869727
7315.000000;0.870518
7314.000000;0.871020
7313.000000;0.871262
7312.000000;0.871431
7311.000000;0.871779
7310.000000;0.872286
7309.000000;0.872686
7308.000000;0.872950
7307.000000;0.873437
7306.000000;0.874381
7305.000000;0.875511
7304.000000;0.876453
7303.000000;0.877241
7302.000000;0.878127
7301.000000;0.879125
7300.000000;0.880067
7299.000000;0.880956
7298.000000;0.881879
7297.000000;0.882688
7296.000000;0.883184
7295.000000;0.883539
7294.000000;0.884199
7293.000000;0.885297
7292.000000;0.886475
7291.000000;0.887359
7290.000000;0.887966
7289.000000;0.888537
7288.000000;0.889251
7287.000000;0.890202
7286.000000;0.891453
7285.000000;0.892955
7284.000000;0.894542
7283.000000;0.896083
7282.000000;0.897530
7281.000000;0.898801
7280.000000;0.899759
7279.000000;0.900430
7278.000000;0.901084
7277.000000;0.901966
7276.000000;0.903037
7275.000000;0.904114
7274.000000;0.905159
7273.000000;0.906314
7272.000000;0.907669
7271.000000;0.909143
7270.000000;0.910620
7269.000000;0.912087
7268.000000;0.913575
7267.000000;0.915016
7266.000000;0.916270
7265.000000;0.917289
7264.000000;0.918237
7263.000000;0.919389
7262.000000;0.920869
7261.000000;0.922516
7260.000000;0.924056
7259.000000;0.925402
7258.000000;0.926718
7257.000000;0.928178
7256.000000;0.929766
7255.000000;0.931351
7254.000000;0.932903
7253.000000;0.934507
7252.000000;0.936205
7251.000000;0.937946
7250.000000;0.939699
7249.000000;0.941524
7248.000000;0.943435
7247.000000;0.945258
7246.000000;0.946734
7245.000000;0.947848
7244.000000;0.948961
7243.000000;0.950523
7242.000000;0.952650
7241.000000;0.955060
7240.000000;0.957418
7239.000000;0.959642
7238.000000;0.961825
7237.000000;0.963979
7236.000000;0.965986
7235.000000;0.967759
7234.000000;0.969410
7233.000000;0.971218
7232.000000;0.973436
7231.000000;0.976069
7230.000000;0.978841
7229.000000;0.981443
7228.000000;0.983839
7227.000000;0.986256
7226.000000;0.988909
7225.000000;0.991798
7224.000000;0.994770
7223.000000;0.997673
7222.000000;1.000426
7221.000000;1.003035
7220.000000;1.005607
7219.000000;1.008307
7218.000000;1.011218
7217.000000;1.014260
7216.000000;1.017317
7215.000000;1.020388
7214.000000;1.023557
7213.000000;1.026826
7212.000000;1.030090
7211.000000;1.033313
7210.000000;1.036635
7209.000000;1.040211
7208.000000;1.043940
7207.000000;1.047468
7206.000000;1.050517
7205.000000;1.053207
7204.000000;1.055977
7203.000000;1.059180
7202.000000;1.062832
7201.000000;1.066780
7200.000000;1.070943
7199.000000;1.075268
7198.000000;1.079569
7197.000000;1.083625
7196.000000;1.087466
7195.000000;1.091392
7194.000000;1.095618
7193.000000;1.100033
7192.000000;1.104382
7191.000000;1.108558
7190.000000;1.112624
7189.000000;1.116643
7188.000000;1.120621
7187.000000;1.124555
7186.000000;1.128431
7185.000000;1.132223
7184.000000;1.136010
7183.000000;1.140054
7182.000000;1.144595
7181.000000;1.149558
7180.000000;1.154583
7179.000000;1.159418
7178.000000;1.164152
7177.000000;1.169029
7176.000000;1.174129
7175.000000;1.179309
7174.000000;1.184369
7173.000000;1.189219
7172.000000;1.193921
7171.000000;1.198642
7170.000000;1.203542
7169.000000;1.208638
7168.000000;1.213793
7167.000000;1.218852
7166.000000;1.223732
7165.000000;1.228391
7164.000000;1.232821
7163.000000;1.237179
7162.000000;1.241800
7161.000000;1.246929
7160.000000;1.252452
7159.000000;1.258010
7158.000000;1.263407
7157.000000;1.268792
7156.000000;1.274421
7155.000000;1.280318
7154.000000;1.286248
7153.000000;1.291954
7152.000000;1.297372
7151.000000;1.302650
7150.000000;1.308034
7149.000000;1.313665
7148.000000;1.319421
7147.000000;1.324983
7146.000000;1.330141
7145.000000;1.335023
7144.000000;1.339963
7143.000000;1.345115
7142.000000;1.350333
7141.000000;1.355477
7140.000000;1.360677
7139.000000;1.366132
7138.000000;1.371791
7137.000000;1.377394
7136.000000;1.382828
7135.000000;1.388226
7134.000000;1.393711
7133.000000;1.399229
7132.000000;1.404685
7131.000000;1.410090
7130.000000;1.415507
7129.000000;1.420956
7128.000000;1.426433
7127.000000;1.431922
7126.000000;1.437323
7125.000000;1.442516
7124.000000;1.447584
7123.000000;1.452794
7122.000000;1.458235
7121.000000;1.463580
7120.000000;1.468419
7119.000000;1.472802
7118.000000;1.477252
7117.000000;1.482168
7116.000000;1.487321
7115.000000;1.492082
7114.000000;1.496137
7113.000000;1.499866
7112.000000;1.503991
7111.000000;1.508948
7110.000000;1.514603
7109.000000;1.520496
7108.000000;1.526248
7107.000000;1.531764
7106.000000;1.537110
7105.000000;1.542251
7104.000000;1.546905
7103.000000;1.550776
7102.000000;1.554018
7101.000000;1.557321
7100.000000;1.561323
7099.000000;1.565952
7098.000000;1.570598
7097.000000;1.574961
7096.000000;1.579384
7095.000000;1.584159
7094.000000;1.588918
7093.000000;1.593090
7092.000000;1.596721
7091.000000;1.600446
7090.000000;1.604769
7089.000000;1.609731
7088.000000;1.615102
7087.000000;1.620506
7086.000000;1.625428
7085.000000;1.629539
7084.000000;1.633087
7083.000000;1.636589
7082.000000;1.640131
7081.000000;1.643323
7080.000000;1.645993
7079.000000;1.648536
7078.000000;1.651455
7077.000000;1.654840
7076.000000;1.658394
7075.000000;1.661704
7074.000000;1.664487
7073.000000;1.666858
7072.000000;1.669335
7071.000000;1.672288
7070.000000;1.675471
7069.000000;1.678452
7068.000000;1.681433
7067.000000;1.685049
7066.000000;1.689294
7065.000000;1.693220
7064.000000;1.696052
7063.000000;1.698197
7062.000000;1.700787
7061.000000;1.704527
7060.000000;1.709207
7059.000000;1.713985
7058.000000;1.717831
7057.000000;1.720079
7056.000000;1.720970
7055.000000;1.721520
7054.000000;1.722614
7053.000000;1.724374
7052.000000;1.726521
7051.000000;1.729025
7050.000000;1.732063
7049.000000;1.735486
7048.000000;1.738715
7047.000000;1.741248
7046.000000;1.743136
7045.000000;1.744898
7044.000000;1.746996
7043.000000;1.749350
7042.000000;1.751452
7041.000000;1.753137
7040.000000;1.755064
7039.000000;1.758006
7038.000000;1.761682
7037.000000;1.764815
7036.000000;1.766591
7035.000000;1.767562
7034.000000;1.768805
7033.000000;1.770706
7032.000000;1.772942
7031.000000;1.775159
7030.000000;1.777089
7029.000000;1.778269
7028.000000;1.778364
7027.000000;1.777836
7026.000000;1.777799
7025.000000;1.779033
7024.000000;1.781353
7023.000000;1.783892
7022.000000;1.785811
7021.000000;1.786854
7020.000000;1.787522
7019.000000;1.788755
7018.000000;1.791168
7017.000000;1.794466
7016.000000;1.797661
7015.000000;1.799877
7014.000000;1.800917
7013.000000;1.801236
7012.000000;1.801536
7011.000000;1.802321
7010.000000;1.803599
7009.000000;1.804984
7008.000000;1.806131
7007.000000;1.806909
7006.000000;1.807096
7005.000000;1.806291
7004.000000;1.804551
7003.000000;1.802968
7002.000000;1.803098
7001.000000;1.805630
7000.000000;1.809706
6999.000000;1.813622
6998.000000;1.816119
6997.000000;1.817049
6996.000000;1.817067
6995.000000;1.816937
6994.000000;1.817059
6993.000000;1.817479
6992.000000;1.818170
6991.000000;1.819215
6990.000000;1.820653
6989.000000;1.822135
6988.000000;1.822922
6987.000000;1.822506
6986.000000;1.821308
6985.000000;1.820505
6984.000000;1.820923
6983.000000;1.822140
6982.000000;1.822929
6981.000000;1.822667
6980.000000;1.822027
6979.000000;1.822128
6978.000000;1.823366
6977.000000;1.825331
6976.000000;1.827490
6975.000000;1.829424
6974.000000;1.830605
6973.000000;1.830612
6972.000000;1.829749
6971.000000;1.828934
6970.000000;1.828726
6969.000000;1.828856
6968.000000;1.828857
6967.000000;1.828742
6966.000000;1.828811
6965.000000;1.829086
6964.000000;1.829279
6963.000000;1.829192
6962.000000;1.828932
6961.000000;1.828926
6960.000000;1.829785
6959.000000;1.831776
6958.000000;1.834269
6957.000000;1.836078
6956.000000;1.836671
6955.000000;1.836729
6954.000000;1.837118
6953.000000;1.837646
6952.000000;1.837349
6951.000000;1.835946
6950.000000;1.834456
6949.000000;1.834147
6948.000000;1.835159
6947.000000;1.836328
6946.000000;1.836312
6945.000000;1.834833
6944.000000;1.832882
6943.000000;1.831797
6942.000000;1.832253
6941.000000;1.833970
6940.000000;1.836003
6939.000000;1.837155
6938.000000;1.836497
6937.000000;1.834039
6936.000000;1.830883
6935.000000;1.828350
6934.000000;1.826928
6933.000000;1.826298
6932.000000;1.826175
6931.000000;1.826638
6930.000000;1.827638
6929.000000;1.828787
6928.000000;1.829854
6927.000000;1.830956
6926.000000;1.831962
6925.000000;1.832238
6924.000000;1.831493
6923.000000;1.830517
6922.000000;1.830458
6921.000000;1.831581
6920.000000;1.833139
6919.000000;1.834259
6918.000000;1.834558
6917.000000;1.834091
6916.000000;1.833160
6915.000000;1.832155
6914.000000;1.831279
6913.000000;1.830475
6912.000000;1.829785
6911.000000;1.829468
6910.000000;1.829528
6909.000000;1.829466
6908.000000;1.828925
6907.000000;1.828284
6906.000000;1.828120
6905.000000;1.828315
6904.000000;1.828280
6903.000000;1.827902
6902.000000;1.827602
6901.000000;1.827504
6900.000000;1.827287
6899.000000;1.826936
6898.000000;1.826908
6897.000000;1.827316
6896.000000;1.827563
6895.000000;1.827162
6894.000000;1.826408
6893.000000;1.825873
6892.000000;1.825745
6891.000000;1.826009
6890.000000;1.826682
6889.000000;1.827317
6888.000000;1.826805
6887.000000;1.824524
6886.000000;1.821469
6885.000000;1.819489
6884.000000;1.819392
6883.000000;1.820362
6882.000000;1.821184
6881.000000;1.821393
6880.000000;1.821093
6879.000000;1.820388
6878.000000;1.819481
6877.000000;1.818857
6876.000000;1.818797
6875.000000;1.818946
6874.000000;1.818854
6873.000000;1.818739
6872.000000;1.819128
6871.000000;1.819809
6870.000000;1.819725
6869.000000;1.818126
6868.000000;1.815457
6867.000000;1.812910
6866.000000;1.811462
6865.000000;1.811506
6864.000000;1.812902
6863.000000;1.814904
6862.000000;1.816322
6861.000000;1.816326
6860.000000;1.815198
6859.000000;1.813962
6858.000000;1.813285
6857.000000;1.813026
6856.000000;1.812782
6855.000000;1.812400
6854.000000;1.811811
6853.000000;1.810739
6852.000000;1.808965
6851.000000;1.806779
6850.000000;1.804919
6849.000000;1.804008
6848.000000;1.804051
6847.000000;1.804399
6846.000000;1.804236
6845.000000;1.803258
6844.000000;1.801945
6843.000000;1.801029
6842.000000;1.800679
6841.000000;1.800373
6840.000000;1.799612
6839.000000;1.798471
6838.000000;1.797289
6837.000000;1.796108
6836.000000;1.794727
6835.000000;1.793162
6834.000000;1.791682
6833.000000;1.790387
6832.000000;1.789073
6831.000000;1.787616
6830.000000;1.786228
6829.000000;1.785181
6828.000000;1.784425
6827.000000;1.783641
6826.000000;1.782604
6825.000000;1.781417
6824.000000;1.780398
6823.000000;1.779725
6822.000000;1.779149
6821.000000;1.778058
6820.000000;1.776023
6819.000000;1.773359
6818.000000;1.770964
6817.000000;1.769454
6816.000000;1.768542
6815.000000;1.767421
6814.000000;1.765733
6813.000000;1.763972
6812.000000;1.762847
6811.000000;1.762426
6810.000000;1.761993
6809.000000;1.760670
6808.000000;1.758128
6807.000000;1.754848
6806.000000;1.751834
6805.000000;1.749931
6804.000000;1.749140
6803.000000;1.748530
6802.000000;1.747037
6801.000000;1.744429
6800.000000;1.741383
6799.000000;1.738654
6798.000000;1.736441
6797.000000;1.734587
6796.000000;1.733039
6795.000000;1.731861
6794.000000;1.730935
6793.000000;1.729906
6792.000000;1.728410
6791.000000;1.726258
6790.000000;1.723550
6789.000000;1.720758
6788.000000;1.718521
6787.000000;1.717093
6786.000000;1.715997
6785.000000;1.714491
6784.000000;1.712384
6783.000000;1.710190
6782.000000;1.708483
6781.000000;1.707301
6780.000000;1.706200
6779.000000;1.704670
6778.000000;1.702464
6777.000000;1.699719
6776.000000;1.696848
6775.000000;1.694183
6774.000000;1.691681
6773.000000;1.689061
6772.000000;1.686240
6771.000000;1.683487
6770.000000;1.681122
6769.000000;1.679188
6768.000000;1.677435
6767.000000;1.675552
6766.000000;1.673421
6765.000000;1.671241
6764.000000;1.669385
6763.000000;1.667995
6762.000000;1.666737
6761.000000;1.665131
6760.000000;1.663111
6759.000000;1.661020
6758.000000;1.659073
6757.000000;1.657077
6756.000000;1.654779
6755.000000;1.652273
6754.000000;1.649914
6753.000000;1.647960
6752.000000;1.646370
6751.000000;1.644851
6750.000000;1.643007
6749.000000;1.640603
6748.000000;1.637758
6747.000000;1.634814
6746.000000;1.631994
6745.000000;1.629299
6744.000000;1.626728
6743.000000;1.624389
6742.000000;1.622309
6741.000000;1.620359
6740.000000;1.618455
6739.000000;1.616673
6738.000000;1.615036
6737.000000;1.613386
6736.000000;1.611578
6735.000000;1.609631
6734.000000;1.607576
6733.000000;1.605317
6732.000000;1.602853
6731.000000;1.600459
6730.000000;1.598435
6729.000000;1.596745
6728.000000;1.595067
6727.000000;1.593123
6726.000000;1.590818
6725.000000;1.588157
6724.000000;1.585245
6723.000000;1.582365
6722.000000;1.579895
6721.000000;1.578056
6720.000000;1.576760
6719.000000;1.575641
6718.000000;1.574220
6717.000000;1.572229
6716.000000;1.569886
6715.000000;1.567718
6714.000000;1.565981
6713.000000;1.564375
6712.000000;1.562450
6711.000000;1.560128
6710.000000;1.557644
6709.000000;1.555168
6708.000000;1.552745
6707.000000;1.550491
6706.000000;1.548552
6705.000000;1.546844
6704.000000;1.545066
6703.000000;1.543028
6702.000000;1.540753
6701.000000;1.538310
6700.000000;1.535730
6699.000000;1.533115
6698.000000;1.530574
6697.000000;1.528126
6696.000000;1.525670
6695.000000;1.523351
6694.000000;1.521471
6693.000000;1.520023
6692.000000;1.518598
6691.000000;1.516776
6690.000000;1.514526
6689.000000;1.512077
6688.000000;1.509615
6687.000000;1.507265
6686.000000;1.505217
6685.000000;1.503608
6684.000000;1.502274
6683.000000;1.500801
6682.000000;1.498886
6681.000000;1.496587
6680.000000;1.494224
6679.000000;1.492117
6678.000000;1.490387
6677.000000;1.488924
6676.000000;1.487504
6675.000000;1.485976
6674.000000;1.484324
6673.000000;1.482548
6672.000000;1.480532
6671.000000;1.478140
6670.000000;1.475471
6669.000000;1.472913
6668.000000;1.470865
6667.000000;1.469346
6666.000000;1.467932
6665.000000;1.466140
6664.000000;1.463877
6663.000000;1.461486
6662.000000;1.459369
6661.000000;1.457615
6660.000000;1.456006
6659.000000;1.454252
6658.000000;1.452189
6657.000000;1.449872
6656.000000;1.447580
6655.000000;1.445666
6654.000000;1.444227
6653.000000;1.442951
6652.000000;1.441394
6651.000000;1.439435
6650.000000;1.437340
6649.000000;1.435407
6648.000000;1.433672
6647.000000;1.431972
6646.000000;1.430162
6645.000000;1.428193
6644.000000;1.426116
6643.000000;1.424073
6642.000000;1.422233
6641.000000;1.420651
6640.000000;1.419212
6639.000000;1.417747
6638.000000;1.416162
6637.000000;1.414444
6636.000000;1.412624
6635.000000;1.410756
6634.000000;1.408872
6633.000000;1.406922
6632.000000;1.404841
6631.000000;1.402696
6630.000000;1.400702
6629.000000;1.399015
6628.000000;1.397560
6627.000000;1.396132
6626.000000;1.394619
6625.000000;1.393067
6624.000000;1.391554
6623.000000;1.390066
6622.000000;1.388511
6621.000000;1.386850
6620.000000;1.385187
6619.000000;1.383704
6618.000000;1.382435
6617.000000;1.381138
6616.000000;1.379468
6615.000000;1.377326
6614.000000;1.374995
6613.000000;1.372896
6612.000000;1.371244
6611.000000;1.369945
6610.000000;1.368741
6609.000000;1.367418
6608.000000;1.365914
6607.000000;1.364283
6606.000000;1.362546
6605.000000;1.360651
6604.000000;1.358619
6603.000000;1.356670
6602.000000;1.355064
6601.000000;1.353801
6600.000000;1.352615
6599.000000;1.351301
6598.000000;1.349931
6597.000000;1.348660
6596.000000;1.347458
6595.000000;1.346127
6594.000000;1.344529
6593.000000;1.342699
6592.000000;1.340811
6591.000000;1.339097
6590.000000;1.337717
6589.000000;1.336580
6588.000000;1.335354
6587.000000;1.333808
6586.000000;1.332097
6585.000000;1.330584
6584.000000;1.329394
6583.000000;1.328293
6582.000000;1.326980
6581.000000;1.325374
6580.000000;1.323569
6579.000000;1.321690
6578.000000;1.319890
6577.000000;1.318359
6576.000000;1.317192
6575.000000;1.316236
6574.000000;1.315163
6573.000000;1.313748
6572.000000;1.312023
6571.000000;1.310196
6570.000000;1.308478
6569.000000;1.306992
6568.000000;1.305750
6567.000000;1.304655
6566.000000;1.303546
6565.000000;1.302331
6564.000000;1.301094
6563.000000;1.300019
6562.000000;1.299155
6561.000000;1.298281
6560.000000;1.297088
6559.000000;1.295505
6558.000000;1.293798
6557.000000;1.292320
6556.000000;1.291194
6555.000000;1.290245
6554.000000;1.289174
6553.000000;1.287807
6552.000000;1.286194
6551.000000;1.284554
6550.000000;1.283095
6549.000000;1.281855
6548.000000;1.280707
6547.000000;1.279481
6546.000000;1.278071
6545.000000;1.276460
6544.000000;1.274735
6543.000000;1.273091
6542.000000;1.271737
6541.000000;1.270721
6540.000000;1.269857
6539.000000;1.268875
6538.000000;1.267632
6537.000000;1.266171
6536.000000;1.264641
6535.000000;1.263188
6534.000000;1.261893
6533.000000;1.260724
6532.000000;1.259593
6531.000000;1.258470
6530.000000;1.257418
6529.000000;1.256477
6528.000000;1.255554
6527.000000;1.254517
6526.000000;1.253351
6525.000000;1.252159
6524.000000;1.251023
6523.000000;1.249925
6522.000000;1.248794
6521.000000;1.247564
6520.000000;1.246193
6519.000000;1.244714
6518.000000;1.243270
6517.000000;1.242050
6516.000000;1.241126
6515.000000;1.240376
6514.000000;1.239589
6513.000000;1.238625
6512.000000;1.237472
6511.000000;1.236197
6510.000000;1.234856
6509.000000;1.233473
6508.000000;1.232074
6507.000000;1.230733
6506.000000;1.229547
6505.000000;1.228558
6504.000000;1.227719
6503.000000;1.226949
6502.000000;1.226194
6501.000000;1.225404
6500.000000;1.224510
6499.000000;1.223465
6498.000000;1.222288
6497.000000;1.221045
6496.000000;1.219810
6495.000000;1.218665
6494.000000;1.217686
6493.000000;1.216846
6492.000000;1.215989
6491.000000;1.214984
6490.000000;1.213891
6489.000000;1.212898
6488.000000;1.212095
6487.000000;1.211376
6486.000000;1.210573
6485.000000;1.209593
6484.000000;1.208422
6483.000000;1.207089
6482.000000;1.205705
6481.000000;1.204454
6480.000000;1.203471
6479.000000;1.202723
6478.000000;1.202040
6477.000000;1.201282
6476.000000;1.200435
6475.000000;1.199575
6474.000000;1.198751
6473.000000;1.197924
6472.000000;1.197023
6471.000000;1.196037
6470.000000;1.195035
6469.000000;1.194075
6468.000000;1.193126
6467.000000;1.192121
6466.000000;1.191062
6465.000000;1.190021
6464.000000;1.189044
6463.000000;1.188093
6462.000000;1.187085
6461.000000;1.185960
6460.000000;1.184725
6459.000000;1.183484
6458.000000;1.182421
6457.000000;1.181672
6456.000000;1.181187
6455.000000;1.180741
6454.000000;1.180095
6453.000000;1.179159
6452.000000;1.178024
6451.000000;1.176885
6450.000000;1.175912
6449.000000;1.175119
6448.000000;1.174364
6447.000000;1.173515
6446.000000;1.172622
6445.000000;1.171844
6444.000000;1.171205
6443.000000;1.170523
6442.000000;1.169643
6441.000000;1.168646
6440.000000;1.167756
6439.000000;1.167055
6438.000000;1.166397
6437.000000;1.165590
6436.000000;1.164594
6435.000000;1.163525
6434.000000;1.162524
6433.000000;1.161667
6432.000000;1.160950
6431.000000;1.160322
6430.000000;1.159724
6429.000000;1.159125
6428.000000;1.158517
6427.000000;1.157877
6426.000000;1.157134
6425.000000;1.156231
6424.000000;1.155223
6423.000000;1.154291
6422.000000;1.153592
6421.000000;1.153085
6420.000000;1.152550
6419.000000;1.151799
6418.000000;1.150824
6417.000000;1.149757
6416.000000;1.148738
6415.000000;1.147879
6414.000000;1.147264
6413.000000;1.146854
6412.000000;1.146437
6411.000000;1.145775
6410.000000;1.144837
6409.000000;1.143814
6408.000000;1.142901
6407.000000;1.142145
6406.000000;1.141517
6405.000000;1.140996
6404.000000;1.140518
6403.000000;1.139932
6402.000000;1.139118
6401.000000;1.138124
6400.000000;1.137132
6399.000000;1.136291
6398.000000;1.135617
6397.000000;1.135031
6396.000000;1.134422
6395.000000;1.133718
6394.000000;1.132955
6393.000000;1.132263
6392.000000;1.131734
6391.000000;1.131293
6390.000000;1.130748
6389.000000;1.129978
6388.000000;1.129030
6387.000000;1.128059
6386.000000;1.127214
6385.000000;1.126579
6384.000000;1.126148
6383.000000;1.125834
6382.000000;1.125522
6381.000000;1.125143
6380.000000;1.124683
6379.000000;1.124147
6378.000000;1.123520
6377.000000;1.122785
6376.000000;1.121938
6375.000000;1.121014
6374.000000;1.120088
6373.000000;1.119256
6372.000000;1.118579
6371.000000;1.118030
6370.000000;1.117530
6369.000000;1.116993
6368.000000;1.116361
6367.000000;1.115608
6366.000000;1.114777
6365.000000;1.113981
6364.000000;1.113317
6363.000000;1.112748
6362.000000;1.112128
6361.000000;1.111343
6360.000000;1.110432
6359.000000;1.109540
6358.000000;1.108794
6357.000000;1.108239
6356.000000;1.107843
6355.000000;1.107549
6354.000000;1.107315
6353.000000;1.107112
6352.000000;1.106889
6351.000000;1.106545
6350.000000;1.105968
6349.000000;1.105135
6348.000000;1.104149
6347.000000;1.103186
6346.000000;1.102374
6345.000000;1.101741
6344.000000;1.101209
6343.000000;1.100673
6342.000000;1.100083
6341.000000;1.099494
6340.000000;1.098998
6339.000000;1.098616
6338.000000;1.098268
6337.000000;1.097874
6336.000000;1.097418
6335.000000;1.096918
6334.000000;1.096357
6333.000000;1.095719
6332.000000;1.095047
6331.000000;1.094413
6330.000000;1.093834
6329.000000;1.093271
6328.000000;1.092718
6327.000000;1.092244
6326.000000;1.091904
6325.000000;1.091641
6324.000000;1.091329
6323.000000;1.090898
6322.000000;1.090396
6321.000000;1.089911
6320.000000;1.089466
6319.000000;1.088987
6318.000000;1.088393
6317.000000;1.087687
6316.000000;1.086970
6315.000000;1.086339
6314.000000;1.085799
6313.000000;1.085279
6312.000000;1.084744
6311.000000;1.084235
6310.000000;1.083802
6309.000000;1.083430
6308.000000;1.083069
6307.000000;1.082705
6306.000000;1.082367
6305.000000;1.082058
6304.000000;1.081726
6303.000000;1.081315
6302.000000;1.080799
6301.000000;1.080195
6300.000000;1.079566
6299.000000;1.079019
6298.000000;1.078645
6297.000000;1.078428
6296.000000;1.078248
6295.000000;1.077973
6294.000000;1.077551
6293.000000;1.076991
6292.000000;1.076331
6291.000000;1.075652
6290.000000;1.075082
6289.000000;1.074710
6288.000000;1.074475
6287.000000;1.074206
6286.000000;1.073782
6285.000000;1.073252
6284.000000;1.072777
6283.000000;1.072495
6282.000000;1.072411
6281.000000;1.072409
6280.000000;1.072328
6279.000000;1.072054
6278.000000;1.071585
6277.000000;1.071023
6276.000000;1.070507
6275.000000;1.070114
6274.000000;1.069795
6273.000000;1.069393
6272.000000;1.068773
6271.000000;1.067967
6270.000000;1.067167
6269.000000;1.066545
6268.000000;1.066099
6267.000000;1.065705
6266.000000;1.065308
6265.000000;1.064982
6264.000000;1.064784
6263.000000;1.064628
6262.000000;1.064352
6261.000000;1.063894
6260.000000;1.063347
6259.000000;1.062847
6258.000000;1.062463
6257.000000;1.062193
6256.000000;1.062021
6255.000000;1.061937
6254.000000;1.061906
6253.000000;1.061856
6252.000000;1.061702
6251.000000;1.061385
6250.000000;1.060904
6249.000000;1.060310
6248.000000;1.059685
6247.000000;1.059125
6246.000000;1.058701
6245.000000;1.058416
6244.000000;1.058184
6243.000000;1.057893
6242.000000;1.057517
6241.000000;1.057143
6240.000000;1.056877
6239.000000;1.056724
6238.000000;1.056596
6237.000000;1.056427
6236.000000;1.056232
6235.000000;1.056044
6234.000000;1.055834
6233.000000;1.055522
6232.000000;1.055067
6231.000000;1.054517
6230.000000;1.053982
6229.000000;1.053579
6228.000000;1.053368
6227.000000;1.053304
6226.000000;1.053237
6225.000000;1.053023
6224.000000;1.052658
6223.000000;1.052290
6222.000000;1.052048
6221.000000;1.051894
6220.000000;1.051675
6219.000000;1.051304
6218.000000;1.050841
6217.000000;1.050402
6216.000000;1.050039
6215.000000;1.049737
6214.000000;1.049479
6213.000000;1.049261
6212.000000;1.049046
6211.000000;1.048773
6210.000000;1.048405
6209.000000;1.047973
6208.000000;1.047551
6207.000000;1.047213
6206.000000;1.046986
6205.000000;1.046834
6204.000000;1.046665
6203.000000;1.046395
6202.000000;1.046028
6201.000000;1.045659
6200.000000;1.045385
6199.000000;1.045228
6198.000000;1.045128
6197.000000;1.045027
6196.000000;1.044911
6195.000000;1.044785
6194.000000;1.044606
6193.000000;1.044297
6192.000000;1.043837
6191.000000;1.043323
6190.000000;1.042904
6189.000000;1.042644
6188.000000;1.042475
6187.000000;1.042287
6186.000000;1.042029
6185.000000;1.041724
6184.000000;1.041401
6183.000000;1.041072
6182.000000;1.040766
6181.000000;1.040538
6180.000000;1.040422
6179.000000;1.040377
6178.000000;1.040303
6177.000000;1.040131
6176.000000;1.039880
6175.000000;1.039627
6174.000000;1.039421
6173.000000;1.039233
6172.000000;1.039006
6171.000000;1.038741
6170.000000;1.038512
6169.000000;1.038398
6168.000000;1.038397
6167.000000;1.038424
6166.000000;1.038378
6165.000000;1.038199
6164.000000;1.037903
6163.000000;1.037569
6162.000000;1.037279
6161.000000;1.037049
6160.000000;1.036818
6159.000000;1.036523
6158.000000;1.036180
6157.000000;1.035855
6156.000000;1.035574
6155.000000;1.035296
6154.000000;1.034982
6153.000000;1.034654
6152.000000;1.034378
6151.000000;1.034194
6150.000000;1.034090
6149.000000;1.034040
6148.000000;1.034036
6147.000000;1.034071
6146.000000;1.034113
6145.000000;1.034106
6144.000000;1.034010
6143.000000;1.033828
6142.000000;1.033610
6141.000000;1.033410
6140.000000;1.033261
6139.000000;1.033171
6138.000000;1.033127
6137.000000;1.033097
6136.000000;1.033035
6135.000000;1.032916
6134.000000;1.032757
6133.000000;1.032597
6132.000000;1.032447
6131.000000;1.032276
6130.000000;1.032043
6129.000000;1.031751
6128.000000;1.031458
6127.000000;1.031236
6126.000000;1.031111
6125.000000;1.031047
6124.000000;1.030977
6123.000000;1.030856
6122.000000;1.030674
6121.000000;1.030426
6120.000000;1.030095
6119.000000;1.029692
6118.000000;1.029290
6117.000000;1.028983
6116.000000;1.028789
6115.000000;1.028630
6114.000000;1.028405
6113.000000;1.028113
6112.000000;1.027880
6111.000000;1.027853
6110.000000;1.028049
6109.000000;1.028302
6108.000000;1.028383
6107.000000;1.028174
6106.000000;1.027772
6105.000000;1.027408
6104.000000;1.027267
6103.000000;1.027367
6102.000000;1.027560
6101.000000;1.027665
6100.000000;1.027594
6099.000000;1.027393
6098.000000;1.027160
6097.000000;1.026943
6096.000000;1.026723
6095.000000;1.026484
6094.000000;1.026257
6093.000000;1.026094
6092.000000;1.026007
6091.000000;1.025952
6090.000000;1.025869
6089.000000;1.025721
6088.000000;1.025516
6087.000000;1.025292
6086.000000;1.025093
6085.000000;1.024942
6084.000000;1.024852
6083.000000;1.024844
6082.000000;1.024928
6081.000000;1.025044
6080.000000;1.025072
6079.000000;1.024926
6078.000000;1.024666
6077.000000;1.024465
6076.000000;1.024460
6075.000000;1.024632
6074.000000;1.024824
6073.000000;1.024868
6072.000000;1.024713
6071.000000;1.024457
6070.000000;1.024251
6069.000000;1.024177
6068.000000;1.024204
6067.000000;1.024249
6066.000000;1.024268
6065.000000;1.024286
6064.000000;1.024349
6063.000000;1.024456
6062.000000;1.024539
6061.000000;1.024491
6060.000000;1.024257
6059.000000;1.023903
6058.000000;1.023575
6057.000000;1.023370
6056.000000;1.023258
6055.000000;1.023137
6054.000000;1.022954
6053.000000;1.022749
6052.000000;1.022599
6051.000000;1.022548
6050.000000;1.022592
6049.000000;1.022684
6048.000000;1.022772
6047.000000;1.022831
6046.000000;1.022869
6045.000000;1.022905
6044.000000;1.022946
6043.000000;1.022991
6042.000000;1.023021
6041.000000;1.022990
6040.000000;1.022859
6039.000000;1.022654
6038.000000;1.022467
6037.000000;1.022362
6036.000000;1.022310
6035.000000;1.022254
6034.000000;1.022211
6033.000000;1.022236
6032.000000;1.022312
6031.000000;1.022326
6030.000000;1.022196
6029.000000;1.021971
6028.000000;1.021777
6027.000000;1.021703
6026.000000;1.021752
6025.000000;1.021890
6024.000000;1.022085
6023.000000;1.022301
6022.000000;1.022480
6021.000000;1.022565
6020.000000;1.022534
6019.000000;1.022424
6018.000000;1.022297
6017.000000;1.022181
6016.000000;1.022061
6015.000000;1.021944
6014.000000;1.021899
6013.000000;1.021988
6012.000000;1.022180
6011.000000;1.022369
6010.000000;1.022498
6009.000000;1.022606
6008.000000;1.022742
6007.000000;1.022872
6006.000000;1.022908
6005.000000;1.022824
6004.000000;1.022706
6003.000000;1.022672
6002.000000;1.022750
6001.000000;1.022851
6000.000000;1.022859
5999.000000;1.022757
5998.000000;1.022655
5997.000000;1.022683
5996.000000;1.022864
5995.000000;1.023100
5994.000000;1.023276
5993.000000;1.023351
5992.000000;1.023360
5991.000000;1.023368
5990.000000;1.023418
5989.000000;1.023506
5988.000000;1.023586
5987.000000;1.023632
5986.000000;1.023691
5985.000000;1.023852
5984.000000;1.024133
5983.000000;1.024430
5982.000000;1.024606
5981.000000;1.024614
5980.000000;1.024528
5979.000000;1.024456
5978.000000;1.024463
5977.000000;1.024554
5976.000000;1.024720
5975.000000;1.024945
5974.000000;1.025201
5973.000000;1.025444
5972.000000;1.025646
5971.000000;1.025826
5970.000000;1.026024
5969.000000;1.026238
5968.000000;1.026403
5967.000000;1.026471
5966.000000;1.026495
5965.000000;1.026594
5964.000000;1.026825
5963.000000;1.027110
5962.000000;1.027332
5961.000000;1.027463
5960.000000;1.027582
5959.000000;1.027762
5958.000000;1.027991
5957.000000;1.028212
5956.000000;1.028421
5955.000000;1.028681
5954.000000;1.029036
5953.000000;1.029448
5952.000000;1.029813
5951.000000;1.030047
5950.000000;1.030134
5949.000000;1.030123
5948.000000;1.030102
5947.000000;1.030166
5946.000000;1.030363
5945.000000;1.030649
5944.000000;1.030926
5943.000000;1.031150
5942.000000;1.031362
5941.000000;1.031614
5940.000000;1.031889
5939.000000;1.032140
5938.000000;1.032362
5937.000000;1.032603
5936.000000;1.032886
5935.000000;1.033188
5934.000000;1.033482
5933.000000;1.033770
5932.000000;1.034045
5931.000000;1.034266
5930.000000;1.034396
5929.000000;1.034458
5928.000000;1.034523
5927.000000;1.034649
5926.000000;1.034854
5925.000000;1.035123
5924.000000;1.035439
5923.000000;1.035782
5922.000000;1.036129
5921.000000;1.036442
5920.000000;1.036689
5919.000000;1.036879
5918.000000;1.037057
5917.000000;1.037260
5916.000000;1.037487
5915.000000;1.037714
5914.000000;1.037936
5913.000000;1.038156
5912.000000;1.038355
5911.000000;1.038485
5910.000000;1.038523
5909.000000;1.038489
5908.000000;1.038412
5907.000000;1.038305
5906.000000;1.038203
5905.000000;1.038186
5904.000000;1.038322
5903.000000;1.038574
5902.000000;1.038813
5901.000000;1.038935
5900.000000;1.038974
5899.000000;1.039052
5898.000000;1.039234
5897.000000;1.039467
5896.000000;1.039651
5895.000000;1.039755
5894.000000;1.039802
5893.000000;1.039797
5892.000000;1.039723
5891.000000;1.039618
5890.000000;1.039583
5889.000000;1.039684
5888.000000;1.039877
5887.000000;1.040068
5886.000000;1.040205
5885.000000;1.040308
5884.000000;1.040418
5883.000000;1.040586
5882.000000;1.040858
5881.000000;1.041218
5880.000000;1.041565
5879.000000;1.041802
5878.000000;1.041958
5877.000000;1.042166
5876.000000;1.042511
5875.000000;1.042937
5874.000000;1.043307
5873.000000;1.043527
5872.000000;1.043598
5871.000000;1.043609
5870.000000;1.043691
5869.000000;1.043948
5868.000000;1.044373
5867.000000;1.044850
5866.000000;1.045247
5865.000000;1.045506
5864.000000;1.045644
5863.000000;1.045730
5862.000000;1.045859
5861.000000;1.046115
5860.000000;1.046504
5859.000000;1.046931
5858.000000;1.047294
5857.000000;1.047590
5856.000000;1.047908
5855.000000;1.048308
5854.000000;1.048741
5853.000000;1.049113
5852.000000;1.049394
5851.000000;1.049651
5850.000000;1.049962
5849.000000;1.050336
5848.000000;1.050719
5847.000000;1.051084
5846.000000;1.051467
5845.000000;1.051908
5844.000000;1.052379
5843.000000;1.052800
5842.000000;1.053137
5841.000000;1.053459
5840.000000;1.053876
5839.000000;1.054421
5838.000000;1.055010
5837.000000;1.055512
5836.000000;1.055875
5835.000000;1.056180
5834.000000;1.056553
5833.000000;1.057020
5832.000000;1.057460
5831.000000;1.057740
5830.000000;1.057879
5829.000000;1.058036
5828.000000;1.058347
5827.000000;1.058811
5826.000000;1.059335
5825.000000;1.059861
5824.000000;1.060403
5823.000000;1.061001
5822.000000;1.061650
5821.000000;1.062297
5820.000000;1.062876
5819.000000;1.063355
5818.000000;1.063755
5817.000000;1.064127
5816.000000;1.064518
5815.000000;1.064958
5814.000000;1.065445
5813.000000;1.065939
5812.000000;1.066388
5811.000000;1.066781
5810.000000;1.067180
5809.000000;1.067656
5808.000000;1.068214
5807.000000;1.068798
5806.000000;1.069350
5805.000000;1.069847
5804.000000;1.070294
5803.000000;1.070730
5802.000000;1.071230
5801.000000;1.071842
5800.000000;1.072517
5799.000000;1.073152
5798.000000;1.073700
5797.000000;1.074205
5796.000000;1.074722
5795.000000;1.075253
5794.000000;1.075789
5793.000000;1.076351
5792.000000;1.076973
5791.000000;1.077670
5790.000000;1.078416
5789.000000;1.079134
5788.000000;1.079692
5787.000000;1.080003
5786.000000;1.080145
5785.000000;1.080343
5784.000000;1.080769
5783.000000;1.081411
5782.000000;1.082145
5781.000000;1.082877
5780.000000;1.083551
5779.000000;1.084127
5778.000000;1.084618
5777.000000;1.085147
5776.000000;1.085844
5775.000000;1.086698
5774.000000;1.087548
5773.000000;1.088234
5772.000000;1.088717
5771.000000;1.089062
5770.000000;1.089383
5769.000000;1.089800
5768.000000;1.090364
5767.000000;1.091017
5766.000000;1.091659
5765.000000;1.092281
5764.000000;1.092957
5763.000000;1.093701
5762.000000;1.094404
5761.000000;1.094961
5760.000000;1.095404
5759.000000;1.095864
5758.000000;1.096421
5757.000000;1.097050
5756.000000;1.097680
5755.000000;1.098278
5754.000000;1.098856
5753.000000;1.099429
5752.000000;1.099965
5751.000000;1.100407
5750.000000;1.100740
5749.000000;1.101057
5748.000000;1.101491
5747.000000;1.102098
5746.000000;1.102798
5745.000000;1.103461
5744.000000;1.104024
5743.000000;1.104528
5742.000000;1.105076
5741.000000;1.105765
5740.000000;1.106608
5739.000000;1.107511
5738.000000;1.108326
5737.000000;1.108965
5736.000000;1.109461
5735.000000;1.109920
5734.000000;1.110442
5733.000000;1.111086
5732.000000;1.111854
5731.000000;1.112691
5730.000000;1.113510
5729.000000;1.114253
5728.000000;1.114925
5727.000000;1.115536
5726.000000;1.116080
5725.000000;1.116574
5724.000000;1.117101
5723.000000;1.117748
5722.000000;1.118513
5721.000000;1.119313
5720.000000;1.120069
5719.000000;1.120744
5718.000000;1.121337
5717.000000;1.121870
5716.000000;1.122403
5715.000000;1.123004
5714.000000;1.123690
5713.000000;1.124424
5712.000000;1.125163
5711.000000;1.125886
5710.000000;1.126571
5709.000000;1.127194
5708.000000;1.127773
5707.000000;1.128383
5706.000000;1.129097
5705.000000;1.129917
5704.000000;1.130767
5703.000000;1.131546
5702.000000;1.132186
5701.000000;1.132696
5700.000000;1.133169
5699.000000;1.133733
5698.000000;1.134470
5697.000000;1.135363
5696.000000;1.136321
5695.000000;1.137244
5694.000000;1.138066
5693.000000;1.138747
5692.000000;1.139295
5691.000000;1.139726
5690.000000;1.140081
5689.000000;1.140461
5688.000000;1.140976
5687.000000;1.141680
5686.000000;1.142534
5685.000000;1.143465
5684.000000;1.144424
5683.000000;1.145381
5682.000000;1.146271
5681.000000;1.147023
5680.000000;1.147647
5679.000000;1.148223
5678.000000;1.148817
5677.000000;1.149413
5676.000000;1.149986
5675.000000;1.150575
5674.000000;1.151258
5673.000000;1.152053
5672.000000;1.152885
5671.000000;1.153657
5670.000000;1.154348
5669.000000;1.155035
5668.000000;1.155813
5667.000000;1.156701
5666.000000;1.157606
5665.000000;1.158412
5664.000000;1.159075
5663.000000;1.159652
5662.000000;1.160230
5661.000000;1.160869
5660.000000;1.161579
5659.000000;1.162305
5658.000000;1.162942
5657.000000;1.163420
5656.000000;1.163799
5655.000000;1.164223
5654.000000;1.164764
5653.000000;1.165343
5652.000000;1.165838
5651.000000;1.166226
5650.000000;1.166597
5649.000000;1.167041
5648.000000;1.167570
5647.000000;1.168151
5646.000000;1.168753
5645.000000;1.169371
5644.000000;1.170016
5643.000000;1.170702
5642.000000;1.171436
5641.000000;1.172228
5640.000000;1.173091
5639.000000;1.174007
5638.000000;1.174877
5637.000000;1.175567
5636.000000;1.176014
5635.000000;1.176294
5634.000000;1.176540
5633.000000;1.176840
5632.000000;1.177214
5631.000000;1.177660
5630.000000;1.178150
5629.000000;1.178628
5628.000000;1.179055
5627.000000;1.179463
5626.000000;1.179910
5625.000000;1.180406
5624.000000;1.180916
5623.000000;1.181424
5622.000000;1.181949
5621.000000;1.182493
5620.000000;1.183026
5619.000000;1.183513
5618.000000;1.183934
5617.000000;1.184276
5616.000000;1.184546
5615.000000;1.184804
5614.000000;1.185136
5613.000000;1.185561
5612.000000;1.186000
5611.000000;1.186371
5610.000000;1.186687
5609.000000;1.187060
5608.000000;1.187605
5607.000000;1.188328
5606.000000;1.189099
5605.000000;1.189735
5604.000000;1.190139
5603.000000;1.190368
5602.000000;1.190552
5601.000000;1.190763
5600.000000;1.190981
5599.000000;1.191177
5598.000000;1.191369
5597.000000;1.191591
5596.000000;1.191839
5595.000000;1.192082
5594.000000;1.192295
5593.000000;1.192459
5592.000000;1.192549
5591.000000;1.192552
5590.000000;1.192511
5589.000000;1.192526
5588.000000;1.192689
5587.000000;1.193000
5586.000000;1.193355
5585.000000;1.193647
5584.000000;1.193886
5583.000000;1.194190
5582.000000;1.194629
5581.000000;1.195111
5580.000000;1.195455
5579.000000;1.195572
5578.000000;1.195544
5577.000000;1.195545
5576.000000;1.195712
5575.000000;1.196062
5574.000000;1.196484
5573.000000;1.196805
5572.000000;1.196927
5571.000000;1.196922
5570.000000;1.196955
5569.000000;1.197113
5568.000000;1.197345
5567.000000;1.197549
5566.000000;1.197682
5565.000000;1.197738
5564.000000;1.197707
5563.000000;1.197603
5562.000000;1.197509
5561.000000;1.197530
5560.000000;1.197710
5559.000000;1.198001
5558.000000;1.198324
5557.000000;1.198608
5556.000000;1.198793
5555.000000;1.198820
5554.000000;1.198681
5553.000000;1.198472
5552.000000;1.198356
5551.000000;1.198429
5550.000000;1.198617
5549.000000;1.198741
5548.000000;1.198706
5547.000000;1.198599
5546.000000;1.198572
5545.000000;1.198670
5544.000000;1.198818
5543.000000;1.198953
5542.000000;1.199091
5541.000000;1.199268
5540.000000;1.199479
5539.000000;1.199697
5538.000000;1.199900
5537.000000;1.200048
5536.000000;1.200102
5535.000000;1.200088
5534.000000;1.200086
5533.000000;1.200109
5532.000000;1.200062
5531.000000;1.199871
5530.000000;1.199611
5529.000000;1.199431
5528.000000;1.199376
5527.000000;1.199360
5526.000000;1.199302
5525.000000;1.199231
5524.000000;1.199239
5523.000000;1.199365
5522.000000;1.199573
5521.000000;1.199801
5520.000000;1.200026
5519.000000;1.200255
5518.000000;1.200467
5517.000000;1.200589
5516.000000;1.200572
5515.000000;1.200477
5514.000000;1.200448
5513.000000;1.200571
5512.000000;1.200800
5511.000000;1.201039
5510.000000;1.201240
5509.000000;1.201394
5508.000000;1.201476
5507.000000;1.201479
5506.000000;1.201478
5505.000000;1.201608
5504.000000;1.201956
5503.000000;1.202474
5502.000000;1.203001
5501.000000;1.203365
5500.000000;1.203514
5499.000000;1.203546
5498.000000;1.203589
5497.000000;1.203634
5496.000000;1.203576
5495.000000;1.203418
5494.000000;1.203331
5493.000000;1.203440
5492.000000;1.203634
5491.000000;1.203698
5490.000000;1.203589
5489.000000;1.203487
5488.000000;1.203580
5487.000000;1.203922
5486.000000;1.204459
5485.000000;1.205093
5484.000000;1.205700
5483.000000;1.206170
5482.000000;1.206499
5481.000000;1.206792
5480.000000;1.207128
5479.000000;1.207475
5478.000000;1.207760
5477.000000;1.207964
5476.000000;1.208137
5475.000000;1.208352
5474.000000;1.208635
5473.000000;1.208954
5472.000000;1.209268
5471.000000;1.209582
5470.000000;1.209951
5469.000000;1.210417
5468.000000;1.210942
5467.000000;1.211439
5466.000000;1.211837
5465.000000;1.212090
5464.000000;1.212186
5463.000000;1.212197
5462.000000;1.212281
5461.000000;1.212567
5460.000000;1.213051
5459.000000;1.213676
5458.000000;1.214462
5457.000000;1.215482
5456.000000;1.216697
5455.000000;1.217930
5454.000000;1.218977
5453.000000;1.219732
5452.000000;1.220249
5451.000000;1.220680
5450.000000;1.221120
5449.000000;1.221504
5448.000000;1.221738
5447.000000;1.221931
5446.000000;1.222354
5445.000000;1.223092
5444.000000;1.223927
5443.000000;1.224653
5442.000000;1.225359
5441.000000;1.226278
5440.000000;1.227457
5439.000000;1.228698
5438.000000;1.229822
5437.000000;1.230843
5436.000000;1.231867
5435.000000;1.232966
5434.000000;1.234119
5433.000000;1.235219
5432.000000;1.236197
5431.000000;1.237126
5430.000000;1.238143
5429.000000;1.239306
5428.000000;1.240579
5427.000000;1.241921
5426.000000;1.243344
5425.000000;1.244854
5424.000000;1.246405
5423.000000;1.247984
5422.000000;1.249680
5421.000000;1.251594
5420.000000;1.253679
5419.000000;1.255697
5418.000000;1.257378
5417.000000;1.258663
5416.000000;1.259783
5415.000000;1.261058
5414.000000;1.262612
5413.000000;1.264262
5412.000000;1.265791
5411.000000;1.267267
5410.000000;1.268957
5409.000000;1.270976
5408.000000;1.273226
5407.000000;1.275665
5406.000000;1.278419
5405.000000;1.281519
5404.000000;1.284727
5403.000000;1.287746
5402.000000;1.290514
5401.000000;1.293171
5400.000000;1.295864
5399.000000;1.298665
5398.000000;1.301522
5397.000000;1.304284
5396.000000;1.306850
5395.000000;1.309362
5394.000000;1.312144
5393.000000;1.315381
5392.000000;1.318961
5391.000000;1.322698
5390.000000;1.326528
5389.000000;1.330400
5388.000000;1.334172
5387.000000;1.337792
5386.000000;1.341454
5385.000000;1.345382
5384.000000;1.349544
5383.000000;1.353819
5382.000000;1.358259
5381.000000;1.362928
5380.000000;1.367681
5379.000000;1.372335
5378.000000;1.376943
5377.000000;1.381708
5376.000000;1.386676
5375.000000;1.391744
5374.000000;1.396950
5373.000000;1.402455
5372.000000;1.408282
5371.000000;1.414335
5370.000000;1.420649
5369.000000;1.427361
5368.000000;1.434419
5367.000000;1.441573
5366.000000;1.448707
5365.000000;1.455931
5364.000000;1.463273
5363.000000;1.470576
5362.000000;1.477841
5361.000000;1.485390
5360.000000;1.493535
5359.000000;1.502225
5358.000000;1.511154
5357.000000;1.520078
5356.000000;1.528945
5355.000000;1.537866
5354.000000;1.547036
5353.000000;1.556596
5352.000000;1.566504
5351.000000;1.576712
5350.000000;1.587412
5349.000000;1.598760
5348.000000;1.610433
5347.000000;1.621846
5346.000000;1.632927
5345.000000;1.644326
5344.000000;1.656653
5343.000000;1.669750
5342.000000;1.683052
5341.000000;1.696386
5340.000000;1.709998
5339.000000;1.724088
5338.000000;1.738678
5337.000000;1.753762
5336.000000;1.769314
5335.000000;1.785282
5334.000000;1.801719
5333.000000;1.818795
5332.000000;1.836518
5331.000000;1.854621
5330.000000;1.872966
5329.000000;1.891880
5328.000000;1.911774
5327.000000;1.932494
5326.000000;1.953310
5325.000000;1.973696
5324.000000;1.993902
5323.000000;2.014649
5322.000000;2.036454
5321.000000;2.059281
5320.000000;2.082717
5319.000000;2.106401
5318.000000;2.130205
5317.000000;2.154012
5316.000000;2.177613
5315.000000;2.201083
5314.000000;2.224934
5313.000000;2.249431
5312.000000;2.273988
5311.000000;2.297884
5310.000000;2.321518
5309.000000;2.346251
5308.000000;2.373019
5307.000000;2.401558
5306.000000;2.430732
5305.000000;2.459012
5304.000000;2.484932
5303.000000;2.508092
5302.000000;2.529811
5301.000000;2.551906
5300.000000;2.574839
5299.000000;2.598075
5298.000000;2.622108
5297.000000;2.648413
5296.000000;2.676565
5295.000000;2.702727
5294.000000;2.722805
5293.000000;2.737285
5292.000000;2.751360
5291.000000;2.770113
5290.000000;2.793921
5289.000000;2.817944
5288.000000;2.836908
5287.000000;2.850833
5286.000000;2.864616
5285.000000;2.882331
5284.000000;2.903149
5283.000000;2.922376
5282.000000;2.935515
5281.000000;2.940949
5280.000000;2.939893
5279.000000;2.935475
5278.000000;2.931677
5277.000000;2.931289
5276.000000;2.934307
5275.000000;2.938437
5274.000000;2.940153
5273.000000;2.936276
5272.000000;2.927383
5271.000000;2.919023
5270.000000;2.917361
5269.000000;2.923970
5268.000000;2.935729
5267.000000;2.948978
5266.000000;2.961312
5265.000000;2.969037
5264.000000;2.968340
5263.000000;2.962026
5262.000000;2.959199
5261.000000;2.965148
5260.000000;2.975415
5259.000000;2.981162
5258.000000;2.978226
5257.000000;2.968724
5256.000000;2.956844
5255.000000;2.946988
5254.000000;2.943323
5253.000000;2.946928
5252.000000;2.953989
5251.000000;2.959507
5250.000000;2.962258
5249.000000;2.964126
5248.000000;2.966114
5247.000000;2.967687
5246.000000;2.968775
5245.000000;2.969548
5244.000000;2.969009
5243.000000;2.966654
5242.000000;2.965108
5241.000000;2.968055
5240.000000;2.975608
5239.000000;2.983822
5238.000000;2.988370
5237.000000;2.987133
5236.000000;2.980319
5235.000000;2.970602
5234.000000;2.962705
5233.000000;2.960369
5232.000000;2.963043
5231.000000;2.966575
5230.000000;2.967494
5229.000000;2.966087
5228.000000;2.965177
5227.000000;2.966613
5226.000000;2.969617
5225.000000;2.972403
5224.000000;2.974495
5223.000000;2.976378
5222.000000;2.977380
5221.000000;2.975768
5220.000000;2.971946
5219.000000;2.969749
5218.000000;2.972563
5217.000000;2.979635
5216.000000;2.987075
5215.000000;2.991178
5214.000000;2.990032
5213.000000;2.982795
5212.000000;2.970800
5211.000000;2.959472
5210.000000;2.954553
5209.000000;2.956223
5208.000000;2.959641
5207.000000;2.961038
5206.000000;2.960857
5205.000000;2.960613
5204.000000;2.960413
5203.000000;2.960822
5202.000000;2.963401
5201.000000;2.967896
5200.000000;2.971849
5199.000000;2.974184
5198.000000;2.976154
5197.000000;2.977705
5196.000000;2.976958
5195.000000;2.974854
5194.000000;2.975315
5193.000000;2.978348
5192.000000;2.977897
5191.000000;2.970506
5190.000000;2.962044
5189.000000;2.960614
5188.000000;2.966447
5187.000000;2.972628
5186.000000;2.974216
5185.000000;2.973002
5184.000000;2.973088
5183.000000;2.975940
5182.000000;2.980359
5181.000000;2.984072
5180.000000;2.985303
5179.000000;2.984606
5178.000000;2.984066
5177.000000;2.983916
5176.000000;2.981701
5175.000000;2.976680
5174.000000;2.973097
5173.000000;2.975193
5172.000000;2.980588
5171.000000;2.982579
5170.000000;2.979426
5169.000000;2.977007
5168.000000;2.980115
5167.000000;2.984982
5166.000000;2.983821
5165.000000;2.975304
5164.000000;2.965155
5163.000000;2.958640
5162.000000;2.956506
5161.000000;2.956648
5160.000000;2.957897
5159.000000;2.960481
5158.000000;2.963400
5157.000000;2.964140
5156.000000;2.962252
5155.000000;2.961377
5154.000000;2.965010
5153.000000;2.971138
5152.000000;2.974164
5151.000000;2.971773
5150.000000;2.967323
5149.000000;2.965945
5148.000000;2.969793
5147.000000;2.976426
5146.000000;2.980312
5145.000000;2.976854
5144.000000;2.967096
5143.000000;2.957623
5142.000000;2.954669
5141.000000;2.958639
5140.000000;2.964455
5139.000000;2.967167
5138.000000;2.965909
5137.000000;2.962256
5136.000000;2.958034
5135.000000;2.955559
5134.000000;2.957281
5133.000000;2.963625
5132.000000;2.971936
5131.000000;2.978817
5130.000000;2.982169
5129.000000;2.979833
5128.000000;2.970099
5127.000000;2.956112
5126.000000;2.945800
5125.000000;2.944802
5124.000000;2.951301
5123.000000;2.959152
5122.000000;2.965091
5121.000000;2.970461
5120.000000;2.976659
5119.000000;2.982143
5118.000000;2.983893
5117.000000;2.980121
5116.000000;2.972121
5115.000000;2.964563
5114.000000;2.962494
5113.000000;2.966227
5112.000000;2.969901
5111.000000;2.967571
5110.000000;2.960284
5109.000000;2.954044
5108.000000;2.952563
5107.000000;2.954866
5106.000000;2.958808
5105.000000;2.964321
5104.000000;2.971044
5103.000000;2.975475
5102.000000;2.974174
5101.000000;2.967955
5100.000000;2.960662
5099.000000;2.955260
5098.000000;2.952230
5097.000000;2.950640
5096.000000;2.949416
5095.000000;2.947808
5094.000000;2.945358
5093.000000;2.942149
5092.000000;2.939625
5091.000000;2.939903
5090.000000;2.943268
5089.000000;2.947067
5088.000000;2.947998
5087.000000;2.945216
5086.000000;2.940025
5085.000000;2.933724
5084.000000;2.927703
5083.000000;2.924555
5082.000000;2.926522
5081.000000;2.932277
5080.000000;2.937210
5079.000000;2.938170
5078.000000;2.936367
5077.000000;2.934284
5076.000000;2.932146
5075.000000;2.929390
5074.000000;2.927570
5073.000000;2.929281
5072.000000;2.934932
5071.000000;2.941969
5070.000000;2.946946
5069.000000;2.947713
5068.000000;2.944131
5067.000000;2.937914
5066.000000;2.931789
5065.000000;2.927987
5064.000000;2.927300
5063.000000;2.929225
5062.000000;2.932234
5061.000000;2.934040
5060.000000;2.933277
5059.000000;2.931042
5058.000000;2.928993
5057.000000;2.926650
5056.000000;2.922335
5055.000000;2.916202
5054.000000;2.911149
5053.000000;2.910294
5052.000000;2.914131
5051.000000;2.920276
5050.000000;2.925121
5049.000000;2.926048
5048.000000;2.923778
5047.000000;2.922719
5046.000000;2.926687
5045.000000;2.933935
5044.000000;2.938757
5043.000000;2.938345
5042.000000;2.935131
5041.000000;2.931330
5040.000000;2.925621
5039.000000;2.917249
5038.000000;2.909673
5037.000000;2.907179
5036.000000;2.909124
5035.000000;2.910889
5034.000000;2.910211
5033.000000;2.908920
5032.000000;2.908848
5031.000000;2.909533
5030.000000;2.909853
5029.000000;2.909427
5028.000000;2.908153
5027.000000;2.906102
5026.000000;2.904249
5025.000000;2.903963
5024.000000;2.905208
5023.000000;2.906085
5022.000000;2.904502
5021.000000;2.899728
5020.000000;2.892605
5019.000000;2.885183
5018.000000;2.879666
5017.000000;2.877262
5016.000000;2.878235
5015.000000;2.882315
5014.000000;2.888337
5013.000000;2.893147
5012.000000;2.892339
5011.000000;2.884608
5010.000000;2.874184
5009.000000;2.866742
5008.000000;2.864063
5007.000000;2.863423
5006.000000;2.860788
5005.000000;2.853787
5004.000000;2.843014
5003.000000;2.832513
5002.000000;2.828309
5001.000000;2.833684
5000.000000;2.844555
4999.000000;2.851755
4998.000000;2.850561
4997.000000;2.844411
4996.000000;2.838263
4995.000000;2.833183
4994.000000;2.827231
4993.000000;2.819468
4992.000000;2.811811
4991.000000;2.807377
4990.000000;2.808155
4989.000000;2.813381
4988.000000;2.819408
4987.000000;2.822340
4986.000000;2.821203
4985.000000;2.817622
4984.000000;2.812817
4983.000000;2.805885
4982.000000;2.795676
4981.000000;2.783964
4980.000000;2.775017
4979.000000;2.771844
4978.000000;2.773788
4977.000000;2.777348
4976.000000;2.779018
4975.000000;2.777800
4974.000000;2.774721
4973.000000;2.770092
4972.000000;2.762850
4971.000000;2.753048
4970.000000;2.743592
4969.000000;2.738488
4968.000000;2.739213
4967.000000;2.743085
4966.000000;2.745686
4965.000000;2.744918
4964.000000;2.741992
4963.000000;2.738816
4962.000000;2.735893
4961.000000;2.732849
4960.000000;2.729482
4959.000000;2.725383
4958.000000;2.719640
4957.000000;2.712104
4956.000000;2.704497
4955.000000;2.699097
4954.000000;2.696326
4953.000000;2.694400
4952.000000;2.691529
4951.000000;2.687661
4950.000000;2.683790
4949.000000;2.680586
4948.000000;2.678061
4947.000000;2.675633
4946.000000;2.672146
4945.000000;2.666863
4944.000000;2.660983
4943.000000;2.657211
4942.000000;2.657046
4941.000000;2.659134
4940.000000;2.660978
4939.000000;2.661330
4938.000000;2.659715
4937.000000;2.654892
4936.000000;2.646125
4935.000000;2.635649
4934.000000;2.627639
4933.000000;2.624370
4932.000000;2.624463
4931.000000;2.624666
4930.000000;2.622650
4929.000000;2.618313
4928.000000;2.613397
4927.000000;2.609998
4926.000000;2.608528
4925.000000;2.606735
4924.000000;2.601626
4923.000000;2.592833
4922.000000;2.583204
4921.000000;2.575932
4920.000000;2.572211
4919.000000;2.571433
4918.000000;2.571987
4917.000000;2.571509
4916.000000;2.567879
4915.000000;2.560967
4914.000000;2.552662
4913.000000;2.544876
4912.000000;2.538438
4911.000000;2.533853
4910.000000;2.531594
4909.000000;2.531000
4908.000000;2.530004
4907.000000;2.526913
4906.000000;2.521847
4905.000000;2.515852
4904.000000;2.509726
4903.000000;2.504571
4902.000000;2.502012
4901.000000;2.502362
4900.000000;2.503358
4899.000000;2.502131
4898.000000;2.498239
4897.000000;2.493514
4896.000000;2.489384
4895.000000;2.485602
4894.000000;2.481276
4893.000000;2.476042
4892.000000;2.470167
4891.000000;2.464463
4890.000000;2.460187
4889.000000;2.458093
4888.000000;2.457267
4887.000000;2.455429
4886.000000;2.450755
4885.000000;2.443378
4884.000000;2.435306
4883.000000;2.429074
4882.000000;2.425980
4881.000000;2.424943
4880.000000;2.423294
4879.000000;2.419476
4878.000000;2.414768
4877.000000;2.411509
4876.000000;2.410054
4875.000000;2.408362
4874.000000;2.404437
4873.000000;2.398345
4872.000000;2.391708
4871.000000;2.386092
4870.000000;2.382208
4869.000000;2.379916
4868.000000;2.378512
4867.000000;2.377212
4866.000000;2.375490
4865.000000;2.372939
4864.000000;2.369100
4863.000000;2.363943
4862.000000;2.358371
4861.000000;2.353587
4860.000000;2.350028
4859.000000;2.347401
4858.000000;2.345467
4857.000000;2.343897
4856.000000;2.341507
4855.000000;2.336920
4854.000000;2.330373
4853.000000;2.323947
4852.000000;2.319506
4851.000000;2.316912
4850.000000;2.314599
4849.000000;2.311436
4848.000000;2.307603
4847.000000;2.303930
4846.000000;2.300848
4845.000000;2.297901
4844.000000;2.294148
4843.000000;2.289272
4842.000000;2.284341
4841.000000;2.281031
4840.000000;2.279888
4839.000000;2.279691
4838.000000;2.278711
4837.000000;2.276193
4836.000000;2.272313
4835.000000;2.267387
4834.000000;2.261773
4833.000000;2.256137
4832.000000;2.251117
4831.000000;2.246929
4830.000000;2.243659
4829.000000;2.241510
4828.000000;2.240202
4827.000000;2.238564
4826.000000;2.235592
4825.000000;2.231757
4824.000000;2.228391
4823.000000;2.225770
4822.000000;2.222720
4821.000000;2.218332
4820.000000;2.213251
4819.000000;2.208799
4818.000000;2.205500
4817.000000;2.202966
4816.000000;2.200692
4815.000000;2.198408
4814.000000;2.195870
4813.000000;2.192841
4812.000000;2.189248
4811.000000;2.185121
4810.000000;2.180549
4809.000000;2.175934
4808.000000;2.172035
4807.000000;2.169381
4806.000000;2.167582
4805.000000;2.165513
4804.000000;2.162210
4803.000000;2.157564
4802.000000;2.152333
4801.000000;2.147657
4800.000000;2.144378
4799.000000;2.142414
4798.000000;2.140756
4797.000000;2.138334
4796.000000;2.134888
4795.000000;2.130947
4794.000000;2.127129
4793.000000;2.123713
4792.000000;2.120818
4791.000000;2.118569
4790.000000;2.116905
4789.000000;2.115440
4788.000000;2.113651
4787.000000;2.111197
4786.000000;2.108126
4785.000000;2.104854
4784.000000;2.101819
4783.000000;2.098973
4782.000000;2.095759
4781.000000;2.091842
4780.000000;2.087747
4779.000000;2.084358
4778.000000;2.081853
4777.000000;2.079502
4776.000000;2.076521
4775.000000;2.072785
4774.000000;2.068685
4773.000000;2.064722
4772.000000;2.061394
4771.000000;2.059019
4770.000000;2.057288
4769.000000;2.055283
4768.000000;2.052308
4767.000000;2.048613
4766.000000;2.045081
4765.000000;2.042350
4764.000000;2.040399
4763.000000;2.038711
4762.000000;2.036571
4761.000000;2.033404
4760.000000;2.029225
4759.000000;2.024755
4758.000000;2.020865
4757.000000;2.017886
4756.000000;2.015531
4755.000000;2.013358
4754.000000;2.011070
4753.000000;2.008499
4752.000000;2.005602
4751.000000;2.002518
4750.000000;1.999422
4749.000000;1.996287
4748.000000;1.992933
4747.000000;1.989393
4746.000000;1.986101
4745.000000;1.983614
4744.000000;1.982116
4743.000000;1.981126
4742.000000;1.979714
4741.000000;1.977137
4740.000000;1.973437
4739.000000;1.969389
4738.000000;1.965839
4737.000000;1.963123
4736.000000;1.961013
4735.000000;1.958995
4734.000000;1.956563
4733.000000;1.953532
4732.000000;1.950255
4731.000000;1.947343
4730.000000;1.944992
4729.000000;1.942776
4728.000000;1.940268
4727.000000;1.937621
4726.000000;1.935259
4725.000000;1.933211
4724.000000;1.931188
4723.000000;1.929191
4722.000000;1.927540
4721.000000;1.926202
4720.000000;1.924567
4719.000000;1.922150
4718.000000;1.919228
4717.000000;1.916498
4716.000000;1.914247
4715.000000;1.912108
4714.000000;1.909536
4713.000000;1.906363
4712.000000;1.902908
4711.000000;1.899676
4710.000000;1.896973
4709.000000;1.894742
4708.000000;1.892796
4707.000000;1.891146
4706.000000;1.889913
4705.000000;1.888897
4704.000000;1.887492
4703.000000;1.885287
4702.000000;1.882622
4701.000000;1.880251
4700.000000;1.878461
4699.000000;1.876781
4698.000000;1.874637
4697.000000;1.872077
4696.000000;1.869641
4695.000000;1.867631
4694.000000;1.865797
4693.000000;1.863772
4692.000000;1.861587
4691.000000;1.859584
4690.000000;1.857909
4689.000000;1.856356
4688.000000;1.854698
4687.000000;1.852990
4686.000000;1.851438
4685.000000;1.850065
4684.000000;1.848595
4683.000000;1.846651
4682.000000;1.844102
4681.000000;1.841277
4680.000000;1.838802
4679.000000;1.837032
4678.000000;1.835605
4677.000000;1.833758
4676.000000;1.831205
4675.000000;1.828517
4674.000000;1.826462
4673.000000;1.825153
4672.000000;1.824070
4671.000000;1.822771
4670.000000;1.821254
4669.000000;1.819631
4668.000000;1.817815
4667.000000;1.815670
4666.000000;1.813297
4665.000000;1.811000
4664.000000;1.809056
4663.000000;1.807562
4662.000000;1.806366
4661.000000;1.805073
4660.000000;1.803288
4659.000000;1.801029
4658.000000;1.798788
4657.000000;1.797029
4656.000000;1.795673
4655.000000;1.794247
4654.000000;1.792518
4653.000000;1.790823
4652.000000;1.789653
4651.000000;1.789026
4650.000000;1.788387
4649.000000;1.787118
4648.000000;1.785087
4647.000000;1.782670
4646.000000;1.780359
4645.000000;1.778387
4644.000000;1.776682
4643.000000;1.775080
4642.000000;1.773551
4641.000000;1.772250
4640.000000;1.771320
4639.000000;1.770598
4638.000000;1.769619
4637.000000;1.768025
4636.000000;1.765993
4635.000000;1.764112
4634.000000;1.762807
4633.000000;1.761987
4632.000000;1.761256
4631.000000;1.760341
4630.000000;1.759268
4629.000000;1.758250
4628.000000;1.757473
4627.000000;1.756895
4626.000000;1.756154
4625.000000;1.754799
4624.000000;1.752692
4623.000000;1.750156
4622.000000;1.747686
4621.000000;1.745633
4620.000000;1.744157
4619.000000;1.743248
4618.000000;1.742655
4617.000000;1.741979
4616.000000;1.741021
4615.000000;1.739943
4614.000000;1.738992
4613.000000;1.738212
4612.000000;1.737533
4611.000000;1.736929
4610.000000;1.736287
4609.000000;1.735339
4608.000000;1.733981
4607.000000;1.732498
4606.000000;1.731218
4605.000000;1.730090
4604.000000;1.728895
4603.000000;1.727686
4602.000000;1.726669
4601.000000;1.725768
4600.000000;1.724719
4599.000000;1.723518
4598.000000;1.722389
4597.000000;1.721338
4596.000000;1.720149
4595.000000;1.718881
4594.000000;1.717895
4593.000000;1.717312
4592.000000;1.716835
4591.000000;1.716258
4590.000000;1.715743
4589.000000;1.715402
4588.000000;1.715002
4587.000000;1.714349
4586.000000;1.713563
4585.000000;1.712698
4584.000000;1.711478
4583.000000;1.709844
4582.000000;1.708395
4581.000000;1.707740
4580.000000;1.707589
4579.000000;1.707012
4578.000000;1.705616
4577.000000;1.704003
4576.000000;1.702953
4575.000000;1.702556
4574.000000;1.702299
4573.000000;1.701724
4572.000000;1.700772
4571.000000;1.699674
4570.000000;1.698696
4569.000000;1.697965
4568.000000;1.697432
4567.000000;1.696989
4566.000000;1.696620
4565.000000;1.696382
4564.000000;1.696282
4563.000000;1.696242
4562.000000;1.696156
4561.000000;1.695890
4560.000000;1.695326
4559.000000;1.694500
4558.000000;1.693642
4557.000000;1.692925
4556.000000;1.692254
4555.000000;1.691455
4554.000000;1.690587
4553.000000;1.689820
4552.000000;1.689093
4551.000000;1.688167
4550.000000;1.687056
4549.000000;1.686126
4548.000000;1.685640
4547.000000;1.685416
4546.000000;1.685061
4545.000000;1.684383
4544.000000;1.683446
4543.000000;1.682391
4542.000000;1.681399
4541.000000;1.680709
4540.000000;1.680487
4539.000000;1.680676
4538.000000;1.681080
4537.000000;1.681548
4536.000000;1.681936
4535.000000;1.681972
4534.000000;1.681389
4533.000000;1.680273
4532.000000;1.679089
4531.000000;1.678258
4530.000000;1.677779
4529.000000;1.677390
4528.000000;1.676990
4527.000000;1.676724
4526.000000;1.676634
4525.000000;1.676471
4524.000000;1.676007
4523.000000;1.675422
4522.000000;1.675174
4521.000000;1.675439
4520.000000;1.675858
4519.000000;1.675941
4518.000000;1.675646
4517.000000;1.675417
4516.000000;1.675698
4515.000000;1.676509
4514.000000;1.677487
4513.000000;1.678188
4512.000000;1.678324
4511.000000;1.677808
4510.000000;1.676745
4509.000000;1.675430
4508.000000;1.674300
4507.000000;1.673766
4506.000000;1.673997
4505.000000;1.674770
4504.000000;1.675580
4503.000000;1.676002
4502.000000;1.676004
4501.000000;1.675899
4500.000000;1.675963
4499.000000;1.676149
4498.000000;1.676184
4497.000000;1.675920
4496.000000;1.675445
4495.000000;1.674886
4494.000000;1.674234
4493.000000;1.673505
4492.000000;1.672994
4491.000000;1.673148
4490.000000;1.674093
4489.000000;1.675350
4488.000000;1.676150
4487.000000;1.676078
4486.000000;1.675387
4485.000000;1.674714
4484.000000;1.674544
4483.000000;1.674881
4482.000000;1.675365
4481.000000;1.675661
4480.000000;1.675734
4479.000000;1.675751
4478.000000;1.675818
4477.000000;1.676000
4476.000000;1.676522
4475.000000;1.677629
4474.000000;1.679115
4473.000000;1.680245
4472.000000;1.680481
4471.000000;1.680147
4470.000000;1.680064
4469.000000;1.680617
4468.000000;1.681516
4467.000000;1.682407
4466.000000;1.683249
4465.000000;1.683994
4464.000000;1.684382
4463.000000;1.684388
4462.000000;1.684518
4461.000000;1.685272
4460.000000;1.686490
4459.000000;1.687583
4458.000000;1.688333
4457.000000;1.689112
4456.000000;1.690318
4455.000000;1.691914
4454.000000;1.693563
4453.000000;1.694975
4452.000000;1.696058
4451.000000;1.696941
4450.000000;1.697923
4449.000000;1.699254
4448.000000;1.700874
4447.000000;1.702432
4446.000000;1.703555
4445.000000;1.704073
4444.000000;1.704104
4443.000000;1.704125
4442.000000;1.704874
4441.000000;1.706849
4440.000000;1.709765
4439.000000;1.712739
4438.000000;1.715154
4437.000000;1.717139
4436.000000;1.719057
4435.000000;1.720822
4434.000000;1.722082
4433.000000;1.722919
4432.000000;1.723925
4431.000000;1.725492
4430.000000;1.727390
4429.000000;1.729192
4428.000000;1.730868
4427.000000;1.732681
4426.000000;1.734650
4425.000000;1.736492
4424.000000;1.738079
4423.000000;1.739669
4422.000000;1.741543
4421.000000;1.743681
4420.000000;1.745952
4419.000000;1.748405
4418.000000;1.751089
4417.000000;1.753745
4416.000000;1.756028
4415.000000;1.758025
4414.000000;1.760216
4413.000000;1.762865
4412.000000;1.765752
4411.000000;1.768574
4410.000000;1.771256
4409.000000;1.773696
4408.000000;1.775608
4407.000000;1.776979
4406.000000;1.778378
4405.000000;1.780360
4404.000000;1.782728
4403.000000;1.784823
4402.000000;1.786543
4401.000000;1.788543
4400.000000;1.791269
4399.000000;1.794249
4398.000000;1.796629
4397.000000;1.798171
4396.000000;1.799393
4395.000000;1.800874
4394.000000;1.802767
4393.000000;1.804993
4392.000000;1.807633
4391.000000;1.810955
4390.000000;1.814984
4389.000000;1.819081
4388.000000;1.822162
4387.000000;1.823653
4386.000000;1.824237
4385.000000;1.825298
4384.000000;1.827479
4383.000000;1.830123
4382.000000;1.832356
4381.000000;1.834331
4380.000000;1.836898
4379.000000;1.840228
4378.000000;1.843494
4377.000000;1.846039
4376.000000;1.848199
4375.000000;1.850586
4374.000000;1.853134
4373.000000;1.855529
4372.000000;1.858090
4371.000000;1.861318
4370.000000;1.864669
4369.000000;1.866799
4368.000000;1.867429
4367.000000;1.868144
4366.000000;1.870644
4365.000000;1.874702
4364.000000;1.878487
4363.000000;1.880682
4362.000000;1.881622
4361.000000;1.882410
4360.000000;1.883639
4359.000000;1.885200
4358.000000;1.886763
4357.000000;1.888149
4356.000000;1.889545
4355.000000;1.891546
4354.000000;1.894716
4353.000000;1.898945
4352.000000;1.903414
4351.000000;1.907295
4350.000000;1.910251
4349.000000;1.912253
4348.000000;1.913351
4347.000000;1.913928
4346.000000;1.914815
4345.000000;1.916663
4344.000000;1.919308
4343.000000;1.922066
4342.000000;1.924668
4341.000000;1.927563
4340.000000;1.931217
4339.000000;1.935295
4338.000000;1.938644
4337.000000;1.940238
4336.000000;1.940390
4335.000000;1.940828
4334.000000;1.943182
4333.000000;1.947322
4332.000000;1.951431
4331.000000;1.953879
4330.000000;1.954766
4329.000000;1.955322
4328.000000;1.956269
4327.000000;1.957272
4326.000000;1.957794
4325.000000;1.958029
4324.000000;1.958832
4323.000000;1.960847
4322.000000;1.963833
4321.000000;1.966922
4320.000000;1.969539
4319.000000;1.971902
4318.000000;1.974473
4317.000000;1.977181
4316.000000;1.979533
4315.000000;1.981361
4314.000000;1.982998
4313.000000;1.984762
4312.000000;1.986740
4311.000000;1.989091
4310.000000;1.991974
4309.000000;1.995088
4308.000000;1.997888
4307.000000;2.000283
4306.000000;2.002537
4305.000000;2.004580
4304.000000;2.006246
4303.000000;2.008310
4302.000000;2.012150
4301.000000;2.017746
4300.000000;2.022859
4299.000000;2.025177
4298.000000;2.024863
4297.000000;2.024055
4296.000000;2.024447
4295.000000;2.026327
4294.000000;2.029506
4293.000000;2.034028
4292.000000;2.039714
4291.000000;2.045662
4290.000000;2.050509
4289.000000;2.053102
4288.000000;2.053226
4287.000000;2.052194
4286.000000;2.052358
4285.000000;2.055291
4284.000000;2.060382
4283.000000;2.065450
4282.000000;2.068934
4281.000000;2.071585
4280.000000;2.075774
4279.000000;2.082816
4278.000000;2.090863
4277.000000;2.095855
4276.000000;2.095643
4275.000000;2.092967
4274.000000;2.092846
4273.000000;2.097197
4272.000000;2.103155
4271.000000;2.106906
4270.000000;2.108310
4269.000000;2.110177
4268.000000;2.114213
4267.000000;2.119993
4266.000000;2.126464
4265.000000;2.132326
4264.000000;2.136084
4263.000000;2.137937
4262.000000;2.140952
4261.000000;2.148010
4260.000000;2.157746
4259.000000;2.165455
4258.000000;2.168452
4257.000000;2.168507
4256.000000;2.168418
4255.000000;2.168996
4254.000000;2.170266
4253.000000;2.173080
4252.000000;2.178171
4251.000000;2.184559
4250.000000;2.189806
4249.000000;2.192004
4248.000000;2.191650
4247.000000;2.191548
4246.000000;2.194320
4245.000000;2.199859
4244.000000;2.205374
4243.000000;2.208065
4242.000000;2.207639
4241.000000;2.206292
4240.000000;2.206825
4239.000000;2.211728
4238.000000;2.222364
4237.000000;2.236764
4236.000000;2.249760
4235.000000;2.257076
4234.000000;2.258681
4233.000000;2.258179
4232.000000;2.258772
4231.000000;2.261215
4230.000000;2.266667
4229.000000;2.277288
4228.000000;2.291853
4227.000000;2.304502
4226.000000;2.310651
4225.000000;2.312044
4224.000000;2.314524
4223.000000;2.322305
4222.000000;2.333507
4221.000000;2.340074
4220.000000;2.334690
4219.000000;2.320267
4218.000000;2.309012
4217.000000;2.310111
4216.000000;2.320841
4215.000000;2.329876
4214.000000;2.330422
4213.000000;2.327993
4212.000000;2.331504
4211.000000;2.343207
4210.000000;2.359556
4209.000000;2.375246
4208.000000;2.384594
4207.000000;2.384001
4206.000000;2.376266
4205.000000;2.369902
4204.000000;2.372032
4203.000000;2.382771
4202.000000;2.396284
4201.000000;2.406502
4200.000000;2.411607
4199.000000;2.412862
4198.000000;2.411731
4197.000000;2.410081
4196.000000;2.410016
4195.000000;2.411031
4194.000000;2.410453
4193.000000;2.407877
4192.000000;2.406008
4191.000000;2.408140
4190.000000;2.415306
4189.000000;2.424590
4188.000000;2.431426
4187.000000;2.433829
4186.000000;2.434113
4185.000000;2.436755
4184.000000;2.444150
4183.000000;2.451813
4182.000000;2.449043
4181.000000;2.431993
4180.000000;2.411992
4179.000000;2.403539
4178.000000;2.412385
4177.000000;2.434951
4176.000000;2.462844
4175.000000;2.488758
4174.000000;2.509245
4173.000000;2.522228
4172.000000;2.525031
4171.000000;2.519108
4170.000000;2.516974
4169.000000;2.531520
4168.000000;2.554882
4167.000000;2.558997
4166.000000;2.530754
4165.000000;2.490152
4164.000000;2.461817
4163.000000;2.452914
4162.000000;2.454954
4161.000000;2.457375
4160.000000;2.460873
4159.000000;2.475856
4158.000000;2.506456
4157.000000;2.538189
4156.000000;2.545186
4155.000000;2.523776
4154.000000;2.505953
4153.000000;2.522992
4152.000000;2.572419
4151.000000;2.613686
4150.000000;2.610035
4149.000000;2.574758
4148.000000;2.539035
4147.000000;2.511363
4146.000000;2.485841
4145.000000;2.467271
4144.000000;2.468187
4143.000000;2.484603
4142.000000;2.491275
4141.000000;2.469615
4140.000000;2.431961
4139.000000;2.403422
4138.000000;2.398572
4137.000000;2.418734
4136.000000;2.453132
4135.000000;2.476679
4134.000000;2.467132
4133.000000;2.439246
4132.000000;2.424286
4131.000000;2.430825
4130.000000;2.448122
4129.000000;2.470149
4128.000000;2.505661
4127.000000;2.555938
4126.000000;2.579258
4125.000000;2.541053
4124.000000;2.479099
4123.000000;2.426316
4122.000000;2.390041
4121.000000;2.375015
4120.000000;2.388212
4119.000000;2.432438
4118.000000;2.489537
4117.000000;2.521153
4116.000000;2.514289
4115.000000;2.499705
4114.000000;2.511227
4113.000000;2.555024
4112.000000;2.600285
4111.000000;2.605954
4110.000000;2.575225
4109.000000;2.538056
4108.000000;2.500786
4107.000000;2.454896
4106.000000;2.406768
4105.000000;2.383823
4104.000000;2.414493
4103.000000;2.504681
4102.000000;2.619635
4101.000000;2.699068
4100.000000;2.725455
4099.000000;2.733273
4098.000000;2.730268
4097.000000;2.703788
4096.000000;2.656802
4095.000000;2.585111
4094.000000;2.522273
4093.000000;2.507757
4092.000000;2.542968
4091.000000;2.607025
4090.000000;2.686604
4089.000000;2.758650
4088.000000;2.718338
4087.000000;2.582549
4086.000000;2.481561
4085.000000;2.459558
4084.000000;2.520030
4083.000000;2.631170
4082.000000;2.739158
4081.000000;2.753513
4080.000000;2.627557
4079.000000;2.517985
4078.000000;2.485608
4077.000000;2.518658
4076.000000;2.586447
4075.000000;2.635315
4074.000000;2.644418
4073.000000;2.621923
4072.000000;2.592651
4071.000000;2.566572
4070.000000;2.539220
4069.000000;2.547096
4068.000000;2.633812
4067.000000;2.825988
4066.000000;3.151331
4065.000000;3.242111
4064.000000;2.932771
4063.000000;2.723438
4062.000000;2.624431
4061.000000;2.600609
4060.000000;2.614370
4059.000000;2.649572
4058.000000;2.701645
4057.000000;2.685618
4056.000000;2.601321
4055.000000;2.617251
4054.000000;2.772663
4053.000000;2.743190
4052.000000;2.562014
4051.000000;2.497956
4050.000000;2.481408
4049.000000;2.473196
4048.000000;2.458023
4047.000000;2.434500
4046.000000;2.411328
4045.000000;2.397200
4044.000000;2.400114
4043.000000;2.423287
4042.000000;2.463317
4041.000000;2.516938
4040.000000;2.545744
4039.000000;2.527337
4038.000000;2.514912
4037.000000;2.535812
4036.000000;2.578760
4035.000000;2.621116
4034.000000;2.643832
4033.000000;2.629187
4032.000000;2.575506
4031.000000;2.527334
4030.000000;2.538803
4029.000000;2.628648
4028.000000;2.719149
4027.000000;2.689659
4026.000000;2.606138
4025.000000;2.556196
4024.000000;2.574703
4023.000000;2.658020
4022.000000;2.760137
4021.000000;2.814381
4020.000000;2.902333
4019.000000;3.081972
4018.000000;2.851256
4017.000000;2.605172
4016.000000;2.507320
4015.000000;2.470071
4014.000000;2.470905
4013.000000;2.478905
4012.000000;2.475533
4011.000000;2.468259
4010.000000;2.455487
4009.000000;2.427702
4008.000000;2.401071
4007.000000;2.397242
4006.000000;2.429264
4005.000000;2.507240
4004.000000;2.696743
4003.000000;2.988211
4002.000000;2.773239
4001.000000;2.495508
4000.000000;2.343511
3999.000000;2.275014
3998.000000;2.298559
3997.000000;2.382309
3996.000000;2.393044
3995.000000;2.312461
3994.000000;2.283473
3993.000000;2.327818
3992.000000;2.397919
3991.000000;2.464357
3990.000000;2.505007
3989.000000;2.471434
3988.000000;2.388394
3987.000000;2.331876
3986.000000;2.340097
3985.000000;2.417442
3984.000000;2.515245
3983.000000;2.539732
3982.000000;2.516169
3981.000000;2.517257
3980.000000;2.600337
3979.000000;2.774028
3978.000000;2.727410
3977.000000;2.502922
3976.000000;2.355122
3975.000000;2.285913
3974.000000;2.289781
3973.000000;2.352423
3972.000000;2.456982
3971.000000;2.587018
3970.000000;2.653827
3969.000000;2.560676
3968.000000;2.424302
3967.000000;2.348524
3966.000000;2.355678
3965.000000;2.431109
3964.000000;2.496142
3963.000000;2.495199
3962.000000;2.501870
3961.000000;2.566117
3960.000000;2.660957
3959.000000;2.726230
3958.000000;2.743148
3957.000000;2.765450
3956.000000;2.804852
3955.000000;2.798661
3954.000000;2.742828
3953.000000;2.708808
3952.000000;2.741448
3951.000000;2.816239
3950.000000;2.857039
3949.000000;2.830665
3948.000000;2.749150
3947.000000;2.649741
3946.000000;2.601580
3945.000000;2.648625
3944.000000;2.861615
3943.000000;3.211930
3942.000000;3.048413
3941.000000;2.873698
3940.000000;2.931573
3939.000000;2.974877
3938.000000;2.833345
3937.000000;2.692032
3936.000000;2.664570
3935.000000;2.735220
3934.000000;2.815178
3933.000000;2.811934
3932.000000;2.778219
3931.000000;2.819269
3930.000000;2.925511
3929.000000;2.942600
3928.000000;2.977362
3927.000000;3.081925
3926.000000;2.988273
3925.000000;2.804620
3924.000000;2.668509
3923.000000;2.596925
3922.000000;2.578807
3921.000000;2.567192
3920.000000;2.553820
3919.000000;2.658036
3918.000000;2.887770
3917.000000;2.771790
3916.000000;2.621234
3915.000000;2.705433
3914.000000;2.816190
3913.000000;2.724966
3912.000000;2.652323
3911.000000;2.677914
3910.000000;2.680705
3909.000000;2.635337
3908.000000;2.631790
3907.000000;2.682171
3906.000000;2.797963
3905.000000;2.979570
3904.000000;2.966580
3903.000000;2.798884
3902.000000;2.680106
3901.000000;2.566010
3900.000000;2.441770
3899.000000;2.353168
3898.000000;2.366045
3897.000000;2.519283
3896.000000;2.777399
3895.000000;2.902520
3894.000000;2.793042
3893.000000;2.704850
3892.000000;2.685337
3891.000000;2.695454
3890.000000;2.677874
3889.000000;2.665427
3888.000000;2.682331
3887.000000;2.704993
3886.000000;2.715726
3885.000000;2.828898
3884.000000;3.296333
3883.000000;3.261907
3882.000000;3.007772
3881.000000;2.966854
3880.000000;2.979734
3879.000000;3.011433
3878.000000;2.854391
3877.000000;2.830570
3876.000000;2.947875
3875.000000;3.067948
3874.000000;3.059391
3873.000000;2.889136
3872.000000;2.749116
3871.000000;2.726638
3870.000000;2.740592
3869.000000;3.037565
3868.000000;3.130523
3867.000000;2.608105
3866.000000;2.484635
3865.000000;2.413231
3864.000000;2.376575
3863.000000;2.445668
3862.000000;2.630629
3861.000000;3.083386
3860.000000;3.513093
3859.000000;3.185566
3858.000000;3.137221
3857.000000;3.145698
3856.000000;3.236093
3855.000000;3.184479
3854.000000;2.974721
3853.000000;2.933208
3852.000000;3.113425
3851.000000;3.487720
3850.000000;3.079919
3849.000000;2.873454
3848.000000;2.916681
3847.000000;3.122112
3846.000000;3.360611
3845.000000;3.201548
3844.000000;3.097183
3843.000000;2.971251
3842.000000;2.906249
3841.000000;2.972203
3840.000000;2.993182
3839.000000;2.965014
3838.000000;2.826558
3837.000000;2.638554
3836.000000;2.481921
3835.000000;2.407763
3834.000000;2.475416
3833.000000;2.670817
3832.000000;2.654216
3831.000000;2.529549
3830.000000;2.550896
3829.000000;2.695625
3828.000000;2.957375
3827.000000;3.109596
3826.000000;2.974661
3825.000000;2.873432
3824.000000;2.878636
3823.000000;2.908256
3822.000000;3.007239
3821.000000;3.165795
3820.000000;2.839835
3819.000000;2.683323
3818.000000;2.746109
3817.000000;2.779311
3816.000000;2.697447
3815.000000;2.681530
3814.000000;2.975154
3813.000000;2.871738
3812.000000;2.594055
3811.000000;2.594862
3810.000000;2.742472
3809.000000;3.021719
3808.000000;3.156099
3807.000000;3.120531
3806.000000;2.986680
3805.000000;2.804989
3804.000000;2.731189
3803.000000;2.757493
3802.000000;2.808485
3801.000000;3.022001
3800.000000;3.226157
3799.000000;2.986504
3798.000000;2.935156
3797.000000;3.047402
3796.000000;3.009648
3795.000000;2.746308
3794.000000;2.630091
3793.000000;2.662871
3792.000000;2.718195
3791.000000;2.759104
3790.000000;2.810860
3789.000000;2.891971
3788.000000;2.917644
3787.000000;2.903727
3786.000000;2.922220
3785.000000;3.055023
3784.000000;3.241209
3783.000000;3.081142
3782.000000;2.945576
3781.000000;2.973879
3780.000000;3.009493
3779.000000;2.874485
3778.000000;2.762686
3777.000000;2.807055
3776.000000;3.052265
3775.000000;3.633962
3774.000000;3.484782
3773.000000;3.293614
3772.000000;3.216893
3771.000000;3.062689
3770.000000;2.981865
3769.000000;2.927347
3768.000000;3.053401
3767.000000;3.378282
3766.000000;3.361109
3765.000000;3.148839
3764.000000;3.082693
3763.000000;3.139654
3762.000000;3.192944
3761.000000;3.178183
3760.000000;3.178928
3759.000000;3.531981
3758.000000;3.723891
3757.000000;3.246333
3756.000000;3.124869
3755.000000;3.073106
3754.000000;3.170938
3753.000000;3.372410
3752.000000;3.224933
3751.000000;3.121286
3750.000000;3.190807
3749.000000;3.275051
3748.000000;3.264464
3747.000000;3.049741
3746.000000;2.839531
3745.000000;2.730999
3744.000000;2.711921
3743.000000;2.754949
3742.000000;2.851228
3741.000000;3.020960
3740.000000;3.275943
3739.000000;3.241139
3738.000000;3.393139
3737.000000;3.566243
3736.000000;3.462516
3735.000000;2.760550
3734.000000;2.553750
3733.000000;2.860071
3732.000000;3.205918
3731.000000;3.006155
3730.000000;3.125306
3729.000000;3.503729
3728.000000;3.359482
3727.000000;3.330748
3726.000000;3.483230
3725.000000;3.393299
3724.000000;3.250409
3723.000000;3.273229
3722.000000;3.110598
3721.000000;2.865511
3720.000000;2.763178
3719.000000;2.829079
3718.000000;3.056155
3717.000000;3.366793
3716.000000;3.223895
3715.000000;3.000867
3714.000000;2.915272
3713.000000;2.942425
3712.000000;3.025952
3711.000000;2.988663
3710.000000;2.949883
3709.000000;2.888088
3708.000000;2.740761
3707.000000;2.649472
3706.000000;2.663007
3705.000000;2.777708
3704.000000;2.971483
3703.000000;3.213724
3702.000000;3.661403
3701.000000;4.168448
3700.000000;3.633222
3699.000000;3.147633
3698.000000;2.877159
3697.000000;2.748898
3696.000000;2.761740
3695.000000;2.882028
3694.000000;3.083010
3693.000000;3.842527
3692.000000;3.268968
3691.000000;3.015494
3690.000000;3.344821
3689.000000;3.072566
3688.000000;2.903521
3687.000000;2.880500
3686.000000;2.671294
3685.000000;2.566629
3684.000000;2.627884
3683.000000;2.807980
3682.000000;3.155201
3681.000000;3.703880
3680.000000;3.361235
3679.000000;3.129944
3678.000000;3.052729
3677.000000;2.928969
3676.000000;2.766395
3675.000000;2.823239
3674.000000;2.828364
3673.000000;2.533706
3672.000000;2.445795
3671.000000;2.448899
3670.000000;2.448462
3669.000000;2.514962
3668.000000;2.691826
3667.000000;2.894989
3666.000000;2.887911
3665.000000;2.838971
3664.000000;2.786828
3663.000000;2.728425
3662.000000;2.705974
3661.000000;2.759097
3660.000000;2.842754
3659.000000;2.935640
3658.000000;3.019635
3657.000000;3.290614
3656.000000;4.038701
3655.000000;3.222199
3654.000000;2.962967
3653.000000;2.885563
3652.000000;2.825966
3651.000000;2.872816
3650.000000;3.065508
3649.000000;2.897823
3648.000000;2.642541
3647.000000;2.599174
3646.000000;2.615031
3645.000000;2.616980
3644.000000;2.589205
3643.000000;2.627123
3642.000000;2.782526
3641.000000;2.839960
3640.000000;2.770655
3639.000000;2.864859
3638.000000;3.215052
3637.000000;3.438388
3636.000000;3.407483
3635.000000;3.526741
3634.000000;3.422619
3633.000000;3.259429
3632.000000;3.146064
3631.000000;3.014714
3630.000000;2.867696
3629.000000;2.733637
3628.000000;2.672815
3627.000000;2.759315
3626.000000;2.890006
3625.000000;2.830556
3624.000000;2.685345
3623.000000;2.582541
3622.000000;2.567213
3621.000000;2.638571
3620.000000;2.789270
3619.000000;2.984790
3618.000000;2.891545
3617.000000;2.609225
3616.000000;2.446268
3615.000000;2.390657
3614.000000;2.395443
3613.000000;2.434551
3612.000000;2.485026
3611.000000;2.538619
3610.000000;2.611681
3609.000000;2.686247
3608.000000;2.697627
3607.000000;2.659948
3606.000000;2.678940
3605.000000;2.767091
3604.000000;2.764987
3603.000000;2.698654
3602.000000;2.712094
3601.000000;2.801928
3600.000000;2.917781
3599.000000;3.036626
3598.000000;3.284470
3597.000000;3.139385
3596.000000;2.761891
3595.000000;2.630860
3594.000000;2.643339
3593.000000;2.744048
3592.000000;2.824554
3591.000000;2.792948
3590.000000;2.723628
3589.000000;2.666969
3588.000000;2.649453
3587.000000;2.662384
3586.000000;2.720165
3585.000000;2.836720
3584.000000;3.050606
3583.000000;3.243497
3582.000000;3.169978
3581.000000;3.057838
3580.000000;3.210773
3579.000000;3.767068
3578.000000;3.116238
3577.000000;3.184799
3576.000000;3.782853
3575.000000;2.920673
3574.000000;2.752493
3573.000000;2.792548
3572.000000;3.102836
3571.000000;3.560316
3570.000000;2.993765
3569.000000;2.800126
3568.000000;2.724245
3567.000000;2.738741
3566.000000;2.834322
3565.000000;2.950012
3564.000000;3.019699
3563.000000;2.998089
3562.000000;2.985816
3561.000000;3.226765
3560.000000;3.455466
3559.000000;3.045948
3558.000000;2.922033
3557.000000;2.979024
3556.000000;2.961592
3555.000000;2.896638
3554.000000;2.915995
3553.000000;3.165095
3552.000000;3.320653
3551.000000;3.276362
3550.000000;3.685720
3549.000000;3.166733
3548.000000;2.850961
3547.000000;2.754422
3546.000000;2.701630
3545.000000;2.650953
3544.000000;2.619661
3543.000000;2.677778
3542.000000;3.000851
3541.000000;3.312756
3540.000000;3.027116
3539.000000;3.130167
3538.000000;3.272782
3537.000000;3.080029
3536.000000;2.955962
3535.000000;2.937344
3534.000000;3.038194
3533.000000;3.395503
3532.000000;3.869605
3531.000000;3.668931
3530.000000;3.496330
3529.000000;3.259759
3528.000000;3.198285
3527.000000;3.333801
3526.000000;3.269824
3525.000000;3.048872
3524.000000;2.944015
3523.000000;2.934552
3522.000000;2.938488
3521.000000;2.999594
3520.000000;3.125590
3519.000000;3.011595
3518.000000;2.883552
3517.000000;2.930432
3516.000000;2.982172
3515.000000;2.863007
3514.000000;2.745995
3513.000000;2.708102
3512.000000;2.738858
3511.000000;2.809893
3510.000000;2.872523
3509.000000;2.895747
3508.000000;2.958412
3507.000000;2.991238
3506.000000;2.905158
3505.000000;2.830987
3504.000000;2.936647
3503.000000;3.385332
3502.000000;2.992653
3501.000000;2.732611
3500.000000;2.732471
3499.000000;2.845061
3498.000000;3.000141
3497.000000;3.129268
3496.000000;3.410129
3495.000000;3.277077
3494.000000;3.164573
3493.000000;3.441981
3492.000000;3.260060
3491.000000;2.918355
3490.000000;2.793974
3489.000000;2.760489
3488.000000;2.820040
3487.000000;2.987852
3486.000000;3.146625
3485.000000;3.101835
3484.000000;2.950389
3483.000000;2.881942
3482.000000;2.937397
3481.000000;3.113584
3480.000000;3.727152
3479.000000;3.659726
3478.000000;3.256137
3477.000000;3.343157
3476.000000;3.251530
3475.000000;3.108030
3474.000000;3.344107
3473.000000;3.263491
3472.000000;2.907654
3471.000000;2.841633
3470.000000;2.941137
3469.000000;3.161524
3468.000000;3.191181
3467.000000;2.929364
3466.000000;2.840609
3465.000000;2.902714
3464.000000;3.072242
3463.000000;3.302604
3462.000000;3.313253
3461.000000;3.128291
3460.000000;3.043093
3459.000000;3.063529
3458.000000;3.284586
3457.000000;3.453638
3456.000000;3.096105
3455.000000;2.865388
3454.000000;2.734223
3453.000000;2.653986
3452.000000;2.641281
3451.000000;2.701458
3450.000000;2.810397
3449.000000;2.884206
3448.000000;2.882223
3447.000000;2.864591
3446.000000;2.847544
3445.000000;2.812077
3444.000000;2.750608
3443.000000;2.698927
3442.000000;2.720687
3441.000000;2.821380
3440.000000;2.888147
3439.000000;2.895828
3438.000000;2.894374
3437.000000;2.811948
3436.000000;2.714025
3435.000000;2.655861
3434.000000;2.619247
3433.000000;2.623026
3432.000000;2.725822
3431.000000;2.930942
3430.000000;3.025902
3429.000000;3.050238
3428.000000;3.259038
3427.000000;3.436983
3426.000000;3.202043
3425.000000;2.905200
3424.000000;2.759665
3423.000000;2.770788
3422.000000;2.943003
3421.000000;3.417889
3420.000000;3.397415
3419.000000;3.130948
3418.000000;3.127862
3417.000000;3.199119
3416.000000;3.138980
3415.000000;2.965848
3414.000000;2.826764
3413.000000;2.764425
3412.000000;2.768990
3411.000000;2.821796
3410.000000;2.912667
3409.000000;3.029400
3408.000000;3.163725
3407.000000;3.347215
3406.000000;3.734307
3405.000000;3.568632
3404.000000;3.201474
3403.000000;3.117834
3402.000000;3.150021
3401.000000;3.466255
3400.000000;3.289816
3399.000000;2.920911
3398.000000;2.843955
3397.000000;2.980037
3396.000000;3.411578
3395.000000;3.507943
3394.000000;3.335961
3393.000000;3.210848
3392.000000;3.036065
3391.000000;2.902585
3390.000000;2.772667
3389.000000;2.695092
3388.000000;2.765164
3387.000000;3.149224
3386.000000;3.575480
3385.000000;3.137071
3384.000000;3.232248
3383.000000;3.121572
3382.000000;2.964990
3381.000000;2.988357
3380.000000;3.098191
3379.000000;3.019870
3378.000000;2.880603
3377.000000;2.890264
3376.000000;2.964632
3375.000000;2.956212
3374.000000;2.918699
3373.000000;2.944619
3372.000000;2.974742
3371.000000;2.958143
3370.000000;2.940501
3369.000000;2.950684
3368.000000;2.914353
3367.000000;2.832419
3366.000000;2.814708
3365.000000;2.958217
3364.000000;3.265871
3363.000000;3.046841
3362.000000;3.014226
3361.000000;3.302890
3360.000000;3.176273
3359.000000;3.005229
3358.000000;3.009435
3357.000000;2.958462
3356.000000;2.823473
3355.000000;2.749370
3354.000000;2.818500
3353.000000;2.995184
3352.000000;3.006748
3351.000000;2.927316
3350.000000;2.976987
3349.000000;3.152275
3348.000000;3.435022
3347.000000;3.549165
3346.000000;3.318402
3345.000000;3.096487
3344.000000;2.954468
3343.000000;2.881025
3342.000000;2.908530
3341.000000;3.067472
3340.000000;3.017308
3339.000000;2.807449
3338.000000;2.692618
3337.000000;2.649853
3336.000000;2.674761
3335.000000;2.799755
3334.000000;3.153005
3333.000000;3.866352
3332.000000;3.260043
3331.000000;3.268081
3330.000000;3.317490
3329.000000;3.320980
3328.000000;3.310689
3327.000000;3.206807
3326.000000;3.094763
3325.000000;3.139378
3324.000000;3.325256
3323.000000;3.474336
3322.000000;3.547183
3321.000000;4.051195
3320.000000;3.659887
3319.000000;3.328220
3318.000000;3.328425
3317.000000;3.219713
3316.000000;2.997173
3315.000000;2.857669
3314.000000;2.819899
3313.000000;2.852418
3312.000000;2.917020
3311.000000;2.957622
3310.000000;3.026292
3309.000000;3.312652
3308.000000;3.606230
3307.000000;3.040015
3306.000000;2.966186
3305.000000;3.186871
3304.000000;3.190689
3303.000000;2.807644
3302.000000;2.686899
3301.000000;2.680787
3300.000000;2.766057
3299.000000;2.931063
3298.000000;3.127935
3297.000000;3.282459
3296.000000;3.344493
3295.000000;3.223268
3294.000000;3.183135
3293.000000;3.484239
3292.000000;3.486021
3291.000000;3.203953
3290.000000;3.209880
3289.000000;3.809233
3288.000000;3.112913
3287.000000;2.782684
3286.000000;2.702164
3285.000000;2.749089
3284.000000;2.930739
3283.000000;3.254377
3282.000000;3.284343
3281.000000;3.075139
3280.000000;3.037451
3279.000000;3.111376
3278.000000;2.934544
3277.000000;2.699814
3276.000000;2.594222
3275.000000;2.578679
3274.000000;2.628998
3273.000000;2.743292
3272.000000;2.906532
3271.000000;2.903842
3270.000000;2.795775
3269.000000;2.808595
3268.000000;2.930678
3267.000000;3.129397
3266.000000;3.333744
3265.000000;3.551759
3264.000000;3.542190
3263.000000;3.233146
3262.000000;3.070935
3261.000000;3.070982
3260.000000;2.925551
3259.000000;2.737849
3258.000000;2.693435
3257.000000;2.793963
3256.000000;3.020225
3255.000000;3.281191
3254.000000;3.279040
3253.000000;3.129350
3252.000000;3.064743
3251.000000;3.081971
3250.000000;3.105299
3249.000000;3.317622
3248.000000;3.785465
3247.000000;3.364251
3246.000000;3.300295
3245.000000;3.514403
3244.000000;3.378264
3243.000000;3.078649
3242.000000;3.053645
3241.000000;3.373765
3240.000000;3.525634
3239.000000;3.141870
3238.000000;3.006754
3237.000000;2.957895
3236.000000;2.950483
3235.000000;2.972082
3234.000000;3.069729
3233.000000;3.059386
3232.000000;2.998314
3231.000000;3.082800
3230.000000;3.190130
3229.000000;3.007349
3228.000000;2.744109
3227.000000;2.605391
3226.000000;2.604671
3225.000000;2.725888
3224.000000;2.912892
3223.000000;3.016803
3222.000000;3.040459
3221.000000;3.043703
3220.000000;3.023066
3219.000000;3.073095
3218.000000;3.268175
3217.000000;3.255919
3216.000000;3.014480
3215.000000;2.863798
3214.000000;2.801027
3213.000000;2.830337
3212.000000;3.049142
3211.000000;3.016226
3210.000000;2.718526
3209.000000;2.613829
3208.000000;2.656661
3207.000000;2.773649
3206.000000;2.890031
3205.000000;3.001062
3204.000000;2.947687
3203.000000;2.786609
3202.000000;2.639097
3201.000000;2.541074
3200.000000;2.512985
3199.000000;2.545377
3198.000000;2.608666
3197.000000;2.677863
3196.000000;2.759755
3195.000000;2.878582
3194.000000;2.982143
3193.000000;2.961256
3192.000000;2.956573
3191.000000;3.088717
3190.000000;3.466080
3189.000000;3.921812
3188.000000;3.301377
3187.000000;2.982416
3186.000000;2.873731
3185.000000;2.873933
3184.000000;2.955029
3183.000000;3.085073
3182.000000;3.483178
3181.000000;3.587900
3180.000000;3.902219
3179.000000;3.243478
3178.000000;2.894357
3177.000000;2.826139
3176.000000;2.865105
3175.000000;2.831664
3174.000000;2.797670
3173.000000;2.904611
3172.000000;3.240865
3171.000000;3.146327
3170.000000;2.971227
3169.000000;3.175098
3168.000000;3.563589
3167.000000;3.240940
3166.000000;3.382259
3165.000000;3.264696
3164.000000;2.974298
3163.000000;2.902845
3162.000000;3.068923
3161.000000;3.463599
3160.000000;3.090049
3159.000000;2.865282
3158.000000;2.820835
3157.000000;2.800835
3156.000000;2.781718
3155.000000;2.741642
3154.000000;2.749174
3153.000000;2.950427
3152.000000;2.974369
3151.000000;2.689826
3150.000000;2.596319
3149.000000;2.667401
3148.000000;2.881797
3147.000000;3.129979
3146.000000;3.083081
3145.000000;3.012939
3144.000000;3.017338
3143.000000;3.113303
3142.000000;3.417169
3141.000000;3.786162
3140.000000;3.270360
3139.000000;3.032146
3138.000000;2.910986
3137.000000;2.909943
3136.000000;3.212855
3135.000000;3.233194
3134.000000;2.877687
3133.000000;2.866852
3132.000000;2.904642
3131.000000;2.826277
3130.000000;2.727654
3129.000000;2.683295
3128.000000;2.675190
3127.000000;2.745128
3126.000000;2.955920
3125.000000;3.426885
3124.000000;3.032784
3123.000000;2.881132
3122.000000;2.987259
3121.000000;3.486178
3120.000000;3.458805
3119.000000;3.177333
3118.000000;3.199501
3117.000000;3.274351
3116.000000;3.167164
3115.000000;2.977609
3114.000000;2.891163
3113.000000;2.906804
3112.000000;2.971287
3111.000000;3.070115
3110.000000;3.135477
3109.000000;3.032369
3108.000000;2.949219
3107.000000;2.959540
3106.000000;3.041750
3105.000000;3.181583
3104.000000;3.377140
3103.000000;3.544245
3102.000000;3.483459
3101.000000;3.437578
3100.000000;3.530945
3099.000000;3.296072
3098.000000;3.011870
3097.000000;2.887768
3096.000000;2.870318
3095.000000;2.896236
3094.000000;2.948358
3093.000000;3.069872
3092.000000;3.015187
3091.000000;2.754464
3090.000000;2.625123
3089.000000;2.614976
3088.000000;2.695014
3087.000000;2.802709
3086.000000;2.856657
3085.000000;2.912532
3084.000000;3.114684
3083.000000;3.148582
3082.000000;2.936596
3081.000000;2.921677
3080.000000;3.073041
3079.000000;3.486209
3078.000000;4.168260
3077.000000;3.613431
3076.000000;3.077786
3075.000000;2.806296
3074.000000;2.701508
3073.000000;2.709092
3072.000000;2.807938
3071.000000;3.054461
3070.000000;3.183592
3069.000000;2.880460
3068.000000;2.772398
3067.000000;2.861521
3066.000000;3.090248
3065.000000;2.936531
3064.000000;2.761054
3063.000000;2.746082
3062.000000;2.856191
3061.000000;3.026181
3060.000000;3.190299
3059.000000;3.262454
3058.000000;3.044410
3057.000000;2.903766
3056.000000;2.838180
3055.000000;2.781598
3054.000000;2.832882
3053.000000;2.895436
3052.000000;2.821090
3051.000000;2.839697
3050.000000;3.034440
3049.000000;3.667321
3048.000000;3.551688
3047.000000;3.168860
3046.000000;3.060025
3045.000000;3.016718
3044.000000;3.014016
3043.000000;2.960077
3042.000000;2.837212
3041.000000;2.725055
3040.000000;2.680228
3039.000000;2.698038
3038.000000;2.746562
3037.000000;2.806759
3036.000000;2.884517
3035.000000;2.918153
3034.000000;2.839304
3033.000000;2.811280
3032.000000;2.890805
3031.000000;2.953461
3030.000000;2.963415
3029.000000;3.027398
3028.000000;3.032365
3027.000000;2.897432
3026.000000;2.772350
3025.000000;2.743989
3024.000000;2.832567
3023.000000;3.047566
3022.000000;3.495433
3021.000000;3.213536
3020.000000;2.934195
3019.000000;2.929835
3018.000000;3.131200
3017.000000;3.824258
3016.000000;3.674469
3015.000000;3.242682
3014.000000;3.032087
3013.000000;2.973748
3012.000000;3.020645
3011.000000;3.053723
3010.000000;3.029074
3009.000000;3.043345
3008.000000;3.117663
3007.000000;3.075327
3006.000000;2.884458
3005.000000;2.718319
3004.000000;2.637521
3003.000000;2.626131
3002.000000;2.611415
3001.000000;2.565308
3000.000000;2.553750
2999.000000;2.631000
2998.000000;2.815017
2997.000000;3.085878
2996.000000;3.092695
2995.000000;2.933785
2994.000000;2.899881
2993.000000;2.983246
2992.000000;3.358084
2991.000000;3.393841
2990.000000;2.964676
2989.000000;2.787935
2988.000000;2.726603
2987.000000;2.739960
2986.000000;2.835530
2985.000000;2.963208
2984.000000;2.995517
2983.000000;3.033939
2982.000000;3.098330
2981.000000;3.112192
2980.000000;3.305493
2979.000000;3.718925
2978.000000;3.428731
2977.000000;3.235278
2976.000000;3.191212
2975.000000;3.163629
2974.000000;3.171024
2973.000000;3.512572
2972.000000;3.397350
2971.000000;3.025602
2970.000000;2.997436
2969.000000;3.130045
2968.000000;3.263294
2967.000000;3.156494
2966.000000;3.015542
2965.000000;2.934677
2964.000000;3.000476
2963.000000;3.182826
2962.000000;3.317624
2961.000000;3.975265
2960.000000;3.474649
2959.000000;3.408763
2958.000000;3.455782
2957.000000;3.245842
2956.000000;3.470428
2955.000000;3.467649
2954.000000;3.099279
2953.000000;2.989394
2952.000000;2.903910
2951.000000;2.824668
2950.000000;2.780535
2949.000000;2.789148
2948.000000;2.822873
2947.000000;2.810570
2946.000000;2.765062
2945.000000;2.758895
2944.000000;2.851124
2943.000000;3.126592
2942.000000;3.482061
2941.000000;3.314560
2940.000000;3.265628
2939.000000;3.393996
2938.000000;3.213469
2937.000000;3.097499
2936.000000;3.161801
2935.000000;3.279845
2934.000000;3.164413
2933.000000;2.929506
2932.000000;2.802970
2931.000000;2.792316
2930.000000;2.861358
2929.000000;2.922612
2928.000000;2.904343
2927.000000;2.865658
2926.000000;2.862140
2925.000000;3.034428
2924.000000;3.382766
2923.000000;3.091010
2922.000000;2.874130
2921.000000;2.850763
2920.000000;2.874796
2919.000000;2.906814
2918.000000;2.925003
2917.000000;2.882869
2916.000000;2.800717
2915.000000;2.784737
2914.000000;2.891422
2913.000000;3.043818
2912.000000;3.007575
2911.000000;2.924527
2910.000000;2.836783
2909.000000;2.698002
2908.000000;2.614449
2907.000000;2.639288
2906.000000;2.790182
2905.000000;2.961543
2904.000000;2.955935
2903.000000;2.937678
2902.000000;3.040692
2901.000000;3.219091
2900.000000;3.069400
2899.000000;2.910624
2898.000000;2.938340
2897.000000;3.218740
2896.000000;3.345707
2895.000000;2.959341
2894.000000;2.833534
2893.000000;2.867704
2892.000000;3.053183
2891.000000;3.446249
2890.000000;3.360512
2889.000000;3.045785
2888.000000;2.928425
2887.000000;2.863026
2886.000000;2.805926
2885.000000;2.804728
2884.000000;2.909996
2883.000000;3.007713
2882.000000;2.927411
2881.000000;2.881113
2880.000000;2.918116
2879.000000;2.947492
2878.000000;2.932387
2877.000000;2.935456
2876.000000;2.974375
2875.000000;2.938927
2874.000000;2.875411
2873.000000;2.906183
2872.000000;3.042127
2871.000000;3.210061
2870.000000;3.322960
2869.000000;3.299318
2868.000000;3.111149
2867.000000;2.917797
2866.000000;2.785667
2865.000000;2.740375
2864.000000;2.810072
2863.000000;3.026410
2862.000000;3.426700
2861.000000;3.777006
2860.000000;3.474172
2859.000000;3.321809
2858.000000;3.351399
2857.000000;3.205273
2856.000000;2.990750
2855.000000;2.929660
2854.000000;2.986547
2853.000000;2.880675
2852.000000;2.716138
2851.000000;2.660283
2850.000000;2.676505
2849.000000;2.738164
2848.000000;2.820935
2847.000000;2.826815
2846.000000;2.765294
2845.000000;2.738476
2844.000000;2.763776
2843.000000;2.836558
2842.000000;2.941874
2841.000000;3.205278
2840.000000;3.695074
2839.000000;3.793656
2838.000000;3.709242
2837.000000;3.558081
2836.000000;3.815312
2835.000000;3.409588
2834.000000;3.048656
2833.000000;3.030524
2832.000000;3.139240
2831.000000;3.305725
2830.000000;3.369626
2829.000000;3.230811
2828.000000;3.046036
2827.000000;3.013092
2826.000000;3.063794
2825.000000;3.325827
2824.000000;4.188561
2823.000000;3.321489
2822.000000;3.137782
2821.000000;3.457474
2820.000000;3.720702
2819.000000;3.051989
2818.000000;2.890922
2817.000000;2.931243
2816.000000;3.230536
2815.000000;3.715365
2814.000000;3.581918
2813.000000;3.525651
2812.000000;3.107099
2811.000000;2.849390
2810.000000;2.704202
2809.000000;2.636560
2808.000000;2.666631
2807.000000;2.776159
2806.000000;2.903899
2805.000000;2.989425
2804.000000;3.001521
2803.000000;2.926898
2802.000000;2.818402
2801.000000;2.739954
2800.000000;2.730397
2799.000000;2.851272
2798.000000;3.217671
2797.000000;3.281240
2796.000000;3.015574
2795.000000;2.994006
2794.000000;3.207777
2793.000000;3.556038
2792.000000;3.193312
2791.000000;2.918448
2790.000000;2.771079
2789.000000;2.686439
2788.000000;2.663713
2787.000000;2.677419
2786.000000;2.732605
2785.000000;2.824663
2784.000000;2.951620
2783.000000;3.029301
2782.000000;3.060451
2781.000000;3.079113
2780.000000;3.143841
2779.000000;3.075411
2778.000000;3.133860
2777.000000;3.810676
2776.000000;3.142266
2775.000000;2.849779
2774.000000;2.878207
2773.000000;3.017955
2772.000000;3.261337
2771.000000;3.300402
2770.000000;3.090647
2769.000000;2.894975
2768.000000;2.819431
2767.000000;2.859312
2766.000000;3.017947
2765.000000;3.277589
2764.000000;3.422704
2763.000000;3.319785
2762.000000;3.172026
2761.000000;3.068177
2760.000000;3.087075
2759.000000;3.153741
2758.000000;3.128934
2757.000000;3.049384
2756.000000;2.936669
2755.000000;2.873649
2754.000000;2.986202
2753.000000;3.333234
2752.000000;3.321553
2751.000000;3.191329
2750.000000;3.497674
2749.000000;3.630184
2748.000000;3.239106
2747.000000;3.048543
2746.000000;2.977781
2745.000000;2.977949
2744.000000;2.952400
2743.000000;2.946144
2742.000000;3.127578
2741.000000;3.355416
2740.000000;3.190679
2739.000000;3.029803
2738.000000;2.956664
2737.000000;2.975593
2736.000000;3.077349
2735.000000;3.164558
2734.000000;3.189185
2733.000000;3.154763
2732.000000;3.041425
2731.000000;2.890500
2730.000000;2.819989
2729.000000;2.865388
2728.000000;3.071626
2727.000000;3.571022
2726.000000;4.178037
2725.000000;3.720542
2724.000000;3.304909
2723.000000;3.175098
2722.000000;3.407532
2721.000000;3.443688
2720.000000;3.012959
2719.000000;2.830453
2718.000000;2.871498
2717.000000;3.175688
2716.000000;3.447676
2715.000000;3.310020
2714.000000;3.272780
2713.000000;3.116263
2712.000000;2.974721
2711.000000;2.902576
2710.000000;2.889596
2709.000000;2.869241
2708.000000;2.769335
2707.000000;2.674415
2706.000000;2.636453
2705.000000;2.647130
2704.000000;2.669016
2703.000000;2.693289
2702.000000;2.762148
2701.000000;2.873970
2700.000000;2.959027
2699.000000;3.001724
2698.000000;3.110845
2697.000000;3.109935
2696.000000;3.051390
2695.000000;2.977574
2694.000000;3.080262
2693.000000;3.806644
2692.000000;3.190000
2691.000000;2.865608
2690.000000;2.831310
2689.000000;2.871695
2688.000000;2.983221
2687.000000;3.050580
2686.000000;3.013744
2685.000000;2.904728
2684.000000;2.856159
2683.000000;2.879742
2682.000000;2.915953
2681.000000;2.890898
2680.000000;2.868313
2679.000000;2.898051
2678.000000;2.870672
2677.000000;2.784456
2676.000000;2.745152
2675.000000;2.765130
2674.000000;2.821707
2673.000000;3.043472
2672.000000;3.293873
2671.000000;2.901506
2670.000000;2.697210
2669.000000;2.705268
2668.000000;2.842669
2667.000000;3.255243
2666.000000;3.419910
2665.000000;2.996214
2664.000000;2.930643
2663.000000;3.102700
2662.000000;3.356083
2661.000000;3.217429
2660.000000;2.889078
2659.000000;2.735166
2658.000000;2.736122
2657.000000;2.859058
2656.000000;3.067981
2655.000000;3.263060
2654.000000;3.267976
2653.000000;3.165040
2652.000000;3.057452
2651.000000;2.940502
2650.000000;2.866831
2649.000000;2.898751
2648.000000;3.058800
2647.000000;3.320219
2646.000000;3.430028
2645.000000;3.225968
2644.000000;3.061063
2643.000000;2.940645
2642.000000;2.860361
2641.000000;2.877535
2640.000000;3.037654
2639.000000;3.458414
2638.000000;3.702900
2637.000000;3.395111
2636.000000;3.322426
2635.000000;3.351362
2634.000000;3.187625
2633.000000;2.905064
2632.000000;2.778617
2631.000000;2.794749
2630.000000;2.969556
2629.000000;3.429011
2628.000000;3.307367
2627.000000;2.979411
2626.000000;2.926363
2625.000000;2.867943
2624.000000;2.899727
2623.000000;3.067691
2622.000000;2.871174
2621.000000;2.652430
2620.000000;2.650959
2619.000000;2.833128
2618.000000;3.242626
2617.000000;3.842609
2616.000000;3.908194
2615.000000;3.659280
2614.000000;3.379693
2613.000000;3.266244
2612.000000;3.436093
2611.000000;3.427953
2610.000000;3.078692
2609.000000;2.934470
2608.000000;2.981818
2607.000000;3.161855
2606.000000;3.139292
2605.000000;3.176576
2604.000000;3.215917
2603.000000;2.939291
2602.000000;2.874775
2601.000000;3.075011
2600.000000;3.507371
2599.000000;3.363886
2598.000000;3.058992
2597.000000;2.926580
2596.000000;2.830543
2595.000000;2.760275
2594.000000;2.729982
2593.000000;2.776230
2592.000000;2.925608
2591.000000;3.209950
2590.000000;3.405932
2589.000000;3.354341
2588.000000;3.209800
2587.000000;3.096889
2586.000000;3.084216
2585.000000;2.959432
2584.000000;2.787199
2583.000000;2.757106
2582.000000;2.865810
2581.000000;3.172482
2580.000000;3.788119
2579.000000;3.227204
2578.000000;2.843631
2577.000000;2.699171
2576.000000;2.696971
2575.000000;2.825034
2574.000000;2.965215
2573.000000;3.136838
2572.000000;3.249660
2571.000000;3.044799
2570.000000;2.945053
2569.000000;3.107445
2568.000000;3.656862
2567.000000;3.510600
2566.000000;3.191553
2565.000000;3.187613
2564.000000;3.447093
2563.000000;3.582909
2562.000000;3.061195
2561.000000;2.855573
2560.000000;2.867033
2559.000000;2.895309
2558.000000;2.816174
2557.000000;2.806500
2556.000000;3.059238
2555.000000;3.197015
2554.000000;2.851589
2553.000000;2.722539
2552.000000;2.727087
2551.000000;2.804678
2550.000000;2.957701
2549.000000;3.102981
2548.000000;3.052061
2547.000000;2.844863
2546.000000;2.718895
2545.000000;2.710772
2544.000000;2.836133
2543.000000;3.125263
2542.000000;3.319331
2541.000000;3.132542
2540.000000;2.964211
2539.000000;2.830505
2538.000000;2.751556
2537.000000;2.763368
2536.000000;2.916838
2535.000000;3.100514
2534.000000;2.992541
2533.000000;2.908134
2532.000000;2.979296
2531.000000;3.061145
2530.000000;3.210395
2529.000000;3.444527
2528.000000;3.127611
2527.000000;2.908698
2526.000000;2.854696
2525.000000;2.900909
2524.000000;3.058319
2523.000000;3.328760
2522.000000;3.670704
2521.000000;3.338139
2520.000000;2.964761
2519.000000;2.773867
2518.000000;2.700815
2517.000000;2.734603
2516.000000;2.830278
2515.000000;2.840486
2514.000000;2.774900
2513.000000;2.752353
2512.000000;2.777637
2511.000000;2.837089
2510.000000;2.931088
2509.000000;3.037584
2508.000000;3.161305
2507.000000;3.263517
2506.000000;3.379465
2505.000000;3.586859
2504.000000;3.279529
2503.000000;2.951955
2502.000000;2.803244
2501.000000;2.780495
2500.000000;2.884548
2499.000000;3.108437
2498.000000;3.210385
2497.000000;3.082022
2496.000000;2.992107
2495.000000;2.898201
2494.000000;2.789120
2493.000000;2.715901
2492.000000;2.701888
2491.000000;2.758807
2490.000000;2.873756
2489.000000;3.081003
2488.000000;3.333664
2487.000000;3.060890
2486.000000;2.800594
2485.000000;2.751346
2484.000000;2.844513
2483.000000;2.997578
2482.000000;3.132184
2481.000000;3.118563
2480.000000;2.966823
2479.000000;2.870087
2478.000000;3.053930
2477.000000;3.463962
2476.000000;3.000457
2475.000000;2.932181
2474.000000;3.253193
2473.000000;3.340520
2472.000000;3.036627
2471.000000;2.954619
2470.000000;3.014157
2469.000000;3.005644
2468.000000;2.900807
2467.000000;2.883536
2466.000000;2.921163
2465.000000;2.961776
2464.000000;3.203590
2463.000000;3.388396
2462.000000;3.111627
2461.000000;3.005827
2460.000000;2.953087
2459.000000;3.060614
2458.000000;3.636532
2457.000000;3.221810
2456.000000;2.942119
2455.000000;3.037758
2454.000000;3.348438
2453.000000;3.395060
2452.000000;3.152091
2451.000000;3.120884
2450.000000;3.066523
2449.000000;2.908207
2448.000000;2.824466
2447.000000;2.812207
2446.000000;2.800365
2445.000000;2.783946
2444.000000;2.821076
2443.000000;2.938959
2442.000000;2.982045
2441.000000;2.872095
2440.000000;2.813696
2439.000000;2.845347
2438.000000;2.933803
2437.000000;2.964448
2436.000000;2.916374
2435.000000;2.954014
2434.000000;3.209907
2433.000000;3.405607
2432.000000;3.169225
2431.000000;3.032607
2430.000000;2.942932
2429.000000;2.806075
2428.000000;2.702266
2427.000000;2.688948
2426.000000;2.842854
2425.000000;3.187217
2424.000000;3.038576
2423.000000;2.903818
2422.000000;3.032609
2421.000000;3.464163
2420.000000;3.739962
2419.000000;3.329362
2418.000000;3.075122
2417.000000;2.864327
2416.000000;2.763533
2415.000000;2.753325
2414.000000;2.795732
2413.000000;2.838331
2412.000000;2.835301
2411.000000;2.800722
2410.000000;2.756232
2409.000000;2.726774
2408.000000;2.731628
2407.000000;2.794027
2406.000000;2.924798
2405.000000;3.158703
2404.000000;3.553865
2403.000000;3.336130
2402.000000;3.068553
2401.000000;3.000317
2400.000000;3.014145
2399.000000;3.051671
2398.000000;2.977256
2397.000000;2.882920
2396.000000;2.871471
2395.000000;2.924813
2394.000000;2.965150
2393.000000;2.910433
2392.000000;2.813705
2391.000000;2.764185
2390.000000;2.805146
2389.000000;2.940977
2388.000000;3.307216
2387.000000;3.887668
2386.000000;3.422143
2385.000000;3.498980
2384.000000;3.884531
2383.000000;3.532924
2382.000000;3.176147
2381.000000;3.026910
2380.000000;3.052820
2379.000000;3.390326
2378.000000;3.592446
2377.000000;3.183161
2376.000000;3.009790
2375.000000;2.964624
2374.000000;2.991215
2373.000000;3.020194
2372.000000;2.971892
2371.000000;2.909987
2370.000000;2.912112
2369.000000;2.980071
2368.000000;2.996280
2367.000000;2.944165
2366.000000;2.977644
2365.000000;3.168149
2364.000000;3.630934
2363.000000;3.433492
2362.000000;2.954201
2361.000000;2.803561
2360.000000;2.831501
2359.000000;3.106773
2358.000000;3.586897
2357.000000;3.234875
2356.000000;3.013779
2355.000000;2.936538
2354.000000;2.851435
2353.000000;2.772211
2352.000000;2.730659
2351.000000;2.749177
2350.000000;2.756269
2349.000000;2.670938
2348.000000;2.557947
2347.000000;2.644683
2346.000000;3.424445
2345.000000;2.972155
2344.000000;2.795479
2343.000000;2.875998
2342.000000;2.939574
2341.000000;3.092188
2340.000000;3.172486
2339.000000;3.077652
2338.000000;2.978217
2337.000000;2.944073
2336.000000;2.946753
2335.000000;2.951188
2334.000000;2.969863
2333.000000;2.963692
2332.000000;2.883277
2331.000000;2.775685
2330.000000;2.736614
2329.000000;2.761983
2328.000000;2.835069
2327.000000;2.896414
2326.000000;2.936475
2325.000000;3.004749
2324.000000;3.146889
2323.000000;3.410918
2322.000000;3.876002
2321.000000;4.481462
2320.000000;3.999250
2319.000000;3.631008
2318.000000;3.539096
2317.000000;3.755359
2316.000000;4.096371
2315.000000;3.619158
2314.000000;3.511039
2313.000000;3.630718
2312.000000;3.607746
2311.000000;3.241070
2310.000000;3.081750
2309.000000;3.071371
2308.000000;3.109328
2307.000000;3.095365
2306.000000;3.105385
2305.000000;3.193443
2304.000000;3.337255
2303.000000;3.372151
2302.000000;3.211806
2301.000000;3.078607
2300.000000;3.055108
2299.000000;3.294182
2298.000000;3.363003
2297.000000;2.992648
2296.000000;2.847823
2295.000000;2.850499
2294.000000;2.981430
2293.000000;3.262066
2292.000000;3.281955
2291.000000;3.204319
2290.000000;3.265672
2289.000000;3.250170
2288.000000;3.142101
2287.000000;3.050955
2286.000000;2.977902
2285.000000;2.935981
2284.000000;2.983977
2283.000000;3.102224
2282.000000;3.425796
2281.000000;3.457267
2280.000000;2.954157
2279.000000;2.894107
2278.000000;3.052126
2277.000000;3.575734
2276.000000;8.000000
2275.000000;3.853645
2274.000000;3.269262
2273.000000;3.079989
2272.000000;3.115342
2271.000000;3.212415
2270.000000;3.185290
2269.000000;3.075301
2268.000000;2.977936
2267.000000;2.925320
2266.000000;2.933453
2265.000000;2.996983
2264.000000;3.169616
2263.000000;3.764896
2262.000000;3.313779
2261.000000;3.170972
2260.000000;3.402983
2259.000000;3.848928
2258.000000;3.718266
2257.000000;3.705070
2256.000000;3.089812
2255.000000;2.987157
2254.000000;3.086874
2253.000000;3.083012
2252.000000;2.969867
2251.000000;2.940059
2250.000000;2.859496
2249.000000;2.801022
2248.000000;2.862262
2247.000000;3.082110
2246.000000;3.334857
2245.000000;3.304896
2244.000000;3.108652
2243.000000;2.884885
2242.000000;2.722905
2241.000000;2.635662
2240.000000;2.612641
2239.000000;2.637314
2238.000000;2.725218
2237.000000;2.943479
2236.000000;3.527271
2235.000000;3.176841
2234.000000;3.090941
2233.000000;3.433119
2232.000000;3.497952
2231.000000;3.027113
2230.000000;2.886092
2229.000000;2.857943
2228.000000;2.911116
2227.000000;3.045359
2226.000000;3.265277
2225.000000;3.444057
2224.000000;3.412124
2223.000000;3.843024
2222.000000;3.708650
2221.000000;3.149795
2220.000000;3.073112
2219.000000;3.551907
2218.000000;3.523253
2217.000000;2.907045
2216.000000;2.707415
2215.000000;2.608155
2214.000000;2.638130
2213.000000;2.804232
2212.000000;3.234899
2211.000000;2.949930
2210.000000;2.742121
2209.000000;2.763891
2208.000000;2.861455
2207.000000;2.834668
2206.000000;2.765690
2205.000000;2.754217
2204.000000;2.752961
2203.000000;2.757026
2202.000000;2.822919
2201.000000;2.914457
2200.000000;2.828222
2199.000000;2.686047
2198.000000;2.625891
2197.000000;2.669216
2196.000000;2.808587
2195.000000;3.263979
2194.000000;3.587040
2193.000000;3.043328
2192.000000;2.959435
2191.000000;2.926768
2190.000000;2.943876
2189.000000;3.002638
2188.000000;3.097267
2187.000000;3.562373
2186.000000;3.442117
2185.000000;3.081786
2184.000000;3.010071
2183.000000;3.014273
2182.000000;3.044029
2181.000000;3.065186
2180.000000;3.076684
2179.000000;3.121778
2178.000000;3.159574
2177.000000;3.169724
2176.000000;3.266813
2175.000000;3.642111
2174.000000;3.437421
2173.000000;2.970688
2172.000000;2.856601
2171.000000;2.982584
2170.000000;3.359984
2169.000000;3.266084
2168.000000;3.130543
2167.000000;3.166991
2166.000000;3.251791
2165.000000;3.257510
2164.000000;3.139837
2163.000000;3.177670
2162.000000;3.344237
2161.000000;3.352032
2160.000000;3.180745
2159.000000;2.902986
2158.000000;2.719912
2157.000000;2.709940
2156.000000;2.879683
2155.000000;3.358736
2154.000000;3.254997
2153.000000;3.093050
2152.000000;3.072454
2151.000000;3.009152
2150.000000;2.956776
2149.000000;2.935529
2148.000000;2.887676
2147.000000;2.833954
2146.000000;2.801302
2145.000000;2.809348
2144.000000;2.873723
2143.000000;2.989441
2142.000000;3.102703
2141.000000;3.068829
2140.000000;2.931719
2139.000000;2.838672
2138.000000;2.798965
2137.000000;2.789972
2136.000000;2.808494
2135.000000;2.852043
2134.000000;2.917549
2133.000000;3.140630
2132.000000;3.226759
2131.000000;2.877249
2130.000000;2.669457
2129.000000;2.584712
2128.000000;2.604125
2127.000000;2.746893
2126.000000;3.051119
2125.000000;3.411831
2124.000000;3.667215
2123.000000;3.724546
2122.000000;3.196531
2121.000000;3.071502
2120.000000;3.036467
2119.000000;3.083432
2118.000000;2.968814
2117.000000;2.790571
2116.000000;2.736783
2115.000000;2.748483
2114.000000;2.741363
2113.000000;2.689932
2112.000000;2.661813
2111.000000;2.703253
2110.000000;2.828419
2109.000000;2.878968
2108.000000;2.750051
2107.000000;2.667960
2106.000000;2.703534
2105.000000;2.863760
2104.000000;3.176570
2103.000000;3.419572
2102.000000;3.131750
2101.000000;2.857482
2100.000000;2.712504
2099.000000;2.699229
2098.000000;2.833587
2097.000000;3.093579
2096.000000;3.040789
2095.000000;2.971807
2094.000000;3.096924
2093.000000;3.292183
2092.000000;3.137454
2091.000000;2.935117
2090.000000;2.879797
2089.000000;2.977230
2088.000000;3.200782
2087.000000;3.438448
2086.000000;3.529334
2085.000000;3.274164
2084.000000;3.045577
2083.000000;2.986671
2082.000000;3.122352
2081.000000;3.234624
2080.000000;3.107053
2079.000000;3.070159
2078.000000;3.112017
2077.000000;3.127689
2076.000000;3.052781
2075.000000;2.994531
2074.000000;3.114221
2073.000000;3.217309
2072.000000;3.064207
2071.000000;3.121673
2070.000000;3.234736
2069.000000;3.302207
2068.000000;3.568360
2067.000000;3.292312
2066.000000;3.098864
2065.000000;2.941267
2064.000000;2.823406
2063.000000;2.783986
2062.000000;2.785113
2061.000000;2.743012
2060.000000;2.636572
2059.000000;2.546571
2058.000000;2.534359
2057.000000;2.631788
2056.000000;2.853606
2055.000000;3.301550
2054.000000;3.462786
2053.000000;3.268751
2052.000000;3.421659
2051.000000;3.448616
2050.000000;3.059366
2049.000000;2.872665
2048.000000;2.887100
2047.000000;3.117284
2046.000000;3.523979
2045.000000;3.179953
2044.000000;3.057439
2043.000000;3.125774
2042.000000;3.481818
2041.000000;3.354622
2040.000000;3.048278
2039.000000;3.031590
2038.000000;3.135009
2037.000000;3.143258
2036.000000;2.978799
2035.000000;2.804577
2034.000000;2.671625
2033.000000;2.613868
2032.000000;2.636749
2031.000000;2.744939
2030.000000;2.942722
2029.000000;3.280589
2028.000000;3.435501
2027.000000;3.191737
2026.000000;3.045169
2025.000000;3.016740
2024.000000;3.001727
2023.000000;2.845669
2022.000000;2.709811
2021.000000;2.680176
2020.000000;2.768773
2019.000000;3.012753
2018.000000;3.726593
2017.000000;3.418179
2016.000000;3.213098
2015.000000;3.226520
2014.000000;3.191361
2013.000000;3.016115
2012.000000;2.977428
2011.000000;3.102829
2010.000000;2.907071
2009.000000;2.682200
2008.000000;2.685142
2007.000000;2.860373
2006.000000;3.081235
2005.000000;3.054002
2004.000000;3.010898
2003.000000;3.092576
2002.000000;3.645621
2001.000000;3.522993
2000.000000;3.090841
1999.000000;3.021769
1998.000000;3.149648
1997.000000;3.401090
1996.000000;3.048323
1995.000000;2.890293
1994.000000;2.890047
1993.000000;2.868235
1992.000000;2.896521
1991.000000;3.140856
1990.000000;3.191588
1989.000000;2.847880
1988.000000;2.729630
1987.000000;2.737045
1986.000000;2.833869
1985.000000;2.950072
1984.000000;2.978875
1983.000000;2.956359
1982.000000;3.052419
1981.000000;3.230874
1980.000000;3.125403
1979.000000;3.016595
1978.000000;2.964814
1977.000000;2.930825
1976.000000;2.975150
1975.000000;3.016917
1974.000000;3.270434
1973.000000;3.483027
1972.000000;3.026327
1971.000000;2.879720
1970.000000;2.938127
1969.000000;3.257485
1968.000000;3.281556
1967.000000;2.945605
1966.000000;2.894030
1965.000000;3.108587
1964.000000;3.964671
1963.000000;3.367251
1962.000000;3.178600
1961.000000;3.052707
1960.000000;2.850638
1959.000000;2.708312
1958.000000;2.641438
1957.000000;2.619003
1956.000000;2.635060
1955.000000;2.696708
1954.000000;2.787302
1953.000000;2.873132
1952.000000;2.942530
1951.000000;3.008491
1950.000000;3.039648
1949.000000;3.028769
1948.000000;3.072022
1947.000000;3.198800
1946.000000;3.215732
1945.000000;3.124100
1944.000000;3.033233
1943.000000;2.943138
1942.000000;2.930179
1941.000000;3.042366
1940.000000;3.164462
1939.000000;3.066383
1938.000000;2.915644
1937.000000;2.853043
1936.000000;2.899636
1935.000000;3.045557
1934.000000;3.060374
1933.000000;2.882502
1932.000000;2.804152
1931.000000;2.829282
1930.000000;3.058543
1929.000000;3.373659
1928.000000;3.090338
1927.000000;3.006424
1926.000000;2.953499
1925.000000;2.886524
1924.000000;2.917053
1923.000000;2.869897
1922.000000;2.771889
1921.000000;3.025842
1920.000000;3.224984
1919.000000;2.775755
1918.000000;2.671933
1917.000000;2.787423
1916.000000;2.914822
1915.000000;2.845593
1914.000000;2.794763
1913.000000;2.871615
1912.000000;3.004171
1911.000000;3.071493
1910.000000;3.124555
1909.000000;3.256110
1908.000000;3.323905
1907.000000;3.205411
1906.000000;3.172237
1905.000000;3.318422
1904.000000;3.621283
1903.000000;3.637048
1902.000000;3.244475
1901.000000;3.049711
1900.000000;3.011199
1899.000000;3.020453
1898.000000;3.067621
1897.000000;3.396911
1896.000000;3.355314
1895.000000;3.010951
1894.000000;2.999578
1893.000000;3.186161
1892.000000;3.337997
1891.000000;3.264509
1890.000000;3.220350
1889.000000;3.154562
1888.000000;2.990891
1887.000000;2.901847
1886.000000;2.989237
1885.000000;3.111496
1884.000000;2.935788
1883.000000;2.789183
1882.000000;2.756357
1881.000000;2.828231
1880.000000;2.985959
1879.000000;3.122985
1878.000000;3.191873
1877.000000;3.129423
1876.000000;2.960211
1875.000000;2.845729
1874.000000;2.829968
1873.000000;2.913789
1872.000000;3.153888
1871.000000;3.616132
1870.000000;3.236788
1869.000000;2.924292
1868.000000;2.879835
1867.000000;2.983679
1866.000000;3.174347
1865.000000;3.079563
1864.000000;2.903223
1863.000000;2.811353
1862.000000;2.784426
1861.000000;2.851118
1860.000000;3.071833
1859.000000;3.368272
1858.000000;3.231454
1857.000000;3.149577
1856.000000;3.194493
1855.000000;3.414802
1854.000000;3.729246
1853.000000;3.458911
1852.000000;3.179946
1851.000000;3.001221
1850.000000;2.981202
1849.000000;2.965126
1848.000000;2.838228
1847.000000;2.708731
1846.000000;2.641850
1845.000000;2.677808
1844.000000;2.807480
1843.000000;2.954177
1842.000000;3.027233
1841.000000;3.026496
1840.000000;3.215481
1839.000000;3.474606
1838.000000;3.057926
1837.000000;2.887690
1836.000000;2.928915
1835.000000;3.077961
1834.000000;3.169796
1833.000000;2.984573
1832.000000;2.846672
1831.000000;2.850851
1830.000000;2.970239
1829.000000;3.174229
1828.000000;3.560229
1827.000000;3.616257
1826.000000;3.347026
1825.000000;3.399319
1824.000000;3.465044
1823.000000;3.590435
1822.000000;3.671936
1821.000000;3.701265
1820.000000;3.878200
1819.000000;3.394433
1818.000000;3.111947
1817.000000;3.086691
1816.000000;3.196613
1815.000000;3.312189
1814.000000;3.508880
1813.000000;3.349368
1812.000000;3.021340
1811.000000;2.906825
1810.000000;2.875209
1809.000000;2.888282
1808.000000;2.954448
1807.000000;3.217966
1806.000000;3.769939
1805.000000;3.170341
1804.000000;2.953582
1803.000000;2.927773
1802.000000;2.910574
1801.000000;2.854970
1800.000000;2.790529
1799.000000;2.808531
1798.000000;2.951860
1797.000000;3.099409
1796.000000;2.993160
1795.000000;2.863529
1794.000000;2.843465
1793.000000;2.938800
1792.000000;3.033168
1791.000000;3.118339
1790.000000;3.342639
1789.000000;3.114047
1788.000000;2.804149
1787.000000;2.704797
1786.000000;2.721484
1785.000000;2.831741
1784.000000;2.962428
1783.000000;2.983064
1782.000000;2.898726
1781.000000;2.841170
1780.000000;2.806360
1779.000000;2.794381
1778.000000;2.825770
1777.000000;3.031613
1776.000000;3.670777
1775.000000;3.276051
1774.000000;3.040821
1773.000000;3.181246
1772.000000;3.379143
1771.000000;3.114560
1770.000000;2.940404
1769.000000;2.888080
1768.000000;2.865165
1767.000000;2.863131
1766.000000;2.892311
1765.000000;2.939859
1764.000000;2.984585
1763.000000;2.998418
1762.000000;2.982828
1761.000000;2.970289
1760.000000;3.048525
1759.000000;3.641912
1758.000000;3.586816
1757.000000;3.178424
1756.000000;3.180295
1755.000000;3.104132
1754.000000;3.055991
1753.000000;3.097345
1752.000000;3.199212
1751.000000;3.352501
1750.000000;3.269683
1749.000000;3.265661
1748.000000;3.715245
1747.000000;3.140036
1746.000000;2.803351
1745.000000;2.745681
1744.000000;2.858200
1743.000000;3.014264
1742.000000;2.844496
1741.000000;2.730334
1740.000000;2.779836
1739.000000;2.973484
1738.000000;3.387142
1737.000000;3.438999
1736.000000;3.137572
1735.000000;3.019176
1734.000000;2.938505
1733.000000;2.888121
1732.000000;2.838755
1731.000000;2.716726
1730.000000;2.538938
1729.000000;2.424941
1728.000000;2.413570
1727.000000;2.479855
1726.000000;2.606148
1725.000000;2.769425
1724.000000;2.929047
1723.000000;3.085286
1722.000000;3.193872
1721.000000;3.123325
1720.000000;3.045168
1719.000000;3.052933
1718.000000;3.215617
1717.000000;3.506752
1716.000000;3.366057
1715.000000;3.360705
1714.000000;3.402079
1713.000000;3.002237
1712.000000;2.743344
1711.000000;2.630777
1710.000000;2.630939
1709.000000;2.734359
1708.000000;2.866448
1707.000000;2.962324
1706.000000;3.085536
1705.000000;3.235488
1704.000000;3.237420
1703.000000;3.122266
1702.000000;3.086249
1701.000000;3.082157
1700.000000;3.047789
1699.000000;3.046773
1698.000000;3.047832
1697.000000;3.059197
1696.000000;3.134574
1695.000000;3.230689
1694.000000;3.192589
1693.000000;3.172238
1692.000000;3.296952
1691.000000;3.152821
1690.000000;2.904231
1689.000000;2.841604
1688.000000;2.887264
1687.000000;3.196403
1686.000000;3.676600
1685.000000;3.253192
1684.000000;3.119601
1683.000000;3.044013
1682.000000;2.951203
1681.000000;2.889486
1680.000000;2.864655
1679.000000;2.871199
1678.000000;2.828171
1677.000000;2.738048
1676.000000;2.699055
1675.000000;2.756256
1674.000000;2.879853
1673.000000;2.981921
1672.000000;2.875927
1671.000000;2.724728
1670.000000;2.698764
1669.000000;2.781674
1668.000000;2.929497
1667.000000;3.099698
1666.000000;3.329931
1665.000000;3.455282
1664.000000;3.342027
1663.000000;3.345110
1662.000000;3.429198
1661.000000;3.461897
1660.000000;3.228993
1659.000000;2.990152
1658.000000;2.952827
1657.000000;3.005826
1656.000000;2.966872
1655.000000;2.934539
1654.000000;3.127390
1653.000000;3.608310
1652.000000;3.414015
1651.000000;3.049522
1650.000000;2.802106
1649.000000;2.674914
1648.000000;2.733383
1647.000000;2.914294
1646.000000;3.035589
1645.000000;3.059338
1644.000000;3.170064
1643.000000;3.164706
1642.000000;2.941991
1641.000000;2.886443
1640.000000;2.999921
1639.000000;3.146266
1638.000000;3.115952
1637.000000;3.017035
1636.000000;2.969080
1635.000000;2.949707
1634.000000;2.982674
1633.000000;3.129730
1632.000000;3.356147
1631.000000;3.327350
1630.000000;3.342233
1629.000000;3.292083
1628.000000;3.010438
1627.000000;2.895631
1626.000000;2.855248
1625.000000;2.831505
1624.000000;2.835129
1623.000000;2.950217
1622.000000;3.273134
1621.000000;3.094978
1620.000000;2.742745
1619.000000;2.640958
1618.000000;2.690645
1617.000000;3.002200
1616.000000;3.453635
1615.000000;2.950790
1614.000000;2.760492
1613.000000;2.850399
1612.000000;3.134946
1611.000000;3.009852
1610.000000;2.808635
1609.000000;2.780708
1608.000000;2.752272
1607.000000;2.741555
1606.000000;2.794835
1605.000000;2.986542
1604.000000;3.305028
1603.000000;3.427938
1602.000000;3.390705
1601.000000;3.442232
1600.000000;3.503656
1599.000000;3.375394
1598.000000;3.041278
1597.000000;2.865065
1596.000000;2.869508
1595.000000;3.023658
1594.000000;3.162954
1593.000000;3.150840
1592.000000;3.125534
1591.000000;2.963056
1590.000000;2.830559
1589.000000;2.816516
1588.000000;2.852280
1587.000000;2.851936
1586.000000;2.818009
1585.000000;2.830987
1584.000000;2.991009
1583.000000;3.339130
1582.000000;3.293142
1581.000000;3.146212
1580.000000;3.233692
1579.000000;3.431978
1578.000000;3.684957
1577.000000;3.354850
1576.000000;3.066245
1575.000000;2.917618
1574.000000;2.865298
1573.000000;2.885809
1572.000000;3.025177
1571.000000;3.609854
1570.000000;3.489685
1569.000000;3.192223
1568.000000;3.241432
1567.000000;3.237405
1566.000000;3.276945
1565.000000;3.067417
1564.000000;2.889592
1563.000000;2.864358
1562.000000;2.962694
1561.000000;3.146997
1560.000000;3.199580
1559.000000;3.221694
1558.000000;3.231650
1557.000000;3.244367
1556.000000;3.287215
1555.000000;3.549393
1554.000000;3.622470
1553.000000;3.121401
1552.000000;2.921824
1551.000000;2.810710
1550.000000;2.761173
1549.000000;2.797715
1548.000000;2.866926
1547.000000;2.918528
1546.000000;2.959350
1545.000000;3.083705
1544.000000;3.292754
1543.000000;3.494760
1542.000000;3.327010
1541.000000;3.031737
1540.000000;2.777521
1539.000000;2.637735
1538.000000;2.611624
1537.000000;2.738877
1536.000000;3.236121
1535.000000;3.122459
1534.000000;2.797211
1533.000000;2.783570
1532.000000;2.837630
1531.000000;2.958118
1530.000000;3.075050
1529.000000;3.111182
1528.000000;3.005532
1527.000000;2.797787
1526.000000;2.612158
1525.000000;2.543069
1524.000000;2.599817
1523.000000;2.809501
1522.000000;3.353864
1521.000000;3.364820
1520.000000;3.026392
1519.000000;3.144547
1518.000000;3.458956
1517.000000;3.654273
1516.000000;3.413737
1515.000000;3.080273
1514.000000;2.933054
1513.000000;2.967609
1512.000000;3.290168
1511.000000;3.732646
1510.000000;3.266541
1509.000000;3.094165
1508.000000;3.084462
1507.000000;3.149507
1506.000000;3.300231
1505.000000;3.252103
1504.000000;3.091989
1503.000000;2.989282
1502.000000;2.967796
1501.000000;3.072258
1500.000000;3.161268
1499.000000;3.070399
1498.000000;3.024687
1497.000000;3.031986
1496.000000;3.031286
1495.000000;3.016627
1494.000000;3.003617
1493.000000;3.011587
1492.000000;3.107642
1491.000000;3.310853
1490.000000;3.195126
1489.000000;2.870980
1488.000000;2.630274
1487.000000;2.516181
1486.000000;2.559054
1485.000000;2.737612
1484.000000;3.036910
1483.000000;3.381786
1482.000000;3.167639
1481.000000;2.897867
1480.000000;2.764415
1479.000000;2.702390
1478.000000;2.695093
1477.000000;2.737236
1476.000000;2.822567
1475.000000;2.994203
1474.000000;3.354823
1473.000000;3.307511
1472.000000;3.082255
1471.000000;3.147607
1470.000000;3.173606
1469.000000;3.012964
1468.000000;2.915885
1467.000000;2.980459
1466.000000;2.958234
1465.000000;2.829873
1464.000000;2.800931
1463.000000;2.905647
1462.000000;3.366585
1461.000000;3.297133
1460.000000;2.924942
1459.000000;2.886567
1458.000000;2.973944
1457.000000;3.316449
1456.000000;3.553510
1455.000000;3.017865
1454.000000;2.763488
1453.000000;2.671957
1452.000000;2.726508
1451.000000;2.939507
1450.000000;3.133978
1449.000000;3.180333
1448.000000;3.453391
1447.000000;3.633290
1446.000000;3.436381
1445.000000;3.725004
1444.000000;3.810887
1443.000000;3.594648
1442.000000;3.477263
1441.000000;3.299169
1440.000000;3.286293
1439.000000;3.417610
1438.000000;3.312172
1437.000000;3.085018
1436.000000;2.973991
1435.000000;2.959057
1434.000000;3.022919
1433.000000;3.289499
1432.000000;3.777146
1431.000000;3.267986
1430.000000;3.008194
1429.000000;2.927590
1428.000000;2.883064
1427.000000;2.895992
1426.000000;2.926027
1425.000000;3.074437
1424.000000;3.359476
1423.000000;3.186765
1422.000000;3.030726
1421.000000;3.149918
1420.000000;3.574103
1419.000000;3.555195
1418.000000;3.233281
1417.000000;3.229662
1416.000000;3.265283
1415.000000;3.190001
1414.000000;3.114245
1413.000000;3.036552
1412.000000;2.926036
1411.000000;2.916551
1410.000000;3.071855
1409.000000;3.229191
1408.000000;3.193199
1407.000000;3.091992
1406.000000;3.015016
1405.000000;3.201793
1404.000000;3.586504
1403.000000;3.078090
1402.000000;2.927367
1401.000000;3.007551
1400.000000;3.195764
1399.000000;3.507819
1398.000000;3.186076
1397.000000;2.901577
1396.000000;2.828066
1395.000000;2.928020
1394.000000;3.201588
1393.000000;3.419098
1392.000000;3.421212
1391.000000;3.340650
1390.000000;3.138052
1389.000000;3.049190
1388.000000;3.097932
1387.000000;3.182928
1386.000000;3.166938
1385.000000;3.172398
1384.000000;3.293712
1383.000000;3.305554
1382.000000;3.280912
1381.000000;3.421314
1380.000000;3.502341
1379.000000;3.261729
1378.000000;3.043270
1377.000000;2.890070
1376.000000;2.798325
1375.000000;2.764285
1374.000000;2.805274
1373.000000;2.876021
1372.000000;3.039457
1371.000000;3.550132
1370.000000;3.280386
1369.000000;3.006493
1368.000000;2.864487
1367.000000;2.719818
1366.000000;2.682145
1365.000000;2.746228
1364.000000;2.881931
1363.000000;3.012414
1362.000000;3.003471
1361.000000;2.878595
1360.000000;2.788197
1359.000000;2.774768
1358.000000;2.794000
1357.000000;2.783889
1356.000000;2.775066
1355.000000;2.843237
1354.000000;3.045339
1353.000000;3.375180
1352.000000;3.561197
1351.000000;3.593600
1350.000000;3.554165
1349.000000;3.401520
1348.000000;3.186589
1347.000000;2.982553
1346.000000;2.842179
1345.000000;2.765356
1344.000000;2.747773
1343.000000;2.781293
1342.000000;2.860133
1341.000000;2.982569
1340.000000;3.271245
1339.000000;3.527484
1338.000000;3.058088
1337.000000;2.819436
1336.000000;2.723802
1335.000000;2.736916
1334.000000;2.840827
1333.000000;2.992935
1332.000000;3.274984
1331.000000;3.354503
1330.000000;2.951260
1329.000000;2.746568
1328.000000;2.723257
1327.000000;2.861324
1326.000000;3.193588
1325.000000;3.205805
1324.000000;3.078728
1323.000000;3.100774
1322.000000;3.027447
1321.000000;3.007861
1320.000000;3.119229
1319.000000;3.411791
1318.000000;3.917871
1317.000000;3.115943
1316.000000;2.826801
1315.000000;2.708761
1314.000000;2.693910
1313.000000;2.768608
1312.000000;2.908335
1311.000000;3.066339
1310.000000;3.045306
1309.000000;2.938652
1308.000000;2.940223
1307.000000;3.239570
1306.000000;3.648398
1305.000000;3.165432
1304.000000;2.979577
1303.000000;2.957646
1302.000000;2.945080
1301.000000;2.919559
1300.000000;2.998200
1299.000000;3.092801
1298.000000;3.135578
1297.000000;3.316261
1296.000000;3.224913
1295.000000;3.066888
1294.000000;3.134927
1293.000000;3.207327
1292.000000;2.965701
1291.000000;2.830883
1290.000000;2.829492
1289.000000;2.890943
1288.000000;2.997433
1287.000000;3.181002
1286.000000;3.596102
1285.000000;3.879820
1284.000000;3.348395
1283.000000;3.151031
1282.000000;3.079004
1281.000000;3.072699
1280.000000;3.009184
1279.000000;2.901675
1278.000000;2.869245
1277.000000;2.963687
1276.000000;3.172705
1275.000000;3.317137
1274.000000;3.648438
1273.000000;3.627914
1272.000000;3.147676
1271.000000;2.943214
1270.000000;2.855960
1269.000000;2.846871
1268.000000;2.868102
1267.000000;2.793026
1266.000000;2.689161
1265.000000;2.688190
1264.000000;2.825698
1263.000000;3.031011
1262.000000;3.126849
1261.000000;3.158406
1260.000000;3.193004
1259.000000;3.266186
1258.000000;3.254841
1257.000000;3.165299
1256.000000;3.079044
1255.000000;3.021247
1254.000000;2.999493
1253.000000;3.041127
1252.000000;3.161785
1251.000000;3.167996
1250.000000;3.077479
1249.000000;3.144360
1248.000000;3.440754
1247.000000;4.194829
1246.000000;3.632065
1245.000000;3.107647
1244.000000;2.902592
1243.000000;2.846238
1242.000000;2.831618
1241.000000;2.823080
1240.000000;2.883546
1239.000000;3.038935
1238.000000;3.128302
1237.000000;2.951912
1236.000000;2.808881
1235.000000;2.791430
1234.000000;2.963633
1233.000000;3.311666
1232.000000;3.085025
1231.000000;2.945077
1230.000000;2.997265
1229.000000;3.336327
1228.000000;3.530230
1227.000000;3.058203
1226.000000;2.951477
1225.000000;2.937568
1224.000000;2.946844
1223.000000;2.907933
1222.000000;2.898495
1221.000000;3.018279
1220.000000;3.294995
1219.000000;3.572146
1218.000000;3.600152
1217.000000;3.543659
1216.000000;3.414988
1215.000000;3.201888
1214.000000;2.958104
1213.000000;2.751983
1212.000000;2.620965
1211.000000;2.567566
1210.000000;2.601854
1209.000000;2.739276
1208.000000;3.087891
1207.000000;4.063826
1206.000000;3.177517
1205.000000;3.077614
1204.000000;3.121476
1203.000000;3.190581
1202.000000;3.185250
1201.000000;3.257421
1200.000000;3.513962
