Criado como novo conjunto de dados;"e0108.spp","-4268143.9 Secs"
cm-1;Abs
10000.000000;1.095867
9999.000000;1.094224
9998.000000;1.092322
9997.000000;1.091172
9996.000000;1.090596
9995.000000;1.090170
9994.000000;1.090182
9993.000000;1.091107
9992.000000;1.092723
9991.000000;1.094263
9990.000000;1.095164
9989.000000;1.095179
9988.000000;1.094064
9987.000000;1.091862
9986.000000;1.089448
9985.000000;1.088091
9984.000000;1.088198
9983.000000;1.088871
9982.000000;1.088912
9981.000000;1.088032
9980.000000;1.086886
9979.000000;1.086193
9978.000000;1.086144
9977.000000;1.086492
9976.000000;1.086857
9975.000000;1.086901
9974.000000;1.086463
9973.000000;1.085717
9972.000000;1.085074
9971.000000;1.084741
9970.000000;1.084443
9969.000000;1.083756
9968.000000;1.082732
9967.000000;1.081948
9966.000000;1.081781
9965.000000;1.081853
9964.000000;1.081472
9963.000000;1.080660
9962.000000;1.080341
9961.000000;1.081269
9960.000000;1.082995
9959.000000;1.084236
9958.000000;1.084225
9957.000000;1.083437
9956.000000;1.082899
9955.000000;1.083054
9954.000000;1.083429
9953.000000;1.083276
9952.000000;1.082344
9951.000000;1.080971
9950.000000;1.079561
9949.000000;1.078166
9948.000000;1.076709
9947.000000;1.075479
9946.000000;1.075022
9945.000000;1.075414
9944.000000;1.075984
9943.000000;1.076073
9942.000000;1.075857
9941.000000;1.075923
9940.000000;1.076224
9939.000000;1.076086
9938.000000;1.075348
9937.000000;1.074826
9936.000000;1.075146
9935.000000;1.075635
9934.000000;1.075067
9933.000000;1.073386
9932.000000;1.071984
9931.000000;1.072133
9930.000000;1.073539
9929.000000;1.074638
9928.000000;1.074212
9927.000000;1.072581
9926.000000;1.071221
9925.000000;1.071242
9924.000000;1.072280
9923.000000;1.072925
9922.000000;1.072284
9921.000000;1.070841
9920.000000;1.069600
9919.000000;1.068757
9918.000000;1.067719
9917.000000;1.066243
9916.000000;1.064896
9915.000000;1.064255
9914.000000;1.064217
9913.000000;1.064370
9912.000000;1.064614
9911.000000;1.065051
9910.000000;1.065554
9909.000000;1.065802
9908.000000;1.065606
9907.000000;1.064937
9906.000000;1.063796
9905.000000;1.062429
9904.000000;1.061521
9903.000000;1.061676
9902.000000;1.062588
9901.000000;1.063114
9900.000000;1.062488
9899.000000;1.061311
9898.000000;1.060935
9897.000000;1.061832
9896.000000;1.062906
9895.000000;1.062700
9894.000000;1.061094
9893.000000;1.059346
9892.000000;1.058506
9891.000000;1.058365
9890.000000;1.058109
9889.000000;1.057453
9888.000000;1.056637
9887.000000;1.055740
9886.000000;1.054773
9885.000000;1.054211
9884.000000;1.054562
9883.000000;1.055370
9882.000000;1.055465
9881.000000;1.054443
9880.000000;1.053157
9879.000000;1.052443
9878.000000;1.052151
9877.000000;1.051827
9876.000000;1.051572
9875.000000;1.051625
9874.000000;1.051658
9873.000000;1.051299
9872.000000;1.050922
9871.000000;1.051062
9870.000000;1.051355
9869.000000;1.050991
9868.000000;1.050088
9867.000000;1.049665
9866.000000;1.050174
9865.000000;1.050893
9864.000000;1.050992
9863.000000;1.050480
9862.000000;1.049792
9861.000000;1.049055
9860.000000;1.048209
9859.000000;1.047378
9858.000000;1.046691
9857.000000;1.046021
9856.000000;1.045236
9855.000000;1.044477
9854.000000;1.043904
9853.000000;1.043379
9852.000000;1.042716
9851.000000;1.042167
9850.000000;1.042332
9849.000000;1.043494
9848.000000;1.045077
9847.000000;1.045853
9846.000000;1.044933
9845.000000;1.042781
9844.000000;1.041107
9843.000000;1.041445
9842.000000;1.043725
9841.000000;1.046321
9840.000000;1.047435
9839.000000;1.046352
9838.000000;1.043608
9837.000000;1.040453
9836.000000;1.038162
9835.000000;1.037325
9834.000000;1.037538
9833.000000;1.037989
9832.000000;1.038318
9831.000000;1.038704
9830.000000;1.039253
9829.000000;1.039746
9828.000000;1.039931
9827.000000;1.039599
9826.000000;1.038493
9825.000000;1.036703
9824.000000;1.035106
9823.000000;1.034709
9822.000000;1.035416
9821.000000;1.036056
9820.000000;1.035761
9819.000000;1.034700
9818.000000;1.033369
9817.000000;1.032035
9816.000000;1.031164
9815.000000;1.031372
9814.000000;1.032343
9813.000000;1.032685
9812.000000;1.031719
9811.000000;1.030644
9810.000000;1.030869
9809.000000;1.031881
9808.000000;1.032011
9807.000000;1.030900
9806.000000;1.029843
9805.000000;1.029779
9804.000000;1.030208
9803.000000;1.030323
9802.000000;1.030047
9801.000000;1.029518
9800.000000;1.028541
9799.000000;1.027161
9798.000000;1.026024
9797.000000;1.025507
9796.000000;1.025113
9795.000000;1.024284
9794.000000;1.023264
9793.000000;1.022587
9792.000000;1.022269
9791.000000;1.022143
9790.000000;1.022532
9789.000000;1.023781
9788.000000;1.025344
9787.000000;1.026147
9786.000000;1.025883
9785.000000;1.025220
9784.000000;1.024702
9783.000000;1.024203
9782.000000;1.023619
9781.000000;1.023343
9780.000000;1.023559
9779.000000;1.023596
9778.000000;1.022653
9777.000000;1.021067
9776.000000;1.020209
9775.000000;1.020918
9774.000000;1.022403
9773.000000;1.022973
9772.000000;1.021749
9771.000000;1.019440
9770.000000;1.017438
9769.000000;1.016512
9768.000000;1.016547
9767.000000;1.017182
9766.000000;1.018178
9765.000000;1.019161
9764.000000;1.019582
9763.000000;1.019214
9762.000000;1.018449
9761.000000;1.017816
9760.000000;1.017430
9759.000000;1.017141
9758.000000;1.016946
9757.000000;1.016822
9756.000000;1.016395
9755.000000;1.015331
9754.000000;1.014046
9753.000000;1.013447
9752.000000;1.013844
9751.000000;1.014610
9750.000000;1.015091
9749.000000;1.015378
9748.000000;1.015809
9747.000000;1.016130
9746.000000;1.015729
9745.000000;1.014602
9744.000000;1.013461
9743.000000;1.012838
9742.000000;1.012553
9741.000000;1.012178
9740.000000;1.011658
9739.000000;1.011228
9738.000000;1.010996
9737.000000;1.010848
9736.000000;1.010666
9735.000000;1.010448
9734.000000;1.010222
9733.000000;1.009885
9732.000000;1.009193
9731.000000;1.007999
9730.000000;1.006570
9729.000000;1.005616
9728.000000;1.005793
9727.000000;1.007063
9726.000000;1.008544
9725.000000;1.009078
9724.000000;1.008044
9723.000000;1.005826
9722.000000;1.003547
9721.000000;1.002227
9720.000000;1.002097
9719.000000;1.002691
9718.000000;1.003504
9717.000000;1.004386
9716.000000;1.005218
9715.000000;1.005607
9714.000000;1.005282
9713.000000;1.004590
9712.000000;1.004132
9711.000000;1.003982
9710.000000;1.003666
9709.000000;1.002960
9708.000000;1.002222
9707.000000;1.001846
9706.000000;1.001806
9705.000000;1.001903
9704.000000;1.002035
9703.000000;1.001972
9702.000000;1.001237
9701.000000;0.999628
9700.000000;0.997694
9699.000000;0.996369
9698.000000;0.996206
9697.000000;0.997017
9696.000000;0.998052
9695.000000;0.998433
9694.000000;0.997769
9693.000000;0.996619
9692.000000;0.996102
9691.000000;0.996804
9690.000000;0.998237
9689.000000;0.999430
9688.000000;0.999746
9687.000000;0.998990
9686.000000;0.997224
9685.000000;0.994967
9684.000000;0.993175
9683.000000;0.992473
9682.000000;0.992546
9681.000000;0.992693
9680.000000;0.992741
9679.000000;0.992949
9678.000000;0.993286
9677.000000;0.993453
9676.000000;0.993467
9675.000000;0.993565
9674.000000;0.993574
9673.000000;0.993035
9672.000000;0.992069
9671.000000;0.991481
9670.000000;0.991799
9669.000000;0.992693
9668.000000;0.993510
9667.000000;0.993895
9666.000000;0.993681
9665.000000;0.992742
9664.000000;0.991301
9663.000000;0.989909
9662.000000;0.988754
9661.000000;0.987429
9660.000000;0.985798
9659.000000;0.984634
9658.000000;0.984779
9657.000000;0.985875
9656.000000;0.986522
9655.000000;0.985776
9654.000000;0.984155
9653.000000;0.983009
9652.000000;0.983176
9651.000000;0.984321
9650.000000;0.985355
9649.000000;0.985487
9648.000000;0.984966
9647.000000;0.984651
9646.000000;0.984834
9645.000000;0.984774
9644.000000;0.983668
9643.000000;0.981844
9642.000000;0.980564
9641.000000;0.980670
9640.000000;0.981731
9639.000000;0.982578
9638.000000;0.982482
9637.000000;0.981757
9636.000000;0.981298
9635.000000;0.981642
9634.000000;0.982444
9633.000000;0.982825
9632.000000;0.982178
9631.000000;0.980607
9630.000000;0.978678
9629.000000;0.976987
9628.000000;0.975934
9627.000000;0.975572
9626.000000;0.975481
9625.000000;0.975009
9624.000000;0.973929
9623.000000;0.972764
9622.000000;0.972321
9621.000000;0.972981
9620.000000;0.974501
9619.000000;0.976273
9618.000000;0.977582
9617.000000;0.977869
9616.000000;0.977146
9615.000000;0.976097
9614.000000;0.975489
9613.000000;0.975442
9612.000000;0.975467
9611.000000;0.975118
9610.000000;0.974386
9609.000000;0.973524
9608.000000;0.972813
9607.000000;0.972507
9606.000000;0.972732
9605.000000;0.973267
9604.000000;0.973621
9603.000000;0.973433
9602.000000;0.972757
9601.000000;0.971898
9600.000000;0.971097
9599.000000;0.970419
9598.000000;0.969838
9597.000000;0.969357
9596.000000;0.969053
9595.000000;0.969004
9594.000000;0.969204
9593.000000;0.969600
9592.000000;0.970193
9591.000000;0.970915
9590.000000;0.971383
9589.000000;0.971086
9588.000000;0.969973
9587.000000;0.968619
9586.000000;0.967648
9585.000000;0.967178
9584.000000;0.967057
9583.000000;0.967334
9582.000000;0.968071
9581.000000;0.968811
9580.000000;0.968787
9579.000000;0.967788
9578.000000;0.966387
9577.000000;0.965196
9576.000000;0.964284
9575.000000;0.963502
9574.000000;0.962972
9573.000000;0.962904
9572.000000;0.963130
9571.000000;0.963172
9570.000000;0.962726
9569.000000;0.961874
9568.000000;0.960921
9567.000000;0.960238
9566.000000;0.960186
9565.000000;0.960934
9564.000000;0.962287
9563.000000;0.963798
9562.000000;0.965049
9561.000000;0.965725
9560.000000;0.965488
9559.000000;0.964067
9558.000000;0.961650
9557.000000;0.959097
9556.000000;0.957587
9555.000000;0.957828
9554.000000;0.959412
9553.000000;0.961022
9552.000000;0.961521
9551.000000;0.960912
9550.000000;0.960117
9549.000000;0.959884
9548.000000;0.960121
9547.000000;0.960244
9546.000000;0.959843
9545.000000;0.958830
9544.000000;0.957269
9543.000000;0.955423
9542.000000;0.953853
9541.000000;0.953121
9540.000000;0.953297
9539.000000;0.953958
9538.000000;0.954696
9537.000000;0.955443
9536.000000;0.956220
9535.000000;0.956801
9534.000000;0.956823
9533.000000;0.956197
9532.000000;0.955246
9531.000000;0.954375
9530.000000;0.953654
9529.000000;0.952796
9528.000000;0.951612
9527.000000;0.950456
9526.000000;0.950026
9525.000000;0.950592
9524.000000;0.951512
9523.000000;0.951724
9522.000000;0.950765
9521.000000;0.949167
9520.000000;0.947776
9519.000000;0.946895
9518.000000;0.946239
9517.000000;0.945590
9516.000000;0.945197
9515.000000;0.945446
9514.000000;0.946296
9513.000000;0.947248
9512.000000;0.947872
9511.000000;0.948225
9510.000000;0.948607
9509.000000;0.949025
9508.000000;0.949122
9507.000000;0.948730
9506.000000;0.948258
9505.000000;0.948305
9504.000000;0.948981
9503.000000;0.949790
9502.000000;0.950168
9501.000000;0.949897
9500.000000;0.949018
9499.000000;0.947714
9498.000000;0.946444
9497.000000;0.945843
9496.000000;0.946134
9495.000000;0.946798
9494.000000;0.947093
9493.000000;0.946786
9492.000000;0.946133
9491.000000;0.945278
9490.000000;0.944127
9489.000000;0.942802
9488.000000;0.941769
9487.000000;0.941352
9486.000000;0.941448
9485.000000;0.941889
9484.000000;0.942735
9483.000000;0.943892
9482.000000;0.944694
9481.000000;0.944327
9480.000000;0.942723
9479.000000;0.940759
9478.000000;0.939462
9477.000000;0.939152
9476.000000;0.939334
9475.000000;0.939344
9474.000000;0.939041
9473.000000;0.938824
9472.000000;0.938969
9471.000000;0.939141
9470.000000;0.938802
9469.000000;0.938001
9468.000000;0.937389
9467.000000;0.937359
9466.000000;0.937614
9465.000000;0.937775
9464.000000;0.937970
9463.000000;0.938445
9462.000000;0.938964
9461.000000;0.939105
9460.000000;0.938954
9459.000000;0.938984
9458.000000;0.939295
9457.000000;0.939471
9456.000000;0.939180
9455.000000;0.938456
9454.000000;0.937414
9453.000000;0.936200
9452.000000;0.935299
9451.000000;0.935302
9450.000000;0.936090
9449.000000;0.936715
9448.000000;0.936427
9447.000000;0.935514
9446.000000;0.934820
9445.000000;0.934754
9444.000000;0.935127
9443.000000;0.935593
9442.000000;0.935785
9441.000000;0.935275
9440.000000;0.933977
9439.000000;0.932609
9438.000000;0.932215
9437.000000;0.933049
9436.000000;0.934194
9435.000000;0.934500
9434.000000;0.933719
9433.000000;0.932565
9432.000000;0.931816
9431.000000;0.931595
9430.000000;0.931495
9429.000000;0.931220
9428.000000;0.930947
9427.000000;0.931029
9426.000000;0.931531
9425.000000;0.932215
9424.000000;0.932856
9423.000000;0.933360
9422.000000;0.933564
9421.000000;0.933216
9420.000000;0.932313
9419.000000;0.931260
9418.000000;0.930532
9417.000000;0.930278
9416.000000;0.930328
9415.000000;0.930404
9414.000000;0.930206
9413.000000;0.929540
9412.000000;0.928573
9411.000000;0.927743
9410.000000;0.927174
9409.000000;0.926389
9408.000000;0.924951
9407.000000;0.923306
9406.000000;0.922592
9405.000000;0.923497
9404.000000;0.925474
9403.000000;0.927116
9402.000000;0.927265
9401.000000;0.925874
9400.000000;0.924027
9399.000000;0.923105
9398.000000;0.923702
9397.000000;0.925186
9396.000000;0.926298
9395.000000;0.926208
9394.000000;0.925023
9393.000000;0.923455
9392.000000;0.922237
9391.000000;0.921785
9390.000000;0.922079
9389.000000;0.922727
9388.000000;0.923225
9387.000000;0.923296
9386.000000;0.923058
9385.000000;0.922918
9384.000000;0.923260
9383.000000;0.924061
9382.000000;0.924753
9381.000000;0.924658
9380.000000;0.923680
9379.000000;0.922372
9378.000000;0.921234
9377.000000;0.920232
9376.000000;0.919218
9375.000000;0.918432
9374.000000;0.918180
9373.000000;0.918231
9372.000000;0.918067
9371.000000;0.917656
9370.000000;0.917504
9369.000000;0.917927
9368.000000;0.918717
9367.000000;0.919573
9366.000000;0.920378
9365.000000;0.920872
9364.000000;0.920586
9363.000000;0.919445
9362.000000;0.918147
9361.000000;0.917527
9360.000000;0.917692
9359.000000;0.918027
9358.000000;0.917911
9357.000000;0.917187
9356.000000;0.916121
9355.000000;0.915188
9354.000000;0.914867
9353.000000;0.915321
9352.000000;0.916162
9351.000000;0.916631
9350.000000;0.916129
9349.000000;0.914649
9348.000000;0.912874
9347.000000;0.911815
9346.000000;0.912092
9345.000000;0.913350
9344.000000;0.914463
9343.000000;0.914537
9342.000000;0.913669
9341.000000;0.912684
9340.000000;0.912284
9339.000000;0.912567
9338.000000;0.913137
9337.000000;0.913478
9336.000000;0.913322
9335.000000;0.912875
9334.000000;0.912620
9333.000000;0.912753
9332.000000;0.912902
9331.000000;0.912548
9330.000000;0.911649
9329.000000;0.910687
9328.000000;0.910175
9327.000000;0.910278
9326.000000;0.910759
9325.000000;0.911085
9324.000000;0.910747
9323.000000;0.909815
9322.000000;0.909130
9321.000000;0.909563
9320.000000;0.910994
9319.000000;0.912278
9318.000000;0.912400
9317.000000;0.911465
9316.000000;0.910358
9315.000000;0.909665
9314.000000;0.909221
9313.000000;0.908550
9312.000000;0.907462
9311.000000;0.906158
9310.000000;0.904984
9309.000000;0.904212
9308.000000;0.903978
9307.000000;0.904277
9306.000000;0.904928
9305.000000;0.905577
9304.000000;0.905891
9303.000000;0.905820
9302.000000;0.905636
9301.000000;0.905612
9300.000000;0.905739
9299.000000;0.905877
9298.000000;0.906099
9297.000000;0.906618
9296.000000;0.907352
9295.000000;0.907830
9294.000000;0.907733
9293.000000;0.907292
9292.000000;0.906934
9291.000000;0.906660
9290.000000;0.906090
9289.000000;0.905088
9288.000000;0.904065
9287.000000;0.903540
9286.000000;0.903561
9285.000000;0.903657
9284.000000;0.903300
9283.000000;0.902400
9282.000000;0.901413
9281.000000;0.900945
9280.000000;0.901122
9279.000000;0.901428
9278.000000;0.901343
9277.000000;0.901038
9276.000000;0.901115
9275.000000;0.901656
9274.000000;0.901992
9273.000000;0.901592
9272.000000;0.900758
9271.000000;0.900097
9270.000000;0.899728
9269.000000;0.899501
9268.000000;0.899689
9267.000000;0.900703
9266.000000;0.902128
9265.000000;0.902793
9264.000000;0.902108
9263.000000;0.900792
9262.000000;0.899905
9261.000000;0.899658
9260.000000;0.899581
9259.000000;0.899444
9258.000000;0.899445
9257.000000;0.899654
9256.000000;0.899834
9255.000000;0.899812
9254.000000;0.899599
9253.000000;0.899157
9252.000000;0.898486
9251.000000;0.897941
9250.000000;0.897964
9249.000000;0.898342
9248.000000;0.898181
9247.000000;0.896969
9246.000000;0.895385
9245.000000;0.894663
9244.000000;0.895268
9243.000000;0.896541
9242.000000;0.897580
9241.000000;0.898111
9240.000000;0.898353
9239.000000;0.898338
9238.000000;0.897792
9237.000000;0.896712
9236.000000;0.895687
9235.000000;0.895349
9234.000000;0.895642
9233.000000;0.895925
9232.000000;0.895824
9231.000000;0.895639
9230.000000;0.895764
9229.000000;0.896055
9228.000000;0.896096
9227.000000;0.895881
9226.000000;0.895767
9225.000000;0.895838
9224.000000;0.895753
9223.000000;0.895335
9222.000000;0.894899
9221.000000;0.894786
9220.000000;0.894852
9219.000000;0.894646
9218.000000;0.893931
9217.000000;0.892868
9216.000000;0.891849
9215.000000;0.891323
9214.000000;0.891608
9213.000000;0.892605
9212.000000;0.893710
9211.000000;0.894205
9210.000000;0.893833
9209.000000;0.892967
9208.000000;0.892242
9207.000000;0.892078
9206.000000;0.892435
9205.000000;0.892924
9204.000000;0.893155
9203.000000;0.893029
9202.000000;0.892669
9201.000000;0.892157
9200.000000;0.891477
9199.000000;0.890692
9198.000000;0.890019
9197.000000;0.889608
9196.000000;0.889407
9195.000000;0.889338
9194.000000;0.889463
9193.000000;0.889808
9192.000000;0.890116
9191.000000;0.890021
9190.000000;0.889490
9189.000000;0.888916
9188.000000;0.888679
9187.000000;0.888661
9186.000000;0.888353
9185.000000;0.887495
9184.000000;0.886519
9183.000000;0.886173
9182.000000;0.886647
9181.000000;0.887272
9180.000000;0.887278
9179.000000;0.886720
9178.000000;0.886345
9177.000000;0.886600
9176.000000;0.887139
9175.000000;0.887415
9174.000000;0.887418
9173.000000;0.887580
9172.000000;0.888115
9171.000000;0.888689
9170.000000;0.888715
9169.000000;0.887849
9168.000000;0.886306
9167.000000;0.884793
9166.000000;0.884015
9165.000000;0.884064
9164.000000;0.884374
9163.000000;0.884397
9162.000000;0.884201
9161.000000;0.884228
9160.000000;0.884594
9159.000000;0.884884
9158.000000;0.884648
9157.000000;0.883916
9156.000000;0.883152
9155.000000;0.882795
9154.000000;0.882909
9153.000000;0.883237
9152.000000;0.883535
9151.000000;0.883792
9150.000000;0.884109
9149.000000;0.884442
9148.000000;0.884613
9147.000000;0.884563
9146.000000;0.884420
9145.000000;0.884240
9144.000000;0.883880
9143.000000;0.883232
9142.000000;0.882436
9141.000000;0.881727
9140.000000;0.881218
9139.000000;0.880958
9138.000000;0.881038
9137.000000;0.881458
9136.000000;0.882018
9135.000000;0.882537
9134.000000;0.883082
9133.000000;0.883792
9132.000000;0.884528
9131.000000;0.884898
9130.000000;0.884606
9129.000000;0.883664
9128.000000;0.882341
9127.000000;0.881087
9126.000000;0.880418
9125.000000;0.880622
9124.000000;0.881491
9123.000000;0.882460
9122.000000;0.883069
9121.000000;0.883257
9120.000000;0.883231
9119.000000;0.883156
9118.000000;0.882983
9117.000000;0.882504
9116.000000;0.881619
9115.000000;0.880570
9114.000000;0.879785
9113.000000;0.879413
9112.000000;0.879141
9111.000000;0.878627
9110.000000;0.877953
9109.000000;0.877498
9108.000000;0.877486
9107.000000;0.877876
9106.000000;0.878534
9105.000000;0.879234
9104.000000;0.879567
9103.000000;0.879217
9102.000000;0.878399
9101.000000;0.877752
9100.000000;0.877690
9099.000000;0.878023
9098.000000;0.878261
9097.000000;0.878095
9096.000000;0.877573
9095.000000;0.877029
9094.000000;0.876899
9093.000000;0.877361
9092.000000;0.878027
9091.000000;0.878164
9090.000000;0.877422
9089.000000;0.876253
9088.000000;0.875511
9087.000000;0.875702
9086.000000;0.876622
9085.000000;0.877615
9084.000000;0.878080
9083.000000;0.877825
9082.000000;0.877085
9081.000000;0.876271
9080.000000;0.875736
9079.000000;0.875715
9078.000000;0.876286
9077.000000;0.877184
9076.000000;0.877791
9075.000000;0.877605
9074.000000;0.876755
9073.000000;0.875841
9072.000000;0.875236
9071.000000;0.874852
9070.000000;0.874599
9069.000000;0.874714
9068.000000;0.875425
9067.000000;0.876520
9066.000000;0.877514
9065.000000;0.878070
9064.000000;0.878057
9063.000000;0.877397
9062.000000;0.876204
9061.000000;0.874976
9060.000000;0.874307
9059.000000;0.874324
9058.000000;0.874615
9057.000000;0.874744
9056.000000;0.874656
9055.000000;0.874544
9054.000000;0.874510
9053.000000;0.874504
9052.000000;0.874475
9051.000000;0.874422
9050.000000;0.874313
9049.000000;0.874047
9048.000000;0.873535
9047.000000;0.872817
9046.000000;0.872104
9045.000000;0.871695
9044.000000;0.871791
9043.000000;0.872346
9042.000000;0.873089
9041.000000;0.873718
9040.000000;0.874097
9039.000000;0.874306
9038.000000;0.874538
9037.000000;0.874911
9036.000000;0.875325
9035.000000;0.875478
9034.000000;0.875092
9033.000000;0.874196
9032.000000;0.873200
9031.000000;0.872578
9030.000000;0.872396
9029.000000;0.872209
9028.000000;0.871574
9027.000000;0.870630
9026.000000;0.869967
9025.000000;0.869876
9024.000000;0.869973
9023.000000;0.869711
9022.000000;0.869095
9021.000000;0.868620
9020.000000;0.868615
9019.000000;0.868948
9018.000000;0.869371
9017.000000;0.869877
9016.000000;0.870589
9015.000000;0.871452
9014.000000;0.872145
9013.000000;0.872254
9012.000000;0.871556
9011.000000;0.870286
9010.000000;0.869125
9009.000000;0.868723
9008.000000;0.869185
9007.000000;0.870105
9006.000000;0.871050
9005.000000;0.871783
9004.000000;0.872080
9003.000000;0.871709
9002.000000;0.870747
9001.000000;0.869649
9000.000000;0.868775
8999.000000;0.868084
8998.000000;0.867473
8997.000000;0.867148
8996.000000;0.867361
8995.000000;0.867931
8994.000000;0.868376
8993.000000;0.868486
8992.000000;0.868483
8991.000000;0.868635
8990.000000;0.868992
8989.000000;0.869494
8988.000000;0.870071
8987.000000;0.870521
8986.000000;0.870513
8985.000000;0.869873
8984.000000;0.868775
8983.000000;0.867578
8982.000000;0.866605
8981.000000;0.866117
8980.000000;0.866326
8979.000000;0.867251
8978.000000;0.868573
8977.000000;0.869718
8976.000000;0.870160
8975.000000;0.869719
8974.000000;0.868674
8973.000000;0.867648
8972.000000;0.867264
8971.000000;0.867763
8970.000000;0.868865
8969.000000;0.869983
8968.000000;0.870596
8967.000000;0.870528
8966.000000;0.869997
8965.000000;0.869401
8964.000000;0.868995
8963.000000;0.868703
8962.000000;0.868281
8961.000000;0.867671
8960.000000;0.867085
8959.000000;0.866756
8958.000000;0.866736
8957.000000;0.867018
8956.000000;0.867680
8955.000000;0.868703
8954.000000;0.869668
8953.000000;0.869940
8952.000000;0.869313
8951.000000;0.868343
8950.000000;0.867827
8949.000000;0.867985
8948.000000;0.868327
8947.000000;0.868322
8946.000000;0.867939
8945.000000;0.867443
8944.000000;0.866926
8943.000000;0.866323
8942.000000;0.865790
8941.000000;0.865712
8940.000000;0.866215
8939.000000;0.866902
8938.000000;0.867233
8937.000000;0.867050
8936.000000;0.866627
8935.000000;0.866319
8934.000000;0.866308
8933.000000;0.866554
8932.000000;0.866857
8931.000000;0.867000
8930.000000;0.866945
8929.000000;0.866854
8928.000000;0.866820
8927.000000;0.866678
8926.000000;0.866243
8925.000000;0.865653
8924.000000;0.865274
8923.000000;0.865276
8922.000000;0.865472
8921.000000;0.865573
8920.000000;0.865456
8919.000000;0.865147
8918.000000;0.864743
8917.000000;0.864432
8916.000000;0.864420
8915.000000;0.864702
8914.000000;0.865006
8913.000000;0.865095
8912.000000;0.865044
8911.000000;0.865063
8910.000000;0.865113
8909.000000;0.864928
8908.000000;0.864462
8907.000000;0.864103
8906.000000;0.864275
8905.000000;0.864877
8904.000000;0.865294
8903.000000;0.865006
8902.000000;0.864120
8901.000000;0.863261
8900.000000;0.862995
8899.000000;0.863400
8898.000000;0.864115
8897.000000;0.864692
8896.000000;0.864904
8895.000000;0.864792
8894.000000;0.864509
8893.000000;0.864143
8892.000000;0.863727
8891.000000;0.863398
8890.000000;0.863436
8889.000000;0.864015
8888.000000;0.864913
8887.000000;0.865609
8886.000000;0.865746
8885.000000;0.865469
8884.000000;0.865226
8883.000000;0.865272
8882.000000;0.865432
8881.000000;0.865349
8880.000000;0.864931
8879.000000;0.864494
8878.000000;0.864443
8877.000000;0.864810
8876.000000;0.865164
8875.000000;0.865046
8874.000000;0.864451
8873.000000;0.863799
8872.000000;0.863476
8871.000000;0.863556
8870.000000;0.863917
8869.000000;0.864412
8868.000000;0.864847
8867.000000;0.865034
8866.000000;0.865020
8865.000000;0.865147
8864.000000;0.865686
8863.000000;0.866444
8862.000000;0.866908
8861.000000;0.866732
8860.000000;0.866015
8859.000000;0.865136
8858.000000;0.864490
8857.000000;0.864321
8856.000000;0.864649
8855.000000;0.865281
8854.000000;0.865948
8853.000000;0.866437
8852.000000;0.866555
8851.000000;0.866132
8850.000000;0.865276
8849.000000;0.864514
8848.000000;0.864397
8847.000000;0.864879
8846.000000;0.865310
8845.000000;0.865184
8844.000000;0.864715
8843.000000;0.864536
8842.000000;0.864990
8841.000000;0.865848
8840.000000;0.866606
8839.000000;0.866887
8838.000000;0.866618
8837.000000;0.866022
8836.000000;0.865473
8835.000000;0.865236
8834.000000;0.865280
8833.000000;0.865345
8832.000000;0.865204
8831.000000;0.864834
8830.000000;0.864417
8829.000000;0.864243
8828.000000;0.864541
8827.000000;0.865252
8826.000000;0.865943
8825.000000;0.866061
8824.000000;0.865423
8823.000000;0.864461
8822.000000;0.863923
8821.000000;0.864242
8820.000000;0.865145
8819.000000;0.865911
8818.000000;0.866038
8817.000000;0.865657
8816.000000;0.865275
8815.000000;0.865263
8814.000000;0.865683
8813.000000;0.866468
8812.000000;0.867453
8811.000000;0.868225
8810.000000;0.868301
8809.000000;0.867698
8808.000000;0.867102
8807.000000;0.867192
8806.000000;0.867899
8805.000000;0.868575
8804.000000;0.868826
8803.000000;0.868842
8802.000000;0.868912
8801.000000;0.868961
8800.000000;0.868771
8799.000000;0.868427
8798.000000;0.868259
8797.000000;0.868441
8796.000000;0.868857
8795.000000;0.869350
8794.000000;0.869885
8793.000000;0.870427
8792.000000;0.870824
8791.000000;0.870932
8790.000000;0.870797
8789.000000;0.870634
8788.000000;0.870629
8787.000000;0.870809
8786.000000;0.871066
8785.000000;0.871237
8784.000000;0.871166
8783.000000;0.870796
8782.000000;0.870274
8781.000000;0.869953
8780.000000;0.870151
8779.000000;0.870848
8778.000000;0.871632
8777.000000;0.872033
8776.000000;0.871929
8775.000000;0.871612
8774.000000;0.871469
8773.000000;0.871632
8772.000000;0.871933
8771.000000;0.872136
8770.000000;0.872142
8769.000000;0.871989
8768.000000;0.871703
8767.000000;0.871261
8766.000000;0.870747
8765.000000;0.870488
8764.000000;0.870877
8763.000000;0.872006
8762.000000;0.873508
8761.000000;0.874840
8760.000000;0.875691
8759.000000;0.876136
8758.000000;0.876455
8757.000000;0.876877
8756.000000;0.877405
8755.000000;0.877793
8754.000000;0.877765
8753.000000;0.877372
8752.000000;0.877049
8751.000000;0.877165
8750.000000;0.877580
8749.000000;0.877838
8748.000000;0.877767
8747.000000;0.877635
8746.000000;0.877705
8745.000000;0.877908
8744.000000;0.878119
8743.000000;0.878452
8742.000000;0.879040
8741.000000;0.879666
8740.000000;0.879940
8739.000000;0.879825
8738.000000;0.879709
8737.000000;0.879882
8736.000000;0.880168
8735.000000;0.880218
8734.000000;0.880044
8733.000000;0.880040
8732.000000;0.880446
8731.000000;0.880941
8730.000000;0.880929
8729.000000;0.880262
8728.000000;0.879511
8727.000000;0.879395
8726.000000;0.880009
8725.000000;0.880800
8724.000000;0.881262
8723.000000;0.881430
8722.000000;0.881632
8721.000000;0.882032
8720.000000;0.882561
8719.000000;0.883069
8718.000000;0.883339
8717.000000;0.883154
8716.000000;0.882620
8715.000000;0.882261
8714.000000;0.882528
8713.000000;0.883290
8712.000000;0.884059
8711.000000;0.884577
8710.000000;0.884867
8709.000000;0.884845
8708.000000;0.884394
8707.000000;0.883842
8706.000000;0.883865
8705.000000;0.884668
8704.000000;0.885643
8703.000000;0.886122
8702.000000;0.886187
8701.000000;0.886398
8700.000000;0.886991
8699.000000;0.887725
8698.000000;0.888339
8697.000000;0.888707
8696.000000;0.888640
8695.000000;0.888000
8694.000000;0.887121
8693.000000;0.886709
8692.000000;0.887104
8691.000000;0.887853
8690.000000;0.888213
8689.000000;0.887935
8688.000000;0.887386
8687.000000;0.887029
8686.000000;0.886988
8685.000000;0.887071
8684.000000;0.887080
8683.000000;0.887059
8682.000000;0.887291
8681.000000;0.888009
8680.000000;0.889066
8679.000000;0.889940
8678.000000;0.890190
8677.000000;0.889896
8676.000000;0.889590
8675.000000;0.889733
8674.000000;0.890302
8673.000000;0.890898
8672.000000;0.891177
8671.000000;0.891110
8670.000000;0.890879
8669.000000;0.890648
8668.000000;0.890473
8667.000000;0.890357
8666.000000;0.890298
8665.000000;0.890328
8664.000000;0.890559
8663.000000;0.891122
8662.000000;0.891933
8661.000000;0.892591
8660.000000;0.892669
8659.000000;0.892188
8658.000000;0.891645
8657.000000;0.891514
8656.000000;0.891835
8655.000000;0.892333
8654.000000;0.892751
8653.000000;0.892956
8652.000000;0.892875
8651.000000;0.892553
8650.000000;0.892249
8649.000000;0.892288
8648.000000;0.892763
8647.000000;0.893429
8646.000000;0.893895
8645.000000;0.893855
8644.000000;0.893230
8643.000000;0.892234
8642.000000;0.891313
8641.000000;0.890874
8640.000000;0.891014
8639.000000;0.891538
8638.000000;0.892204
8637.000000;0.892847
8636.000000;0.893319
8635.000000;0.893486
8634.000000;0.893353
8633.000000;0.893095
8632.000000;0.892910
8631.000000;0.892885
8630.000000;0.893004
8629.000000;0.893192
8628.000000;0.893329
8627.000000;0.893319
8626.000000;0.893214
8625.000000;0.893182
8624.000000;0.893308
8623.000000;0.893503
8622.000000;0.893628
8621.000000;0.893633
8620.000000;0.893526
8619.000000;0.893313
8618.000000;0.893062
8617.000000;0.892956
8616.000000;0.893130
8615.000000;0.893460
8614.000000;0.893627
8613.000000;0.893463
8612.000000;0.893167
8611.000000;0.893101
8610.000000;0.893402
8609.000000;0.893850
8608.000000;0.894132
8607.000000;0.894168
8606.000000;0.894135
8605.000000;0.894216
8604.000000;0.894389
8603.000000;0.894501
8602.000000;0.894480
8601.000000;0.894443
8600.000000;0.894602
8599.000000;0.895061
8598.000000;0.895677
8597.000000;0.896086
8596.000000;0.895907
8595.000000;0.895043
8594.000000;0.893837
8593.000000;0.892904
8592.000000;0.892703
8591.000000;0.893184
8590.000000;0.893862
8589.000000;0.894286
8588.000000;0.894444
8587.000000;0.894621
8586.000000;0.894924
8585.000000;0.895113
8584.000000;0.894968
8583.000000;0.894651
8582.000000;0.894537
8581.000000;0.894803
8580.000000;0.895340
8579.000000;0.895977
8578.000000;0.896550
8577.000000;0.896789
8576.000000;0.896448
8575.000000;0.895666
8574.000000;0.894961
8573.000000;0.894747
8572.000000;0.894980
8571.000000;0.895329
8570.000000;0.895527
8569.000000;0.895472
8568.000000;0.895236
8567.000000;0.895096
8566.000000;0.895354
8565.000000;0.895954
8564.000000;0.896454
8563.000000;0.896535
8562.000000;0.896329
8561.000000;0.896072
8560.000000;0.895703
8559.000000;0.895107
8558.000000;0.894536
8557.000000;0.894363
8556.000000;0.894501
8555.000000;0.894497
8554.000000;0.894207
8553.000000;0.893994
8552.000000;0.894183
8551.000000;0.894602
8550.000000;0.894817
8549.000000;0.894561
8548.000000;0.893840
8547.000000;0.892899
8546.000000;0.892206
8545.000000;0.892211
8544.000000;0.892892
8543.000000;0.893717
8542.000000;0.894218
8541.000000;0.894448
8540.000000;0.894710
8539.000000;0.895033
8538.000000;0.895152
8537.000000;0.894949
8536.000000;0.894667
8535.000000;0.894686
8534.000000;0.895164
8533.000000;0.895880
8532.000000;0.896381
8531.000000;0.896348
8530.000000;0.895928
8529.000000;0.895604
8528.000000;0.895661
8527.000000;0.895877
8526.000000;0.895822
8525.000000;0.895400
8524.000000;0.894964
8523.000000;0.894926
8522.000000;0.895359
8521.000000;0.895951
8520.000000;0.896303
8519.000000;0.896303
8518.000000;0.896201
8517.000000;0.896253
8516.000000;0.896359
8515.000000;0.896245
8514.000000;0.895989
8513.000000;0.896060
8512.000000;0.896665
8511.000000;0.897325
8510.000000;0.897410
8509.000000;0.896954
8508.000000;0.896591
8507.000000;0.896761
8506.000000;0.897285
8505.000000;0.897715
8504.000000;0.897804
8503.000000;0.897544
8502.000000;0.897051
8501.000000;0.896551
8500.000000;0.896304
8499.000000;0.896356
8498.000000;0.896468
8497.000000;0.896448
8496.000000;0.896417
8495.000000;0.896613
8494.000000;0.897026
8493.000000;0.897387
8492.000000;0.897433
8491.000000;0.897076
8490.000000;0.896357
8489.000000;0.895422
8488.000000;0.894573
8487.000000;0.894171
8486.000000;0.894385
8485.000000;0.895044
8484.000000;0.895783
8483.000000;0.896306
8482.000000;0.896503
8481.000000;0.896413
8480.000000;0.896141
8479.000000;0.895795
8478.000000;0.895461
8477.000000;0.895218
8476.000000;0.895165
8475.000000;0.895370
8474.000000;0.895764
8473.000000;0.896131
8472.000000;0.896261
8471.000000;0.896144
8470.000000;0.895991
8469.000000;0.896059
8468.000000;0.896433
8467.000000;0.896934
8466.000000;0.897245
8465.000000;0.897220
8464.000000;0.897082
8463.000000;0.897210
8462.000000;0.897647
8461.000000;0.897950
8460.000000;0.897691
8459.000000;0.897013
8458.000000;0.896489
8457.000000;0.896443
8456.000000;0.896677
8455.000000;0.896895
8454.000000;0.897125
8453.000000;0.897547
8452.000000;0.898115
8451.000000;0.898619
8450.000000;0.898964
8449.000000;0.899143
8448.000000;0.899027
8447.000000;0.898491
8446.000000;0.897705
8445.000000;0.897010
8444.000000;0.896486
8443.000000;0.895938
8442.000000;0.895364
8441.000000;0.895126
8440.000000;0.895480
8439.000000;0.896195
8438.000000;0.896832
8437.000000;0.897233
8436.000000;0.897496
8435.000000;0.897621
8434.000000;0.897485
8433.000000;0.897117
8432.000000;0.896764
8431.000000;0.896634
8430.000000;0.896739
8429.000000;0.896966
8428.000000;0.897180
8427.000000;0.897289
8426.000000;0.897359
8425.000000;0.897635
8424.000000;0.898246
8423.000000;0.898896
8422.000000;0.899083
8421.000000;0.898693
8420.000000;0.898170
8419.000000;0.898001
8418.000000;0.898198
8417.000000;0.898409
8416.000000;0.898375
8415.000000;0.898111
8414.000000;0.897752
8413.000000;0.897451
8412.000000;0.897382
8411.000000;0.897642
8410.000000;0.898109
8409.000000;0.898507
8408.000000;0.898679
8407.000000;0.898728
8406.000000;0.898866
8405.000000;0.899206
8404.000000;0.899659
8403.000000;0.899968
8402.000000;0.899881
8401.000000;0.899430
8400.000000;0.899048
8399.000000;0.899207
8398.000000;0.899843
8397.000000;0.900307
8396.000000;0.900046
8395.000000;0.899237
8394.000000;0.898522
8393.000000;0.898233
8392.000000;0.898154
8391.000000;0.898052
8390.000000;0.898128
8389.000000;0.898721
8388.000000;0.899733
8387.000000;0.900594
8386.000000;0.900805
8385.000000;0.900334
8384.000000;0.899495
8383.000000;0.898635
8382.000000;0.898034
8381.000000;0.897909
8380.000000;0.898293
8379.000000;0.898913
8378.000000;0.899357
8377.000000;0.899466
8376.000000;0.899472
8375.000000;0.899695
8374.000000;0.900150
8373.000000;0.900537
8372.000000;0.900603
8371.000000;0.900387
8370.000000;0.900127
8369.000000;0.900022
8368.000000;0.900133
8367.000000;0.900395
8366.000000;0.900631
8365.000000;0.900680
8364.000000;0.900626
8363.000000;0.900820
8362.000000;0.901483
8361.000000;0.902335
8360.000000;0.902775
8359.000000;0.902469
8358.000000;0.901610
8357.000000;0.900634
8356.000000;0.899877
8355.000000;0.899525
8354.000000;0.899634
8353.000000;0.900024
8352.000000;0.900370
8351.000000;0.900550
8350.000000;0.900756
8349.000000;0.901078
8348.000000;0.901183
8347.000000;0.900707
8346.000000;0.899854
8345.000000;0.899253
8344.000000;0.899210
8343.000000;0.899405
8342.000000;0.899418
8341.000000;0.899277
8340.000000;0.899309
8339.000000;0.899657
8338.000000;0.900168
8337.000000;0.900649
8336.000000;0.901017
8335.000000;0.901205
8334.000000;0.901112
8333.000000;0.900719
8332.000000;0.900173
8331.000000;0.899710
8330.000000;0.899528
8329.000000;0.899707
8328.000000;0.900172
8327.000000;0.900702
8326.000000;0.901068
8325.000000;0.901189
8324.000000;0.901158
8323.000000;0.901088
8322.000000;0.901000
8321.000000;0.900909
8320.000000;0.900957
8319.000000;0.901322
8318.000000;0.901934
8317.000000;0.902400
8316.000000;0.902353
8315.000000;0.901873
8314.000000;0.901419
8313.000000;0.901306
8312.000000;0.901376
8311.000000;0.901265
8310.000000;0.900874
8309.000000;0.900427
8308.000000;0.900143
8307.000000;0.900026
8306.000000;0.899979
8305.000000;0.899981
8304.000000;0.900079
8303.000000;0.900273
8302.000000;0.900519
8301.000000;0.900790
8300.000000;0.901079
8299.000000;0.901327
8298.000000;0.901416
8297.000000;0.901307
8296.000000;0.901165
8295.000000;0.901260
8294.000000;0.901637
8293.000000;0.901959
8292.000000;0.901830
8291.000000;0.901326
8290.000000;0.900998
8289.000000;0.901245
8288.000000;0.901848
8287.000000;0.902259
8286.000000;0.902236
8285.000000;0.901973
8284.000000;0.901741
8283.000000;0.901654
8282.000000;0.901780
8281.000000;0.902170
8280.000000;0.902691
8279.000000;0.903030
8278.000000;0.903006
8277.000000;0.902764
8276.000000;0.902553
8275.000000;0.902431
8274.000000;0.902297
8273.000000;0.902095
8272.000000;0.901879
8271.000000;0.901739
8270.000000;0.901730
8269.000000;0.901830
8268.000000;0.901920
8267.000000;0.901894
8266.000000;0.901799
8265.000000;0.901789
8264.000000;0.901873
8263.000000;0.901855
8262.000000;0.901618
8261.000000;0.901343
8260.000000;0.901306
8259.000000;0.901526
8258.000000;0.901745
8257.000000;0.901726
8256.000000;0.901486
8255.000000;0.901229
8254.000000;0.901167
8253.000000;0.901375
8252.000000;0.901755
8251.000000;0.902108
8250.000000;0.902281
8249.000000;0.902257
8248.000000;0.902113
8247.000000;0.901948
8246.000000;0.901912
8245.000000;0.902195
8244.000000;0.902874
8243.000000;0.903803
8242.000000;0.904711
8241.000000;0.905399
8240.000000;0.905773
8239.000000;0.905774
8238.000000;0.905407
8237.000000;0.904824
8236.000000;0.904247
8235.000000;0.903769
8234.000000;0.903349
8233.000000;0.902997
8232.000000;0.902852
8231.000000;0.903012
8230.000000;0.903393
8229.000000;0.903854
8228.000000;0.904353
8227.000000;0.904877
8226.000000;0.905281
8225.000000;0.905348
8224.000000;0.905036
8223.000000;0.904552
8222.000000;0.904147
8221.000000;0.903935
8220.000000;0.903932
8219.000000;0.904142
8218.000000;0.904465
8217.000000;0.904622
8216.000000;0.904374
8215.000000;0.903839
8214.000000;0.903476
8213.000000;0.903649
8212.000000;0.904260
8211.000000;0.904852
8210.000000;0.905017
8209.000000;0.904684
8208.000000;0.904119
8207.000000;0.903709
8206.000000;0.903717
8205.000000;0.904142
8204.000000;0.904751
8203.000000;0.905250
8202.000000;0.905433
8201.000000;0.905256
8200.000000;0.904860
8199.000000;0.904520
8198.000000;0.904420
8197.000000;0.904454
8196.000000;0.904368
8195.000000;0.904162
8194.000000;0.904157
8193.000000;0.904526
8192.000000;0.904923
8191.000000;0.904798
8190.000000;0.904047
8189.000000;0.903150
8188.000000;0.902683
8187.000000;0.902851
8186.000000;0.903491
8185.000000;0.904299
8184.000000;0.904985
8183.000000;0.905348
8182.000000;0.905353
8181.000000;0.905126
8180.000000;0.904821
8179.000000;0.904531
8178.000000;0.904294
8177.000000;0.904136
8176.000000;0.904088
8175.000000;0.904228
8174.000000;0.904646
8173.000000;0.905277
8172.000000;0.905787
8171.000000;0.905829
8170.000000;0.905416
8169.000000;0.904941
8168.000000;0.904759
8167.000000;0.904901
8166.000000;0.905194
8165.000000;0.905515
8164.000000;0.905839
8163.000000;0.906183
8162.000000;0.906583
8161.000000;0.907045
8160.000000;0.907421
8159.000000;0.907426
8158.000000;0.906911
8157.000000;0.906096
8156.000000;0.905468
8155.000000;0.905453
8154.000000;0.906154
8153.000000;0.907264
8152.000000;0.908200
8151.000000;0.908456
8150.000000;0.907999
8149.000000;0.907315
8148.000000;0.906970
8147.000000;0.907132
8146.000000;0.907507
8145.000000;0.907694
8144.000000;0.907551
8143.000000;0.907282
8142.000000;0.907203
8141.000000;0.907414
8140.000000;0.907689
8139.000000;0.907729
8138.000000;0.907523
8137.000000;0.907337
8136.000000;0.907352
8135.000000;0.907455
8134.000000;0.907482
8133.000000;0.907496
8132.000000;0.907692
8131.000000;0.908093
8130.000000;0.908497
8129.000000;0.908683
8128.000000;0.908547
8127.000000;0.908077
8126.000000;0.907364
8125.000000;0.906664
8124.000000;0.906294
8123.000000;0.906405
8122.000000;0.906867
8121.000000;0.907403
8120.000000;0.907792
8119.000000;0.907946
8118.000000;0.907899
8117.000000;0.907773
8116.000000;0.907730
8115.000000;0.907888
8114.000000;0.908257
8113.000000;0.908725
8112.000000;0.909083
8111.000000;0.909117
8110.000000;0.908756
8109.000000;0.908178
8108.000000;0.907732
8107.000000;0.907665
8106.000000;0.907909
8105.000000;0.908146
8104.000000;0.908121
8103.000000;0.907897
8102.000000;0.907774
8101.000000;0.907970
8100.000000;0.908419
8099.000000;0.908890
8098.000000;0.909226
8097.000000;0.909420
8096.000000;0.909514
8095.000000;0.909539
8094.000000;0.909568
8093.000000;0.909690
8092.000000;0.909874
8091.000000;0.909911
8090.000000;0.909589
8089.000000;0.908958
8088.000000;0.908378
8087.000000;0.908252
8086.000000;0.908668
8085.000000;0.909309
8084.000000;0.909738
8083.000000;0.909796
8082.000000;0.909658
8081.000000;0.909511
8080.000000;0.909317
8079.000000;0.908974
8078.000000;0.908602
8077.000000;0.908484
8076.000000;0.908738
8075.000000;0.909178
8074.000000;0.909521
8073.000000;0.909605
8072.000000;0.909449
8071.000000;0.909229
8070.000000;0.909202
8069.000000;0.909492
8068.000000;0.909899
8067.000000;0.910060
8066.000000;0.909863
8065.000000;0.909582
8064.000000;0.909568
8063.000000;0.909910
8062.000000;0.910430
8061.000000;0.910868
8060.000000;0.910997
8059.000000;0.910706
8058.000000;0.910125
8057.000000;0.909603
8056.000000;0.909438
8055.000000;0.909648
8054.000000;0.910019
8053.000000;0.910318
8052.000000;0.910430
8051.000000;0.910397
8050.000000;0.910403
8049.000000;0.910594
8048.000000;0.910867
8047.000000;0.910946
8046.000000;0.910753
8045.000000;0.910574
8044.000000;0.910717
8043.000000;0.911118
8042.000000;0.911451
8041.000000;0.911538
8040.000000;0.911508
8039.000000;0.911559
8038.000000;0.911716
8037.000000;0.911831
8036.000000;0.911750
8035.000000;0.911463
8034.000000;0.911169
8033.000000;0.911122
8032.000000;0.911350
8031.000000;0.911582
8030.000000;0.911550
8029.000000;0.911317
8028.000000;0.911150
8027.000000;0.911147
8026.000000;0.911142
8025.000000;0.911005
8024.000000;0.910879
8023.000000;0.911009
8022.000000;0.911416
8021.000000;0.911836
8020.000000;0.911973
8019.000000;0.911808
8018.000000;0.911632
8017.000000;0.911764
8016.000000;0.912236
8015.000000;0.912783
8014.000000;0.913095
8013.000000;0.913017
8012.000000;0.912546
8011.000000;0.911837
8010.000000;0.911273
8009.000000;0.911300
8008.000000;0.911993
8007.000000;0.912895
8006.000000;0.913468
8005.000000;0.913637
8004.000000;0.913697
8003.000000;0.913785
8002.000000;0.913748
8001.000000;0.913483
8000.000000;0.913143
7999.000000;0.912905
7998.000000;0.912766
7997.000000;0.912698
7996.000000;0.912801
7995.000000;0.913142
7994.000000;0.913567
7993.000000;0.913828
7992.000000;0.913827
7991.000000;0.913630
7990.000000;0.913339
7989.000000;0.913086
7988.000000;0.913035
7987.000000;0.913228
7986.000000;0.913478
7985.000000;0.913558
7984.000000;0.913498
7983.000000;0.913519
7982.000000;0.913709
7981.000000;0.913916
7980.000000;0.914019
7979.000000;0.914125
7978.000000;0.914378
7977.000000;0.914707
7976.000000;0.914896
7975.000000;0.914852
7974.000000;0.914673
7973.000000;0.914469
7972.000000;0.914270
7971.000000;0.914122
7970.000000;0.914132
7969.000000;0.914313
7968.000000;0.914514
7967.000000;0.914612
7966.000000;0.914695
7965.000000;0.914929
7964.000000;0.915292
7963.000000;0.915586
7962.000000;0.915738
7961.000000;0.915900
7960.000000;0.916169
7959.000000;0.916368
7958.000000;0.916253
7957.000000;0.915855
7956.000000;0.915485
7955.000000;0.915406
7954.000000;0.915621
7953.000000;0.915948
7952.000000;0.916190
7951.000000;0.916214
7950.000000;0.916001
7949.000000;0.915696
7948.000000;0.915559
7947.000000;0.915759
7946.000000;0.916214
7945.000000;0.916631
7944.000000;0.916721
7943.000000;0.916401
7942.000000;0.915859
7941.000000;0.915417
7940.000000;0.915291
7939.000000;0.915446
7938.000000;0.915676
7937.000000;0.915814
7936.000000;0.915843
7935.000000;0.915848
7934.000000;0.915926
7933.000000;0.916137
7932.000000;0.916476
7931.000000;0.916843
7930.000000;0.917098
7929.000000;0.917164
7928.000000;0.917089
7927.000000;0.916978
7926.000000;0.916925
7925.000000;0.916993
7924.000000;0.917212
7923.000000;0.917502
7922.000000;0.917665
7921.000000;0.917538
7920.000000;0.917201
7919.000000;0.916957
7918.000000;0.917049
7917.000000;0.917429
7916.000000;0.917821
7915.000000;0.918008
7914.000000;0.918010
7913.000000;0.917992
7912.000000;0.918061
7911.000000;0.918196
7910.000000;0.918332
7909.000000;0.918450
7908.000000;0.918588
7907.000000;0.918783
7906.000000;0.919010
7905.000000;0.919180
7904.000000;0.919180
7903.000000;0.918976
7902.000000;0.918669
7901.000000;0.918441
7900.000000;0.918409
7899.000000;0.918529
7898.000000;0.918672
7897.000000;0.918778
7896.000000;0.918916
7895.000000;0.919141
7894.000000;0.919327
7893.000000;0.919232
7892.000000;0.918817
7891.000000;0.918425
7890.000000;0.918502
7889.000000;0.919097
7888.000000;0.919775
7887.000000;0.920090
7886.000000;0.920039
7885.000000;0.919935
7884.000000;0.919954
7883.000000;0.919999
7882.000000;0.919954
7881.000000;0.919864
7880.000000;0.919828
7879.000000;0.919879
7878.000000;0.920038
7877.000000;0.920337
7876.000000;0.920704
7875.000000;0.920962
7874.000000;0.921036
7873.000000;0.921076
7872.000000;0.921251
7871.000000;0.921502
7870.000000;0.921614
7869.000000;0.921496
7868.000000;0.921271
7867.000000;0.921101
7866.000000;0.921021
7865.000000;0.920988
7864.000000;0.921003
7863.000000;0.921132
7862.000000;0.921419
7861.000000;0.921774
7860.000000;0.921984
7859.000000;0.921892
7858.000000;0.921598
7857.000000;0.921412
7856.000000;0.921586
7855.000000;0.922080
7854.000000;0.922631
7853.000000;0.922973
7852.000000;0.923035
7851.000000;0.922971
7850.000000;0.923051
7849.000000;0.923421
7848.000000;0.923919
7847.000000;0.924189
7846.000000;0.924034
7845.000000;0.923616
7844.000000;0.923250
7843.000000;0.923099
7842.000000;0.923142
7841.000000;0.923346
7840.000000;0.923715
7839.000000;0.924200
7838.000000;0.924672
7837.000000;0.924995
7836.000000;0.925084
7835.000000;0.924929
7834.000000;0.924646
7833.000000;0.924446
7832.000000;0.924451
7831.000000;0.924531
7830.000000;0.924428
7829.000000;0.924046
7828.000000;0.923550
7827.000000;0.923183
7826.000000;0.923064
7825.000000;0.923145
7824.000000;0.923282
7823.000000;0.923327
7822.000000;0.923268
7821.000000;0.923276
7820.000000;0.923558
7819.000000;0.924127
7818.000000;0.924772
7817.000000;0.925277
7816.000000;0.925604
7815.000000;0.925850
7814.000000;0.926104
7813.000000;0.926386
7812.000000;0.926662
7811.000000;0.926868
7810.000000;0.926957
7809.000000;0.926957
7808.000000;0.926947
7807.000000;0.926976
7806.000000;0.927034
7805.000000;0.927104
7804.000000;0.927181
7803.000000;0.927244
7802.000000;0.927258
7801.000000;0.927257
7800.000000;0.927345
7799.000000;0.927566
7798.000000;0.927799
7797.000000;0.927870
7796.000000;0.927747
7795.000000;0.927574
7794.000000;0.927494
7793.000000;0.927503
7792.000000;0.927482
7791.000000;0.927366
7790.000000;0.927239
7789.000000;0.927276
7788.000000;0.927575
7787.000000;0.928070
7786.000000;0.928576
7785.000000;0.928913
7784.000000;0.929004
7783.000000;0.928905
7782.000000;0.928780
7781.000000;0.928813
7780.000000;0.929091
7779.000000;0.929550
7778.000000;0.930032
7777.000000;0.930398
7776.000000;0.930593
7775.000000;0.930651
7774.000000;0.930658
7773.000000;0.930715
7772.000000;0.930862
7771.000000;0.931047
7770.000000;0.931171
7769.000000;0.931181
7768.000000;0.931108
7767.000000;0.931030
7766.000000;0.931039
7765.000000;0.931215
7764.000000;0.931579
7763.000000;0.932053
7762.000000;0.932493
7761.000000;0.932769
7760.000000;0.932840
7759.000000;0.932767
7758.000000;0.932664
7757.000000;0.932622
7756.000000;0.932649
7755.000000;0.932683
7754.000000;0.932664
7753.000000;0.932599
7752.000000;0.932532
7751.000000;0.932494
7750.000000;0.932510
7749.000000;0.932613
7748.000000;0.932828
7747.000000;0.933125
7746.000000;0.933426
7745.000000;0.933651
7744.000000;0.933745
7743.000000;0.933693
7742.000000;0.933560
7741.000000;0.933526
7740.000000;0.933804
7739.000000;0.934448
7738.000000;0.935231
7737.000000;0.935768
7736.000000;0.935813
7735.000000;0.935477
7734.000000;0.935150
7733.000000;0.935180
7732.000000;0.935603
7731.000000;0.936166
7730.000000;0.936600
7729.000000;0.936867
7728.000000;0.937147
7727.000000;0.937573
7726.000000;0.938024
7725.000000;0.938200
7724.000000;0.937942
7723.000000;0.937439
7722.000000;0.937062
7721.000000;0.936994
7720.000000;0.937084
7719.000000;0.937091
7718.000000;0.937004
7717.000000;0.937023
7716.000000;0.937299
7715.000000;0.937764
7714.000000;0.938235
7713.000000;0.938579
7712.000000;0.938777
7711.000000;0.938913
7710.000000;0.939122
7709.000000;0.939474
7708.000000;0.939854
7707.000000;0.940048
7706.000000;0.939985
7705.000000;0.939828
7704.000000;0.939810
7703.000000;0.940017
7702.000000;0.940373
7701.000000;0.940742
7700.000000;0.940982
7699.000000;0.941006
7698.000000;0.940880
7697.000000;0.940814
7696.000000;0.940966
7695.000000;0.941272
7694.000000;0.941551
7693.000000;0.941742
7692.000000;0.941965
7691.000000;0.942333
7690.000000;0.942780
7689.000000;0.943078
7688.000000;0.943019
7687.000000;0.942621
7686.000000;0.942176
7685.000000;0.942042
7684.000000;0.942327
7683.000000;0.942811
7682.000000;0.943207
7681.000000;0.943446
7680.000000;0.943657
7679.000000;0.943962
7678.000000;0.944389
7677.000000;0.944908
7676.000000;0.945422
7675.000000;0.945746
7674.000000;0.945745
7673.000000;0.945495
7672.000000;0.945239
7671.000000;0.945151
7670.000000;0.945260
7669.000000;0.945555
7668.000000;0.946031
7667.000000;0.946583
7666.000000;0.947004
7665.000000;0.947173
7664.000000;0.947179
7663.000000;0.947164
7662.000000;0.947117
7661.000000;0.946950
7660.000000;0.946738
7659.000000;0.946757
7658.000000;0.947230
7657.000000;0.948058
7656.000000;0.948871
7655.000000;0.949329
7654.000000;0.949379
7653.000000;0.949236
7652.000000;0.949154
7651.000000;0.949246
7650.000000;0.949482
7649.000000;0.949796
7648.000000;0.950151
7647.000000;0.950503
7646.000000;0.950779
7645.000000;0.950907
7644.000000;0.950885
7643.000000;0.950803
7642.000000;0.950793
7641.000000;0.950913
7640.000000;0.951106
7639.000000;0.951279
7638.000000;0.951436
7637.000000;0.951692
7636.000000;0.952136
7635.000000;0.952713
7634.000000;0.953269
7633.000000;0.953686
7632.000000;0.953953
7631.000000;0.954140
7630.000000;0.954333
7629.000000;0.954581
7628.000000;0.954864
7627.000000;0.955149
7626.000000;0.955463
7625.000000;0.955860
7624.000000;0.956294
7623.000000;0.956603
7622.000000;0.956692
7621.000000;0.956679
7620.000000;0.956794
7619.000000;0.957168
7618.000000;0.957760
7617.000000;0.958426
7616.000000;0.958994
7615.000000;0.959299
7614.000000;0.959291
7613.000000;0.959119
7612.000000;0.959023
7611.000000;0.959111
7610.000000;0.959304
7609.000000;0.959488
7608.000000;0.959666
7607.000000;0.959929
7606.000000;0.960328
7605.000000;0.960798
7604.000000;0.961200
7603.000000;0.961426
7602.000000;0.961499
7601.000000;0.961556
7600.000000;0.961700
7599.000000;0.961896
7598.000000;0.962048
7597.000000;0.962139
7596.000000;0.962241
7595.000000;0.962405
7594.000000;0.962634
7593.000000;0.962941
7592.000000;0.963355
7591.000000;0.963859
7590.000000;0.964390
7589.000000;0.964919
7588.000000;0.965454
7587.000000;0.965978
7586.000000;0.966441
7585.000000;0.966843
7584.000000;0.967207
7583.000000;0.967458
7582.000000;0.967431
7581.000000;0.967109
7580.000000;0.966769
7579.000000;0.966788
7578.000000;0.967282
7577.000000;0.968017
7576.000000;0.968676
7575.000000;0.969133
7574.000000;0.969442
7573.000000;0.969642
7572.000000;0.969696
7571.000000;0.969667
7570.000000;0.969821
7569.000000;0.970417
7568.000000;0.971371
7567.000000;0.972225
7566.000000;0.972553
7565.000000;0.972374
7564.000000;0.972118
7563.000000;0.972226
7562.000000;0.972826
7561.000000;0.973713
7560.000000;0.974528
7559.000000;0.974975
7558.000000;0.975021
7557.000000;0.974940
7556.000000;0.975095
7555.000000;0.975592
7554.000000;0.976176
7553.000000;0.976507
7552.000000;0.976496
7551.000000;0.976351
7550.000000;0.976347
7549.000000;0.976609
7548.000000;0.977081
7547.000000;0.977640
7546.000000;0.978207
7545.000000;0.978766
7544.000000;0.979309
7543.000000;0.979784
7542.000000;0.980134
7541.000000;0.980380
7540.000000;0.980633
7539.000000;0.980993
7538.000000;0.981441
7537.000000;0.981861
7536.000000;0.982149
7535.000000;0.982301
7534.000000;0.982411
7533.000000;0.982614
7532.000000;0.983017
7531.000000;0.983638
7530.000000;0.984382
7529.000000;0.985098
7528.000000;0.985671
7527.000000;0.986095
7526.000000;0.986438
7525.000000;0.986768
7524.000000;0.987104
7523.000000;0.987449
7522.000000;0.987827
7521.000000;0.988241
7520.000000;0.988630
7519.000000;0.988913
7518.000000;0.989082
7517.000000;0.989240
7516.000000;0.989526
7515.000000;0.990004
7514.000000;0.990595
7513.000000;0.991059
7512.000000;0.991138
7511.000000;0.990834
7510.000000;0.990556
7509.000000;0.990839
7508.000000;0.991809
7507.000000;0.993007
7506.000000;0.993826
7505.000000;0.994089
7504.000000;0.994107
7503.000000;0.994274
7502.000000;0.994705
7501.000000;0.995278
7500.000000;0.995857
7499.000000;0.996383
7498.000000;0.996852
7497.000000;0.997278
7496.000000;0.997704
7495.000000;0.998182
7494.000000;0.998711
7493.000000;0.999189
7492.000000;0.999491
7491.000000;0.999625
7490.000000;0.999785
7489.000000;1.000172
7488.000000;1.000756
7487.000000;1.001304
7486.000000;1.001659
7485.000000;1.001881
7484.000000;1.002101
7483.000000;1.002349
7482.000000;1.002622
7481.000000;1.002982
7480.000000;1.003474
7479.000000;1.003997
7478.000000;1.004417
7477.000000;1.004765
7476.000000;1.005209
7475.000000;1.005843
7474.000000;1.006595
7473.000000;1.007318
7472.000000;1.007868
7471.000000;1.008127
7470.000000;1.008111
7469.000000;1.008062
7468.000000;1.008300
7467.000000;1.008923
7466.000000;1.009723
7465.000000;1.010406
7464.000000;1.010853
7463.000000;1.011135
7462.000000;1.011374
7461.000000;1.011629
7460.000000;1.011880
7459.000000;1.012116
7458.000000;1.012414
7457.000000;1.012887
7456.000000;1.013506
7455.000000;1.014076
7454.000000;1.014463
7453.000000;1.014779
7452.000000;1.015210
7451.000000;1.015729
7450.000000;1.016146
7449.000000;1.016409
7448.000000;1.016682
7447.000000;1.017097
7446.000000;1.017610
7445.000000;1.018148
7444.000000;1.018729
7443.000000;1.019338
7442.000000;1.019845
7441.000000;1.020164
7440.000000;1.020404
7439.000000;1.020735
7438.000000;1.021174
7437.000000;1.021590
7436.000000;1.021896
7435.000000;1.022154
7434.000000;1.022497
7433.000000;1.023001
7432.000000;1.023605
7431.000000;1.024152
7430.000000;1.024527
7429.000000;1.024772
7428.000000;1.025028
7427.000000;1.025371
7426.000000;1.025749
7425.000000;1.026089
7424.000000;1.026380
7423.000000;1.026645
7422.000000;1.026913
7421.000000;1.027247
7420.000000;1.027699
7419.000000;1.028231
7418.000000;1.028743
7417.000000;1.029217
7416.000000;1.029719
7415.000000;1.030255
7414.000000;1.030763
7413.000000;1.031244
7412.000000;1.031777
7411.000000;1.032342
7410.000000;1.032772
7409.000000;1.032973
7408.000000;1.033050
7407.000000;1.033133
7406.000000;1.033207
7405.000000;1.033257
7404.000000;1.033414
7403.000000;1.033791
7402.000000;1.034287
7401.000000;1.034709
7400.000000;1.035035
7399.000000;1.035419
7398.000000;1.035942
7397.000000;1.036517
7396.000000;1.037056
7395.000000;1.037592
7394.000000;1.038176
7393.000000;1.038735
7392.000000;1.039137
7391.000000;1.039376
7390.000000;1.039621
7389.000000;1.040042
7388.000000;1.040628
7387.000000;1.041221
7386.000000;1.041705
7385.000000;1.042080
7384.000000;1.042321
7383.000000;1.042298
7382.000000;1.041973
7381.000000;1.041661
7380.000000;1.041870
7379.000000;1.042755
7378.000000;1.043848
7377.000000;1.044477
7376.000000;1.044422
7375.000000;1.044064
7374.000000;1.043947
7373.000000;1.044302
7372.000000;1.044964
7371.000000;1.045617
7370.000000;1.046057
7369.000000;1.046291
7368.000000;1.046500
7367.000000;1.046915
7366.000000;1.047690
7365.000000;1.048762
7364.000000;1.049807
7363.000000;1.050407
7362.000000;1.050401
7361.000000;1.050134
7360.000000;1.050225
7359.000000;1.050965
7358.000000;1.051975
7357.000000;1.052598
7356.000000;1.052568
7355.000000;1.052223
7354.000000;1.052104
7353.000000;1.052480
7352.000000;1.053235
7351.000000;1.054047
7350.000000;1.054607
7349.000000;1.054834
7348.000000;1.054931
7347.000000;1.055181
7346.000000;1.055657
7345.000000;1.056197
7344.000000;1.056613
7343.000000;1.056821
7342.000000;1.056799
7341.000000;1.056602
7340.000000;1.056513
7339.000000;1.056978
7338.000000;1.058156
7337.000000;1.059643
7336.000000;1.060802
7335.000000;1.061331
7334.000000;1.061436
7333.000000;1.061545
7332.000000;1.061921
7331.000000;1.062459
7330.000000;1.062812
7329.000000;1.062809
7328.000000;1.062763
7327.000000;1.063168
7326.000000;1.064062
7325.000000;1.064972
7324.000000;1.065537
7323.000000;1.065935
7322.000000;1.066575
7321.000000;1.067532
7320.000000;1.068516
7319.000000;1.069304
7318.000000;1.069968
7317.000000;1.070685
7316.000000;1.071496
7315.000000;1.072239
7314.000000;1.072632
7313.000000;1.072517
7312.000000;1.072190
7311.000000;1.072323
7310.000000;1.073291
7309.000000;1.074666
7308.000000;1.075639
7307.000000;1.075952
7306.000000;1.076170
7305.000000;1.076993
7304.000000;1.078508
7303.000000;1.080189
7302.000000;1.081431
7301.000000;1.081951
7300.000000;1.081930
7299.000000;1.081923
7298.000000;1.082483
7297.000000;1.083645
7296.000000;1.084844
7295.000000;1.085520
7294.000000;1.085753
7293.000000;1.086120
7292.000000;1.087004
7291.000000;1.088221
7290.000000;1.089342
7289.000000;1.090169
7288.000000;1.090843
7287.000000;1.091602
7286.000000;1.092576
7285.000000;1.093765
7284.000000;1.095099
7283.000000;1.096445
7282.000000;1.097648
7281.000000;1.098601
7280.000000;1.099337
7279.000000;1.100023
7278.000000;1.100849
7277.000000;1.101885
7276.000000;1.103031
7275.000000;1.104114
7274.000000;1.105048
7273.000000;1.105946
7272.000000;1.107017
7271.000000;1.108353
7270.000000;1.109849
7269.000000;1.111366
7268.000000;1.112902
7267.000000;1.114509
7266.000000;1.116084
7265.000000;1.117411
7264.000000;1.118434
7263.000000;1.119387
7262.000000;1.120566
7261.000000;1.122045
7260.000000;1.123660
7259.000000;1.125222
7258.000000;1.126683
7257.000000;1.128093
7256.000000;1.129497
7255.000000;1.130926
7254.000000;1.132427
7253.000000;1.134006
7252.000000;1.135542
7251.000000;1.136900
7250.000000;1.138117
7249.000000;1.139433
7248.000000;1.141091
7247.000000;1.143047
7246.000000;1.144912
7245.000000;1.146301
7244.000000;1.147301
7243.000000;1.148542
7242.000000;1.150654
7241.000000;1.153603
7240.000000;1.156661
7239.000000;1.159080
7238.000000;1.160760
7237.000000;1.162251
7236.000000;1.164111
7235.000000;1.166353
7234.000000;1.168512
7233.000000;1.170234
7232.000000;1.171735
7231.000000;1.173646
7230.000000;1.176355
7229.000000;1.179588
7228.000000;1.182708
7227.000000;1.185339
7226.000000;1.187622
7225.000000;1.189966
7224.000000;1.192635
7223.000000;1.195550
7222.000000;1.198362
7221.000000;1.200728
7220.000000;1.202621
7219.000000;1.204445
7218.000000;1.206801
7217.000000;1.210030
7216.000000;1.213905
7215.000000;1.217743
7214.000000;1.220937
7213.000000;1.223469
7212.000000;1.225898
7211.000000;1.228796
7210.000000;1.232230
7209.000000;1.235805
7208.000000;1.239123
7207.000000;1.242077
7206.000000;1.244782
7205.000000;1.247454
7204.000000;1.250402
7203.000000;1.253883
7202.000000;1.257807
7201.000000;1.261747
7200.000000;1.265378
7199.000000;1.268829
7198.000000;1.272468
7197.000000;1.276424
7196.000000;1.280483
7195.000000;1.284390
7194.000000;1.288121
7193.000000;1.291840
7192.000000;1.295708
7191.000000;1.299752
7190.000000;1.303892
7189.000000;1.308057
7188.000000;1.312264
7187.000000;1.316561
7186.000000;1.320875
7185.000000;1.325001
7184.000000;1.328815
7183.000000;1.332448
7182.000000;1.336203
7181.000000;1.340366
7180.000000;1.345066
7179.000000;1.350193
7178.000000;1.355369
7177.000000;1.360131
7176.000000;1.364369
7175.000000;1.368517
7174.000000;1.373133
7173.000000;1.378332
7172.000000;1.383742
7171.000000;1.388974
7170.000000;1.393918
7169.000000;1.398587
7168.000000;1.402906
7167.000000;1.406887
7166.000000;1.410885
7165.000000;1.415384
7164.000000;1.420505
7163.000000;1.425922
7162.000000;1.431330
7161.000000;1.436790
7160.000000;1.442476
7159.000000;1.448247
7158.000000;1.453728
7157.000000;1.458807
7156.000000;1.463751
7155.000000;1.468775
7154.000000;1.473723
7153.000000;1.478345
7152.000000;1.482708
7151.000000;1.487200
7150.000000;1.492180
7149.000000;1.497716
7148.000000;1.503560
7147.000000;1.509276
7146.000000;1.514501
7145.000000;1.519243
7144.000000;1.523921
7143.000000;1.528982
7142.000000;1.534465
7141.000000;1.540053
7140.000000;1.545452
7139.000000;1.550567
7138.000000;1.555349
7137.000000;1.559764
7136.000000;1.564019
7135.000000;1.568633
7134.000000;1.574102
7133.000000;1.580468
7132.000000;1.587203
7131.000000;1.593547
7130.000000;1.599013
7129.000000;1.603703
7128.000000;1.608171
7127.000000;1.612933
7126.000000;1.618118
7125.000000;1.623582
7124.000000;1.629169
7123.000000;1.634667
7122.000000;1.639616
7121.000000;1.643577
7120.000000;1.646737
7119.000000;1.649992
7118.000000;1.654221
7117.000000;1.659542
7116.000000;1.665332
7115.000000;1.670905
7114.000000;1.676001
7113.000000;1.680718
7112.000000;1.685259
7111.000000;1.689783
7110.000000;1.694348
7109.000000;1.698898
7108.000000;1.703323
7107.000000;1.707603
7106.000000;1.711927
7105.000000;1.716584
7104.000000;1.721617
7103.000000;1.726657
7102.000000;1.731234
7101.000000;1.735275
7100.000000;1.739121
7099.000000;1.743015
7098.000000;1.746852
7097.000000;1.750617
7096.000000;1.754790
7095.000000;1.759891
7094.000000;1.765617
7093.000000;1.770859
7092.000000;1.774799
7091.000000;1.777696
7090.000000;1.780468
7089.000000;1.783782
7088.000000;1.787705
7087.000000;1.791903
7086.000000;1.795925
7085.000000;1.799463
7084.000000;1.802555
7083.000000;1.805430
7082.000000;1.808142
7081.000000;1.810612
7080.000000;1.813107
7079.000000;1.816319
7078.000000;1.820614
7077.000000;1.825436
7076.000000;1.829856
7075.000000;1.833634
7074.000000;1.837365
7073.000000;1.841539
7072.000000;1.845851
7071.000000;1.849605
7070.000000;1.852508
7069.000000;1.854835
7068.000000;1.857012
7067.000000;1.859324
7066.000000;1.861931
7065.000000;1.864786
7064.000000;1.867527
7063.000000;1.869740
7062.000000;1.871453
7061.000000;1.873238
7060.000000;1.875788
7059.000000;1.879339
7058.000000;1.883373
7057.000000;1.886787
7056.000000;1.888570
7055.000000;1.888655
7054.000000;1.888221
7053.000000;1.888939
7052.000000;1.891658
7051.000000;1.895720
7050.000000;1.899651
7049.000000;1.902518
7048.000000;1.904516
7047.000000;1.906300
7046.000000;1.908149
7045.000000;1.910006
7044.000000;1.912036
7043.000000;1.914593
7042.000000;1.917583
7041.000000;1.920292
7040.000000;1.922138
7039.000000;1.923389
7038.000000;1.924846
7037.000000;1.926924
7036.000000;1.929312
7035.000000;1.931509
7034.000000;1.933494
7033.000000;1.935781
7032.000000;1.938783
7031.000000;1.942097
7030.000000;1.944487
7029.000000;1.944927
7028.000000;1.943870
7027.000000;1.943117
7026.000000;1.944022
7025.000000;1.946044
7024.000000;1.947492
7023.000000;1.947631
7022.000000;1.947447
7021.000000;1.948253
7020.000000;1.950282
7019.000000;1.952983
7018.000000;1.955978
7017.000000;1.959003
7016.000000;1.961297
7015.000000;1.962036
7014.000000;1.961463
7013.000000;1.960837
7012.000000;1.961101
7011.000000;1.962212
7010.000000;1.963867
7009.000000;1.966064
7008.000000;1.968500
7007.000000;1.970100
7006.000000;1.969969
7005.000000;1.968652
7004.000000;1.967838
7003.000000;1.968829
7002.000000;1.971707
7001.000000;1.975723
7000.000000;1.979891
6999.000000;1.983169
6998.000000;1.984696
6997.000000;1.984434
6996.000000;1.983431
6995.000000;1.983011
6994.000000;1.983645
6993.000000;1.984693
6992.000000;1.985215
6991.000000;1.984991
6990.000000;1.984677
6989.000000;1.984926
6988.000000;1.985581
6987.000000;1.985949
6986.000000;1.985778
6985.000000;1.985592
6984.000000;1.985965
6983.000000;1.986834
6982.000000;1.987827
6981.000000;1.988900
6980.000000;1.990211
6979.000000;1.991601
6978.000000;1.992708
6977.000000;1.993501
6976.000000;1.994149
6975.000000;1.994425
6974.000000;1.993872
6973.000000;1.992689
6972.000000;1.991801
6971.000000;1.991732
6970.000000;1.991943
6969.000000;1.991689
6968.000000;1.991158
6967.000000;1.991171
6966.000000;1.991916
6965.000000;1.992654
6964.000000;1.992798
6963.000000;1.992832
6962.000000;1.993832
6961.000000;1.996160
6960.000000;1.998776
6959.000000;1.999950
6958.000000;1.998816
6957.000000;1.996262
6956.000000;1.994144
6955.000000;1.993719
6954.000000;1.994840
6953.000000;1.996402
6952.000000;1.997375
6951.000000;1.997550
6950.000000;1.997588
6949.000000;1.998428
6948.000000;2.000303
6947.000000;2.002151
6946.000000;2.002325
6945.000000;2.000249
6944.000000;1.997177
6943.000000;1.995023
6942.000000;1.994609
6941.000000;1.995273
6940.000000;1.996002
6939.000000;1.996539
6938.000000;1.997214
6937.000000;1.998046
6936.000000;1.998512
6935.000000;1.998242
6934.000000;1.997537
6933.000000;1.996873
6932.000000;1.996176
6931.000000;1.995072
6930.000000;1.993785
6929.000000;1.993282
6928.000000;1.994231
6927.000000;1.996094
6926.000000;1.997595
6925.000000;1.997921
6924.000000;1.997201
6923.000000;1.995997
6922.000000;1.994770
6921.000000;1.993904
6920.000000;1.993727
6919.000000;1.994188
6918.000000;1.994731
6917.000000;1.994711
6916.000000;1.994018
6915.000000;1.993210
6914.000000;1.992899
6913.000000;1.993054
6912.000000;1.993071
6911.000000;1.992543
6910.000000;1.991808
6909.000000;1.991445
6908.000000;1.991351
6907.000000;1.990921
6906.000000;1.990309
6905.000000;1.990734
6904.000000;1.992912
6903.000000;1.995618
6902.000000;1.996632
6901.000000;1.995057
6900.000000;1.992052
6899.000000;1.989350
6898.000000;1.987712
6897.000000;1.986806
6896.000000;1.985914
6895.000000;1.984641
6894.000000;1.983396
6893.000000;1.983231
6892.000000;1.984706
6891.000000;1.986943
6890.000000;1.988356
6889.000000;1.988337
6888.000000;1.987562
6887.000000;1.986645
6886.000000;1.985450
6885.000000;1.984008
6884.000000;1.983199
6883.000000;1.983923
6882.000000;1.986082
6881.000000;1.988723
6880.000000;1.990712
6879.000000;1.991026
6878.000000;1.989163
6877.000000;1.985856
6876.000000;1.982843
6875.000000;1.981319
6874.000000;1.980986
6873.000000;1.980956
6872.000000;1.980988
6871.000000;1.981222
6870.000000;1.981343
6869.000000;1.980889
6868.000000;1.980106
6867.000000;1.979658
6866.000000;1.979709
6865.000000;1.979956
6864.000000;1.980262
6863.000000;1.980480
6862.000000;1.979961
6861.000000;1.978238
6860.000000;1.976135
6859.000000;1.975159
6858.000000;1.975665
6857.000000;1.976431
6856.000000;1.976301
6855.000000;1.975482
6854.000000;1.974860
6853.000000;1.974713
6852.000000;1.974606
6851.000000;1.974114
6850.000000;1.973214
6849.000000;1.972181
6848.000000;1.971393
6847.000000;1.970935
6846.000000;1.970328
6845.000000;1.969074
6844.000000;1.967589
6843.000000;1.966990
6842.000000;1.967627
6841.000000;1.968422
6840.000000;1.968163
6839.000000;1.966953
6838.000000;1.965696
6837.000000;1.964553
6836.000000;1.962779
6835.000000;1.960057
6834.000000;1.957169
6833.000000;1.955063
6832.000000;1.953810
6831.000000;1.952765
6830.000000;1.951451
6829.000000;1.950059
6828.000000;1.949218
6827.000000;1.949456
6826.000000;1.950746
6825.000000;1.952383
6824.000000;1.953376
6823.000000;1.953133
6822.000000;1.951808
6821.000000;1.949992
6820.000000;1.948146
6819.000000;1.946339
6818.000000;1.944353
6817.000000;1.941884
6816.000000;1.938776
6815.000000;1.935277
6814.000000;1.932051
6813.000000;1.929743
6812.000000;1.928453
6811.000000;1.927687
6810.000000;1.926790
6809.000000;1.925374
6808.000000;1.923381
6807.000000;1.920985
6806.000000;1.918666
6805.000000;1.917172
6804.000000;1.916966
6803.000000;1.917618
6802.000000;1.918046
6801.000000;1.917518
6800.000000;1.916178
6799.000000;1.914444
6798.000000;1.912343
6797.000000;1.909825
6796.000000;1.907355
6795.000000;1.905519
6794.000000;1.904080
6793.000000;1.902088
6792.000000;1.899152
6791.000000;1.896074
6790.000000;1.893847
6789.000000;1.892442
6788.000000;1.891037
6787.000000;1.889151
6786.000000;1.887049
6785.000000;1.885105
6784.000000;1.883299
6783.000000;1.881421
6782.000000;1.879404
6781.000000;1.877327
6780.000000;1.875382
6779.000000;1.873932
6778.000000;1.873250
6777.000000;1.872970
6776.000000;1.872118
6775.000000;1.869984
6774.000000;1.866823
6773.000000;1.863469
6772.000000;1.860489
6771.000000;1.857995
6770.000000;1.856013
6769.000000;1.854553
6768.000000;1.853370
6767.000000;1.852031
6766.000000;1.850358
6765.000000;1.848499
6764.000000;1.846498
6763.000000;1.844132
6762.000000;1.841375
6761.000000;1.838688
6760.000000;1.836504
6759.000000;1.834611
6758.000000;1.832423
6757.000000;1.829760
6756.000000;1.826996
6755.000000;1.824482
6754.000000;1.822235
6753.000000;1.820270
6752.000000;1.818825
6751.000000;1.817958
6750.000000;1.817145
6749.000000;1.815665
6748.000000;1.813380
6747.000000;1.810860
6746.000000;1.808695
6745.000000;1.806912
6744.000000;1.805135
6743.000000;1.803123
6742.000000;1.800934
6741.000000;1.798651
6740.000000;1.796256
6739.000000;1.793853
6738.000000;1.791818
6737.000000;1.790429
6736.000000;1.789378
6735.000000;1.787938
6734.000000;1.785749
6733.000000;1.783258
6732.000000;1.781158
6731.000000;1.779539
6730.000000;1.777846
6729.000000;1.775636
6728.000000;1.773101
6727.000000;1.770700
6726.000000;1.768546
6725.000000;1.766366
6724.000000;1.763932
6723.000000;1.761322
6722.000000;1.758749
6721.000000;1.756347
6720.000000;1.754197
6719.000000;1.752360
6718.000000;1.750762
6717.000000;1.749152
6716.000000;1.747361
6715.000000;1.745530
6714.000000;1.743884
6713.000000;1.742299
6712.000000;1.740324
6711.000000;1.737681
6710.000000;1.734590
6709.000000;1.731539
6708.000000;1.728795
6707.000000;1.726448
6706.000000;1.724572
6705.000000;1.723235
6704.000000;1.722286
6703.000000;1.721321
6702.000000;1.719983
6701.000000;1.718140
6700.000000;1.715844
6699.000000;1.713313
6698.000000;1.710946
6697.000000;1.709106
6696.000000;1.707710
6695.000000;1.706210
6694.000000;1.704126
6693.000000;1.701523
6692.000000;1.698867
6691.000000;1.696510
6690.000000;1.694413
6689.000000;1.692281
6688.000000;1.689881
6687.000000;1.687339
6686.000000;1.685121
6685.000000;1.683603
6684.000000;1.682599
6683.000000;1.681508
6682.000000;1.680006
6681.000000;1.678331
6680.000000;1.676743
6679.000000;1.675040
6678.000000;1.672891
6677.000000;1.670410
6676.000000;1.668007
6675.000000;1.665806
6674.000000;1.663617
6673.000000;1.661453
6672.000000;1.659638
6671.000000;1.658324
6670.000000;1.657203
6669.000000;1.655832
6668.000000;1.654023
6667.000000;1.651860
6666.000000;1.649565
6665.000000;1.647452
6664.000000;1.645755
6663.000000;1.644398
6662.000000;1.643074
6661.000000;1.641593
6660.000000;1.639972
6659.000000;1.638196
6658.000000;1.636199
6657.000000;1.634157
6656.000000;1.632454
6655.000000;1.631156
6654.000000;1.629804
6653.000000;1.627950
6652.000000;1.625711
6651.000000;1.623551
6650.000000;1.621722
6649.000000;1.620135
6648.000000;1.618600
6647.000000;1.616885
6646.000000;1.614696
6645.000000;1.611992
6644.000000;1.609296
6643.000000;1.607346
6642.000000;1.606331
6641.000000;1.605661
6640.000000;1.604582
6639.000000;1.602861
6638.000000;1.600830
6637.000000;1.598915
6636.000000;1.597259
6635.000000;1.595675
6634.000000;1.593853
6633.000000;1.591656
6632.000000;1.589300
6631.000000;1.587166
6630.000000;1.585413
6629.000000;1.583831
6628.000000;1.582118
6627.000000;1.580228
6626.000000;1.578385
6625.000000;1.576789
6624.000000;1.575417
6623.000000;1.574107
6622.000000;1.572759
6621.000000;1.571372
6620.000000;1.569922
6619.000000;1.568276
6618.000000;1.566307
6617.000000;1.564088
6616.000000;1.561923
6615.000000;1.560165
6614.000000;1.558970
6613.000000;1.558180
6612.000000;1.557397
6611.000000;1.556233
6610.000000;1.554583
6609.000000;1.552678
6608.000000;1.550848
6607.000000;1.549244
6606.000000;1.547836
6605.000000;1.546584
6604.000000;1.545456
6603.000000;1.544280
6602.000000;1.542812
6601.000000;1.541036
6600.000000;1.539235
6599.000000;1.537646
6598.000000;1.536163
6597.000000;1.534549
6596.000000;1.532811
6595.000000;1.531167
6594.000000;1.529705
6593.000000;1.528295
6592.000000;1.526837
6591.000000;1.525399
6590.000000;1.524044
6589.000000;1.522695
6588.000000;1.521256
6587.000000;1.519783
6586.000000;1.518404
6585.000000;1.517121
6584.000000;1.515772
6583.000000;1.514196
6582.000000;1.512392
6581.000000;1.510505
6580.000000;1.508700
6579.000000;1.507035
6578.000000;1.505463
6577.000000;1.503945
6576.000000;1.502512
6575.000000;1.501201
6574.000000;1.499966
6573.000000;1.498743
6572.000000;1.497593
6571.000000;1.496678
6570.000000;1.496034
6569.000000;1.495411
6568.000000;1.494418
6567.000000;1.492866
6566.000000;1.490968
6565.000000;1.489199
6564.000000;1.487926
6563.000000;1.487142
6562.000000;1.486552
6561.000000;1.485857
6560.000000;1.484920
6559.000000;1.483680
6558.000000;1.482062
6557.000000;1.480090
6556.000000;1.478010
6555.000000;1.476157
6554.000000;1.474693
6553.000000;1.473540
6552.000000;1.472534
6551.000000;1.471529
6550.000000;1.470385
6549.000000;1.468997
6548.000000;1.467392
6547.000000;1.465725
6546.000000;1.464128
6545.000000;1.462635
6544.000000;1.461269
6543.000000;1.460103
6542.000000;1.459144
6541.000000;1.458259
6540.000000;1.457306
6539.000000;1.456294
6538.000000;1.455329
6537.000000;1.454409
6536.000000;1.453371
6535.000000;1.452071
6534.000000;1.450570
6533.000000;1.449103
6532.000000;1.447872
6531.000000;1.446850
6530.000000;1.445818
6529.000000;1.444608
6528.000000;1.443303
6527.000000;1.442133
6526.000000;1.441188
6525.000000;1.440324
6524.000000;1.439372
6523.000000;1.438338
6522.000000;1.437315
6521.000000;1.436271
6520.000000;1.435068
6519.000000;1.433666
6518.000000;1.432194
6517.000000;1.430823
6516.000000;1.429631
6515.000000;1.428613
6514.000000;1.427688
6513.000000;1.426693
6512.000000;1.425479
6511.000000;1.424091
6510.000000;1.422796
6509.000000;1.421824
6508.000000;1.421119
6507.000000;1.420418
6506.000000;1.419550
6505.000000;1.418592
6504.000000;1.417711
6503.000000;1.416921
6502.000000;1.416058
6501.000000;1.414950
6500.000000;1.413588
6499.000000;1.412127
6498.000000;1.410763
6497.000000;1.409620
6496.000000;1.408719
6495.000000;1.407984
6494.000000;1.407256
6493.000000;1.406343
6492.000000;1.405154
6491.000000;1.403795
6490.000000;1.402478
6489.000000;1.401320
6488.000000;1.400270
6487.000000;1.399243
6486.000000;1.398262
6485.000000;1.397382
6484.000000;1.396556
6483.000000;1.395675
6482.000000;1.394749
6481.000000;1.393949
6480.000000;1.393398
6479.000000;1.392989
6478.000000;1.392442
6477.000000;1.391546
6476.000000;1.390313
6475.000000;1.388923
6474.000000;1.387572
6473.000000;1.386385
6472.000000;1.385408
6471.000000;1.384632
6470.000000;1.384006
6469.000000;1.383426
6468.000000;1.382748
6467.000000;1.381878
6466.000000;1.380849
6465.000000;1.379798
6464.000000;1.378831
6463.000000;1.377913
6462.000000;1.376933
6461.000000;1.375884
6460.000000;1.374924
6459.000000;1.374215
6458.000000;1.373689
6457.000000;1.373061
6456.000000;1.372120
6455.000000;1.370991
6454.000000;1.370007
6453.000000;1.369320
6452.000000;1.368723
6451.000000;1.367906
6450.000000;1.366814
6449.000000;1.365652
6448.000000;1.364585
6447.000000;1.363595
6446.000000;1.362636
6445.000000;1.361787
6444.000000;1.361137
6443.000000;1.360575
6442.000000;1.359832
6441.000000;1.358751
6440.000000;1.357459
6439.000000;1.356259
6438.000000;1.355369
6437.000000;1.354765
6436.000000;1.354214
6435.000000;1.353467
6434.000000;1.352460
6433.000000;1.351358
6432.000000;1.350411
6431.000000;1.349746
6430.000000;1.349295
6429.000000;1.348892
6428.000000;1.348402
6427.000000;1.347765
6426.000000;1.346971
6425.000000;1.346050
6424.000000;1.345088
6423.000000;1.344188
6422.000000;1.343374
6421.000000;1.342563
6420.000000;1.341670
6419.000000;1.340773
6418.000000;1.340089
6417.000000;1.339724
6416.000000;1.339492
6415.000000;1.339062
6414.000000;1.338295
6413.000000;1.337361
6412.000000;1.336498
6411.000000;1.335762
6410.000000;1.335039
6409.000000;1.334234
6408.000000;1.333352
6407.000000;1.332448
6406.000000;1.331592
6405.000000;1.330871
6404.000000;1.330340
6403.000000;1.329952
6402.000000;1.329590
6401.000000;1.329181
6400.000000;1.328710
6399.000000;1.328148
6398.000000;1.327423
6397.000000;1.326521
6396.000000;1.325558
6395.000000;1.324699
6394.000000;1.324015
6393.000000;1.323447
6392.000000;1.322889
6391.000000;1.322286
6390.000000;1.321641
6389.000000;1.320972
6388.000000;1.320280
6387.000000;1.319558
6386.000000;1.318821
6385.000000;1.318098
6384.000000;1.317390
6383.000000;1.316656
6382.000000;1.315869
6381.000000;1.315058
6380.000000;1.314290
6379.000000;1.313604
6378.000000;1.312995
6377.000000;1.312441
6376.000000;1.311931
6375.000000;1.311440
6374.000000;1.310908
6373.000000;1.310280
6372.000000;1.309548
6371.000000;1.308756
6370.000000;1.307954
6369.000000;1.307158
6368.000000;1.306373
6367.000000;1.305633
6366.000000;1.305000
6365.000000;1.304499
6364.000000;1.304062
6363.000000;1.303568
6362.000000;1.302944
6361.000000;1.302224
6360.000000;1.301509
6359.000000;1.300886
6358.000000;1.300369
6357.000000;1.299894
6356.000000;1.299376
6355.000000;1.298809
6354.000000;1.298285
6353.000000;1.297875
6352.000000;1.297495
6351.000000;1.296958
6350.000000;1.296201
6349.000000;1.295369
6348.000000;1.294653
6347.000000;1.294092
6346.000000;1.293598
6345.000000;1.293117
6344.000000;1.292663
6343.000000;1.292225
6342.000000;1.291742
6341.000000;1.291184
6340.000000;1.290583
6339.000000;1.289974
6338.000000;1.289371
6337.000000;1.288806
6336.000000;1.288330
6335.000000;1.287943
6334.000000;1.287584
6333.000000;1.287203
6332.000000;1.286797
6331.000000;1.286351
6330.000000;1.285824
6329.000000;1.285217
6328.000000;1.284613
6327.000000;1.284076
6326.000000;1.283566
6325.000000;1.283000
6324.000000;1.282376
6323.000000;1.281765
6322.000000;1.281212
6321.000000;1.280709
6320.000000;1.280268
6319.000000;1.279935
6318.000000;1.279707
6317.000000;1.279480
6316.000000;1.279129
6315.000000;1.278634
6314.000000;1.278088
6313.000000;1.277583
6312.000000;1.277118
6311.000000;1.276617
6310.000000;1.276028
6309.000000;1.275397
6308.000000;1.274828
6307.000000;1.274388
6306.000000;1.274054
6305.000000;1.273753
6304.000000;1.273426
6303.000000;1.273043
6302.000000;1.272580
6301.000000;1.272012
6300.000000;1.271353
6299.000000;1.270675
6298.000000;1.270083
6297.000000;1.269652
6296.000000;1.269383
6295.000000;1.269189
6294.000000;1.268933
6293.000000;1.268505
6292.000000;1.267904
6291.000000;1.267242
6290.000000;1.266645
6289.000000;1.266161
6288.000000;1.265761
6287.000000;1.265394
6286.000000;1.265011
6285.000000;1.264564
6284.000000;1.264044
6283.000000;1.263543
6282.000000;1.263180
6281.000000;1.262953
6280.000000;1.262701
6279.000000;1.262281
6278.000000;1.261737
6277.000000;1.261227
6276.000000;1.260826
6275.000000;1.260487
6274.000000;1.260182
6273.000000;1.259948
6272.000000;1.259772
6271.000000;1.259538
6270.000000;1.259160
6269.000000;1.258681
6268.000000;1.258172
6267.000000;1.257601
6266.000000;1.256921
6265.000000;1.256236
6264.000000;1.255745
6263.000000;1.255520
6262.000000;1.255416
6261.000000;1.255256
6260.000000;1.255014
6259.000000;1.254780
6258.000000;1.254598
6257.000000;1.254400
6256.000000;1.254092
6255.000000;1.253673
6254.000000;1.253246
6253.000000;1.252902
6252.000000;1.252597
6251.000000;1.252167
6250.000000;1.251527
6249.000000;1.250815
6248.000000;1.250284
6247.000000;1.250036
6246.000000;1.249933
6245.000000;1.249783
6244.000000;1.249552
6243.000000;1.249346
6242.000000;1.249228
6241.000000;1.249119
6240.000000;1.248896
6239.000000;1.248515
6238.000000;1.248033
6237.000000;1.247538
6236.000000;1.247084
6235.000000;1.246672
6234.000000;1.246275
6233.000000;1.245876
6232.000000;1.245497
6231.000000;1.245187
6230.000000;1.244978
6229.000000;1.244817
6228.000000;1.244580
6227.000000;1.244177
6226.000000;1.243675
6225.000000;1.243253
6224.000000;1.243022
6223.000000;1.242904
6222.000000;1.242721
6221.000000;1.242381
6220.000000;1.241937
6219.000000;1.241517
6218.000000;1.241222
6217.000000;1.241062
6216.000000;1.240946
6215.000000;1.240753
6214.000000;1.240474
6213.000000;1.240245
6212.000000;1.240177
6211.000000;1.240169
6210.000000;1.240002
6209.000000;1.239588
6208.000000;1.239057
6207.000000;1.238572
6206.000000;1.238171
6205.000000;1.237830
6204.000000;1.237560
6203.000000;1.237380
6202.000000;1.237252
6201.000000;1.237127
6200.000000;1.237014
6199.000000;1.236909
6198.000000;1.236726
6197.000000;1.236359
6196.000000;1.235838
6195.000000;1.235317
6194.000000;1.234939
6193.000000;1.234733
6192.000000;1.234640
6191.000000;1.234561
6190.000000;1.234404
6189.000000;1.234138
6188.000000;1.233808
6187.000000;1.233481
6186.000000;1.233167
6185.000000;1.232837
6184.000000;1.232487
6183.000000;1.232139
6182.000000;1.231787
6181.000000;1.231420
6180.000000;1.231084
6179.000000;1.230859
6178.000000;1.230757
6177.000000;1.230677
6176.000000;1.230505
6175.000000;1.230219
6174.000000;1.229897
6173.000000;1.229647
6172.000000;1.229533
6171.000000;1.229537
6170.000000;1.229578
6169.000000;1.229578
6168.000000;1.229511
6167.000000;1.229362
6166.000000;1.229088
6165.000000;1.228667
6164.000000;1.228197
6163.000000;1.227848
6162.000000;1.227700
6161.000000;1.227683
6160.000000;1.227666
6159.000000;1.227580
6158.000000;1.227408
6157.000000;1.227145
6156.000000;1.226810
6155.000000;1.226438
6154.000000;1.226032
6153.000000;1.225565
6152.000000;1.225078
6151.000000;1.224718
6150.000000;1.224621
6149.000000;1.224769
6148.000000;1.225018
6147.000000;1.225229
6146.000000;1.225315
6145.000000;1.225207
6144.000000;1.224903
6143.000000;1.224532
6142.000000;1.224276
6141.000000;1.224177
6140.000000;1.224084
6139.000000;1.223835
6138.000000;1.223442
6137.000000;1.223066
6136.000000;1.222837
6135.000000;1.222758
6134.000000;1.222737
6133.000000;1.222666
6132.000000;1.222481
6131.000000;1.222189
6130.000000;1.221857
6129.000000;1.221567
6128.000000;1.221375
6127.000000;1.221300
6126.000000;1.221314
6125.000000;1.221346
6124.000000;1.221333
6123.000000;1.221270
6122.000000;1.221172
6121.000000;1.220998
6120.000000;1.220679
6119.000000;1.220249
6118.000000;1.219875
6117.000000;1.219682
6116.000000;1.219603
6115.000000;1.219448
6114.000000;1.219122
6113.000000;1.218709
6112.000000;1.218375
6111.000000;1.218234
6110.000000;1.218302
6109.000000;1.218488
6108.000000;1.218632
6107.000000;1.218608
6106.000000;1.218427
6105.000000;1.218201
6104.000000;1.218007
6103.000000;1.217829
6102.000000;1.217646
6101.000000;1.217485
6100.000000;1.217367
6099.000000;1.217259
6098.000000;1.217104
6097.000000;1.216897
6096.000000;1.216687
6095.000000;1.216539
6094.000000;1.216498
6093.000000;1.216549
6092.000000;1.216591
6091.000000;1.216516
6090.000000;1.216319
6089.000000;1.216108
6088.000000;1.215957
6087.000000;1.215810
6086.000000;1.215570
6085.000000;1.215244
6084.000000;1.214936
6083.000000;1.214744
6082.000000;1.214695
6081.000000;1.214760
6080.000000;1.214854
6079.000000;1.214854
6078.000000;1.214700
6077.000000;1.214480
6076.000000;1.214364
6075.000000;1.214416
6074.000000;1.214531
6073.000000;1.214550
6072.000000;1.214417
6071.000000;1.214203
6070.000000;1.214012
6069.000000;1.213882
6068.000000;1.213774
6067.000000;1.213642
6066.000000;1.213523
6065.000000;1.213525
6064.000000;1.213685
6063.000000;1.213885
6062.000000;1.213939
6061.000000;1.213780
6060.000000;1.213501
6059.000000;1.213260
6058.000000;1.213156
6057.000000;1.213200
6056.000000;1.213320
6055.000000;1.213388
6054.000000;1.213315
6053.000000;1.213142
6052.000000;1.212989
6051.000000;1.212927
6050.000000;1.212915
6049.000000;1.212891
6048.000000;1.212845
6047.000000;1.212781
6046.000000;1.212677
6045.000000;1.212515
6044.000000;1.212320
6043.000000;1.212128
6042.000000;1.211955
6041.000000;1.211817
6040.000000;1.211763
6039.000000;1.211848
6038.000000;1.212058
6037.000000;1.212296
6036.000000;1.212425
6035.000000;1.212349
6034.000000;1.212105
6033.000000;1.211860
6032.000000;1.211777
6031.000000;1.211857
6030.000000;1.211956
6029.000000;1.211969
6028.000000;1.211924
6027.000000;1.211876
6026.000000;1.211772
6025.000000;1.211531
6024.000000;1.211191
6023.000000;1.210919
6022.000000;1.210849
6021.000000;1.210991
6020.000000;1.211266
6019.000000;1.211578
6018.000000;1.211831
6017.000000;1.211951
6016.000000;1.211923
6015.000000;1.211794
6014.000000;1.211640
6013.000000;1.211534
6012.000000;1.211508
6011.000000;1.211529
6010.000000;1.211518
6009.000000;1.211452
6008.000000;1.211403
6007.000000;1.211448
6006.000000;1.211548
6005.000000;1.211611
6004.000000;1.211645
6003.000000;1.211758
6002.000000;1.211993
6001.000000;1.212246
6000.000000;1.212404
5999.000000;1.212493
5998.000000;1.212617
5997.000000;1.212797
5996.000000;1.212936
5995.000000;1.212940
5994.000000;1.212820
5993.000000;1.212676
5992.000000;1.212617
5991.000000;1.212696
5990.000000;1.212879
5989.000000;1.213070
5988.000000;1.213179
5987.000000;1.213202
5986.000000;1.213225
5985.000000;1.213345
5984.000000;1.213579
5983.000000;1.213847
5982.000000;1.214024
5981.000000;1.214054
5980.000000;1.214004
5979.000000;1.214013
5978.000000;1.214162
5977.000000;1.214413
5976.000000;1.214675
5975.000000;1.214904
5974.000000;1.215113
5973.000000;1.215313
5972.000000;1.215500
5971.000000;1.215698
5970.000000;1.215952
5969.000000;1.216259
5968.000000;1.216531
5967.000000;1.216666
5966.000000;1.216660
5965.000000;1.216613
5964.000000;1.216652
5963.000000;1.216849
5962.000000;1.217208
5961.000000;1.217674
5960.000000;1.218147
5959.000000;1.218511
5958.000000;1.218688
5957.000000;1.218697
5956.000000;1.218641
5955.000000;1.218646
5954.000000;1.218765
5953.000000;1.218956
5952.000000;1.219135
5951.000000;1.219266
5950.000000;1.219396
5949.000000;1.219616
5948.000000;1.219984
5947.000000;1.220471
5946.000000;1.220963
5945.000000;1.221303
5944.000000;1.221402
5943.000000;1.221345
5942.000000;1.221346
5941.000000;1.221562
5940.000000;1.221929
5939.000000;1.222242
5938.000000;1.222400
5937.000000;1.222507
5936.000000;1.222707
5935.000000;1.222997
5934.000000;1.223253
5933.000000;1.223417
5932.000000;1.223568
5931.000000;1.223807
5930.000000;1.224142
5929.000000;1.224495
5928.000000;1.224778
5927.000000;1.224953
5926.000000;1.225039
5925.000000;1.225091
5924.000000;1.225151
5923.000000;1.225211
5922.000000;1.225259
5921.000000;1.225357
5920.000000;1.225606
5919.000000;1.226026
5918.000000;1.226493
5917.000000;1.226847
5916.000000;1.227020
5915.000000;1.227070
5914.000000;1.227093
5913.000000;1.227143
5912.000000;1.227202
5911.000000;1.227221
5910.000000;1.227185
5909.000000;1.227160
5908.000000;1.227238
5907.000000;1.227430
5906.000000;1.227647
5905.000000;1.227800
5904.000000;1.227875
5903.000000;1.227894
5902.000000;1.227867
5901.000000;1.227814
5900.000000;1.227800
5899.000000;1.227872
5898.000000;1.228008
5897.000000;1.228165
5896.000000;1.228351
5895.000000;1.228595
5894.000000;1.228848
5893.000000;1.229010
5892.000000;1.229038
5891.000000;1.228984
5890.000000;1.228931
5889.000000;1.228943
5888.000000;1.229066
5887.000000;1.229309
5886.000000;1.229584
5885.000000;1.229760
5884.000000;1.229803
5883.000000;1.229816
5882.000000;1.229922
5881.000000;1.230130
5880.000000;1.230352
5879.000000;1.230511
5878.000000;1.230614
5877.000000;1.230723
5876.000000;1.230889
5875.000000;1.231096
5874.000000;1.231263
5873.000000;1.231332
5872.000000;1.231352
5871.000000;1.231444
5870.000000;1.231677
5869.000000;1.232005
5868.000000;1.232345
5867.000000;1.232663
5866.000000;1.232956
5865.000000;1.233220
5864.000000;1.233461
5863.000000;1.233725
5862.000000;1.234054
5861.000000;1.234432
5860.000000;1.234784
5859.000000;1.235065
5858.000000;1.235301
5857.000000;1.235570
5856.000000;1.235918
5855.000000;1.236297
5854.000000;1.236601
5853.000000;1.236781
5852.000000;1.236939
5851.000000;1.237244
5850.000000;1.237763
5849.000000;1.238386
5848.000000;1.238957
5847.000000;1.239424
5846.000000;1.239841
5845.000000;1.240256
5844.000000;1.240666
5843.000000;1.241053
5842.000000;1.241423
5841.000000;1.241787
5840.000000;1.242154
5839.000000;1.242546
5838.000000;1.242994
5837.000000;1.243496
5836.000000;1.243999
5835.000000;1.244431
5834.000000;1.244760
5833.000000;1.245028
5832.000000;1.245327
5831.000000;1.245746
5830.000000;1.246312
5829.000000;1.246963
5828.000000;1.247575
5827.000000;1.248029
5826.000000;1.248294
5825.000000;1.248463
5824.000000;1.248696
5823.000000;1.249098
5822.000000;1.249652
5821.000000;1.250266
5820.000000;1.250867
5819.000000;1.251414
5818.000000;1.251862
5817.000000;1.252176
5816.000000;1.252392
5815.000000;1.252614
5814.000000;1.252933
5813.000000;1.253382
5812.000000;1.253956
5811.000000;1.254632
5810.000000;1.255348
5809.000000;1.256016
5808.000000;1.256592
5807.000000;1.257096
5806.000000;1.257563
5805.000000;1.258003
5804.000000;1.258437
5803.000000;1.258915
5802.000000;1.259478
5801.000000;1.260122
5800.000000;1.260818
5799.000000;1.261527
5798.000000;1.262188
5797.000000;1.262752
5796.000000;1.263245
5795.000000;1.263758
5794.000000;1.264319
5793.000000;1.264848
5792.000000;1.265283
5791.000000;1.265685
5790.000000;1.266162
5789.000000;1.266725
5788.000000;1.267290
5787.000000;1.267793
5786.000000;1.268249
5785.000000;1.268713
5784.000000;1.269243
5783.000000;1.269878
5782.000000;1.270583
5781.000000;1.271242
5780.000000;1.271755
5779.000000;1.272148
5778.000000;1.272541
5777.000000;1.273017
5776.000000;1.273573
5775.000000;1.274168
5774.000000;1.274763
5773.000000;1.275323
5772.000000;1.275834
5771.000000;1.276322
5770.000000;1.276817
5769.000000;1.277306
5768.000000;1.277775
5767.000000;1.278252
5766.000000;1.278784
5765.000000;1.279372
5764.000000;1.279989
5763.000000;1.280648
5762.000000;1.281377
5761.000000;1.282134
5760.000000;1.282819
5759.000000;1.283388
5758.000000;1.283896
5757.000000;1.284418
5756.000000;1.284977
5755.000000;1.285563
5754.000000;1.286175
5753.000000;1.286805
5752.000000;1.287417
5751.000000;1.287967
5750.000000;1.288436
5749.000000;1.288849
5748.000000;1.289282
5747.000000;1.289819
5746.000000;1.290468
5745.000000;1.291130
5744.000000;1.291690
5743.000000;1.292149
5742.000000;1.292615
5741.000000;1.293171
5740.000000;1.293796
5739.000000;1.294428
5738.000000;1.295040
5737.000000;1.295639
5736.000000;1.296226
5735.000000;1.296790
5734.000000;1.297312
5733.000000;1.297793
5732.000000;1.298284
5731.000000;1.298851
5730.000000;1.299496
5729.000000;1.300120
5728.000000;1.300639
5727.000000;1.301094
5726.000000;1.301604
5725.000000;1.302230
5724.000000;1.302957
5723.000000;1.303765
5722.000000;1.304613
5721.000000;1.305376
5720.000000;1.305936
5719.000000;1.306376
5718.000000;1.306939
5717.000000;1.307750
5716.000000;1.308667
5715.000000;1.309475
5714.000000;1.310129
5713.000000;1.310705
5712.000000;1.311222
5711.000000;1.311664
5710.000000;1.312136
5709.000000;1.312821
5708.000000;1.313749
5707.000000;1.314720
5706.000000;1.315515
5705.000000;1.316119
5704.000000;1.316689
5703.000000;1.317357
5702.000000;1.318118
5701.000000;1.318859
5700.000000;1.319495
5699.000000;1.319998
5698.000000;1.320403
5697.000000;1.320773
5696.000000;1.321170
5695.000000;1.321642
5694.000000;1.322234
5693.000000;1.322977
5692.000000;1.323848
5691.000000;1.324760
5690.000000;1.325609
5689.000000;1.326338
5688.000000;1.326976
5687.000000;1.327597
5686.000000;1.328262
5685.000000;1.328988
5684.000000;1.329750
5683.000000;1.330517
5682.000000;1.331266
5681.000000;1.331992
5680.000000;1.332701
5679.000000;1.333391
5678.000000;1.334042
5677.000000;1.334626
5676.000000;1.335138
5675.000000;1.335609
5674.000000;1.336088
5673.000000;1.336630
5672.000000;1.337262
5671.000000;1.337958
5670.000000;1.338641
5669.000000;1.339250
5668.000000;1.339823
5667.000000;1.340473
5666.000000;1.341259
5665.000000;1.342100
5664.000000;1.342830
5663.000000;1.343343
5662.000000;1.343687
5661.000000;1.344045
5660.000000;1.344594
5659.000000;1.345338
5658.000000;1.346084
5657.000000;1.346639
5656.000000;1.347029
5655.000000;1.347460
5654.000000;1.348030
5653.000000;1.348614
5652.000000;1.349066
5651.000000;1.349444
5650.000000;1.349923
5649.000000;1.350558
5648.000000;1.351231
5647.000000;1.351832
5646.000000;1.352359
5645.000000;1.352876
5644.000000;1.353453
5643.000000;1.354143
5642.000000;1.354927
5641.000000;1.355665
5640.000000;1.356204
5639.000000;1.356549
5638.000000;1.356856
5637.000000;1.357265
5636.000000;1.357792
5635.000000;1.358397
5634.000000;1.359040
5633.000000;1.359677
5632.000000;1.360280
5631.000000;1.360879
5630.000000;1.361526
5629.000000;1.362188
5628.000000;1.362753
5627.000000;1.363173
5626.000000;1.363508
5625.000000;1.363819
5624.000000;1.364103
5623.000000;1.364358
5622.000000;1.364625
5621.000000;1.364925
5620.000000;1.365235
5619.000000;1.365560
5618.000000;1.365959
5617.000000;1.366445
5616.000000;1.366960
5615.000000;1.367478
5614.000000;1.368053
5613.000000;1.368704
5612.000000;1.369316
5611.000000;1.369755
5610.000000;1.370013
5609.000000;1.370175
5608.000000;1.370311
5607.000000;1.370481
5606.000000;1.370776
5605.000000;1.371232
5604.000000;1.371742
5603.000000;1.372142
5602.000000;1.372398
5601.000000;1.372617
5600.000000;1.372882
5599.000000;1.373151
5598.000000;1.373353
5597.000000;1.373501
5596.000000;1.373668
5595.000000;1.373885
5594.000000;1.374104
5593.000000;1.374272
5592.000000;1.374390
5591.000000;1.374517
5590.000000;1.374706
5589.000000;1.374972
5588.000000;1.375305
5587.000000;1.375688
5586.000000;1.376074
5585.000000;1.376391
5584.000000;1.376601
5583.000000;1.376741
5582.000000;1.376857
5581.000000;1.376938
5580.000000;1.376990
5579.000000;1.377106
5578.000000;1.377369
5577.000000;1.377685
5576.000000;1.377854
5575.000000;1.377824
5574.000000;1.377765
5573.000000;1.377833
5572.000000;1.377989
5571.000000;1.378119
5570.000000;1.378227
5569.000000;1.378410
5568.000000;1.378700
5567.000000;1.379028
5566.000000;1.379308
5565.000000;1.379464
5564.000000;1.379438
5563.000000;1.379249
5562.000000;1.379020
5561.000000;1.378880
5560.000000;1.378844
5559.000000;1.378863
5558.000000;1.378938
5557.000000;1.379102
5556.000000;1.379318
5555.000000;1.379481
5554.000000;1.379555
5553.000000;1.379635
5552.000000;1.379848
5551.000000;1.380200
5550.000000;1.380532
5549.000000;1.380625
5548.000000;1.380386
5547.000000;1.379979
5546.000000;1.379716
5545.000000;1.379779
5544.000000;1.380077
5543.000000;1.380377
5542.000000;1.380539
5541.000000;1.380581
5540.000000;1.380588
5539.000000;1.380642
5538.000000;1.380794
5537.000000;1.381004
5536.000000;1.381122
5535.000000;1.381019
5534.000000;1.380751
5533.000000;1.380527
5532.000000;1.380537
5531.000000;1.380831
5530.000000;1.381316
5529.000000;1.381791
5528.000000;1.382017
5527.000000;1.381893
5526.000000;1.381568
5525.000000;1.381303
5524.000000;1.381224
5523.000000;1.381271
5522.000000;1.381362
5521.000000;1.381472
5520.000000;1.381554
5519.000000;1.381508
5518.000000;1.381323
5517.000000;1.381160
5516.000000;1.381202
5515.000000;1.381486
5514.000000;1.381909
5513.000000;1.382354
5512.000000;1.382728
5511.000000;1.382912
5510.000000;1.382808
5509.000000;1.382478
5508.000000;1.382156
5507.000000;1.382070
5506.000000;1.382240
5505.000000;1.382469
5504.000000;1.382580
5503.000000;1.382628
5502.000000;1.382817
5501.000000;1.383235
5500.000000;1.383717
5499.000000;1.384031
5498.000000;1.384159
5497.000000;1.384273
5496.000000;1.384451
5495.000000;1.384543
5494.000000;1.384395
5493.000000;1.384095
5492.000000;1.383880
5491.000000;1.383866
5490.000000;1.383984
5489.000000;1.384182
5488.000000;1.384493
5487.000000;1.384890
5486.000000;1.385239
5485.000000;1.385477
5484.000000;1.385738
5483.000000;1.386186
5482.000000;1.386761
5481.000000;1.387247
5480.000000;1.387591
5479.000000;1.387968
5478.000000;1.388470
5477.000000;1.388896
5476.000000;1.389005
5475.000000;1.388891
5474.000000;1.388929
5473.000000;1.389358
5472.000000;1.390086
5471.000000;1.390872
5470.000000;1.391540
5469.000000;1.392016
5468.000000;1.392282
5467.000000;1.392381
5466.000000;1.392444
5465.000000;1.392630
5464.000000;1.393004
5463.000000;1.393504
5462.000000;1.394019
5461.000000;1.394482
5460.000000;1.394913
5459.000000;1.395394
5458.000000;1.395966
5457.000000;1.396570
5456.000000;1.397127
5455.000000;1.397686
5454.000000;1.398412
5453.000000;1.399322
5452.000000;1.400144
5451.000000;1.400624
5450.000000;1.400893
5449.000000;1.401328
5448.000000;1.402019
5447.000000;1.402619
5446.000000;1.402887
5445.000000;1.403161
5444.000000;1.403977
5443.000000;1.405352
5442.000000;1.406749
5441.000000;1.407717
5440.000000;1.408375
5439.000000;1.409194
5438.000000;1.410417
5437.000000;1.411786
5436.000000;1.412842
5435.000000;1.413417
5434.000000;1.413811
5433.000000;1.414456
5432.000000;1.415496
5431.000000;1.416698
5430.000000;1.417738
5429.000000;1.418574
5428.000000;1.419498
5427.000000;1.420810
5426.000000;1.422490
5425.000000;1.424275
5424.000000;1.425997
5423.000000;1.427732
5422.000000;1.429578
5421.000000;1.431361
5420.000000;1.432783
5419.000000;1.433870
5418.000000;1.435018
5417.000000;1.436464
5416.000000;1.437969
5415.000000;1.439221
5414.000000;1.440389
5413.000000;1.441919
5412.000000;1.443906
5411.000000;1.446037
5410.000000;1.448125
5409.000000;1.450330
5408.000000;1.452808
5407.000000;1.455478
5406.000000;1.458142
5405.000000;1.460657
5404.000000;1.462990
5403.000000;1.465178
5402.000000;1.467334
5401.000000;1.469573
5400.000000;1.471882
5399.000000;1.474212
5398.000000;1.476655
5397.000000;1.479353
5396.000000;1.482283
5395.000000;1.485296
5394.000000;1.488364
5393.000000;1.491591
5392.000000;1.494956
5391.000000;1.498334
5390.000000;1.501772
5389.000000;1.505439
5388.000000;1.509288
5387.000000;1.513109
5386.000000;1.516890
5385.000000;1.520869
5384.000000;1.525147
5383.000000;1.529508
5382.000000;1.533781
5381.000000;1.538090
5380.000000;1.542593
5379.000000;1.547213
5378.000000;1.551835
5377.000000;1.556586
5376.000000;1.561705
5375.000000;1.567194
5374.000000;1.572852
5373.000000;1.578540
5372.000000;1.584247
5371.000000;1.589998
5370.000000;1.595874
5369.000000;1.601992
5368.000000;1.608387
5367.000000;1.614980
5366.000000;1.621677
5365.000000;1.628490
5364.000000;1.635518
5363.000000;1.642870
5362.000000;1.650597
5361.000000;1.658574
5360.000000;1.666493
5359.000000;1.674173
5358.000000;1.681857
5357.000000;1.689949
5356.000000;1.698450
5355.000000;1.707040
5354.000000;1.715778
5353.000000;1.725220
5352.000000;1.735638
5351.000000;1.746496
5350.000000;1.757074
5349.000000;1.767336
5348.000000;1.777832
5347.000000;1.788903
5346.000000;1.800319
5345.000000;1.811702
5344.000000;1.823028
5343.000000;1.834609
5342.000000;1.846779
5341.000000;1.859646
5340.000000;1.873055
5339.000000;1.886889
5338.000000;1.901376
5337.000000;1.916780
5336.000000;1.932816
5335.000000;1.948785
5334.000000;1.964262
5333.000000;1.979414
5332.000000;1.994731
5331.000000;2.010612
5330.000000;2.027194
5329.000000;2.044310
5328.000000;2.061624
5327.000000;2.079150
5326.000000;2.097529
5325.000000;2.117313
5324.000000;2.138015
5323.000000;2.158451
5322.000000;2.178113
5321.000000;2.197680
5320.000000;2.218043
5319.000000;2.239447
5318.000000;2.261732
5317.000000;2.284622
5316.000000;2.307471
5315.000000;2.329535
5314.000000;2.351020
5313.000000;2.373146
5312.000000;2.396641
5311.000000;2.420787
5310.000000;2.444386
5309.000000;2.467059
5308.000000;2.489144
5307.000000;2.511077
5306.000000;2.533441
5305.000000;2.556722
5304.000000;2.580350
5303.000000;2.602891
5302.000000;2.624001
5301.000000;2.645219
5300.000000;2.667771
5299.000000;2.690517
5298.000000;2.711134
5297.000000;2.728509
5296.000000;2.743011
5295.000000;2.755592
5294.000000;2.768150
5293.000000;2.783560
5292.000000;2.803277
5291.000000;2.825080
5290.000000;2.844538
5289.000000;2.859286
5288.000000;2.870775
5287.000000;2.881271
5286.000000;2.890761
5285.000000;2.897587
5284.000000;2.901169
5283.000000;2.902954
5282.000000;2.904804
5281.000000;2.907472
5280.000000;2.910606
5279.000000;2.913481
5278.000000;2.915180
5277.000000;2.914549
5276.000000;2.911516
5275.000000;2.908732
5274.000000;2.910547
5273.000000;2.919501
5272.000000;2.933708
5271.000000;2.948087
5270.000000;2.958178
5269.000000;2.961991
5268.000000;2.959325
5267.000000;2.951612
5266.000000;2.942100
5265.000000;2.934447
5264.000000;2.930840
5263.000000;2.931492
5262.000000;2.935500
5261.000000;2.941735
5260.000000;2.949004
5259.000000;2.955744
5258.000000;2.959646
5257.000000;2.958226
5256.000000;2.951180
5255.000000;2.942235
5254.000000;2.937131
5253.000000;2.939045
5252.000000;2.946481
5251.000000;2.955490
5250.000000;2.963073
5249.000000;2.968345
5248.000000;2.971687
5247.000000;2.973838
5246.000000;2.975348
5245.000000;2.976232
5244.000000;2.976676
5243.000000;2.978165
5242.000000;2.981806
5241.000000;2.985056
5240.000000;2.982843
5239.000000;2.973122
5238.000000;2.959379
5237.000000;2.946840
5236.000000;2.938393
5235.000000;2.935074
5234.000000;2.937901
5233.000000;2.946659
5232.000000;2.958096
5231.000000;2.967660
5230.000000;2.972771
5229.000000;2.973303
5228.000000;2.969960
5227.000000;2.964086
5226.000000;2.957891
5225.000000;2.952804
5224.000000;2.948923
5223.000000;2.946719
5222.000000;2.947202
5221.000000;2.950438
5220.000000;2.955015
5219.000000;2.959149
5218.000000;2.962496
5217.000000;2.966133
5216.000000;2.970629
5215.000000;2.975188
5214.000000;2.977946
5213.000000;2.976535
5212.000000;2.970207
5211.000000;2.962076
5210.000000;2.957149
5209.000000;2.957287
5208.000000;2.959860
5207.000000;2.962515
5206.000000;2.966539
5205.000000;2.972480
5204.000000;2.975505
5203.000000;2.970180
5202.000000;2.958637
5201.000000;2.948593
5200.000000;2.944434
5199.000000;2.944431
5198.000000;2.945442
5197.000000;2.946685
5196.000000;2.948035
5195.000000;2.947912
5194.000000;2.945740
5193.000000;2.944572
5192.000000;2.948524
5191.000000;2.958031
5190.000000;2.968127
5189.000000;2.971868
5188.000000;2.966852
5187.000000;2.957811
5186.000000;2.951847
5185.000000;2.951796
5184.000000;2.954082
5183.000000;2.953227
5182.000000;2.948556
5181.000000;2.944543
5180.000000;2.945232
5179.000000;2.950720
5178.000000;2.958114
5177.000000;2.963892
5176.000000;2.965680
5175.000000;2.963862
5174.000000;2.961739
5173.000000;2.962439
5172.000000;2.965362
5171.000000;2.966630
5170.000000;2.963471
5169.000000;2.957392
5168.000000;2.952534
5167.000000;2.951810
5166.000000;2.954738
5165.000000;2.958226
5164.000000;2.959848
5163.000000;2.960732
5162.000000;2.963770
5161.000000;2.968436
5160.000000;2.969580
5159.000000;2.963454
5158.000000;2.953413
5157.000000;2.946741
5156.000000;2.946668
5155.000000;2.949744
5154.000000;2.951080
5153.000000;2.949048
5152.000000;2.944918
5151.000000;2.942017
5150.000000;2.944314
5149.000000;2.952856
5148.000000;2.963042
5147.000000;2.967595
5146.000000;2.964655
5145.000000;2.960015
5144.000000;2.959691
5143.000000;2.963410
5142.000000;2.966058
5141.000000;2.964320
5140.000000;2.960393
5139.000000;2.958850
5138.000000;2.961375
5137.000000;2.964584
5136.000000;2.963036
5135.000000;2.955667
5134.000000;2.948074
5133.000000;2.946538
5132.000000;2.951201
5131.000000;2.956841
5130.000000;2.959848
5129.000000;2.961789
5128.000000;2.965325
5127.000000;2.970370
5126.000000;2.975459
5125.000000;2.979465
5124.000000;2.981258
5123.000000;2.980272
5122.000000;2.977711
5121.000000;2.975860
5120.000000;2.975321
5119.000000;2.973691
5118.000000;2.968785
5117.000000;2.962226
5116.000000;2.957788
5115.000000;2.957585
5114.000000;2.961362
5113.000000;2.967706
5112.000000;2.974180
5111.000000;2.977272
5110.000000;2.974343
5109.000000;2.966049
5108.000000;2.956052
5107.000000;2.948800
5106.000000;2.947790
5105.000000;2.953830
5104.000000;2.963090
5103.000000;2.967994
5102.000000;2.963311
5101.000000;2.951818
5100.000000;2.941810
5099.000000;2.939962
5098.000000;2.946877
5097.000000;2.957027
5096.000000;2.962777
5095.000000;2.961113
5094.000000;2.956667
5093.000000;2.956237
5092.000000;2.961461
5091.000000;2.968049
5090.000000;2.971189
5089.000000;2.969645
5088.000000;2.964121
5087.000000;2.955433
5086.000000;2.946430
5085.000000;2.941978
5084.000000;2.943986
5083.000000;2.948304
5082.000000;2.949504
5081.000000;2.947751
5080.000000;2.947431
5079.000000;2.950433
5078.000000;2.954242
5077.000000;2.956185
5076.000000;2.956467
5075.000000;2.955545
5074.000000;2.951907
5073.000000;2.944890
5072.000000;2.937329
5071.000000;2.933624
5070.000000;2.935873
5069.000000;2.942506
5068.000000;2.950268
5067.000000;2.956042
5066.000000;2.957109
5065.000000;2.952527
5064.000000;2.944702
5063.000000;2.937926
5062.000000;2.935136
5061.000000;2.936498
5060.000000;2.940362
5059.000000;2.944352
5058.000000;2.946189
5057.000000;2.945042
5056.000000;2.942207
5055.000000;2.939735
5054.000000;2.938392
5053.000000;2.937852
5052.000000;2.938788
5051.000000;2.942685
5050.000000;2.948537
5049.000000;2.951582
5048.000000;2.947686
5047.000000;2.938500
5046.000000;2.929927
5045.000000;2.926073
5044.000000;2.926527
5043.000000;2.928579
5042.000000;2.929835
5041.000000;2.928734
5040.000000;2.925199
5039.000000;2.922066
5038.000000;2.923403
5037.000000;2.929480
5036.000000;2.934837
5035.000000;2.933316
5034.000000;2.924887
5033.000000;2.915424
5032.000000;2.910252
5031.000000;2.909921
5030.000000;2.911158
5029.000000;2.910179
5028.000000;2.905811
5027.000000;2.900911
5026.000000;2.900196
5025.000000;2.905402
5024.000000;2.912769
5023.000000;2.916370
5022.000000;2.914119
5021.000000;2.909039
5020.000000;2.905172
5019.000000;2.904611
5018.000000;2.907648
5017.000000;2.912723
5016.000000;2.915623
5015.000000;2.912050
5014.000000;2.902779
5013.000000;2.893616
5012.000000;2.889275
5011.000000;2.889309
5010.000000;2.890054
5009.000000;2.888621
5008.000000;2.884280
5007.000000;2.877978
5006.000000;2.872344
5005.000000;2.870931
5004.000000;2.875186
5003.000000;2.881920
5002.000000;2.886552
5001.000000;2.887576
5000.000000;2.885424
4999.000000;2.881832
4998.000000;2.878772
4997.000000;2.874869
4996.000000;2.867188
4995.000000;2.856480
4994.000000;2.848044
4993.000000;2.846895
4992.000000;2.852338
4991.000000;2.858212
4990.000000;2.859245
4989.000000;2.856134
4988.000000;2.852908
4987.000000;2.851361
4986.000000;2.850267
4985.000000;2.848345
4984.000000;2.845500
4983.000000;2.841848
4982.000000;2.837565
4981.000000;2.833652
4980.000000;2.831447
4979.000000;2.831020
4978.000000;2.830900
4977.000000;2.829590
4976.000000;2.826725
4975.000000;2.823031
4974.000000;2.819903
4973.000000;2.818674
4972.000000;2.819252
4971.000000;2.819632
4970.000000;2.817767
4969.000000;2.813636
4968.000000;2.808742
4967.000000;2.804322
4966.000000;2.801048
4965.000000;2.799586
4964.000000;2.799971
4963.000000;2.800871
4962.000000;2.800841
4961.000000;2.800043
4960.000000;2.799337
4959.000000;2.798040
4958.000000;2.794256
4957.000000;2.787573
4956.000000;2.780034
4955.000000;2.774072
4954.000000;2.770523
4953.000000;2.768638
4952.000000;2.767092
4951.000000;2.764966
4950.000000;2.762496
4949.000000;2.760753
4948.000000;2.759894
4947.000000;2.758042
4946.000000;2.752977
4945.000000;2.744893
4944.000000;2.736349
4943.000000;2.729717
4942.000000;2.725759
4941.000000;2.724171
4940.000000;2.724009
4939.000000;2.723211
4938.000000;2.719571
4937.000000;2.713469
4936.000000;2.708112
4935.000000;2.706550
4934.000000;2.708976
4933.000000;2.712370
4932.000000;2.712392
4931.000000;2.706569
4930.000000;2.696752
4929.000000;2.687934
4928.000000;2.683650
4927.000000;2.682692
4926.000000;2.680899
4925.000000;2.676177
4924.000000;2.670387
4923.000000;2.666032
4922.000000;2.663079
4921.000000;2.659848
4920.000000;2.655522
4919.000000;2.650679
4918.000000;2.646302
4917.000000;2.643505
4916.000000;2.643687
4915.000000;2.647448
4914.000000;2.653027
4913.000000;2.656998
4912.000000;2.657049
4911.000000;2.653577
4910.000000;2.648567
4909.000000;2.643514
4908.000000;2.638535
4907.000000;2.633111
4906.000000;2.627288
4905.000000;2.621867
4904.000000;2.617392
4903.000000;2.613471
4902.000000;2.609576
4901.000000;2.605923
4900.000000;2.602597
4899.000000;2.598325
4898.000000;2.591619
4897.000000;2.583364
4896.000000;2.576749
4895.000000;2.573906
4894.000000;2.573560
4893.000000;2.572718
4892.000000;2.570107
4891.000000;2.566844
4890.000000;2.564115
4889.000000;2.561643
4888.000000;2.558644
4887.000000;2.555273
4886.000000;2.552501
4885.000000;2.550962
4884.000000;2.550275
4883.000000;2.549322
4882.000000;2.547131
4881.000000;2.543701
4880.000000;2.539877
4879.000000;2.536354
4878.000000;2.533087
4877.000000;2.529740
4876.000000;2.526386
4875.000000;2.523573
4874.000000;2.521718
4873.000000;2.520350
4872.000000;2.518020
4871.000000;2.513500
4870.000000;2.507405
4869.000000;2.502008
4868.000000;2.498746
4867.000000;2.496394
4866.000000;2.492658
4865.000000;2.487432
4864.000000;2.483166
4863.000000;2.481597
4862.000000;2.481354
4861.000000;2.479692
4860.000000;2.475743
4859.000000;2.470822
4858.000000;2.466257
4857.000000;2.462419
4856.000000;2.459532
4855.000000;2.458080
4854.000000;2.458044
4853.000000;2.458369
4852.000000;2.457471
4851.000000;2.454240
4850.000000;2.448798
4849.000000;2.442649
4848.000000;2.437732
4847.000000;2.434776
4846.000000;2.432672
4845.000000;2.429806
4844.000000;2.425688
4843.000000;2.420845
4842.000000;2.415683
4841.000000;2.410361
4840.000000;2.405656
4839.000000;2.402934
4838.000000;2.402862
4837.000000;2.404603
4836.000000;2.406269
4835.000000;2.405855
4834.000000;2.402141
4833.000000;2.395521
4832.000000;2.388000
4831.000000;2.381657
4830.000000;2.377069
4829.000000;2.373637
4828.000000;2.371026
4827.000000;2.369439
4826.000000;2.368583
4825.000000;2.367397
4824.000000;2.365203
4823.000000;2.362408
4822.000000;2.359667
4821.000000;2.357043
4820.000000;2.354315
4819.000000;2.351362
4818.000000;2.347829
4817.000000;2.343212
4816.000000;2.337913
4815.000000;2.333535
4814.000000;2.331347
4813.000000;2.330794
4812.000000;2.330146
4811.000000;2.328355
4810.000000;2.325634
4809.000000;2.322496
4808.000000;2.319041
4807.000000;2.315253
4806.000000;2.311428
4805.000000;2.307985
4804.000000;2.305129
4803.000000;2.302814
4802.000000;2.300773
4801.000000;2.298630
4800.000000;2.296203
4799.000000;2.293674
4798.000000;2.291236
4797.000000;2.288700
4796.000000;2.285711
4795.000000;2.282252
4794.000000;2.278596
4793.000000;2.274835
4792.000000;2.270853
4791.000000;2.266830
4790.000000;2.263401
4789.000000;2.261091
4788.000000;2.259667
4787.000000;2.258137
4786.000000;2.255460
4785.000000;2.251451
4784.000000;2.247079
4783.000000;2.243667
4782.000000;2.241582
4781.000000;2.239831
4780.000000;2.237205
4779.000000;2.233683
4778.000000;2.230338
4777.000000;2.228026
4776.000000;2.226603
4775.000000;2.225364
4774.000000;2.223690
4773.000000;2.221110
4772.000000;2.217368
4771.000000;2.212859
4770.000000;2.208674
4769.000000;2.205742
4768.000000;2.203949
4767.000000;2.202404
4766.000000;2.200501
4765.000000;2.198420
4764.000000;2.196567
4763.000000;2.194862
4762.000000;2.192759
4761.000000;2.189778
4760.000000;2.185892
4759.000000;2.181519
4758.000000;2.177318
4757.000000;2.173935
4756.000000;2.171698
4755.000000;2.170324
4754.000000;2.168967
4753.000000;2.166764
4752.000000;2.163545
4751.000000;2.160040
4750.000000;2.157228
4749.000000;2.155379
4748.000000;2.153745
4747.000000;2.151244
4746.000000;2.147524
4745.000000;2.143330
4744.000000;2.139852
4743.000000;2.137702
4742.000000;2.136421
4741.000000;2.134893
4740.000000;2.132292
4739.000000;2.128767
4738.000000;2.125264
4737.000000;2.122652
4736.000000;2.121036
4735.000000;2.119787
4734.000000;2.118149
4733.000000;2.115773
4732.000000;2.112833
4731.000000;2.109783
4730.000000;2.107007
4729.000000;2.104587
4728.000000;2.102308
4727.000000;2.099922
4726.000000;2.097385
4725.000000;2.094811
4724.000000;2.092263
4723.000000;2.089769
4722.000000;2.087508
4721.000000;2.085698
4720.000000;2.084170
4719.000000;2.082314
4718.000000;2.079737
4717.000000;2.076865
4716.000000;2.074523
4715.000000;2.072932
4714.000000;2.071434
4713.000000;2.069252
4712.000000;2.066263
4711.000000;2.062959
4710.000000;2.060002
4709.000000;2.057928
4708.000000;2.056876
4707.000000;2.056289
4706.000000;2.055185
4705.000000;2.053147
4704.000000;2.050877
4703.000000;2.049338
4702.000000;2.048451
4701.000000;2.047120
4700.000000;2.044626
4699.000000;2.041486
4698.000000;2.038718
4697.000000;2.036697
4696.000000;2.035048
4695.000000;2.033322
4694.000000;2.031347
4693.000000;2.029125
4692.000000;2.026787
4691.000000;2.024687
4690.000000;2.023157
4689.000000;2.022075
4688.000000;2.020886
4687.000000;2.019186
4686.000000;2.017125
4685.000000;2.015129
4684.000000;2.013367
4683.000000;2.011597
4682.000000;2.009455
4681.000000;2.006854
4680.000000;2.004168
4679.000000;2.002015
4678.000000;2.000738
4677.000000;2.000010
4676.000000;1.999016
4675.000000;1.997124
4674.000000;1.994407
4673.000000;1.991503
4672.000000;1.989066
4671.000000;1.987358
4670.000000;1.986241
4669.000000;1.985398
4668.000000;1.984564
4667.000000;1.983614
4666.000000;1.982471
4665.000000;1.980969
4664.000000;1.978899
4663.000000;1.976309
4662.000000;1.973658
4661.000000;1.971499
4660.000000;1.969965
4659.000000;1.968665
4658.000000;1.967139
4657.000000;1.965350
4656.000000;1.963666
4655.000000;1.962419
4654.000000;1.961582
4653.000000;1.960826
4652.000000;1.959808
4651.000000;1.958379
4650.000000;1.956594
4649.000000;1.954613
4648.000000;1.952580
4647.000000;1.950610
4646.000000;1.948844
4645.000000;1.947402
4644.000000;1.946229
4643.000000;1.945084
4642.000000;1.943816
4641.000000;1.942577
4640.000000;1.941617
4639.000000;1.940860
4638.000000;1.939887
4637.000000;1.938412
4636.000000;1.936648
4635.000000;1.935060
4634.000000;1.933850
4633.000000;1.932775
4632.000000;1.931446
4631.000000;1.929748
4630.000000;1.927928
4629.000000;1.926319
4628.000000;1.925015
4627.000000;1.923843
4626.000000;1.922659
4625.000000;1.921564
4624.000000;1.920650
4623.000000;1.919644
4622.000000;1.918093
4621.000000;1.916021
4620.000000;1.914118
4619.000000;1.913075
4618.000000;1.912879
4617.000000;1.912906
4616.000000;1.912556
4615.000000;1.911544
4614.000000;1.909783
4613.000000;1.907414
4612.000000;1.904954
4611.000000;1.903065
4610.000000;1.901972
4609.000000;1.901285
4608.000000;1.900485
4607.000000;1.899433
4606.000000;1.898315
4605.000000;1.897296
4604.000000;1.896395
4603.000000;1.895569
4602.000000;1.894787
4601.000000;1.894048
4600.000000;1.893404
4599.000000;1.892878
4598.000000;1.892310
4597.000000;1.891393
4596.000000;1.889952
4595.000000;1.888127
4594.000000;1.886261
4593.000000;1.884704
4592.000000;1.883716
4591.000000;1.883333
4590.000000;1.883225
4589.000000;1.882842
4588.000000;1.881880
4587.000000;1.880516
4586.000000;1.879128
4585.000000;1.877931
4584.000000;1.876998
4583.000000;1.876391
4582.000000;1.876057
4581.000000;1.875735
4580.000000;1.875198
4579.000000;1.874529
4578.000000;1.873954
4577.000000;1.873481
4576.000000;1.872911
4575.000000;1.872143
4574.000000;1.871244
4573.000000;1.870258
4572.000000;1.869192
4571.000000;1.868206
4570.000000;1.867520
4569.000000;1.867077
4568.000000;1.866503
4567.000000;1.865528
4566.000000;1.864288
4565.000000;1.863140
4564.000000;1.862345
4563.000000;1.861977
4562.000000;1.861945
4561.000000;1.861959
4560.000000;1.861655
4559.000000;1.860942
4558.000000;1.860155
4557.000000;1.859713
4556.000000;1.859662
4555.000000;1.859620
4554.000000;1.859120
4553.000000;1.857954
4552.000000;1.856310
4551.000000;1.854667
4550.000000;1.853493
4549.000000;1.852886
4548.000000;1.852553
4547.000000;1.852169
4546.000000;1.851666
4545.000000;1.851135
4544.000000;1.850598
4543.000000;1.850050
4542.000000;1.849572
4541.000000;1.849159
4540.000000;1.848550
4539.000000;1.847543
4538.000000;1.846448
4537.000000;1.845905
4536.000000;1.846106
4535.000000;1.846443
4534.000000;1.846169
4533.000000;1.845281
4532.000000;1.844520
4531.000000;1.844523
4530.000000;1.845193
4529.000000;1.845924
4528.000000;1.846259
4527.000000;1.846181
4526.000000;1.845890
4525.000000;1.845505
4524.000000;1.845052
4523.000000;1.844647
4522.000000;1.844485
4521.000000;1.844614
4520.000000;1.844768
4519.000000;1.844571
4518.000000;1.843933
4517.000000;1.843189
4516.000000;1.842769
4515.000000;1.842786
4514.000000;1.842976
4513.000000;1.843028
4512.000000;1.842883
4511.000000;1.842672
4510.000000;1.842433
4509.000000;1.842019
4508.000000;1.841341
4507.000000;1.840608
4506.000000;1.840178
4505.000000;1.840165
4504.000000;1.840276
4503.000000;1.840096
4502.000000;1.839506
4501.000000;1.838793
4500.000000;1.838444
4499.000000;1.838840
4498.000000;1.840007
4497.000000;1.841490
4496.000000;1.842565
4495.000000;1.842787
4494.000000;1.842378
4493.000000;1.841966
4492.000000;1.841936
4491.000000;1.842163
4490.000000;1.842345
4489.000000;1.842401
4488.000000;1.842408
4487.000000;1.842334
4486.000000;1.842028
4485.000000;1.841453
4484.000000;1.840756
4483.000000;1.840076
4482.000000;1.839392
4481.000000;1.838650
4480.000000;1.838043
4479.000000;1.838049
4478.000000;1.839047
4477.000000;1.840807
4476.000000;1.842451
4475.000000;1.843165
4474.000000;1.843002
4473.000000;1.842794
4472.000000;1.843226
4471.000000;1.844206
4470.000000;1.845222
4469.000000;1.846030
4468.000000;1.846701
4467.000000;1.847223
4466.000000;1.847494
4465.000000;1.847751
4464.000000;1.848563
4463.000000;1.850178
4462.000000;1.852118
4461.000000;1.853640
4460.000000;1.854460
4459.000000;1.854808
4458.000000;1.854934
4457.000000;1.854929
4456.000000;1.855004
4455.000000;1.855565
4454.000000;1.856816
4453.000000;1.858459
4452.000000;1.859981
4451.000000;1.861183
4450.000000;1.862249
4449.000000;1.863316
4448.000000;1.864194
4447.000000;1.864635
4446.000000;1.864746
4445.000000;1.864958
4444.000000;1.865691
4443.000000;1.867143
4442.000000;1.869272
4441.000000;1.871702
4440.000000;1.873688
4439.000000;1.874621
4438.000000;1.874795
4437.000000;1.875426
4436.000000;1.877515
4435.000000;1.880798
4434.000000;1.884076
4433.000000;1.886495
4432.000000;1.888158
4431.000000;1.889553
4430.000000;1.890915
4429.000000;1.892365
4428.000000;1.894173
4427.000000;1.896377
4426.000000;1.898327
4425.000000;1.899185
4424.000000;1.898964
4423.000000;1.898749
4422.000000;1.899771
4421.000000;1.902404
4420.000000;1.906061
4419.000000;1.909828
4418.000000;1.913053
4417.000000;1.915525
4416.000000;1.917385
4415.000000;1.918937
4414.000000;1.920532
4413.000000;1.922516
4412.000000;1.925115
4411.000000;1.928206
4410.000000;1.931284
4409.000000;1.933789
4408.000000;1.935482
4407.000000;1.936458
4406.000000;1.936970
4405.000000;1.937495
4404.000000;1.938853
4403.000000;1.941800
4402.000000;1.946244
4401.000000;1.951061
4400.000000;1.954984
4399.000000;1.957644
4398.000000;1.959595
4397.000000;1.961449
4396.000000;1.963324
4395.000000;1.965165
4394.000000;1.967160
4393.000000;1.969487
4392.000000;1.971888
4391.000000;1.973939
4390.000000;1.975692
4389.000000;1.977698
4388.000000;1.980324
4387.000000;1.983362
4386.000000;1.986440
4385.000000;1.989555
4384.000000;1.992986
4383.000000;1.996845
4382.000000;2.000932
4381.000000;2.004858
4380.000000;2.008122
4379.000000;2.010317
4378.000000;2.011544
4377.000000;2.012395
4376.000000;2.013231
4375.000000;2.013812
4374.000000;2.014120
4373.000000;2.015190
4372.000000;2.018203
4371.000000;2.022684
4370.000000;2.026489
4369.000000;2.028171
4368.000000;2.028690
4367.000000;2.030043
4366.000000;2.032771
4365.000000;2.035699
4364.000000;2.037828
4363.000000;2.039552
4362.000000;2.041828
4361.000000;2.044844
4360.000000;2.047826
4359.000000;2.049879
4358.000000;2.050907
4357.000000;2.051785
4356.000000;2.053565
4355.000000;2.056363
4354.000000;2.059236
4353.000000;2.061357
4352.000000;2.062957
4351.000000;2.064592
4350.000000;2.065973
4349.000000;2.066465
4348.000000;2.066691
4347.000000;2.068448
4346.000000;2.072514
4345.000000;2.077357
4344.000000;2.080656
4343.000000;2.081760
4342.000000;2.082063
4341.000000;2.083196
4340.000000;2.085483
4339.000000;2.087960
4338.000000;2.089285
4337.000000;2.088732
4336.000000;2.087041
4335.000000;2.086069
4334.000000;2.087268
4333.000000;2.090750
4332.000000;2.095581
4331.000000;2.100456
4330.000000;2.104171
4329.000000;2.106383
4328.000000;2.108283
4327.000000;2.111564
4326.000000;2.116202
4325.000000;2.119962
4324.000000;2.120816
4323.000000;2.119349
4322.000000;2.117939
4321.000000;2.118145
4320.000000;2.119808
4319.000000;2.122184
4318.000000;2.124904
4317.000000;2.127886
4316.000000;2.131034
4315.000000;2.134160
4314.000000;2.136788
4313.000000;2.138169
4312.000000;2.138232
4311.000000;2.138285
4310.000000;2.139776
4309.000000;2.142617
4308.000000;2.145699
4307.000000;2.148770
4306.000000;2.152562
4305.000000;2.156983
4304.000000;2.160514
4303.000000;2.162088
4302.000000;2.162618
4301.000000;2.163876
4300.000000;2.166426
4299.000000;2.169144
4298.000000;2.170325
4297.000000;2.169245
4296.000000;2.167380
4295.000000;2.167861
4294.000000;2.172529
4293.000000;2.179534
4292.000000;2.185181
4291.000000;2.188625
4290.000000;2.192739
4289.000000;2.199224
4288.000000;2.205184
4287.000000;2.206641
4286.000000;2.204229
4285.000000;2.202711
4284.000000;2.205497
4283.000000;2.211775
4282.000000;2.218472
4281.000000;2.223229
4280.000000;2.225356
4279.000000;2.225638
4278.000000;2.226069
4277.000000;2.228796
4276.000000;2.234270
4275.000000;2.240327
4274.000000;2.243634
4273.000000;2.242763
4272.000000;2.240033
4271.000000;2.239840
4270.000000;2.244546
4269.000000;2.251897
4268.000000;2.257249
4267.000000;2.259008
4266.000000;2.260417
4265.000000;2.265141
4264.000000;2.272773
4263.000000;2.279992
4262.000000;2.285035
4261.000000;2.288594
4260.000000;2.291002
4259.000000;2.291399
4258.000000;2.290278
4257.000000;2.290799
4256.000000;2.295649
4255.000000;2.304120
4254.000000;2.313699
4253.000000;2.322935
4252.000000;2.331188
4251.000000;2.336809
4250.000000;2.338145
4249.000000;2.335532
4248.000000;2.331515
4247.000000;2.329051
4246.000000;2.329912
4245.000000;2.333881
4244.000000;2.339065
4243.000000;2.343528
4242.000000;2.347250
4241.000000;2.351526
4240.000000;2.355865
4239.000000;2.357411
4238.000000;2.354889
4237.000000;2.351554
4236.000000;2.352354
4235.000000;2.359127
4234.000000;2.369365
4233.000000;2.378832
4232.000000;2.385018
4231.000000;2.388714
4230.000000;2.392776
4229.000000;2.399149
4228.000000;2.407048
4227.000000;2.414492
4226.000000;2.421123
4225.000000;2.427351
4224.000000;2.430168
4223.000000;2.423757
4222.000000;2.408018
4221.000000;2.392189
4220.000000;2.385255
4219.000000;2.387373
4218.000000;2.392792
4217.000000;2.397511
4216.000000;2.402234
4215.000000;2.409458
4214.000000;2.419983
4213.000000;2.432862
4212.000000;2.444399
4211.000000;2.447738
4210.000000;2.440381
4209.000000;2.429660
4208.000000;2.426068
4207.000000;2.433614
4206.000000;2.448740
4205.000000;2.466954
4204.000000;2.486342
4203.000000;2.503334
4202.000000;2.512324
4201.000000;2.514315
4200.000000;2.517602
4199.000000;2.526003
4198.000000;2.533623
4197.000000;2.534061
4196.000000;2.530079
4195.000000;2.529517
4194.000000;2.536284
4193.000000;2.550588
4192.000000;2.573474
4191.000000;2.603258
4190.000000;2.628754
4189.000000;2.634792
4188.000000;2.615426
4187.000000;2.580826
4186.000000;2.547913
4185.000000;2.523710
4184.000000;2.507206
4183.000000;2.499542
4182.000000;2.505225
4181.000000;2.524694
4180.000000;2.547439
4179.000000;2.555959
4178.000000;2.543542
4177.000000;2.525385
4176.000000;2.522086
4175.000000;2.537693
4174.000000;2.557105
4173.000000;2.564706
4172.000000;2.563056
4171.000000;2.563477
4170.000000;2.566310
4169.000000;2.559823
4168.000000;2.539646
4167.000000;2.518047
4166.000000;2.505647
4165.000000;2.501468
4164.000000;2.502250
4163.000000;2.510514
4162.000000;2.526400
4161.000000;2.541778
4160.000000;2.551668
4159.000000;2.563190
4158.000000;2.584019
4157.000000;2.607471
4156.000000;2.614237
4155.000000;2.594847
4154.000000;2.571794
4153.000000;2.570894
4152.000000;2.585074
4151.000000;2.586311
4150.000000;2.567530
4149.000000;2.548297
4148.000000;2.547882
4147.000000;2.566865
4146.000000;2.584786
4145.000000;2.581715
4144.000000;2.567000
4143.000000;2.570297
4142.000000;2.605174
4141.000000;2.647531
4140.000000;2.649707
4139.000000;2.610112
4138.000000;2.567596
4137.000000;2.540898
4136.000000;2.528837
4135.000000;2.527111
4134.000000;2.536651
4133.000000;2.557728
4132.000000;2.578444
4131.000000;2.578668
4130.000000;2.550804
4129.000000;2.514458
4128.000000;2.502935
4127.000000;2.535596
4126.000000;2.604580
4125.000000;2.670296
4124.000000;2.683418
4123.000000;2.645746
4122.000000;2.604828
4121.000000;2.594206
4120.000000;2.619988
4119.000000;2.664587
4118.000000;2.690052
4117.000000;2.686967
4116.000000;2.698679
4115.000000;2.763634
4114.000000;2.861997
4113.000000;2.898493
4112.000000;2.839440
4111.000000;2.763747
4110.000000;2.719656
4109.000000;2.690614
4108.000000;2.633825
4107.000000;2.543420
4106.000000;2.459465
4105.000000;2.411628
4104.000000;2.408212
4103.000000;2.456024
4102.000000;2.559153
4101.000000;2.691503
4100.000000;2.769030
4099.000000;2.741868
4098.000000;2.682483
4097.000000;2.628245
4096.000000;2.572771
4095.000000;2.552789
4094.000000;2.608932
4093.000000;2.728343
4092.000000;2.809140
4091.000000;2.761144
4090.000000;2.667183
4089.000000;2.603819
4088.000000;2.567652
4087.000000;2.539890
4086.000000;2.524742
4085.000000;2.525600
4084.000000;2.502598
4083.000000;2.412632
4082.000000;2.306247
4081.000000;2.251328
4080.000000;2.265679
4079.000000;2.333957
4078.000000;2.418457
4077.000000;2.471853
4076.000000;2.481351
4075.000000;2.493287
4074.000000;2.550602
4073.000000;2.644784
4072.000000;2.727947
4071.000000;2.758251
4070.000000;2.746158
4069.000000;2.738075
4068.000000;2.740266
4067.000000;2.680792
4066.000000;2.587593
4065.000000;2.540556
4064.000000;2.506252
4063.000000;2.466474
4062.000000;2.497304
4061.000000;2.644898
4060.000000;2.867931
4059.000000;3.080059
4058.000000;3.253936
4057.000000;3.044150
4056.000000;2.820014
4055.000000;2.704271
4054.000000;2.655809
4053.000000;2.645891
4052.000000;2.643164
4051.000000;2.628292
4050.000000;2.599641
4049.000000;2.559042
4048.000000;2.497688
4047.000000;2.424033
4046.000000;2.374282
4045.000000;2.374635
4044.000000;2.410416
4043.000000;2.420994
4042.000000;2.382655
4041.000000;2.350340
4040.000000;2.354177
4039.000000;2.370032
4038.000000;2.396126
4037.000000;2.477082
4036.000000;2.611732
4035.000000;2.673226
4034.000000;2.606963
4033.000000;2.535771
4032.000000;2.499645
4031.000000;2.488389
4030.000000;2.507978
4029.000000;2.563384
4028.000000;2.601628
4027.000000;2.556487
4026.000000;2.486775
4025.000000;2.479340
4024.000000;2.548229
4023.000000;2.624330
4022.000000;2.658647
4021.000000;2.692416
4020.000000;2.655715
4019.000000;2.557754
4018.000000;2.498141
4017.000000;2.496553
4016.000000;2.568815
4015.000000;2.738430
4014.000000;2.996175
4013.000000;3.098487
4012.000000;2.955505
4011.000000;2.846651
4010.000000;2.847302
4009.000000;2.972761
4008.000000;3.171937
4007.000000;3.094812
4006.000000;2.813271
4005.000000;2.658903
4004.000000;2.637505
4003.000000;2.681406
4002.000000;2.714655
4001.000000;2.725299
4000.000000;2.791401
3999.000000;3.064098
3998.000000;2.923583
3997.000000;2.544137
3996.000000;2.378429
3995.000000;2.299152
3994.000000;2.289768
3993.000000;2.330072
3992.000000;2.412436
3991.000000;2.521077
3990.000000;2.588921
3989.000000;2.566095
3988.000000;2.499326
3987.000000;2.446871
3986.000000;2.429879
3985.000000;2.444339
3984.000000;2.477646
3983.000000;2.511143
3982.000000;2.499733
3981.000000;2.438353
3980.000000;2.387976
3979.000000;2.372390
3978.000000;2.379613
3977.000000;2.407730
3976.000000;2.473887
3975.000000;2.590015
3974.000000;2.809885
3973.000000;3.069607
3972.000000;2.986597
3971.000000;2.884425
3970.000000;2.719615
3969.000000;2.528067
3968.000000;2.440602
3967.000000;2.422294
3966.000000;2.388998
3965.000000;2.320823
3964.000000;2.310468
3963.000000;2.417368
3962.000000;2.646411
3961.000000;2.900161
3960.000000;2.895022
3959.000000;2.714680
3958.000000;2.582358
3957.000000;2.511516
3956.000000;2.456327
3955.000000;2.391704
3954.000000;2.327078
3953.000000;2.280128
3952.000000;2.259434
3951.000000;2.250163
3950.000000;2.241332
3949.000000;2.253104
3948.000000;2.311290
3947.000000;2.424688
3946.000000;2.520772
3945.000000;2.470542
3944.000000;2.380400
3943.000000;2.360773
3942.000000;2.401866
3941.000000;2.466315
3940.000000;2.538615
3939.000000;2.629502
3938.000000;2.731334
3937.000000;2.764744
3936.000000;2.680083
3935.000000;2.594065
3934.000000;2.618935
3933.000000;2.781335
3932.000000;2.793995
3931.000000;2.716877
3930.000000;2.744565
3929.000000;2.745337
3928.000000;2.700180
3927.000000;2.672532
3926.000000;2.636990
3925.000000;2.641167
3924.000000;2.748519
3923.000000;2.922721
3922.000000;3.015001
3921.000000;2.918293
3920.000000;2.759889
3919.000000;2.623443
3918.000000;2.560230
3917.000000;2.605310
3916.000000;2.747758
3915.000000;2.955883
3914.000000;3.128941
3913.000000;3.165633
3912.000000;3.096026
3911.000000;2.904372
3910.000000;2.755304
3909.000000;2.753758
3908.000000;2.989944
3907.000000;3.398166
3906.000000;2.977312
3905.000000;2.756135
3904.000000;2.870100
3903.000000;3.037651
3902.000000;2.764706
3901.000000;2.548864
3900.000000;2.430402
3899.000000;2.377417
3898.000000;2.341025
3897.000000;2.289304
3896.000000;2.302586
3895.000000;2.441066
3894.000000;2.629468
3893.000000;2.691285
3892.000000;2.676827
3891.000000;2.809686
3890.000000;3.244459
3889.000000;3.346634
3888.000000;2.985882
3887.000000;2.672303
3886.000000;2.476512
3885.000000;2.513437
3884.000000;2.818820
3883.000000;3.626950
3882.000000;3.177974
3881.000000;2.715639
3880.000000;2.532412
3879.000000;2.540972
3878.000000;2.703357
3877.000000;3.039498
3876.000000;2.598175
3875.000000;2.815701
3874.000000;3.300724
3873.000000;3.386600
3872.000000;3.602584
3871.000000;3.052990
3870.000000;2.903392
3869.000000;2.925509
3868.000000;3.337816
3867.000000;3.800065
3866.000000;3.518722
3865.000000;3.472498
3864.000000;2.969183
3863.000000;2.853085
3862.000000;2.865447
3861.000000;2.935260
3860.000000;3.200011
3859.000000;3.566636
3858.000000;3.274287
3857.000000;3.177432
3856.000000;3.865381
3855.000000;3.439908
3854.000000;3.055684
3853.000000;2.991738
3852.000000;2.942783
3851.000000;2.944173
3850.000000;3.030997
3849.000000;3.238818
3848.000000;3.209001
3847.000000;2.992127
3846.000000;2.917288
3845.000000;2.917763
3844.000000;2.940727
3843.000000;3.017541
3842.000000;3.106307
3841.000000;3.035435
3840.000000;2.858751
3839.000000;2.737978
3838.000000;2.721390
3837.000000;2.799178
3836.000000;2.899173
3835.000000;2.950020
3834.000000;3.003661
3833.000000;3.076618
3832.000000;3.171092
3831.000000;3.276739
3830.000000;3.275041
3829.000000;3.167794
3828.000000;3.284834
3827.000000;3.627784
3826.000000;3.107330
3825.000000;2.871233
3824.000000;2.927034
3823.000000;3.230114
3822.000000;3.333314
3821.000000;3.164448
3820.000000;3.356017
3819.000000;3.465991
3818.000000;3.096636
3817.000000;2.937318
3816.000000;2.836888
3815.000000;2.742193
3814.000000;2.709961
3813.000000;2.780314
3812.000000;2.975326
3811.000000;3.381349
3810.000000;3.838347
3809.000000;3.431966
3808.000000;3.213387
3807.000000;3.232401
3806.000000;3.588298
3805.000000;3.603424
3804.000000;3.529338
3803.000000;3.680621
3802.000000;3.138511
3801.000000;2.876674
3800.000000;2.800301
3799.000000;2.796742
3798.000000;2.819456
3797.000000;2.938088
3796.000000;3.051703
3795.000000;2.931647
3794.000000;2.868203
3793.000000;3.010887
3792.000000;3.225531
3791.000000;2.960580
3790.000000;2.766509
3789.000000;2.758103
3788.000000;2.997416
3787.000000;3.104287
3786.000000;2.807640
3785.000000;2.802036
3784.000000;3.022132
3783.000000;3.514393
3782.000000;4.080722
3781.000000;3.428242
3780.000000;3.061117
3779.000000;2.850533
3778.000000;2.898332
3777.000000;3.103366
3776.000000;2.866143
3775.000000;2.692849
3774.000000;2.736047
3773.000000;2.842977
3772.000000;2.899027
3771.000000;3.024041
3770.000000;3.170593
3769.000000;3.173068
3768.000000;3.128160
3767.000000;3.069520
3766.000000;2.964233
3765.000000;2.848749
3764.000000;2.810610
3763.000000;2.878040
3762.000000;3.086047
3761.000000;3.192035
3760.000000;2.990573
3759.000000;2.929535
3758.000000;3.042170
3757.000000;3.397071
3756.000000;3.937878
3755.000000;3.381961
3754.000000;3.065145
3753.000000;3.020462
3752.000000;3.365045
3751.000000;3.599349
3750.000000;3.170430
3749.000000;3.088690
3748.000000;3.156047
3747.000000;3.314286
3746.000000;3.521040
3745.000000;3.533471
3744.000000;3.426572
3743.000000;3.642141
3742.000000;3.452891
3741.000000;2.945127
3740.000000;2.762208
3739.000000;2.762382
3738.000000;2.913663
3737.000000;3.177630
3736.000000;3.205046
3735.000000;2.972151
3734.000000;2.798047
3733.000000;2.755831
3732.000000;2.856801
3731.000000;3.065808
3730.000000;3.151053
3729.000000;3.345125
3728.000000;3.342319
3727.000000;2.722807
3726.000000;2.557171
3725.000000;2.743884
3724.000000;2.857395
3723.000000;2.626026
3722.000000;2.516225
3721.000000;2.574800
3720.000000;2.705597
3719.000000;2.984389
3718.000000;3.435481
3717.000000;2.908820
3716.000000;2.657043
3715.000000;2.821505
3714.000000;3.274336
3713.000000;2.835961
3712.000000;2.722196
3711.000000;2.808646
3710.000000;2.786741
3709.000000;2.750129
3708.000000;2.697639
3707.000000;2.683374
3706.000000;2.704493
3705.000000;2.774160
3704.000000;2.863938
3703.000000;2.948942
3702.000000;3.128010
3701.000000;3.170971
3700.000000;2.977404
3699.000000;2.926567
3698.000000;3.072173
3697.000000;3.478881
3696.000000;3.194091
3695.000000;2.873108
3694.000000;2.738754
3693.000000;2.694472
3692.000000;2.730896
3691.000000;2.657041
3690.000000;2.522344
3689.000000;2.387490
3688.000000;2.345949
3687.000000;2.393226
3686.000000;2.478498
3685.000000;2.602690
3684.000000;2.946767
3683.000000;3.554079
3682.000000;3.602854
3681.000000;3.642392
3680.000000;3.462724
3679.000000;3.780173
3678.000000;3.702620
3677.000000;3.158457
3676.000000;3.014235
3675.000000;2.987937
3674.000000;2.970352
3673.000000;2.954916
3672.000000;2.907293
3671.000000;2.983352
3670.000000;2.907026
3669.000000;3.009142
3668.000000;3.371874
3667.000000;3.630673
3666.000000;3.585371
3665.000000;2.996244
3664.000000;2.760311
3663.000000;2.656984
3662.000000;2.764079
3661.000000;3.208744
3660.000000;3.170601
3659.000000;3.012726
3658.000000;3.039183
3657.000000;2.845444
3656.000000;2.700621
3655.000000;2.601204
3654.000000;2.819438
3653.000000;3.108720
3652.000000;3.045297
3651.000000;3.134255
3650.000000;3.245653
3649.000000;3.253547
3648.000000;3.290107
3647.000000;3.183241
3646.000000;3.109811
3645.000000;2.988620
3644.000000;2.739971
3643.000000;2.675019
3642.000000;2.777551
3641.000000;3.059014
3640.000000;3.106776
3639.000000;2.942846
3638.000000;2.937931
3637.000000;3.012205
3636.000000;3.019845
3635.000000;2.987495
3634.000000;3.115923
3633.000000;3.049584
3632.000000;2.850468
3631.000000;2.734023
3630.000000;2.595370
3629.000000;2.491460
3628.000000;2.503347
3627.000000;2.605606
3626.000000;2.745550
3625.000000;2.866271
3624.000000;2.783954
3623.000000;2.642190
3622.000000;2.539754
3621.000000;2.418412
3620.000000;2.325407
3619.000000;2.304277
3618.000000;2.467520
3617.000000;2.923093
3616.000000;2.862506
3615.000000;2.626606
3614.000000;2.598450
3613.000000;2.600627
3612.000000;2.662434
3611.000000;2.886865
3610.000000;3.028381
3609.000000;2.732404
3608.000000;2.669901
3607.000000;2.883481
3606.000000;3.039712
3605.000000;2.919220
3604.000000;2.913926
3603.000000;2.969631
3602.000000;2.936671
3601.000000;2.859840
3600.000000;2.721372
3599.000000;2.606261
3598.000000;2.570955
3597.000000;2.608952
3596.000000;2.643368
3595.000000;2.656985
3594.000000;2.676692
3593.000000;2.822834
3592.000000;3.096865
3591.000000;2.868750
3590.000000;2.637389
3589.000000;2.664474
3588.000000;3.127188
3587.000000;3.349762
3586.000000;3.081748
3585.000000;3.434654
3584.000000;3.022789
3583.000000;2.733264
3582.000000;2.769937
3581.000000;3.093675
3580.000000;3.245262
3579.000000;3.047967
3578.000000;3.165643
3577.000000;3.302927
3576.000000;3.143858
3575.000000;2.908142
3574.000000;2.712763
3573.000000;2.576131
3572.000000;2.480358
3571.000000;2.403239
3570.000000;2.361704
3569.000000;2.384734
3568.000000;2.472227
3567.000000;2.577314
3566.000000;2.657950
3565.000000;2.743844
3564.000000;2.854894
3563.000000;2.954112
3562.000000;2.931027
3561.000000;2.832383
3560.000000;2.752559
3559.000000;2.682674
3558.000000;2.639288
3557.000000;2.693253
3556.000000;2.778239
3555.000000;2.698411
3554.000000;2.592653
3553.000000;2.560631
3552.000000;2.547954
3551.000000;2.603386
3550.000000;2.663145
3549.000000;2.955270
3548.000000;3.727848
3547.000000;2.926323
3546.000000;2.934484
3545.000000;3.191689
3544.000000;3.063059
3543.000000;3.083032
3542.000000;3.109906
3541.000000;3.309664
3540.000000;3.716016
3539.000000;3.492862
3538.000000;3.294868
3537.000000;3.183874
3536.000000;3.079544
3535.000000;3.022701
3534.000000;2.944665
3533.000000;2.924233
3532.000000;3.143426
3531.000000;3.438453
3530.000000;2.971277
3529.000000;2.767403
3528.000000;2.688944
3527.000000;2.583706
3526.000000;2.552692
3525.000000;2.616726
3524.000000;2.711017
3523.000000;2.781139
3522.000000;2.884238
3521.000000;3.180623
3520.000000;3.425086
3519.000000;3.052428
3518.000000;2.897511
3517.000000;2.906818
3516.000000;3.048723
3515.000000;3.308116
3514.000000;3.295844
3513.000000;3.262104
3512.000000;3.650871
3511.000000;3.404190
3510.000000;2.980286
3509.000000;2.845662
3508.000000;2.794968
3507.000000;2.846663
3506.000000;2.969363
3505.000000;2.943071
3504.000000;2.932506
3503.000000;3.030823
3502.000000;2.940891
3501.000000;2.848944
3500.000000;2.908796
3499.000000;3.121067
3498.000000;3.299290
3497.000000;3.127119
3496.000000;3.034585
3495.000000;3.067430
3494.000000;3.044549
3493.000000;2.916665
3492.000000;2.812594
3491.000000;2.767561
3490.000000;2.775822
3489.000000;2.847115
3488.000000;2.887984
3487.000000;2.820316
3486.000000;2.742355
3485.000000;2.682345
3484.000000;2.644930
3483.000000;2.678542
3482.000000;2.796634
3481.000000;2.903043
3480.000000;2.838618
3479.000000;2.689094
3478.000000;2.618612
3477.000000;2.678561
3476.000000;2.892004
3475.000000;3.158170
3474.000000;3.170043
3473.000000;3.078843
3472.000000;2.908770
3471.000000;2.740962
3470.000000;2.697813
3469.000000;2.793741
3468.000000;3.090693
3467.000000;3.488340
3466.000000;3.389272
3465.000000;3.346129
3464.000000;3.327272
3463.000000;3.254241
3462.000000;3.187772
3461.000000;3.122133
3460.000000;3.169638
3459.000000;3.220987
3458.000000;3.116959
3457.000000;3.050419
3456.000000;3.103217
3455.000000;3.117025
3454.000000;3.019942
3453.000000;2.923920
3452.000000;2.858964
3451.000000;2.794761
3450.000000;2.804788
3449.000000;2.936759
3448.000000;2.914588
3447.000000;2.866962
3446.000000;2.880643
3445.000000;2.811544
3444.000000;2.779990
3443.000000;2.973295
3442.000000;3.491057
3441.000000;3.163772
3440.000000;2.922906
3439.000000;2.914612
3438.000000;2.968771
3437.000000;2.991168
3436.000000;2.952805
3435.000000;2.983300
3434.000000;3.126373
3433.000000;3.277627
3432.000000;3.448928
3431.000000;3.584308
3430.000000;3.084860
3429.000000;2.799620
3428.000000;2.714126
3427.000000;2.712395
3426.000000;2.733050
3425.000000;2.723829
3424.000000;2.731977
3423.000000;2.778557
3422.000000;2.836980
3421.000000;2.869549
3420.000000;3.001484
3419.000000;3.414638
3418.000000;3.382039
3417.000000;3.227312
3416.000000;3.569079
3415.000000;3.728465
3414.000000;3.305021
3413.000000;3.198256
3412.000000;3.154754
3411.000000;3.109259
3410.000000;3.071574
3409.000000;3.006604
3408.000000;2.942094
3407.000000;2.919881
3406.000000;2.941060
3405.000000;2.957104
3404.000000;3.010572
3403.000000;3.221657
3402.000000;3.541963
3401.000000;3.367506
3400.000000;3.120096
3399.000000;3.040683
3398.000000;3.078318
3397.000000;3.240902
3396.000000;3.666418
3395.000000;3.873134
3394.000000;3.489064
3393.000000;3.385145
3392.000000;3.230839
3391.000000;3.019175
3390.000000;2.895197
3389.000000;2.850055
3388.000000;2.841461
3387.000000;2.819574
3386.000000;2.769542
3385.000000;2.741974
3384.000000;2.771214
3383.000000;2.874261
3382.000000;3.034653
3381.000000;3.146477
3380.000000;3.443988
3379.000000;3.574676
3378.000000;3.223979
3377.000000;3.136830
3376.000000;2.890054
3375.000000;2.669861
3374.000000;2.591776
3373.000000;2.598739
3372.000000;2.666079
3371.000000;2.783893
3370.000000;3.046334
3369.000000;3.303905
3368.000000;3.130065
3367.000000;3.063625
3366.000000;3.169031
3365.000000;3.395737
3364.000000;3.686137
3363.000000;3.709314
3362.000000;3.392532
3361.000000;3.243027
3360.000000;3.176989
3359.000000;3.048477
3358.000000;3.026277
3357.000000;3.111065
3356.000000;3.317768
3355.000000;3.555518
3354.000000;3.390109
3353.000000;3.234496
3352.000000;3.033711
3351.000000;2.861067
3350.000000;2.820865
3349.000000;2.898936
3348.000000;3.075038
3347.000000;3.358906
3346.000000;3.447332
3345.000000;3.213897
3344.000000;3.058162
3343.000000;3.027642
3342.000000;3.031741
3341.000000;3.212285
3340.000000;3.903185
3339.000000;3.171335
3338.000000;2.886132
3337.000000;2.848881
3336.000000;2.992135
3335.000000;3.440141
3334.000000;3.231856
3333.000000;3.052991
3332.000000;3.087329
3331.000000;3.170295
3330.000000;3.495744
3329.000000;4.049294
3328.000000;3.812209
3327.000000;3.450721
3326.000000;3.298328
3325.000000;3.598843
3324.000000;3.425806
3323.000000;3.027578
3322.000000;2.982046
3321.000000;3.113394
3320.000000;3.007562
3319.000000;2.778892
3318.000000;2.725292
3317.000000;2.802502
3316.000000;2.952492
3315.000000;3.115961
3314.000000;3.249063
3313.000000;3.286584
3312.000000;3.222638
3311.000000;3.197329
3310.000000;3.202000
3309.000000;3.195557
3308.000000;3.180583
3307.000000;3.195606
3306.000000;3.208075
3305.000000;3.209791
3304.000000;3.234142
3303.000000;3.140662
3302.000000;3.031920
3301.000000;3.101341
3300.000000;3.327147
3299.000000;3.226972
3298.000000;2.977061
3297.000000;2.855744
3296.000000;2.822117
3295.000000;2.864217
3294.000000;2.977378
3293.000000;3.107485
3292.000000;3.262825
3291.000000;3.620309
3290.000000;3.305662
3289.000000;2.971181
3288.000000;2.864673
3287.000000;2.834806
3286.000000;2.814164
3285.000000;2.759776
3284.000000;2.706746
3283.000000;2.683906
3282.000000;2.708551
3281.000000;2.798148
3280.000000;2.998475
3279.000000;3.121198
3278.000000;2.929155
3277.000000;2.838051
3276.000000;2.870601
3275.000000;2.951528
3274.000000;3.011567
3273.000000;3.014430
3272.000000;2.995421
3271.000000;2.969709
3270.000000;2.947974
3269.000000;2.942044
3268.000000;2.979122
3267.000000;3.064378
3266.000000;3.162092
3265.000000;3.200059
3264.000000;3.165601
3263.000000;3.104350
3262.000000;3.028023
3261.000000;2.963917
3260.000000;2.943626
3259.000000;2.974282
3258.000000;3.058882
3257.000000;3.150670
3256.000000;3.085984
3255.000000;2.908240
3254.000000;2.783213
3253.000000;2.757798
3252.000000;2.841043
3251.000000;2.985046
3250.000000;3.131641
3249.000000;3.458373
3248.000000;3.462566
3247.000000;3.177372
3246.000000;3.177521
3245.000000;3.074808
3244.000000;2.954468
3243.000000;2.918936
3242.000000;2.928076
3241.000000;2.917560
3240.000000;2.909145
3239.000000;2.944962
3238.000000;3.084764
3237.000000;3.810775
3236.000000;3.353840
3235.000000;2.980258
3234.000000;2.934781
3233.000000;2.924290
3232.000000;2.976204
3231.000000;3.154945
3230.000000;3.458900
3229.000000;3.361667
3228.000000;3.124738
3227.000000;2.971335
3226.000000;2.898382
3225.000000;2.872563
3224.000000;2.904817
3223.000000;3.029958
3222.000000;3.310790
3221.000000;3.486681
3220.000000;3.257722
3219.000000;3.356373
3218.000000;3.491064
3217.000000;3.178356
3216.000000;2.989635
3215.000000;2.938707
3214.000000;2.956556
3213.000000;3.004446
3212.000000;3.094455
3211.000000;3.289532
3210.000000;3.478643
3209.000000;3.374969
3208.000000;3.387240
3207.000000;3.373464
3206.000000;3.064083
3205.000000;2.868797
3204.000000;2.823401
3203.000000;2.895178
3202.000000;3.140289
3201.000000;3.620814
3200.000000;3.443458
3199.000000;3.313462
3198.000000;3.623295
3197.000000;3.868070
3196.000000;3.342154
3195.000000;3.172419
3194.000000;3.028616
3193.000000;2.906790
3192.000000;2.796052
3191.000000;2.732543
3190.000000;2.758585
3189.000000;2.832315
3188.000000;2.856500
3187.000000;2.849118
3186.000000;2.827511
3185.000000;2.759554
3184.000000;2.745499
3183.000000;2.867148
3182.000000;3.282133
3181.000000;3.580627
3180.000000;3.317863
3179.000000;3.540257
3178.000000;3.893894
3177.000000;3.526941
3176.000000;3.185342
3175.000000;2.936628
3174.000000;2.873823
3173.000000;2.992132
3172.000000;3.264029
3171.000000;3.510166
3170.000000;3.391310
3169.000000;3.165994
3168.000000;2.987762
3167.000000;2.848261
3166.000000;2.759651
3165.000000;2.740845
3164.000000;2.805807
3163.000000;2.979241
3162.000000;3.237147
3161.000000;3.282021
3160.000000;3.186192
3159.000000;3.169822
3158.000000;3.152887
3157.000000;3.181453
3156.000000;3.304759
3155.000000;3.201363
3154.000000;2.994950
3153.000000;2.945607
3152.000000;3.007275
3151.000000;3.032599
3150.000000;3.029413
3149.000000;3.142900
3148.000000;3.513594
3147.000000;3.378940
3146.000000;3.071302
3145.000000;3.043981
3144.000000;3.257267
3143.000000;3.650593
3142.000000;3.507723
3141.000000;3.294868
3140.000000;3.097471
3139.000000;2.947337
3138.000000;2.892284
3137.000000;3.059108
3136.000000;3.197468
3135.000000;2.892790
3134.000000;2.749344
3133.000000;2.741990
3132.000000;2.765970
3131.000000;2.754610
3130.000000;2.706992
3129.000000;2.699125
3128.000000;2.787910
3127.000000;3.031036
3126.000000;3.722570
3125.000000;3.506884
3124.000000;3.146660
3123.000000;2.933472
3122.000000;2.798083
3121.000000;2.829693
3120.000000;3.103003
3119.000000;3.279025
3118.000000;3.019333
3117.000000;2.923905
3116.000000;2.812575
3115.000000;2.723054
3114.000000;2.704172
3113.000000;2.761426
3112.000000;2.915982
3111.000000;3.198844
3110.000000;3.315528
3109.000000;3.131781
3108.000000;3.069809
3107.000000;3.093536
3106.000000;3.405804
3105.000000;3.606862
3104.000000;3.183689
3103.000000;3.068083
3102.000000;2.902437
3101.000000;2.740298
3100.000000;2.739657
3099.000000;2.925478
3098.000000;3.355201
3097.000000;3.650658
3096.000000;3.246770
3095.000000;3.025940
3094.000000;3.076362
3093.000000;3.332472
3092.000000;3.191532
3091.000000;3.124868
3090.000000;3.256200
3089.000000;3.151014
3088.000000;2.918829
3087.000000;2.830604
3086.000000;2.859411
3085.000000;3.183674
3084.000000;3.590750
3083.000000;3.078371
3082.000000;3.038091
3081.000000;3.154480
3080.000000;3.215907
3079.000000;3.177528
3078.000000;3.208115
3077.000000;3.900924
3076.000000;3.631865
3075.000000;3.249122
3074.000000;3.113977
3073.000000;2.911201
3072.000000;2.826165
3071.000000;2.850838
3070.000000;2.965826
3069.000000;3.130178
3068.000000;3.106508
3067.000000;2.975237
3066.000000;2.913998
3065.000000;2.937416
3064.000000;3.091842
3063.000000;3.259657
3062.000000;3.098974
3061.000000;2.944689
3060.000000;2.894222
3059.000000;2.963093
3058.000000;3.065835
3057.000000;3.066949
3056.000000;3.032589
3055.000000;3.004219
3054.000000;3.028034
3053.000000;3.487730
3052.000000;3.501762
3051.000000;2.984839
3050.000000;2.817610
3049.000000;2.717899
3048.000000;2.710168
3047.000000;2.791889
3046.000000;2.858893
3045.000000;2.870517
3044.000000;2.988868
3043.000000;3.200267
3042.000000;3.161205
3041.000000;3.142192
3040.000000;3.295709
3039.000000;3.679128
3038.000000;3.569476
3037.000000;3.305588
3036.000000;3.322844
3035.000000;3.432150
3034.000000;3.342141
3033.000000;3.239222
3032.000000;3.225013
3031.000000;3.271292
3030.000000;3.293840
3029.000000;3.077378
3028.000000;2.847312
3027.000000;2.788951
3026.000000;2.899949
3025.000000;3.486404
3024.000000;3.234595
3023.000000;2.834315
3022.000000;2.737861
3021.000000;2.690205
3020.000000;2.751928
3019.000000;2.960442
3018.000000;3.976871
3017.000000;3.269581
3016.000000;3.087046
3015.000000;3.262304
3014.000000;3.324338
3013.000000;3.129691
3012.000000;3.017597
3011.000000;2.995405
3010.000000;3.056890
3009.000000;3.165277
3008.000000;3.219376
3007.000000;3.331933
3006.000000;3.765085
3005.000000;3.676133
3004.000000;3.206833
3003.000000;3.086560
3002.000000;3.068321
3001.000000;3.079521
3000.000000;2.985565
2999.000000;2.824363
2998.000000;2.727874
2997.000000;2.731062
2996.000000;2.811328
2995.000000;2.894049
2994.000000;2.908824
2993.000000;2.948710
2992.000000;3.087487
2991.000000;3.169950
2990.000000;3.108983
2989.000000;2.996795
2988.000000;2.873067
2987.000000;2.820273
2986.000000;2.876539
2985.000000;2.996485
2984.000000;3.075216
2983.000000;3.169653
2982.000000;3.366087
2981.000000;3.701367
2980.000000;4.174181
2979.000000;3.819764
2978.000000;3.573943
2977.000000;3.426890
2976.000000;3.173428
2975.000000;2.984457
2974.000000;2.936088
2973.000000;2.994529
2972.000000;3.037013
2971.000000;3.004304
2970.000000;2.978655
2969.000000;2.978122
2968.000000;3.021982
2967.000000;3.113071
2966.000000;3.041405
2965.000000;2.904980
2964.000000;2.868647
2963.000000;2.946749
2962.000000;3.215406
2961.000000;3.165725
2960.000000;2.954434
2959.000000;2.982702
2958.000000;3.188482
2957.000000;3.124840
2956.000000;3.111167
2955.000000;3.315412
2954.000000;3.174121
2953.000000;3.089775
2952.000000;3.452601
2951.000000;3.598001
2950.000000;3.052612
2949.000000;3.027928
2948.000000;3.087642
2947.000000;3.158714
2946.000000;3.182254
2945.000000;3.227341
2944.000000;3.310260
2943.000000;3.386460
2942.000000;3.859745
2941.000000;3.695413
2940.000000;3.268256
2939.000000;3.207946
2938.000000;3.319734
2937.000000;3.612026
2936.000000;3.329310
2935.000000;3.123329
2934.000000;3.095471
2933.000000;3.067165
2932.000000;3.068578
2931.000000;3.308886
2930.000000;3.350073
2929.000000;2.991606
2928.000000;2.955626
2927.000000;3.116754
2926.000000;3.259671
2925.000000;3.155486
2924.000000;3.161159
2923.000000;3.147217
2922.000000;3.077796
2921.000000;3.040219
2920.000000;3.055842
2919.000000;3.101838
2918.000000;3.082739
2917.000000;3.049476
2916.000000;3.100489
2915.000000;3.451881
2914.000000;3.430493
2913.000000;3.061181
2912.000000;2.935246
2911.000000;2.963770
2910.000000;3.091648
2909.000000;3.083002
2908.000000;3.070853
2907.000000;3.244437
2906.000000;3.593463
2905.000000;3.136083
2904.000000;2.910023
2903.000000;2.840155
2902.000000;2.886466
2901.000000;2.973092
2900.000000;2.957176
2899.000000;2.879624
2898.000000;2.842968
2897.000000;2.864658
2896.000000;2.956838
2895.000000;3.096311
2894.000000;3.347095
2893.000000;3.325703
2892.000000;3.006908
2891.000000;2.889586
2890.000000;2.923882
2889.000000;3.121862
2888.000000;3.574082
2887.000000;4.003977
2886.000000;3.347138
2885.000000;3.048245
2884.000000;3.002409
2883.000000;3.095106
2882.000000;3.032347
2881.000000;2.983858
2880.000000;3.076995
2879.000000;3.147576
2878.000000;3.181200
2877.000000;3.333482
2876.000000;3.590331
2875.000000;3.738201
2874.000000;3.618843
2873.000000;3.389329
2872.000000;3.214465
2871.000000;3.144931
2870.000000;3.218578
2869.000000;3.570475
2868.000000;3.421510
2867.000000;3.069161
2866.000000;3.033032
2865.000000;3.095198
2864.000000;3.058193
2863.000000;2.929115
2862.000000;2.873717
2861.000000;2.875341
2860.000000;2.908005
2859.000000;2.965654
2858.000000;3.079918
2857.000000;3.341300
2856.000000;3.591327
2855.000000;3.206602
2854.000000;3.014209
2853.000000;2.986613
2852.000000;3.086261
2851.000000;3.253483
2850.000000;3.465390
2849.000000;4.340615
2848.000000;3.227985
2847.000000;3.136590
2846.000000;3.243299
2845.000000;3.244835
2844.000000;3.116266
2843.000000;3.004391
2842.000000;2.878051
2841.000000;2.832573
2840.000000;2.875610
2839.000000;3.012854
2838.000000;3.226384
2837.000000;3.507640
2836.000000;3.773974
2835.000000;3.380189
2834.000000;3.181111
2833.000000;3.157028
2832.000000;3.108021
2831.000000;3.099325
2830.000000;3.370908
2829.000000;3.462499
2828.000000;3.043764
2827.000000;2.920379
2826.000000;2.928654
2825.000000;2.921394
2824.000000;2.840194
2823.000000;2.743320
2822.000000;2.704197
2821.000000;2.756948
2820.000000;2.951317
2819.000000;3.229403
2818.000000;2.981686
2817.000000;2.793826
2816.000000;2.765437
2815.000000;2.840153
2814.000000;2.933792
2813.000000;3.208940
2812.000000;3.305990
2811.000000;2.898837
2810.000000;2.744421
2809.000000;2.725903
2808.000000;2.804765
2807.000000;2.880960
2806.000000;2.899902
2805.000000;2.968352
2804.000000;3.171185
2803.000000;3.585339
2802.000000;3.690105
2801.000000;3.627171
2800.000000;3.773672
2799.000000;3.698201
2798.000000;3.263944
2797.000000;3.028990
2796.000000;2.924682
2795.000000;2.898454
2794.000000;2.927424
2793.000000;3.008772
2792.000000;3.111497
2791.000000;3.184601
2790.000000;3.209701
2789.000000;3.179721
2788.000000;3.116032
2787.000000;3.053541
2786.000000;2.992428
2785.000000;2.903675
2784.000000;2.871979
2783.000000;2.955886
2782.000000;3.442272
2781.000000;3.711605
2780.000000;3.343829
2779.000000;3.176771
2778.000000;2.934550
2777.000000;2.789436
2776.000000;2.739057
2775.000000;2.772714
2774.000000;2.866134
2773.000000;2.970496
2772.000000;3.014589
2771.000000;2.920741
2770.000000;2.803755
2769.000000;2.747021
2768.000000;2.747908
2767.000000;2.786375
2766.000000;2.832931
2765.000000;2.893613
2764.000000;3.004001
2763.000000;3.032747
2762.000000;2.964315
2761.000000;3.003310
2760.000000;3.198705
2759.000000;3.168657
2758.000000;2.930922
2757.000000;2.861949
2756.000000;2.886677
2755.000000;2.939924
2754.000000;3.015749
2753.000000;3.184017
2752.000000;3.389687
2751.000000;3.369556
2750.000000;3.405964
2749.000000;3.429881
2748.000000;3.338108
2747.000000;3.420383
2746.000000;3.613075
2745.000000;3.489751
2744.000000;3.064150
2743.000000;2.812803
2742.000000;2.695137
2741.000000;2.669954
2740.000000;2.736845
2739.000000;2.927317
2738.000000;3.232808
2737.000000;3.520511
2736.000000;3.670411
2735.000000;3.791631
2734.000000;4.038002
2733.000000;3.851151
2732.000000;3.864173
2731.000000;3.252082
2730.000000;2.907446
2729.000000;2.792159
2728.000000;2.787144
2727.000000;2.851253
2726.000000;2.900588
2725.000000;2.887609
2724.000000;2.833079
2723.000000;2.768055
2722.000000;2.737336
2721.000000;2.764759
2720.000000;2.838156
2719.000000;2.918488
2718.000000;2.946838
2717.000000;2.967827
2716.000000;3.087189
2715.000000;3.372082
2714.000000;3.733568
2713.000000;3.323312
2712.000000;3.095714
2711.000000;3.076732
2710.000000;3.242934
2709.000000;3.511056
2708.000000;3.634849
2707.000000;3.585143
2706.000000;3.513897
2705.000000;3.487360
2704.000000;3.225833
2703.000000;3.035322
2702.000000;3.039359
2701.000000;3.048761
2700.000000;2.966177
2699.000000;2.922190
2698.000000;2.967272
2697.000000;3.186470
2696.000000;3.735673
2695.000000;3.260828
2694.000000;3.216750
2693.000000;4.112910
2692.000000;3.355582
2691.000000;3.320078
2690.000000;3.806656
2689.000000;3.222581
2688.000000;2.977790
2687.000000;2.845222
2686.000000;2.794589
2685.000000;2.850960
2684.000000;3.052001
2683.000000;3.470009
2682.000000;4.310941
2681.000000;4.267415
2680.000000;3.669150
2679.000000;3.385198
2678.000000;3.290969
2677.000000;3.251298
2676.000000;3.171462
2675.000000;3.061744
2674.000000;2.936096
2673.000000;2.834125
2672.000000;2.818619
2671.000000;2.950926
2670.000000;3.208253
2669.000000;3.083514
2668.000000;2.982459
2667.000000;3.003875
2666.000000;3.062844
2665.000000;3.333151
2664.000000;3.331946
2663.000000;2.923658
2662.000000;2.767917
2661.000000;2.764346
2660.000000;2.850327
2659.000000;2.947785
2658.000000;2.972309
2657.000000;2.848961
2656.000000;2.736974
2655.000000;2.741350
2654.000000;2.867233
2653.000000;3.081595
2652.000000;3.203068
2651.000000;3.082814
2650.000000;2.954531
2649.000000;2.954744
2648.000000;3.071889
2647.000000;3.561992
2646.000000;3.467946
2645.000000;3.038236
2644.000000;2.910455
2643.000000;2.877788
2642.000000;2.882523
2641.000000;2.879964
2640.000000;2.898208
2639.000000;2.995075
2638.000000;3.181739
2637.000000;3.122130
2636.000000;2.989993
2635.000000;2.964790
2634.000000;2.940785
2633.000000;2.916404
2632.000000;2.983731
2631.000000;3.189853
2630.000000;3.289108
2629.000000;3.098564
2628.000000;2.977882
2627.000000;2.928667
2626.000000;2.990129
2625.000000;3.239486
2624.000000;3.793841
2623.000000;3.616699
2622.000000;3.210984
2621.000000;2.984642
2620.000000;2.859586
2619.000000;2.819689
2618.000000;2.798038
2617.000000;2.770580
2616.000000;2.776236
2615.000000;2.862602
2614.000000;3.046729
2613.000000;3.568003
2612.000000;3.338215
2611.000000;2.936146
2610.000000;2.825540
2609.000000;2.912955
2608.000000;3.295380
2607.000000;3.471776
2606.000000;3.059563
2605.000000;2.967654
2604.000000;2.978031
2603.000000;3.075822
2602.000000;3.351960
2601.000000;3.540313
2600.000000;3.187703
2599.000000;3.024440
2598.000000;2.969342
2597.000000;3.000252
2596.000000;3.200274
2595.000000;3.550938
2594.000000;3.293229
2593.000000;3.124920
2592.000000;3.203900
2591.000000;3.360116
2590.000000;3.399814
2589.000000;3.280387
2588.000000;3.156357
2587.000000;3.048870
2586.000000;2.999617
2585.000000;3.050298
2584.000000;3.296949
2583.000000;3.927499
2582.000000;3.662726
2581.000000;3.710061
2580.000000;3.239254
2579.000000;2.969001
2578.000000;2.903761
2577.000000;3.049587
2576.000000;3.492066
2575.000000;3.324708
2574.000000;3.095257
2573.000000;3.132980
2572.000000;3.086933
2571.000000;3.265878
2570.000000;3.531152
2569.000000;3.072255
2568.000000;2.961405
2567.000000;3.103730
2566.000000;3.239169
2565.000000;3.169377
2564.000000;3.081718
2563.000000;3.188279
2562.000000;3.269137
2561.000000;3.205192
2560.000000;3.523645
2559.000000;3.004762
2558.000000;2.742379
2557.000000;2.742049
2556.000000;2.907198
2555.000000;3.148437
2554.000000;3.337107
2553.000000;3.643817
2552.000000;3.197419
2551.000000;2.935977
2550.000000;2.886877
2549.000000;2.947980
2548.000000;2.985004
2547.000000;2.914785
2546.000000;2.841064
2545.000000;2.824485
2544.000000;2.878857
2543.000000;2.967941
2542.000000;3.027871
2541.000000;3.026551
2540.000000;3.011231
2539.000000;3.054807
2538.000000;3.199666
2537.000000;3.552583
2536.000000;3.907314
2535.000000;3.678901
2534.000000;3.279337
2533.000000;3.071609
2532.000000;3.069078
2531.000000;3.294265
2530.000000;3.469216
2529.000000;2.963042
2528.000000;2.738853
2527.000000;2.677292
2526.000000;2.693417
2525.000000;2.732716
2524.000000;2.776317
2523.000000;2.877903
2522.000000;3.062938
2521.000000;3.073878
2520.000000;2.911898
2519.000000;2.903971
2518.000000;2.986014
2517.000000;2.971147
2516.000000;2.928696
2515.000000;2.954973
2514.000000;2.933512
2513.000000;2.861400
2512.000000;2.846222
2511.000000;2.917650
2510.000000;3.098706
2509.000000;3.431238
2508.000000;3.392868
2507.000000;3.152684
2506.000000;3.042924
2505.000000;2.998819
2504.000000;2.999870
2503.000000;3.067238
2502.000000;3.217211
2501.000000;3.350384
2500.000000;3.384941
2499.000000;3.563593
2498.000000;3.787367
2497.000000;3.584678
2496.000000;3.455915
2495.000000;3.327064
2494.000000;3.221872
2493.000000;3.215493
2492.000000;3.470981
2491.000000;3.486553
2490.000000;3.099182
2489.000000;2.915090
2488.000000;2.820656
2487.000000;2.826236
2486.000000;2.898353
2485.000000;2.955961
2484.000000;3.028327
2483.000000;3.194822
2482.000000;3.555950
2481.000000;3.516136
2480.000000;3.058974
2479.000000;2.844276
2478.000000;2.796581
2477.000000;2.910212
2476.000000;3.156540
2475.000000;3.303875
2474.000000;3.392764
2473.000000;3.024807
2472.000000;2.759277
2471.000000;2.702950
2470.000000;2.780644
2469.000000;2.924503
2468.000000;3.008629
2467.000000;3.019846
2466.000000;3.057042
2465.000000;3.166686
2464.000000;3.314961
2463.000000;3.277930
2462.000000;3.089865
2461.000000;2.955554
2460.000000;2.887703
2459.000000;2.872346
2458.000000;2.896927
2457.000000;2.963229
2456.000000;3.033643
2455.000000;3.006895
2454.000000;2.933078
2453.000000;2.896762
2452.000000;2.887419
2451.000000;2.872990
2450.000000;2.868643
2449.000000;2.916298
2448.000000;3.026829
2447.000000;3.146419
2446.000000;3.144145
2445.000000;2.988650
2444.000000;2.818822
2443.000000;2.720727
2442.000000;2.707077
2441.000000;2.737457
2440.000000;2.766436
2439.000000;2.832843
2438.000000;3.001374
2437.000000;3.372083
2436.000000;3.503960
2435.000000;3.164327
2434.000000;3.057909
2433.000000;3.196441
2432.000000;3.447880
2431.000000;3.160634
2430.000000;2.943198
2429.000000;2.910071
2428.000000;2.951540
2427.000000;3.035857
2426.000000;3.122972
2425.000000;3.185634
2424.000000;3.198113
2423.000000;3.186235
2422.000000;3.077101
2421.000000;2.982337
2420.000000;2.961271
2419.000000;3.214506
2418.000000;3.998493
2417.000000;3.107853
2416.000000;2.890612
2415.000000;2.871732
2414.000000;2.927609
2413.000000;3.011282
2412.000000;3.054167
2411.000000;3.254898
2410.000000;3.429279
2409.000000;3.078581
2408.000000;2.902508
2407.000000;2.930752
2406.000000;3.134097
2405.000000;3.694031
2404.000000;4.085813
2403.000000;3.653349
2402.000000;3.489760
2401.000000;3.305531
2400.000000;3.327559
2399.000000;3.717388
2398.000000;3.206444
2397.000000;2.919848
2396.000000;2.896361
2395.000000;2.994318
2394.000000;3.113966
2393.000000;3.104616
2392.000000;3.053562
2391.000000;3.082022
2390.000000;3.207034
2389.000000;3.289321
2388.000000;3.312267
2387.000000;3.216269
2386.000000;3.020661
2385.000000;2.934904
2384.000000;2.940573
2383.000000;3.021488
2382.000000;3.190413
2381.000000;3.499374
2380.000000;3.505995
2379.000000;3.151656
2378.000000;3.037087
2377.000000;3.153052
2376.000000;3.362991
2375.000000;3.281646
2374.000000;3.092763
2373.000000;2.993407
2372.000000;2.975142
2371.000000;3.027655
2370.000000;3.094084
2369.000000;3.095922
2368.000000;3.117048
2367.000000;3.097806
2366.000000;2.893416
2365.000000;2.766548
2364.000000;2.797392
2363.000000;2.949038
2362.000000;3.043840
2361.000000;3.017750
2360.000000;3.062119
2359.000000;3.208285
2358.000000;3.394784
2357.000000;3.314542
2356.000000;3.105237
2355.000000;2.998176
2354.000000;2.987827
2353.000000;3.026824
2352.000000;2.986274
2351.000000;3.143656
2350.000000;3.530071
2349.000000;3.229657
2348.000000;3.117842
2347.000000;3.169378
2346.000000;3.144520
2345.000000;3.073984
2344.000000;2.969763
2343.000000;2.909361
2342.000000;2.951580
2341.000000;3.046289
2340.000000;2.999704
2339.000000;2.936740
2338.000000;3.002181
2337.000000;3.129329
2336.000000;3.409867
2335.000000;3.812690
2334.000000;3.330512
2333.000000;3.150861
2332.000000;3.125424
2331.000000;3.199402
2330.000000;3.101518
2329.000000;2.839849
2328.000000;2.730832
2327.000000;2.742549
2326.000000;2.817184
2325.000000;2.886530
2324.000000;2.985594
2323.000000;3.088873
2322.000000;3.003729
2321.000000;2.889279
2320.000000;2.849380
2319.000000;2.851349
2318.000000;2.914694
2317.000000;2.948525
2316.000000;2.791324
2315.000000;2.634114
2314.000000;2.561840
2313.000000;2.555311
2312.000000;2.739133
2311.000000;2.953383
2310.000000;2.702582
2309.000000;2.698954
2308.000000;3.050750
2307.000000;2.991417
2306.000000;2.614039
2305.000000;2.490314
2304.000000;2.498548
2303.000000;2.772441
2302.000000;3.189013
2301.000000;2.806453
2300.000000;2.677846
2299.000000;2.787822
2298.000000;3.456295
2297.000000;3.280008
2296.000000;2.822513
2295.000000;2.764470
2294.000000;2.869320
2293.000000;3.450614
2292.000000;3.175522
2291.000000;2.896753
2290.000000;3.078349
2289.000000;3.322481
2288.000000;2.988734
2287.000000;2.781446
2286.000000;2.725225
2285.000000;2.704922
2284.000000;2.740079
2283.000000;2.851816
2282.000000;3.013746
2281.000000;3.035075
2280.000000;2.939183
2279.000000;3.321041
2278.000000;3.634434
2277.000000;2.853757
2276.000000;2.718648
2275.000000;2.744767
2274.000000;2.880682
2273.000000;3.129361
2272.000000;3.530575
2271.000000;3.545411
2270.000000;3.166895
2269.000000;3.145359
2268.000000;3.254952
2267.000000;3.318071
2266.000000;3.276880
2265.000000;3.395312
2264.000000;3.621050
2263.000000;3.335362
2262.000000;3.108569
2261.000000;3.029983
2260.000000;2.995831
2259.000000;2.948904
2258.000000;2.888026
2257.000000;2.872846
2256.000000;2.920121
2255.000000;2.963068
2254.000000;2.959242
2253.000000;2.978098
2252.000000;3.006357
2251.000000;2.996857
2250.000000;3.015952
2249.000000;3.058058
2248.000000;3.046082
2247.000000;3.090120
2246.000000;3.090793
2245.000000;2.921947
2244.000000;2.827927
2243.000000;2.878767
2242.000000;3.044938
2241.000000;3.084547
2240.000000;2.916458
2239.000000;2.807014
2238.000000;2.812610
2237.000000;2.962680
2236.000000;3.345850
2235.000000;3.835905
2234.000000;3.535664
2233.000000;3.253811
2232.000000;3.195323
2231.000000;3.300698
2230.000000;3.226042
2229.000000;3.183866
2228.000000;3.411369
2227.000000;3.280878
2226.000000;3.026083
2225.000000;2.886217
2224.000000;2.773582
2223.000000;2.708491
2222.000000;2.729849
2221.000000;2.839098
2220.000000;3.022486
2219.000000;3.562473
2218.000000;3.538858
2217.000000;3.086165
2216.000000;3.160240
2215.000000;3.379732
2214.000000;3.160709
2213.000000;2.906706
2212.000000;2.788473
2211.000000;2.763811
2210.000000;2.864053
2209.000000;3.160545
2208.000000;3.339815
2207.000000;3.159387
2206.000000;3.105774
2205.000000;3.173004
2204.000000;3.242886
2203.000000;3.138916
2202.000000;3.029428
2201.000000;3.107139
2200.000000;3.300425
2199.000000;3.189553
2198.000000;3.014949
2197.000000;2.958483
2196.000000;2.956033
2195.000000;3.057431
2194.000000;3.310464
2193.000000;3.355749
2192.000000;3.050249
2191.000000;2.850041
2190.000000;2.822728
2189.000000;2.954313
2188.000000;3.230818
2187.000000;3.714276
2186.000000;3.518039
2185.000000;3.070815
2184.000000;2.844225
2183.000000;2.730719
2182.000000;2.727018
2181.000000;2.809406
2180.000000;2.944350
2179.000000;3.045337
2178.000000;3.183670
2177.000000;3.624894
2176.000000;3.407315
2175.000000;3.080977
2174.000000;2.982636
2173.000000;2.872355
2172.000000;2.814925
2171.000000;2.828138
2170.000000;2.878592
2169.000000;2.933049
2168.000000;3.001528
2167.000000;3.193500
2166.000000;3.583678
2165.000000;3.797779
2164.000000;3.351918
2163.000000;2.948732
2162.000000;2.773623
2161.000000;2.745586
2160.000000;2.843768
2159.000000;3.263815
2158.000000;3.389286
2157.000000;2.959829
2156.000000;2.845800
2155.000000;2.824690
2154.000000;2.840067
2153.000000;2.948672
2152.000000;3.114390
2151.000000;3.208495
2150.000000;3.173525
2149.000000;3.302714
2148.000000;3.759108
2147.000000;3.367864
2146.000000;3.053243
2145.000000;2.975154
2144.000000;2.996301
2143.000000;3.145711
2142.000000;3.341393
2141.000000;3.271860
2140.000000;3.146819
2139.000000;3.197919
2138.000000;3.397453
2137.000000;3.772262
2136.000000;3.390943
2135.000000;3.091931
2134.000000;3.001262
2133.000000;3.103370
2132.000000;3.828435
2131.000000;3.482170
2130.000000;3.127791
2129.000000;3.123035
2128.000000;3.258497
2127.000000;3.540581
2126.000000;3.500520
2125.000000;3.672678
2124.000000;3.324218
2123.000000;2.976680
2122.000000;2.886716
2121.000000;2.893351
2120.000000;2.902914
2119.000000;2.882005
2118.000000;2.893558
2117.000000;3.116113
2116.000000;3.614306
2115.000000;3.380211
2114.000000;3.270146
2113.000000;3.454428
2112.000000;3.479225
2111.000000;3.259654
2110.000000;3.041490
2109.000000;2.973372
2108.000000;3.029565
2107.000000;3.062778
2106.000000;3.037862
2105.000000;3.247870
2104.000000;3.533811
2103.000000;3.224383
2102.000000;3.162488
2101.000000;3.370521
2100.000000;3.638972
2099.000000;3.428596
2098.000000;3.368018
2097.000000;3.388642
2096.000000;3.131166
2095.000000;3.108262
2094.000000;3.234942
2093.000000;3.090325
2092.000000;2.911864
2091.000000;2.855368
2090.000000;2.890867
2089.000000;2.984973
2088.000000;3.147265
2087.000000;3.265799
2086.000000;3.202615
2085.000000;3.105430
2084.000000;3.112908
2083.000000;3.546687
2082.000000;3.622331
2081.000000;3.213002
2080.000000;3.208258
2079.000000;3.423990
2078.000000;3.730222
2077.000000;3.136136
2076.000000;2.844081
2075.000000;2.791336
2074.000000;2.839631
2073.000000;2.929836
2072.000000;2.983452
2071.000000;3.013205
2070.000000;3.024699
2069.000000;3.075643
2068.000000;3.217725
2067.000000;3.442562
2066.000000;3.399298
2065.000000;3.072606
2064.000000;2.890229
2063.000000;2.855647
2062.000000;2.923506
2061.000000;3.070909
2060.000000;3.165609
2059.000000;3.097780
2058.000000;3.029964
2057.000000;2.949723
2056.000000;2.820753
2055.000000;2.694172
2054.000000;2.602680
2053.000000;2.577253
2052.000000;2.609751
2051.000000;2.666679
2050.000000;2.743754
2049.000000;2.821661
2048.000000;2.863715
2047.000000;2.866489
2046.000000;2.819598
2045.000000;2.797801
2044.000000;2.888255
2043.000000;3.098306
2042.000000;3.169175
2041.000000;3.005962
2040.000000;2.894688
2039.000000;2.855313
2038.000000;2.859116
2037.000000;2.881623
2036.000000;2.871556
2035.000000;2.857009
2034.000000;2.876931
2033.000000;2.992276
2032.000000;3.374624
2031.000000;3.429606
2030.000000;3.125344
2029.000000;3.220613
2028.000000;3.552742
2027.000000;3.340740
2026.000000;3.079058
2025.000000;3.059308
2024.000000;3.122066
2023.000000;3.202223
2022.000000;3.416716
2021.000000;3.414511
2020.000000;3.408739
2019.000000;3.405561
2018.000000;3.015892
2017.000000;2.805639
2016.000000;2.730455
2015.000000;2.748463
2014.000000;2.851106
2013.000000;3.139458
2012.000000;3.729613
2011.000000;3.346822
2010.000000;3.227236
2009.000000;3.618974
2008.000000;3.478180
2007.000000;3.109829
2006.000000;3.096917
2005.000000;3.200948
2004.000000;3.503159
2003.000000;3.516335
2002.000000;2.992222
2001.000000;2.735142
2000.000000;2.656758
1999.000000;2.723976
1998.000000;2.934161
1997.000000;3.116438
1996.000000;3.150344
1995.000000;3.106741
1994.000000;2.970552
1993.000000;2.871630
1992.000000;3.059335
1991.000000;3.829077
1990.000000;3.364485
1989.000000;3.232458
1988.000000;3.208714
1987.000000;3.036586
1986.000000;3.094972
1985.000000;3.455029
1984.000000;3.465544
1983.000000;3.166428
1982.000000;3.073221
1981.000000;2.918723
1980.000000;2.861703
1979.000000;2.896631
1978.000000;2.928078
1977.000000;2.942734
1976.000000;2.961309
1975.000000;3.236736
1974.000000;3.524345
1973.000000;3.052224
1972.000000;2.882303
1971.000000;2.928551
1970.000000;3.101828
1969.000000;3.237058
1968.000000;3.272263
1967.000000;3.347844
1966.000000;3.173022
1965.000000;3.037150
1964.000000;3.050577
1963.000000;3.140210
1962.000000;3.280170
1961.000000;3.422712
1960.000000;3.470789
1959.000000;3.609594
1958.000000;3.681068
1957.000000;3.397114
1956.000000;3.225648
1955.000000;3.104937
1954.000000;3.073834
1953.000000;3.178786
1952.000000;3.145485
1951.000000;2.941727
1950.000000;2.808026
1949.000000;2.818523
1948.000000;2.958408
1947.000000;3.151444
1946.000000;3.103314
1945.000000;3.129996
1944.000000;3.798067
1943.000000;3.189374
1942.000000;2.835671
1941.000000;2.808076
1940.000000;2.853738
1939.000000;2.895404
1938.000000;2.883478
1937.000000;2.869586
1936.000000;2.839695
1935.000000;2.812914
1934.000000;2.817965
1933.000000;2.885410
1932.000000;3.032916
1931.000000;3.244877
1930.000000;3.272869
1929.000000;3.035674
1928.000000;2.911622
1927.000000;3.009378
1926.000000;3.229059
1925.000000;3.202566
1924.000000;3.155099
1923.000000;3.140738
1922.000000;3.020742
1921.000000;2.944640
1920.000000;2.930895
1919.000000;3.043413
1918.000000;3.215326
1917.000000;2.986232
1916.000000;2.748750
1915.000000;2.644191
1914.000000;2.620607
1913.000000;2.637988
1912.000000;2.674135
1911.000000;2.762551
1910.000000;2.943557
1909.000000;3.048553
1908.000000;2.929943
1907.000000;2.890068
1906.000000;2.980201
1905.000000;3.141337
1904.000000;3.195546
1903.000000;3.101740
1902.000000;3.080932
1901.000000;3.167215
1900.000000;3.483627
1899.000000;3.914582
1898.000000;3.491562
1897.000000;3.241855
1896.000000;3.128923
1895.000000;3.063629
1894.000000;3.052642
1893.000000;3.069593
1892.000000;3.002339
1891.000000;2.919488
1890.000000;2.949387
1889.000000;3.073418
1888.000000;3.412850
1887.000000;3.411489
1886.000000;3.050156
1885.000000;2.885471
1884.000000;3.002886
1883.000000;3.612871
1882.000000;2.999513
1881.000000;2.686445
1880.000000;2.620118
1879.000000;2.679497
1878.000000;2.919138
1877.000000;3.138323
1876.000000;3.067387
1875.000000;3.119905
1874.000000;3.384341
1873.000000;3.505456
1872.000000;3.222236
1871.000000;3.032794
1870.000000;3.015984
1869.000000;3.138010
1868.000000;3.319228
1867.000000;3.168806
1866.000000;2.917258
1865.000000;2.806007
1864.000000;2.791595
1863.000000;2.855390
1862.000000;2.960854
1861.000000;3.160850
1860.000000;3.770239
1859.000000;3.538999
1858.000000;3.245608
1857.000000;3.333512
1856.000000;3.360014
1855.000000;3.061475
1854.000000;2.869265
1853.000000;2.836302
1852.000000;2.922487
1851.000000;3.199814
1850.000000;3.429317
1849.000000;3.110172
1848.000000;2.931512
1847.000000;2.882350
1846.000000;3.152642
1845.000000;3.259434
1844.000000;2.887707
1843.000000;2.854185
1842.000000;2.878499
1841.000000;2.863682
1840.000000;2.799644
1839.000000;2.783616
1838.000000;2.881610
1837.000000;3.101931
1836.000000;3.381200
1835.000000;3.482153
1834.000000;3.424148
1833.000000;3.287463
1832.000000;3.118778
1831.000000;3.000818
1830.000000;2.993395
1829.000000;3.065291
1828.000000;3.056032
1827.000000;3.002068
1826.000000;3.048387
1825.000000;3.276427
1824.000000;3.734998
1823.000000;3.344805
1822.000000;3.037372
1821.000000;2.960467
1820.000000;3.023171
1819.000000;3.455236
1818.000000;3.638038
1817.000000;3.138639
1816.000000;3.097458
1815.000000;3.156839
1814.000000;3.220523
1813.000000;3.504110
1812.000000;3.782099
1811.000000;3.389653
1810.000000;3.326987
1809.000000;3.293231
1808.000000;3.022452
1807.000000;2.854775
1806.000000;2.802833
1805.000000;2.795401
1804.000000;2.746622
1803.000000;2.706793
1802.000000;2.768010
1801.000000;3.003672
1800.000000;3.489947
1799.000000;3.309326
1798.000000;3.085172
1797.000000;3.073813
1796.000000;3.119728
1795.000000;3.173125
1794.000000;3.256605
1793.000000;3.178554
1792.000000;3.007532
1791.000000;2.988300
1790.000000;3.109940
1789.000000;3.251846
1788.000000;3.195587
1787.000000;3.087339
1786.000000;3.200164
1785.000000;3.865939
1784.000000;3.963806
1783.000000;3.554167
1782.000000;3.127316
1781.000000;2.877539
1780.000000;2.835357
1779.000000;2.985069
1778.000000;3.175772
1777.000000;2.983536
1776.000000;2.884817
1775.000000;2.946681
1774.000000;3.063463
1773.000000;3.104354
1772.000000;3.140828
1771.000000;3.236232
1770.000000;3.304462
1769.000000;3.573028
1768.000000;3.606555
1767.000000;3.399664
1766.000000;3.670718
1765.000000;3.396568
1764.000000;3.179225
1763.000000;3.216574
1762.000000;3.268947
1761.000000;3.268166
1760.000000;3.227887
1759.000000;3.239416
1758.000000;3.693607
1757.000000;3.589406
1756.000000;3.218000
1755.000000;3.186848
1754.000000;3.270651
1753.000000;3.279258
1752.000000;3.114369
1751.000000;3.111084
1750.000000;3.298918
1749.000000;3.657906
1748.000000;4.239954
1747.000000;3.572938
1746.000000;3.087036
1745.000000;2.905759
1744.000000;2.895574
1743.000000;3.008970
1742.000000;3.167393
1741.000000;3.225766
1740.000000;3.298040
1739.000000;3.465647
1738.000000;3.791213
1737.000000;3.627192
1736.000000;3.175359
1735.000000;3.012386
1734.000000;2.909551
1733.000000;2.899783
1732.000000;2.972869
1731.000000;3.138956
1730.000000;3.825842
1729.000000;3.338665
1728.000000;2.978574
1727.000000;2.897633
1726.000000;2.872742
1725.000000;2.927529
1724.000000;3.048177
1723.000000;3.269289
1722.000000;3.474568
1721.000000;3.166207
1720.000000;2.973334
1719.000000;3.023004
1718.000000;3.231337
1717.000000;3.376973
1716.000000;3.340802
1715.000000;3.308775
1714.000000;3.327780
1713.000000;3.375554
1712.000000;3.519809
1711.000000;3.940466
1710.000000;3.592292
1709.000000;3.227573
1708.000000;3.140020
1707.000000;3.148855
1706.000000;3.243297
1705.000000;3.384090
1704.000000;3.404339
1703.000000;3.098859
1702.000000;3.030681
1701.000000;3.282821
1700.000000;3.139955
1699.000000;3.140323
1698.000000;3.139934
1697.000000;3.161606
1696.000000;3.176648
1695.000000;3.132003
1694.000000;3.141113
1693.000000;3.225674
1692.000000;3.417467
1691.000000;3.366563
1690.000000;3.221235
1689.000000;3.312978
1688.000000;3.689080
1687.000000;3.359178
1686.000000;2.945698
1685.000000;2.857401
1684.000000;2.885321
1683.000000;3.010957
1682.000000;3.251364
1681.000000;3.312923
1680.000000;3.062538
1679.000000;2.906932
1678.000000;2.928057
1677.000000;3.469873
1676.000000;3.499199
1675.000000;3.238454
1674.000000;3.393151
1673.000000;3.424680
1672.000000;3.436611
1671.000000;3.397261
1670.000000;3.377955
1669.000000;3.444345
1668.000000;3.546681
1667.000000;3.747081
1666.000000;4.309103
1665.000000;3.748718
1664.000000;3.519276
1663.000000;3.572549
1662.000000;3.826929
1661.000000;3.471762
1660.000000;3.258482
1659.000000;3.289767
1658.000000;3.403667
1657.000000;3.460077
1656.000000;3.592713
1655.000000;3.815132
1654.000000;3.376085
1653.000000;3.145392
1652.000000;3.127274
1651.000000;3.153021
1650.000000;3.139110
1649.000000;3.142047
1648.000000;3.139539
1647.000000;3.069385
1646.000000;2.987545
1645.000000;2.978214
1644.000000;3.029100
1643.000000;3.120478
1642.000000;3.264306
1641.000000;3.500409
1640.000000;3.627420
1639.000000;3.193861
1638.000000;2.935480
1637.000000;2.821627
1636.000000;2.851947
1635.000000;3.097398
1634.000000;3.143908
1633.000000;2.944952
1632.000000;2.961731
1631.000000;3.126193
1630.000000;3.638369
1629.000000;3.796438
1628.000000;3.329949
1627.000000;3.229022
1626.000000;3.221834
1625.000000;3.432779
1624.000000;3.557392
1623.000000;3.325281
1622.000000;3.208183
1621.000000;3.181634
1620.000000;3.187394
1619.000000;3.116198
1618.000000;2.928783
1617.000000;2.821669
1616.000000;2.832938
1615.000000;2.934494
1614.000000;3.133929
1613.000000;3.534708
1612.000000;3.408292
1611.000000;3.169116
1610.000000;3.119310
1609.000000;3.104691
1608.000000;3.070570
1607.000000;3.060571
1606.000000;3.218988
1605.000000;3.672085
1604.000000;3.414255
1603.000000;3.068000
1602.000000;2.964785
1601.000000;2.943256
1600.000000;2.981413
1599.000000;3.085742
1598.000000;3.343669
1597.000000;3.797506
1596.000000;3.927894
1595.000000;3.661839
1594.000000;3.386874
1593.000000;3.235384
1592.000000;3.213215
1591.000000;3.270363
1590.000000;3.169325
1589.000000;3.023351
1588.000000;3.005766
1587.000000;3.098992
1586.000000;3.178957
1585.000000;3.103138
1584.000000;3.007189
1583.000000;3.019863
1582.000000;3.175002
1581.000000;3.602921
1580.000000;4.017494
1579.000000;3.417183
1578.000000;3.294652
1577.000000;3.298635
1576.000000;3.324571
1575.000000;3.295626
1574.000000;3.318174
1573.000000;3.374798
1572.000000;3.410971
1571.000000;3.391191
1570.000000;3.251250
1569.000000;3.120765
1568.000000;3.094113
1567.000000;3.150006
1566.000000;3.108035
1565.000000;3.007687
1564.000000;2.977129
1563.000000;3.017835
1562.000000;3.037612
1561.000000;3.008289
1560.000000;3.263351
1559.000000;3.694311
1558.000000;3.483838
1557.000000;3.314394
1556.000000;3.317156
1555.000000;3.636097
1554.000000;3.945095
1553.000000;3.235893
1552.000000;3.049466
1551.000000;2.956157
1550.000000;2.955179
1549.000000;2.992736
1548.000000;3.029640
1547.000000;3.046377
1546.000000;3.080194
1545.000000;3.114081
1544.000000;3.110493
1543.000000;3.132462
1542.000000;3.234499
1541.000000;3.366658
1540.000000;3.487609
1539.000000;3.745524
1538.000000;4.062464
1537.000000;3.386113
1536.000000;3.104584
1535.000000;3.111295
1534.000000;3.371786
1533.000000;3.264449
1532.000000;3.088560
1531.000000;3.036854
1530.000000;3.046691
1529.000000;3.114027
1528.000000;3.223276
1527.000000;3.210587
1526.000000;3.109801
1525.000000;3.066367
1524.000000;3.074125
1523.000000;3.146227
1522.000000;3.063123
1521.000000;2.935985
1520.000000;3.011632
1519.000000;3.343928
1518.000000;3.465228
1517.000000;3.195270
1516.000000;3.090687
1515.000000;3.055215
1514.000000;3.114566
1513.000000;3.321800
1512.000000;3.514488
1511.000000;3.318474
1510.000000;3.140471
1509.000000;3.090443
1508.000000;3.131188
1507.000000;3.131653
1506.000000;3.159705
1505.000000;3.258733
1504.000000;3.434454
1503.000000;3.604074
1502.000000;3.333905
1501.000000;3.157893
1500.000000;3.108040
1499.000000;3.195795
1498.000000;3.458319
1497.000000;3.628654
1496.000000;3.646346
1495.000000;3.343365
1494.000000;3.110749
1493.000000;3.140355
1492.000000;3.403055
1491.000000;3.467442
1490.000000;3.690638
1489.000000;3.679560
1488.000000;3.219181
1487.000000;3.026537
1486.000000;2.989967
1485.000000;3.053616
1484.000000;3.130540
1483.000000;3.248327
1482.000000;3.462637
1481.000000;3.625034
1480.000000;3.636218
1479.000000;3.153901
1478.000000;2.975651
1477.000000;3.071778
1476.000000;3.554974
1475.000000;3.310038
1474.000000;2.920621
1473.000000;2.779603
1472.000000;2.761630
1471.000000;2.858856
1470.000000;3.189490
1469.000000;3.310523
1468.000000;2.955723
1467.000000;2.986769
1466.000000;3.281902
1465.000000;3.433161
1464.000000;3.342162
1463.000000;3.376185
1462.000000;3.138414
1461.000000;2.820663
1460.000000;2.584496
1459.000000;2.461030
1458.000000;2.456491
1457.000000;2.617737
1456.000000;3.011780
1455.000000;3.715920
1454.000000;4.096914
1453.000000;3.895277
1452.000000;3.720673
1451.000000;3.344734
1450.000000;3.057554
1449.000000;2.967631
1448.000000;3.048296
1447.000000;3.122388
1446.000000;3.092725
1445.000000;3.185744
1444.000000;3.323582
1443.000000;3.260941
1442.000000;3.247760
1441.000000;3.163418
1440.000000;2.962278
1439.000000;2.834210
1438.000000;2.838741
1437.000000;2.825995
1436.000000;2.849331
1435.000000;2.995646
1434.000000;3.334883
1433.000000;3.579869
1432.000000;3.281721
1431.000000;3.319245
1430.000000;3.447232
1429.000000;3.224655
1428.000000;3.197066
1427.000000;3.383877
1426.000000;3.643368
1425.000000;3.511775
1424.000000;3.330905
1423.000000;3.310975
1422.000000;3.428142
1421.000000;3.000685
1420.000000;2.760302
1419.000000;2.800487
1418.000000;3.038752
1417.000000;3.600186
1416.000000;3.542126
1415.000000;3.122159
1414.000000;3.038659
1413.000000;3.241230
1412.000000;3.542791
1411.000000;3.012790
1410.000000;2.783210
1409.000000;2.711526
1408.000000;2.700444
1407.000000;2.738389
1406.000000;2.847636
1405.000000;3.099026
1404.000000;3.278107
1403.000000;3.231944
1402.000000;3.342387
1401.000000;3.070320
1400.000000;2.879564
1399.000000;2.846404
1398.000000;2.849880
1397.000000;2.841242
1396.000000;2.850377
1395.000000;2.949917
1394.000000;3.190377
1393.000000;3.149051
1392.000000;2.970788
1391.000000;2.955470
1390.000000;3.046362
1389.000000;3.074875
1388.000000;2.926998
1387.000000;2.855482
1386.000000;2.897828
1385.000000;3.053487
1384.000000;3.307414
1383.000000;3.629651
1382.000000;3.770190
1381.000000;3.592511
1380.000000;3.593977
1379.000000;3.413499
1378.000000;3.266931
1377.000000;3.273220
1376.000000;3.251206
1375.000000;3.232660
1374.000000;3.342071
1373.000000;3.704416
1372.000000;3.246119
1371.000000;2.975049
1370.000000;2.849095
1369.000000;2.798105
1368.000000;2.791899
1367.000000;2.830226
1366.000000;2.923331
1365.000000;3.070626
1364.000000;3.182466
1363.000000;3.219137
1362.000000;3.344903
1361.000000;3.264237
1360.000000;3.035371
1359.000000;2.964205
1358.000000;3.036771
1357.000000;3.258068
1356.000000;3.393703
1355.000000;3.157605
1354.000000;2.943610
1353.000000;2.875544
1352.000000;2.912020
1351.000000;2.931868
1350.000000;2.909674
1349.000000;2.946740
1348.000000;3.079885
1347.000000;3.397474
1346.000000;3.624456
1345.000000;3.205602
1344.000000;3.066742
1343.000000;3.018587
1342.000000;3.055495
1341.000000;3.341451
1340.000000;3.797744
1339.000000;3.142379
1338.000000;3.026153
1337.000000;3.025279
1336.000000;3.119395
1335.000000;3.460081
1334.000000;3.553795
1333.000000;3.146176
1332.000000;3.070072
1331.000000;3.014348
1330.000000;2.980646
1329.000000;3.016183
1328.000000;3.130957
1327.000000;3.299313
1326.000000;3.490029
1325.000000;3.958167
1324.000000;3.573578
1323.000000;3.243540
1322.000000;3.120184
1321.000000;3.129760
1320.000000;3.276392
1319.000000;3.291228
1318.000000;3.287547
1317.000000;3.572959
1316.000000;3.625155
1315.000000;3.478381
1314.000000;3.529561
1313.000000;3.258524
1312.000000;3.150341
1311.000000;3.392695
1310.000000;3.417301
1309.000000;3.035858
1308.000000;3.060151
1307.000000;3.405884
1306.000000;3.255023
1305.000000;2.947501
1304.000000;2.957904
1303.000000;3.280347
1302.000000;3.586924
1301.000000;3.195848
1300.000000;3.155364
1299.000000;3.251974
1298.000000;3.139219
1297.000000;2.946932
1296.000000;2.830971
1295.000000;2.805871
1294.000000;2.898953
1293.000000;3.165174
1292.000000;3.578364
1291.000000;3.294067
1290.000000;3.191766
1289.000000;3.033715
1288.000000;2.819996
1287.000000;2.753803
1286.000000;2.848797
1285.000000;3.240325
1284.000000;3.907561
1283.000000;3.262160
1282.000000;3.575756
1281.000000;3.365953
1280.000000;2.926791
1279.000000;2.853675
1278.000000;2.934024
1277.000000;3.139861
1276.000000;3.386235
1275.000000;3.563125
1274.000000;3.200843
1273.000000;2.980158
1272.000000;3.016972
1271.000000;3.069764
1270.000000;2.851932
1269.000000;2.732127
1268.000000;2.801811
1267.000000;3.117332
1266.000000;3.583670
1265.000000;3.129982
1264.000000;3.029439
1263.000000;3.089788
1262.000000;3.201415
1261.000000;3.223544
1260.000000;3.242081
1259.000000;3.282893
1258.000000;3.362852
1257.000000;3.465341
1256.000000;3.382814
1255.000000;3.318143
1254.000000;3.082060
1253.000000;2.814030
1252.000000;2.705932
1251.000000;2.737995
1250.000000;2.884129
1249.000000;2.987232
1248.000000;3.006592
1247.000000;3.019333
1246.000000;3.030038
1245.000000;3.188893
1244.000000;3.210870
1243.000000;3.134432
1242.000000;3.284336
1241.000000;3.519931
1240.000000;3.337211
1239.000000;2.992083
1238.000000;2.801698
1237.000000;2.764681
1236.000000;2.873545
1235.000000;3.143923
1234.000000;3.416562
1233.000000;3.382708
1232.000000;3.354910
1231.000000;3.349413
1230.000000;3.348158
1229.000000;3.334318
1228.000000;3.360022
1227.000000;3.235075
1226.000000;3.101416
1225.000000;3.149495
1224.000000;3.388316
1223.000000;3.467380
1222.000000;3.266625
1221.000000;3.192410
1220.000000;3.191823
1219.000000;3.148664
1218.000000;3.096468
1217.000000;2.975492
1216.000000;2.811891
1215.000000;2.722141
1214.000000;2.727249
1213.000000;2.820874
1212.000000;2.996005
1211.000000;3.233122
1210.000000;3.619701
1209.000000;3.945148
1208.000000;3.303454
1207.000000;3.125981
1206.000000;3.127773
1205.000000;3.277499
1204.000000;3.394107
1203.000000;3.305242
1202.000000;3.254353
1201.000000;3.273599
1200.000000;3.300186
