Criado como novo conjunto de dados;"e0108.spp","-4270304.0 Secs"
cm-1;Abs
10000.000000;1.047477
9999.000000;1.045394
9998.000000;1.042588
9997.000000;1.040227
9996.000000;1.039420
9995.000000;1.039915
9994.000000;1.040536
9993.000000;1.040208
9992.000000;1.039211
9991.000000;1.038682
9990.000000;1.039216
9989.000000;1.040108
9988.000000;1.040241
9987.000000;1.039280
9986.000000;1.037771
9985.000000;1.036433
9984.000000;1.035735
9983.000000;1.035829
9982.000000;1.036438
9981.000000;1.036895
9980.000000;1.036793
9979.000000;1.036500
9978.000000;1.036646
9977.000000;1.037225
9976.000000;1.037717
9975.000000;1.037904
9974.000000;1.037928
9973.000000;1.037587
9972.000000;1.036322
9971.000000;1.034182
9970.000000;1.032177
9969.000000;1.031271
9968.000000;1.031412
9967.000000;1.031869
9966.000000;1.032177
9965.000000;1.032342
9964.000000;1.032412
9963.000000;1.032370
9962.000000;1.032330
9961.000000;1.032360
9960.000000;1.032200
9959.000000;1.031580
9958.000000;1.030746
9957.000000;1.030263
9956.000000;1.030309
9955.000000;1.030553
9954.000000;1.030810
9953.000000;1.031391
9952.000000;1.032532
9951.000000;1.033750
9950.000000;1.034130
9949.000000;1.033233
9948.000000;1.031486
9947.000000;1.029667
9946.000000;1.028227
9945.000000;1.027162
9944.000000;1.026384
9943.000000;1.025979
9942.000000;1.026022
9941.000000;1.026206
9940.000000;1.025940
9939.000000;1.024975
9938.000000;1.023838
9937.000000;1.023352
9936.000000;1.023675
9935.000000;1.024073
9934.000000;1.023793
9933.000000;1.022989
9932.000000;1.022526
9931.000000;1.022904
9930.000000;1.023592
9929.000000;1.023551
9928.000000;1.022339
9927.000000;1.020547
9926.000000;1.019197
9925.000000;1.018830
9924.000000;1.019143
9923.000000;1.019320
9922.000000;1.018687
9921.000000;1.017160
9920.000000;1.015243
9919.000000;1.013736
9918.000000;1.013355
9917.000000;1.014369
9916.000000;1.016382
9915.000000;1.018435
9914.000000;1.019540
9913.000000;1.019349
9912.000000;1.018298
9911.000000;1.017046
9910.000000;1.015831
9909.000000;1.014512
9908.000000;1.013172
9907.000000;1.012351
9906.000000;1.012458
9905.000000;1.013178
9904.000000;1.013767
9903.000000;1.013876
9902.000000;1.013781
9901.000000;1.013764
9900.000000;1.013669
9899.000000;1.013249
9898.000000;1.012588
9897.000000;1.011849
9896.000000;1.010815
9895.000000;1.009133
9894.000000;1.007028
9893.000000;1.005425
9892.000000;1.005258
9891.000000;1.006748
9890.000000;1.009250
9889.000000;1.011528
9888.000000;1.012308
9887.000000;1.011059
9886.000000;1.008435
9885.000000;1.005706
9884.000000;1.003703
9883.000000;1.002509
9882.000000;1.001982
9881.000000;1.002012
9880.000000;1.002142
9879.000000;1.001634
9878.000000;1.000415
9877.000000;0.999474
9876.000000;0.999670
9875.000000;1.000450
9874.000000;1.000547
9873.000000;0.999851
9872.000000;0.999663
9871.000000;1.000814
9870.000000;1.002273
9869.000000;1.002166
9868.000000;0.999883
9867.000000;0.996700
9866.000000;0.994537
9865.000000;0.994528
9864.000000;0.996463
9863.000000;0.999018
9862.000000;1.000638
9861.000000;1.000678
9860.000000;0.999821
9859.000000;0.999244
9858.000000;0.999470
9857.000000;1.000124
9856.000000;1.000532
9855.000000;1.000253
9854.000000;0.999235
9853.000000;0.997871
9852.000000;0.996922
9851.000000;0.996976
9850.000000;0.997863
9849.000000;0.998756
9848.000000;0.998908
9847.000000;0.998095
9846.000000;0.996466
9845.000000;0.994353
9844.000000;0.992295
9843.000000;0.990862
9842.000000;0.990214
9841.000000;0.989999
9840.000000;0.989828
9839.000000;0.989672
9838.000000;0.989730
9837.000000;0.990116
9836.000000;0.990768
9835.000000;0.991476
9834.000000;0.991851
9833.000000;0.991481
9832.000000;0.990289
9831.000000;0.988650
9830.000000;0.987084
9829.000000;0.985942
9828.000000;0.985391
9827.000000;0.985400
9826.000000;0.985618
9825.000000;0.985523
9824.000000;0.984926
9823.000000;0.984173
9822.000000;0.983694
9821.000000;0.983540
9820.000000;0.983559
9819.000000;0.983785
9818.000000;0.984307
9817.000000;0.984850
9816.000000;0.984802
9815.000000;0.983726
9814.000000;0.981808
9813.000000;0.979839
9812.000000;0.978816
9811.000000;0.979338
9810.000000;0.981041
9809.000000;0.982696
9808.000000;0.983142
9807.000000;0.982162
9806.000000;0.980360
9805.000000;0.978438
9804.000000;0.976907
9803.000000;0.976235
9802.000000;0.976629
9801.000000;0.977572
9800.000000;0.978022
9799.000000;0.977355
9798.000000;0.975886
9797.000000;0.974337
9796.000000;0.973110
9795.000000;0.972308
9794.000000;0.972100
9793.000000;0.972660
9792.000000;0.973814
9791.000000;0.975023
9790.000000;0.975727
9789.000000;0.975622
9788.000000;0.974778
9787.000000;0.973698
9786.000000;0.973128
9785.000000;0.973429
9784.000000;0.974056
9783.000000;0.973946
9782.000000;0.972710
9781.000000;0.971250
9780.000000;0.970879
9779.000000;0.971859
9778.000000;0.973080
9777.000000;0.973269
9776.000000;0.972279
9775.000000;0.970993
9774.000000;0.970210
9773.000000;0.970025
9772.000000;0.970180
9771.000000;0.970528
9770.000000;0.970894
9769.000000;0.970844
9768.000000;0.970012
9767.000000;0.968575
9766.000000;0.967153
9765.000000;0.966238
9764.000000;0.965893
9763.000000;0.965919
9762.000000;0.966088
9761.000000;0.966259
9760.000000;0.966470
9759.000000;0.966872
9758.000000;0.967375
9757.000000;0.967464
9756.000000;0.966690
9755.000000;0.965344
9754.000000;0.964290
9753.000000;0.964047
9752.000000;0.964274
9751.000000;0.964219
9750.000000;0.963435
9749.000000;0.962019
9748.000000;0.960436
9747.000000;0.959278
9746.000000;0.958868
9745.000000;0.958929
9744.000000;0.958891
9743.000000;0.958696
9742.000000;0.958979
9741.000000;0.960167
9740.000000;0.961658
9739.000000;0.962351
9738.000000;0.961906
9737.000000;0.961004
9736.000000;0.960351
9735.000000;0.959872
9734.000000;0.959109
9733.000000;0.958048
9732.000000;0.957219
9731.000000;0.957089
9730.000000;0.957644
9729.000000;0.958548
9728.000000;0.959429
9727.000000;0.959941
9726.000000;0.959724
9725.000000;0.958583
9724.000000;0.956782
9723.000000;0.954952
9722.000000;0.953555
9721.000000;0.952598
9720.000000;0.951989
9719.000000;0.951895
9718.000000;0.952406
9717.000000;0.953021
9716.000000;0.953016
9715.000000;0.952437
9714.000000;0.952225
9713.000000;0.953098
9712.000000;0.954651
9711.000000;0.955872
9710.000000;0.956256
9709.000000;0.956018
9708.000000;0.955437
9707.000000;0.954519
9706.000000;0.953268
9705.000000;0.951854
9704.000000;0.950442
9703.000000;0.949151
9702.000000;0.948149
9701.000000;0.947495
9700.000000;0.946897
9699.000000;0.946016
9698.000000;0.945069
9697.000000;0.944732
9696.000000;0.945375
9695.000000;0.946695
9694.000000;0.948145
9693.000000;0.949274
9692.000000;0.949567
9691.000000;0.948508
9690.000000;0.946242
9689.000000;0.943845
9688.000000;0.942497
9687.000000;0.942516
9686.000000;0.943395
9685.000000;0.944430
9684.000000;0.944944
9683.000000;0.944339
9682.000000;0.942635
9681.000000;0.940872
9680.000000;0.940279
9679.000000;0.940907
9678.000000;0.941587
9677.000000;0.941436
9676.000000;0.940876
9675.000000;0.940822
9674.000000;0.941367
9673.000000;0.941837
9672.000000;0.941876
9671.000000;0.941830
9670.000000;0.942031
9669.000000;0.942205
9668.000000;0.941832
9667.000000;0.940831
9666.000000;0.939658
9665.000000;0.938834
9664.000000;0.938526
9663.000000;0.938515
9662.000000;0.938446
9661.000000;0.938099
9660.000000;0.937437
9659.000000;0.936443
9658.000000;0.935080
9657.000000;0.933584
9656.000000;0.932669
9655.000000;0.933109
9654.000000;0.934950
9653.000000;0.937312
9652.000000;0.939079
9651.000000;0.939711
9650.000000;0.939329
9649.000000;0.938309
9648.000000;0.937065
9647.000000;0.936045
9646.000000;0.935567
9645.000000;0.935587
9644.000000;0.935804
9643.000000;0.936005
9642.000000;0.936122
9641.000000;0.936002
9640.000000;0.935408
9639.000000;0.934315
9638.000000;0.932955
9637.000000;0.931503
9636.000000;0.929915
9635.000000;0.928199
9634.000000;0.926645
9633.000000;0.925642
9632.000000;0.925409
9631.000000;0.925969
9630.000000;0.927170
9629.000000;0.928571
9628.000000;0.929537
9627.000000;0.929735
9626.000000;0.929451
9625.000000;0.929178
9624.000000;0.929012
9623.000000;0.928667
9622.000000;0.928021
9621.000000;0.927335
9620.000000;0.926933
9619.000000;0.926866
9618.000000;0.926954
9617.000000;0.926962
9616.000000;0.926705
9615.000000;0.926184
9614.000000;0.925664
9613.000000;0.925431
9612.000000;0.925411
9611.000000;0.925217
9610.000000;0.924650
9609.000000;0.923972
9608.000000;0.923548
9607.000000;0.923433
9606.000000;0.923452
9605.000000;0.923505
9604.000000;0.923544
9603.000000;0.923392
9602.000000;0.922861
9601.000000;0.922041
9600.000000;0.921285
9599.000000;0.920835
9598.000000;0.920615
9597.000000;0.920424
9596.000000;0.920184
9595.000000;0.919913
9594.000000;0.919599
9593.000000;0.919242
9592.000000;0.918986
9591.000000;0.919040
9590.000000;0.919399
9589.000000;0.919730
9588.000000;0.919666
9587.000000;0.919207
9586.000000;0.918719
9585.000000;0.918467
9584.000000;0.918290
9583.000000;0.917823
9582.000000;0.916937
9581.000000;0.915814
9580.000000;0.914702
9579.000000;0.913807
9578.000000;0.913386
9577.000000;0.913675
9576.000000;0.914581
9575.000000;0.915559
9574.000000;0.915958
9573.000000;0.915507
9572.000000;0.914492
9571.000000;0.913512
9570.000000;0.912995
9569.000000;0.912768
9568.000000;0.912136
9567.000000;0.910630
9566.000000;0.908745
9565.000000;0.907679
9564.000000;0.908255
9563.000000;0.910217
9562.000000;0.912576
9561.000000;0.914376
9560.000000;0.915052
9559.000000;0.914395
9558.000000;0.912632
9557.000000;0.910486
9556.000000;0.908817
9555.000000;0.908061
9554.000000;0.908067
9553.000000;0.908388
9552.000000;0.908590
9551.000000;0.908401
9550.000000;0.907819
9549.000000;0.907081
9548.000000;0.906376
9547.000000;0.905622
9546.000000;0.904702
9545.000000;0.903816
9544.000000;0.903356
9543.000000;0.903454
9542.000000;0.903920
9541.000000;0.904593
9540.000000;0.905458
9539.000000;0.906351
9538.000000;0.906861
9537.000000;0.906734
9536.000000;0.906180
9535.000000;0.905590
9534.000000;0.905101
9533.000000;0.904585
9532.000000;0.903929
9531.000000;0.903125
9530.000000;0.902208
9529.000000;0.901315
9528.000000;0.900748
9527.000000;0.900755
9526.000000;0.901218
9525.000000;0.901706
9524.000000;0.901893
9523.000000;0.901856
9522.000000;0.901944
9521.000000;0.902409
9520.000000;0.903155
9519.000000;0.903757
9518.000000;0.903747
9517.000000;0.902987
9516.000000;0.901881
9515.000000;0.901189
9514.000000;0.901451
9513.000000;0.902401
9512.000000;0.903029
9511.000000;0.902457
9510.000000;0.900798
9509.000000;0.899029
9508.000000;0.897961
9507.000000;0.897533
9506.000000;0.897197
9505.000000;0.896760
9504.000000;0.896516
9503.000000;0.896629
9502.000000;0.896785
9501.000000;0.896570
9500.000000;0.895918
9499.000000;0.895069
9498.000000;0.894327
9497.000000;0.893975
9496.000000;0.894157
9495.000000;0.894625
9494.000000;0.894848
9493.000000;0.894619
9492.000000;0.894349
9491.000000;0.894460
9490.000000;0.894715
9489.000000;0.894538
9488.000000;0.893909
9487.000000;0.893425
9486.000000;0.893387
9485.000000;0.893296
9484.000000;0.892531
9483.000000;0.891228
9482.000000;0.890131
9481.000000;0.889741
9480.000000;0.889940
9479.000000;0.890333
9478.000000;0.890614
9477.000000;0.890605
9476.000000;0.890289
9475.000000;0.889935
9474.000000;0.889976
9473.000000;0.890517
9472.000000;0.891057
9471.000000;0.890915
9470.000000;0.889967
9469.000000;0.888863
9468.000000;0.888424
9467.000000;0.888894
9466.000000;0.889775
9465.000000;0.890293
9464.000000;0.889951
9463.000000;0.888779
9462.000000;0.887229
9461.000000;0.885895
9460.000000;0.885241
9459.000000;0.885447
9458.000000;0.886410
9457.000000;0.887808
9456.000000;0.889113
9455.000000;0.889680
9454.000000;0.889125
9453.000000;0.887718
9452.000000;0.886266
9451.000000;0.885451
9450.000000;0.885312
9449.000000;0.885442
9448.000000;0.885548
9447.000000;0.885635
9446.000000;0.885718
9445.000000;0.885663
9444.000000;0.885425
9443.000000;0.885230
9442.000000;0.885261
9441.000000;0.885292
9440.000000;0.884871
9439.000000;0.883885
9438.000000;0.882732
9437.000000;0.881866
9436.000000;0.881362
9435.000000;0.881034
9434.000000;0.880764
9433.000000;0.880523
9432.000000;0.880210
9431.000000;0.879792
9430.000000;0.879523
9429.000000;0.879664
9428.000000;0.879936
9427.000000;0.879704
9426.000000;0.878962
9425.000000;0.878702
9424.000000;0.879765
9423.000000;0.881510
9422.000000;0.882258
9421.000000;0.881132
9420.000000;0.878970
9419.000000;0.877192
9418.000000;0.876383
9417.000000;0.876334
9416.000000;0.876878
9415.000000;0.877964
9414.000000;0.879091
9413.000000;0.879425
9412.000000;0.878701
9411.000000;0.877528
9410.000000;0.876568
9409.000000;0.875776
9408.000000;0.874729
9407.000000;0.873480
9406.000000;0.872722
9405.000000;0.873083
9404.000000;0.874450
9403.000000;0.876024
9402.000000;0.876941
9401.000000;0.876902
9400.000000;0.876276
9399.000000;0.875611
9398.000000;0.875110
9397.000000;0.874618
9396.000000;0.874027
9395.000000;0.873483
9394.000000;0.873203
9393.000000;0.873276
9392.000000;0.873655
9391.000000;0.874117
9390.000000;0.874196
9389.000000;0.873369
9388.000000;0.871552
9387.000000;0.869353
9386.000000;0.867701
9385.000000;0.867250
9384.000000;0.868065
9383.000000;0.869596
9382.000000;0.870937
9381.000000;0.871428
9380.000000;0.871191
9379.000000;0.870917
9378.000000;0.871003
9377.000000;0.871139
9376.000000;0.870889
9375.000000;0.870364
9374.000000;0.870027
9373.000000;0.869993
9372.000000;0.869952
9371.000000;0.869741
9370.000000;0.869613
9369.000000;0.869824
9368.000000;0.870251
9367.000000;0.870551
9366.000000;0.870497
9365.000000;0.870070
9364.000000;0.869400
9363.000000;0.868730
9362.000000;0.868343
9361.000000;0.868363
9360.000000;0.868637
9359.000000;0.868830
9358.000000;0.868631
9357.000000;0.867944
9356.000000;0.867013
9355.000000;0.866279
9354.000000;0.865973
9353.000000;0.865911
9352.000000;0.865856
9351.000000;0.865965
9350.000000;0.866565
9349.000000;0.867471
9348.000000;0.867917
9347.000000;0.867367
9346.000000;0.866143
9345.000000;0.865029
9344.000000;0.864466
9343.000000;0.864364
9342.000000;0.864505
9341.000000;0.864797
9340.000000;0.865170
9339.000000;0.865460
9338.000000;0.865482
9337.000000;0.865112
9336.000000;0.864303
9335.000000;0.863143
9334.000000;0.861911
9333.000000;0.860999
9332.000000;0.860713
9331.000000;0.861112
9330.000000;0.861903
9329.000000;0.862526
9328.000000;0.862522
9327.000000;0.861958
9326.000000;0.861354
9325.000000;0.861076
9324.000000;0.860961
9323.000000;0.860680
9322.000000;0.860273
9321.000000;0.860063
9320.000000;0.860115
9319.000000;0.860114
9318.000000;0.859821
9317.000000;0.859397
9316.000000;0.859169
9315.000000;0.859238
9314.000000;0.859388
9313.000000;0.859254
9312.000000;0.858534
9311.000000;0.857229
9310.000000;0.855776
9309.000000;0.854784
9308.000000;0.854523
9307.000000;0.854737
9306.000000;0.855034
9305.000000;0.855309
9304.000000;0.855646
9303.000000;0.855956
9302.000000;0.856003
9301.000000;0.855786
9300.000000;0.855651
9299.000000;0.855895
9298.000000;0.856383
9297.000000;0.856700
9296.000000;0.856627
9295.000000;0.856345
9294.000000;0.856147
9293.000000;0.856057
9292.000000;0.855825
9291.000000;0.855262
9290.000000;0.854507
9289.000000;0.853937
9288.000000;0.853849
9287.000000;0.854233
9286.000000;0.854825
9285.000000;0.855311
9284.000000;0.855523
9283.000000;0.855480
9282.000000;0.855313
9281.000000;0.855126
9280.000000;0.854915
9279.000000;0.854628
9278.000000;0.854295
9277.000000;0.854031
9276.000000;0.853898
9275.000000;0.853828
9274.000000;0.853763
9273.000000;0.853796
9272.000000;0.854029
9271.000000;0.854274
9270.000000;0.854089
9269.000000;0.853274
9268.000000;0.852230
9267.000000;0.851616
9266.000000;0.851630
9265.000000;0.851832
9264.000000;0.851723
9263.000000;0.851301
9262.000000;0.850898
9261.000000;0.850651
9260.000000;0.850374
9259.000000;0.849868
9258.000000;0.849114
9257.000000;0.848182
9256.000000;0.847198
9255.000000;0.846449
9254.000000;0.846256
9253.000000;0.846581
9252.000000;0.846924
9251.000000;0.846796
9250.000000;0.846236
9249.000000;0.845717
9248.000000;0.845620
9247.000000;0.845896
9246.000000;0.846175
9245.000000;0.846082
9244.000000;0.845526
9243.000000;0.844834
9242.000000;0.844572
9241.000000;0.845105
9240.000000;0.846288
9239.000000;0.847618
9238.000000;0.848656
9237.000000;0.849257
9236.000000;0.849457
9235.000000;0.849275
9234.000000;0.848727
9233.000000;0.847990
9232.000000;0.847446
9231.000000;0.847461
9230.000000;0.848019
9229.000000;0.848602
9228.000000;0.848566
9227.000000;0.847757
9226.000000;0.846645
9225.000000;0.845822
9224.000000;0.845461
9223.000000;0.845340
9222.000000;0.845216
9221.000000;0.845018
9220.000000;0.844775
9219.000000;0.844578
9218.000000;0.844566
9217.000000;0.844783
9216.000000;0.845044
9215.000000;0.845098
9214.000000;0.844906
9213.000000;0.844633
9212.000000;0.844387
9211.000000;0.844138
9210.000000;0.843919
9209.000000;0.843907
9208.000000;0.844238
9207.000000;0.844851
9206.000000;0.845521
9205.000000;0.845891
9204.000000;0.845481
9203.000000;0.844007
9202.000000;0.841882
9201.000000;0.840173
9200.000000;0.839743
9199.000000;0.840443
9198.000000;0.841340
9197.000000;0.841715
9196.000000;0.841656
9195.000000;0.841670
9194.000000;0.842021
9193.000000;0.842586
9192.000000;0.843145
9191.000000;0.843543
9190.000000;0.843637
9189.000000;0.843330
9188.000000;0.842715
9187.000000;0.842004
9186.000000;0.841251
9185.000000;0.840321
9184.000000;0.839223
9183.000000;0.838303
9182.000000;0.837884
9181.000000;0.837866
9180.000000;0.837912
9179.000000;0.837947
9178.000000;0.838181
9177.000000;0.838640
9176.000000;0.838951
9175.000000;0.838759
9174.000000;0.838162
9173.000000;0.837591
9172.000000;0.837401
9171.000000;0.837666
9170.000000;0.838162
9169.000000;0.838404
9168.000000;0.837957
9167.000000;0.836953
9166.000000;0.836123
9165.000000;0.836031
9164.000000;0.836402
9163.000000;0.836520
9162.000000;0.836180
9161.000000;0.835875
9160.000000;0.836046
9159.000000;0.836532
9158.000000;0.836904
9157.000000;0.837005
9156.000000;0.836952
9155.000000;0.836806
9154.000000;0.836534
9153.000000;0.836209
9152.000000;0.836013
9151.000000;0.836018
9150.000000;0.836073
9149.000000;0.835924
9148.000000;0.835424
9147.000000;0.834668
9146.000000;0.833979
9145.000000;0.833729
9144.000000;0.834121
9143.000000;0.835050
9142.000000;0.836092
9141.000000;0.836597
9140.000000;0.836062
9139.000000;0.834636
9138.000000;0.833226
9137.000000;0.832781
9136.000000;0.833438
9135.000000;0.834503
9134.000000;0.835268
9133.000000;0.835645
9132.000000;0.835924
9131.000000;0.836161
9130.000000;0.836046
9129.000000;0.835282
9128.000000;0.833930
9127.000000;0.832414
9126.000000;0.831271
9125.000000;0.830860
9124.000000;0.831194
9123.000000;0.831984
9122.000000;0.832829
9121.000000;0.833324
9120.000000;0.833134
9119.000000;0.832207
9118.000000;0.830986
9117.000000;0.830186
9116.000000;0.830225
9115.000000;0.830923
9114.000000;0.831761
9113.000000;0.832270
9112.000000;0.832187
9111.000000;0.831519
9110.000000;0.830636
9109.000000;0.830085
9108.000000;0.830100
9107.000000;0.830387
9106.000000;0.830502
9105.000000;0.830334
9104.000000;0.830104
9103.000000;0.830041
9102.000000;0.830226
9101.000000;0.830621
9100.000000;0.831061
9099.000000;0.831321
9098.000000;0.831360
9097.000000;0.831365
9096.000000;0.831445
9095.000000;0.831429
9094.000000;0.831170
9093.000000;0.830817
9092.000000;0.830523
9091.000000;0.830048
9090.000000;0.829070
9089.000000;0.827847
9088.000000;0.827177
9087.000000;0.827555
9086.000000;0.828629
9085.000000;0.829576
9084.000000;0.829816
9083.000000;0.829264
9082.000000;0.828193
9081.000000;0.827076
9080.000000;0.826434
9079.000000;0.826541
9078.000000;0.827171
9077.000000;0.827717
9076.000000;0.827600
9075.000000;0.826661
9074.000000;0.825300
9073.000000;0.824277
9072.000000;0.824261
9071.000000;0.825349
9070.000000;0.826954
9069.000000;0.828184
9068.000000;0.828442
9067.000000;0.827789
9066.000000;0.826790
9065.000000;0.826016
9064.000000;0.825656
9063.000000;0.825544
9062.000000;0.825512
9061.000000;0.825576
9060.000000;0.825759
9059.000000;0.825951
9058.000000;0.826117
9057.000000;0.826473
9056.000000;0.827178
9055.000000;0.827885
9054.000000;0.827913
9053.000000;0.826994
9052.000000;0.825632
9051.000000;0.824622
9050.000000;0.824333
9049.000000;0.824539
9048.000000;0.824753
9047.000000;0.824604
9046.000000;0.824042
9045.000000;0.823367
9044.000000;0.823011
9043.000000;0.823183
9042.000000;0.823719
9041.000000;0.824311
9040.000000;0.824758
9039.000000;0.824939
9038.000000;0.824754
9037.000000;0.824296
9036.000000;0.823976
9035.000000;0.824177
9034.000000;0.824732
9033.000000;0.824977
9032.000000;0.824438
9031.000000;0.823339
9030.000000;0.822346
9029.000000;0.821909
9028.000000;0.821954
9027.000000;0.822115
9026.000000;0.822077
9025.000000;0.821756
9024.000000;0.821350
9023.000000;0.821277
9022.000000;0.821878
9021.000000;0.823020
9020.000000;0.824045
9019.000000;0.824264
9018.000000;0.823581
9017.000000;0.822585
9016.000000;0.821995
9015.000000;0.822021
9014.000000;0.822255
9013.000000;0.822169
9012.000000;0.821684
9011.000000;0.821248
9010.000000;0.821346
9009.000000;0.821948
9008.000000;0.822494
9007.000000;0.822446
9006.000000;0.821806
9005.000000;0.821072
9004.000000;0.820772
9003.000000;0.821083
9002.000000;0.821741
9001.000000;0.822174
9000.000000;0.821844
8999.000000;0.820744
8998.000000;0.819570
8997.000000;0.819169
8996.000000;0.819708
8995.000000;0.820517
8994.000000;0.820832
8993.000000;0.820564
8992.000000;0.820221
8991.000000;0.820227
8990.000000;0.820515
8989.000000;0.820730
8988.000000;0.820649
8987.000000;0.820336
8986.000000;0.819963
8985.000000;0.819574
8984.000000;0.819068
8983.000000;0.818411
8982.000000;0.817773
8981.000000;0.817372
8980.000000;0.817246
8979.000000;0.817333
8978.000000;0.817677
8977.000000;0.818318
8976.000000;0.818994
8975.000000;0.819319
8974.000000;0.819338
8973.000000;0.819561
8972.000000;0.820225
8971.000000;0.820861
8970.000000;0.820902
8969.000000;0.820427
8968.000000;0.819887
8967.000000;0.819342
8966.000000;0.818539
8965.000000;0.817687
8964.000000;0.817503
8963.000000;0.818262
8962.000000;0.819261
8961.000000;0.819538
8960.000000;0.818883
8959.000000;0.817904
8958.000000;0.817326
8957.000000;0.817490
8956.000000;0.818265
8955.000000;0.819112
8954.000000;0.819384
8953.000000;0.818872
8952.000000;0.818031
8951.000000;0.817463
8950.000000;0.817268
8949.000000;0.817159
8948.000000;0.817080
8947.000000;0.817311
8946.000000;0.817885
8945.000000;0.818311
8944.000000;0.818128
8943.000000;0.817544
8942.000000;0.817232
8941.000000;0.817530
8940.000000;0.818061
8939.000000;0.818216
8938.000000;0.817842
8937.000000;0.817363
8936.000000;0.817285
8935.000000;0.817731
8934.000000;0.818393
8933.000000;0.818839
8932.000000;0.818838
8931.000000;0.818473
8930.000000;0.817970
8929.000000;0.817447
8928.000000;0.816843
8927.000000;0.816180
8926.000000;0.815774
8925.000000;0.816008
8924.000000;0.816833
8923.000000;0.817713
8922.000000;0.818186
8921.000000;0.818322
8920.000000;0.818465
8919.000000;0.818675
8918.000000;0.818706
8917.000000;0.818439
8916.000000;0.818045
8915.000000;0.817703
8914.000000;0.817424
8913.000000;0.817249
8912.000000;0.817327
8911.000000;0.817671
8910.000000;0.818035
8909.000000;0.818154
8908.000000;0.817978
8907.000000;0.817575
8906.000000;0.816995
8905.000000;0.816362
8904.000000;0.815884
8903.000000;0.815619
8902.000000;0.815397
8901.000000;0.815133
8900.000000;0.815056
8899.000000;0.815412
8898.000000;0.816091
8897.000000;0.816771
8896.000000;0.817279
8895.000000;0.817577
8894.000000;0.817524
8893.000000;0.816990
8892.000000;0.816191
8891.000000;0.815612
8890.000000;0.815522
8889.000000;0.815759
8888.000000;0.816023
8887.000000;0.816205
8886.000000;0.816355
8885.000000;0.816536
8884.000000;0.816801
8883.000000;0.817143
8882.000000;0.817414
8881.000000;0.817422
8880.000000;0.817190
8879.000000;0.816991
8878.000000;0.817052
8877.000000;0.817329
8876.000000;0.817605
8875.000000;0.817707
8874.000000;0.817572
8873.000000;0.817263
8872.000000;0.816958
8871.000000;0.816825
8870.000000;0.816809
8869.000000;0.816693
8868.000000;0.816421
8867.000000;0.816250
8866.000000;0.816455
8865.000000;0.816981
8864.000000;0.817479
8863.000000;0.817619
8862.000000;0.817317
8861.000000;0.816753
8860.000000;0.816306
8859.000000;0.816351
8858.000000;0.816950
8857.000000;0.817736
8856.000000;0.818201
8855.000000;0.818129
8854.000000;0.817715
8853.000000;0.817303
8852.000000;0.817091
8851.000000;0.817068
8850.000000;0.817125
8849.000000;0.817166
8848.000000;0.817137
8847.000000;0.816995
8846.000000;0.816714
8845.000000;0.816386
8844.000000;0.816242
8843.000000;0.816456
8842.000000;0.816928
8841.000000;0.817359
8840.000000;0.817583
8839.000000;0.817683
8838.000000;0.817762
8837.000000;0.817750
8836.000000;0.817568
8835.000000;0.817347
8834.000000;0.817326
8833.000000;0.817556
8832.000000;0.817827
8831.000000;0.817880
8830.000000;0.817619
8829.000000;0.817171
8828.000000;0.816802
8827.000000;0.816721
8826.000000;0.816877
8825.000000;0.817018
8824.000000;0.817006
8823.000000;0.816974
8822.000000;0.817101
8821.000000;0.817362
8820.000000;0.817638
8819.000000;0.817941
8818.000000;0.818317
8817.000000;0.818642
8816.000000;0.818761
8815.000000;0.818774
8814.000000;0.818898
8813.000000;0.819063
8812.000000;0.818976
8811.000000;0.818644
8810.000000;0.818506
8809.000000;0.818869
8808.000000;0.819473
8807.000000;0.819855
8806.000000;0.819939
8805.000000;0.819986
8804.000000;0.820092
8803.000000;0.820076
8802.000000;0.819873
8801.000000;0.819747
8800.000000;0.819985
8799.000000;0.820580
8798.000000;0.821334
8797.000000;0.822116
8796.000000;0.822871
8795.000000;0.823457
8794.000000;0.823664
8793.000000;0.823445
8792.000000;0.823022
8791.000000;0.822716
8790.000000;0.822708
8789.000000;0.822943
8788.000000;0.823195
8787.000000;0.823203
8786.000000;0.822833
8785.000000;0.822234
8784.000000;0.821811
8783.000000;0.821888
8782.000000;0.822345
8781.000000;0.822709
8780.000000;0.822693
8779.000000;0.822537
8778.000000;0.822639
8777.000000;0.822977
8776.000000;0.823147
8775.000000;0.822954
8774.000000;0.822696
8773.000000;0.822736
8772.000000;0.823048
8771.000000;0.823374
8770.000000;0.823667
8769.000000;0.824099
8768.000000;0.824659
8767.000000;0.825005
8766.000000;0.824805
8765.000000;0.824123
8764.000000;0.823403
8763.000000;0.823142
8762.000000;0.823566
8761.000000;0.824517
8760.000000;0.825622
8759.000000;0.826605
8758.000000;0.827448
8757.000000;0.828243
8756.000000;0.828939
8755.000000;0.829346
8754.000000;0.829357
8753.000000;0.829072
8752.000000;0.828711
8751.000000;0.828498
8750.000000;0.828619
8749.000000;0.829143
8748.000000;0.829943
8747.000000;0.830778
8746.000000;0.831459
8745.000000;0.831859
8744.000000;0.831821
8743.000000;0.831266
8742.000000;0.830444
8741.000000;0.829862
8740.000000;0.829797
8739.000000;0.829973
8738.000000;0.829903
8737.000000;0.829486
8736.000000;0.829100
8735.000000;0.829108
8734.000000;0.829469
8733.000000;0.829865
8732.000000;0.830063
8731.000000;0.830073
8730.000000;0.830075
8729.000000;0.830323
8728.000000;0.831006
8727.000000;0.832029
8726.000000;0.832946
8725.000000;0.833284
8724.000000;0.833045
8723.000000;0.832794
8722.000000;0.833151
8721.000000;0.834218
8720.000000;0.835527
8719.000000;0.836473
8718.000000;0.836746
8717.000000;0.836457
8716.000000;0.836021
8715.000000;0.835870
8714.000000;0.836137
8713.000000;0.836508
8712.000000;0.836490
8711.000000;0.835886
8710.000000;0.835025
8709.000000;0.834494
8708.000000;0.834691
8707.000000;0.835593
8706.000000;0.836833
8705.000000;0.837959
8704.000000;0.838699
8703.000000;0.839102
8702.000000;0.839390
8701.000000;0.839650
8700.000000;0.839745
8699.000000;0.839552
8698.000000;0.839185
8697.000000;0.838872
8696.000000;0.838747
8695.000000;0.838840
8694.000000;0.839181
8693.000000;0.839702
8692.000000;0.840103
8691.000000;0.840077
8690.000000;0.839742
8689.000000;0.839619
8688.000000;0.840019
8687.000000;0.840595
8686.000000;0.840681
8685.000000;0.840056
8684.000000;0.839199
8683.000000;0.838829
8682.000000;0.839308
8681.000000;0.840458
8680.000000;0.841767
8679.000000;0.842705
8678.000000;0.843013
8677.000000;0.842883
8676.000000;0.842815
8675.000000;0.843160
8674.000000;0.843736
8673.000000;0.844014
8672.000000;0.843712
8671.000000;0.843107
8670.000000;0.842711
8669.000000;0.842732
8668.000000;0.842982
8667.000000;0.843219
8666.000000;0.843414
8665.000000;0.843669
8664.000000;0.844040
8663.000000;0.844479
8662.000000;0.844853
8661.000000;0.844926
8660.000000;0.844479
8659.000000;0.843587
8658.000000;0.842695
8657.000000;0.842261
8656.000000;0.842361
8655.000000;0.842743
8654.000000;0.843209
8653.000000;0.843753
8652.000000;0.844334
8651.000000;0.844748
8650.000000;0.844853
8649.000000;0.844775
8648.000000;0.844728
8647.000000;0.844705
8646.000000;0.844525
8645.000000;0.844139
8644.000000;0.843733
8643.000000;0.843510
8642.000000;0.843519
8641.000000;0.843756
8640.000000;0.844282
8639.000000;0.845046
8638.000000;0.845705
8637.000000;0.845833
8636.000000;0.845388
8635.000000;0.844824
8634.000000;0.844648
8633.000000;0.844959
8632.000000;0.845488
8631.000000;0.845979
8630.000000;0.846361
8629.000000;0.846611
8628.000000;0.846678
8627.000000;0.846603
8626.000000;0.846549
8625.000000;0.846585
8624.000000;0.846529
8623.000000;0.846167
8622.000000;0.845601
8621.000000;0.845212
8620.000000;0.845233
8619.000000;0.845468
8618.000000;0.845551
8617.000000;0.845415
8616.000000;0.845339
8615.000000;0.845513
8614.000000;0.845756
8613.000000;0.845827
8612.000000;0.845880
8611.000000;0.846310
8610.000000;0.847092
8609.000000;0.847601
8608.000000;0.847317
8607.000000;0.846537
8606.000000;0.846067
8605.000000;0.846283
8604.000000;0.846795
8603.000000;0.847030
8602.000000;0.846860
8601.000000;0.846533
8600.000000;0.846272
8599.000000;0.846126
8598.000000;0.846086
8597.000000;0.846131
8596.000000;0.846200
8595.000000;0.846226
8594.000000;0.846180
8593.000000;0.846078
8592.000000;0.846020
8591.000000;0.846207
8590.000000;0.846742
8589.000000;0.847408
8588.000000;0.847826
8587.000000;0.847918
8586.000000;0.847971
8585.000000;0.848170
8584.000000;0.848306
8583.000000;0.848127
8582.000000;0.847743
8581.000000;0.847460
8580.000000;0.847394
8579.000000;0.847512
8578.000000;0.847861
8577.000000;0.848424
8576.000000;0.848861
8575.000000;0.848750
8574.000000;0.848119
8573.000000;0.847441
8572.000000;0.847080
8571.000000;0.847016
8570.000000;0.847143
8569.000000;0.847493
8568.000000;0.848030
8567.000000;0.848474
8566.000000;0.848529
8565.000000;0.848166
8564.000000;0.847603
8563.000000;0.847110
8562.000000;0.846916
8561.000000;0.847116
8560.000000;0.847547
8559.000000;0.847867
8558.000000;0.847866
8557.000000;0.847640
8556.000000;0.847394
8555.000000;0.847215
8554.000000;0.847117
8553.000000;0.847170
8552.000000;0.847476
8551.000000;0.848050
8550.000000;0.848786
8549.000000;0.849435
8548.000000;0.849657
8547.000000;0.849274
8546.000000;0.848544
8545.000000;0.847993
8544.000000;0.847860
8543.000000;0.847879
8542.000000;0.847755
8541.000000;0.847632
8540.000000;0.847845
8539.000000;0.848336
8538.000000;0.848621
8537.000000;0.848384
8536.000000;0.847852
8535.000000;0.847500
8534.000000;0.847567
8533.000000;0.847947
8532.000000;0.848409
8531.000000;0.848755
8530.000000;0.848858
8529.000000;0.848700
8528.000000;0.848418
8527.000000;0.848217
8526.000000;0.848197
8525.000000;0.848306
8524.000000;0.848494
8523.000000;0.848820
8522.000000;0.849300
8521.000000;0.849707
8520.000000;0.849735
8519.000000;0.849421
8518.000000;0.849229
8517.000000;0.849527
8516.000000;0.850092
8515.000000;0.850367
8514.000000;0.850160
8513.000000;0.849823
8512.000000;0.849694
8511.000000;0.849651
8510.000000;0.849391
8509.000000;0.848942
8508.000000;0.848620
8507.000000;0.848578
8506.000000;0.848660
8505.000000;0.848678
8504.000000;0.848626
8503.000000;0.848549
8502.000000;0.848398
8501.000000;0.848113
8500.000000;0.847782
8499.000000;0.847613
8498.000000;0.847746
8497.000000;0.848144
8496.000000;0.848629
8495.000000;0.848994
8494.000000;0.849127
8493.000000;0.849085
8492.000000;0.849029
8491.000000;0.849070
8490.000000;0.849179
8489.000000;0.849266
8488.000000;0.849292
8487.000000;0.849271
8486.000000;0.849205
8485.000000;0.849096
8484.000000;0.849019
8483.000000;0.849087
8482.000000;0.849300
8481.000000;0.849502
8480.000000;0.849557
8479.000000;0.849489
8478.000000;0.849353
8477.000000;0.849040
8476.000000;0.848430
8475.000000;0.847756
8474.000000;0.847564
8473.000000;0.848156
8472.000000;0.849173
8471.000000;0.849951
8470.000000;0.850253
8469.000000;0.850420
8468.000000;0.850807
8467.000000;0.851293
8466.000000;0.851499
8465.000000;0.851326
8464.000000;0.851063
8463.000000;0.850991
8462.000000;0.850998
8461.000000;0.850718
8460.000000;0.849994
8459.000000;0.849133
8458.000000;0.848644
8457.000000;0.848750
8456.000000;0.849215
8455.000000;0.849649
8454.000000;0.849846
8453.000000;0.849840
8452.000000;0.849759
8451.000000;0.849745
8450.000000;0.849890
8449.000000;0.850115
8448.000000;0.850186
8447.000000;0.850000
8446.000000;0.849778
8445.000000;0.849825
8444.000000;0.850143
8443.000000;0.850452
8442.000000;0.850553
8441.000000;0.850485
8440.000000;0.850353
8439.000000;0.850224
8438.000000;0.850200
8437.000000;0.850354
8436.000000;0.850557
8435.000000;0.850581
8434.000000;0.850443
8433.000000;0.850406
8432.000000;0.850534
8431.000000;0.850496
8430.000000;0.850016
8429.000000;0.849316
8428.000000;0.848874
8427.000000;0.848877
8426.000000;0.849117
8425.000000;0.849327
8424.000000;0.849418
8423.000000;0.849442
8422.000000;0.849528
8421.000000;0.849809
8420.000000;0.850255
8419.000000;0.850588
8418.000000;0.850546
8417.000000;0.850227
8416.000000;0.849968
8415.000000;0.849920
8414.000000;0.849924
8413.000000;0.849855
8412.000000;0.849859
8411.000000;0.850134
8410.000000;0.850612
8409.000000;0.851009
8408.000000;0.851126
8407.000000;0.850966
8406.000000;0.850620
8405.000000;0.850184
8404.000000;0.849807
8403.000000;0.849692
8402.000000;0.849971
8401.000000;0.850574
8400.000000;0.851242
8399.000000;0.851684
8398.000000;0.851765
8397.000000;0.851605
8396.000000;0.851501
8395.000000;0.851710
8394.000000;0.852248
8393.000000;0.852889
8392.000000;0.853355
8391.000000;0.853541
8390.000000;0.853554
8389.000000;0.853556
8388.000000;0.853596
8387.000000;0.853586
8386.000000;0.853395
8385.000000;0.852962
8384.000000;0.852366
8383.000000;0.851812
8382.000000;0.851521
8381.000000;0.851551
8380.000000;0.851753
8379.000000;0.851935
8378.000000;0.852064
8377.000000;0.852242
8376.000000;0.852517
8375.000000;0.852784
8374.000000;0.852877
8373.000000;0.852726
8372.000000;0.852433
8371.000000;0.852235
8370.000000;0.852373
8369.000000;0.852898
8368.000000;0.853581
8367.000000;0.854100
8366.000000;0.854318
8365.000000;0.854352
8364.000000;0.854381
8363.000000;0.854457
8362.000000;0.854502
8361.000000;0.854373
8360.000000;0.853929
8359.000000;0.853155
8358.000000;0.852295
8357.000000;0.851768
8356.000000;0.851834
8355.000000;0.852357
8354.000000;0.852918
8353.000000;0.853162
8352.000000;0.853039
8351.000000;0.852793
8350.000000;0.852754
8349.000000;0.853040
8348.000000;0.853407
8347.000000;0.853442
8346.000000;0.852997
8345.000000;0.852384
8344.000000;0.852066
8343.000000;0.852209
8342.000000;0.852596
8341.000000;0.852922
8340.000000;0.853060
8339.000000;0.853074
8338.000000;0.853107
8337.000000;0.853279
8336.000000;0.853575
8335.000000;0.853783
8334.000000;0.853612
8333.000000;0.852965
8332.000000;0.852077
8331.000000;0.851352
8330.000000;0.851079
8329.000000;0.851339
8328.000000;0.852087
8327.000000;0.853192
8326.000000;0.854355
8325.000000;0.855137
8324.000000;0.855249
8323.000000;0.854819
8322.000000;0.854279
8321.000000;0.853977
8320.000000;0.853962
8319.000000;0.854093
8318.000000;0.854219
8317.000000;0.854208
8316.000000;0.853999
8315.000000;0.853741
8314.000000;0.853753
8313.000000;0.854168
8312.000000;0.854692
8311.000000;0.854874
8310.000000;0.854592
8309.000000;0.854120
8308.000000;0.853720
8307.000000;0.853374
8306.000000;0.852984
8305.000000;0.852689
8304.000000;0.852807
8303.000000;0.853478
8302.000000;0.854408
8301.000000;0.855015
8300.000000;0.854884
8299.000000;0.854155
8298.000000;0.853399
8297.000000;0.853097
8296.000000;0.853285
8295.000000;0.853711
8294.000000;0.854167
8293.000000;0.854523
8292.000000;0.854635
8291.000000;0.854501
8290.000000;0.854459
8289.000000;0.854879
8288.000000;0.855620
8287.000000;0.856057
8286.000000;0.855785
8285.000000;0.855059
8284.000000;0.854423
8283.000000;0.854143
8282.000000;0.854156
8281.000000;0.854368
8280.000000;0.854707
8279.000000;0.854977
8278.000000;0.854928
8277.000000;0.854512
8276.000000;0.853951
8275.000000;0.853538
8274.000000;0.853435
8273.000000;0.853637
8272.000000;0.854035
8271.000000;0.854529
8270.000000;0.855080
8269.000000;0.855613
8268.000000;0.855931
8267.000000;0.855886
8266.000000;0.855652
8265.000000;0.855585
8264.000000;0.855745
8263.000000;0.855790
8262.000000;0.855493
8261.000000;0.855116
8260.000000;0.855051
8259.000000;0.855269
8258.000000;0.855457
8257.000000;0.855527
8256.000000;0.855653
8255.000000;0.855810
8254.000000;0.855673
8253.000000;0.855097
8252.000000;0.854425
8251.000000;0.854149
8250.000000;0.854423
8249.000000;0.855008
8248.000000;0.855554
8247.000000;0.855837
8246.000000;0.855881
8245.000000;0.855942
8244.000000;0.856279
8243.000000;0.856828
8242.000000;0.857196
8241.000000;0.857099
8240.000000;0.856724
8239.000000;0.856523
8238.000000;0.856701
8237.000000;0.857009
8236.000000;0.857056
8235.000000;0.856739
8234.000000;0.856333
8233.000000;0.856178
8232.000000;0.856303
8231.000000;0.856400
8230.000000;0.856202
8229.000000;0.855849
8228.000000;0.855760
8227.000000;0.856144
8226.000000;0.856754
8225.000000;0.857175
8224.000000;0.857243
8223.000000;0.857074
8222.000000;0.856803
8221.000000;0.856462
8220.000000;0.856119
8219.000000;0.855963
8218.000000;0.856155
8217.000000;0.856613
8216.000000;0.857032
8215.000000;0.857132
8214.000000;0.856887
8213.000000;0.856513
8212.000000;0.856225
8211.000000;0.856055
8210.000000;0.855920
8209.000000;0.855824
8208.000000;0.855873
8207.000000;0.856090
8206.000000;0.856318
8205.000000;0.856438
8204.000000;0.856598
8203.000000;0.857047
8202.000000;0.857755
8201.000000;0.858348
8200.000000;0.858520
8199.000000;0.858363
8198.000000;0.858180
8197.000000;0.858071
8196.000000;0.857863
8195.000000;0.857428
8194.000000;0.856921
8193.000000;0.856624
8192.000000;0.856674
8191.000000;0.856981
8190.000000;0.857341
8189.000000;0.857589
8188.000000;0.857703
8187.000000;0.857813
8186.000000;0.858036
8185.000000;0.858301
8184.000000;0.858394
8183.000000;0.858211
8182.000000;0.857875
8181.000000;0.857556
8180.000000;0.857299
8179.000000;0.857089
8178.000000;0.857001
8177.000000;0.857133
8176.000000;0.857461
8175.000000;0.857856
8174.000000;0.858228
8173.000000;0.858539
8172.000000;0.858725
8171.000000;0.858720
8170.000000;0.858561
8169.000000;0.858392
8168.000000;0.858364
8167.000000;0.858568
8166.000000;0.859013
8165.000000;0.859560
8164.000000;0.859941
8163.000000;0.859982
8162.000000;0.859794
8161.000000;0.859631
8160.000000;0.859589
8159.000000;0.859569
8158.000000;0.859508
8157.000000;0.859458
8156.000000;0.859451
8155.000000;0.859424
8154.000000;0.859350
8153.000000;0.859310
8152.000000;0.859374
8151.000000;0.859525
8150.000000;0.859715
8149.000000;0.859890
8148.000000;0.859923
8147.000000;0.859669
8146.000000;0.859164
8145.000000;0.858664
8144.000000;0.858432
8143.000000;0.858527
8142.000000;0.858850
8141.000000;0.859261
8140.000000;0.859616
8139.000000;0.859758
8138.000000;0.859589
8137.000000;0.859108
8136.000000;0.858419
8135.000000;0.857758
8134.000000;0.857473
8133.000000;0.857801
8132.000000;0.858594
8131.000000;0.859417
8130.000000;0.859967
8129.000000;0.860294
8128.000000;0.860540
8127.000000;0.860653
8126.000000;0.860492
8125.000000;0.860077
8124.000000;0.859618
8123.000000;0.859367
8122.000000;0.859512
8121.000000;0.860083
8120.000000;0.860839
8119.000000;0.861385
8118.000000;0.861551
8117.000000;0.861561
8116.000000;0.861702
8115.000000;0.861928
8114.000000;0.861985
8113.000000;0.861826
8112.000000;0.861679
8111.000000;0.861706
8110.000000;0.861807
8109.000000;0.861797
8108.000000;0.861616
8107.000000;0.861309
8106.000000;0.860935
8105.000000;0.860586
8104.000000;0.860409
8103.000000;0.860494
8102.000000;0.860763
8101.000000;0.861032
8100.000000;0.861197
8099.000000;0.861318
8098.000000;0.861506
8097.000000;0.861745
8096.000000;0.861877
8095.000000;0.861793
8094.000000;0.861606
8093.000000;0.861551
8092.000000;0.861722
8091.000000;0.861999
8090.000000;0.862209
8089.000000;0.862285
8088.000000;0.862256
8087.000000;0.862220
8086.000000;0.862355
8085.000000;0.862777
8084.000000;0.863299
8083.000000;0.863482
8082.000000;0.863070
8081.000000;0.862306
8080.000000;0.861727
8079.000000;0.861708
8078.000000;0.862251
8077.000000;0.863063
8076.000000;0.863679
8075.000000;0.863691
8074.000000;0.863078
8073.000000;0.862307
8072.000000;0.861927
8071.000000;0.862068
8070.000000;0.862450
8069.000000;0.862801
8068.000000;0.863058
8067.000000;0.863204
8066.000000;0.863146
8065.000000;0.862872
8064.000000;0.862589
8063.000000;0.862575
8062.000000;0.862927
8061.000000;0.863484
8060.000000;0.863961
8059.000000;0.864160
8058.000000;0.864115
8057.000000;0.864028
8056.000000;0.864052
8055.000000;0.864164
8054.000000;0.864289
8053.000000;0.864433
8052.000000;0.864599
8051.000000;0.864647
8050.000000;0.864416
8049.000000;0.863960
8048.000000;0.863532
8047.000000;0.863337
8046.000000;0.863422
8045.000000;0.863758
8044.000000;0.864265
8043.000000;0.864733
8042.000000;0.864895
8041.000000;0.864673
8040.000000;0.864253
8039.000000;0.863889
8038.000000;0.863700
8037.000000;0.863689
8036.000000;0.863830
8035.000000;0.864069
8034.000000;0.864330
8033.000000;0.864561
8032.000000;0.864714
8031.000000;0.864669
8030.000000;0.864304
8029.000000;0.863721
8028.000000;0.863284
8027.000000;0.863302
8026.000000;0.863698
8025.000000;0.864081
8024.000000;0.864174
8023.000000;0.864113
8022.000000;0.864275
8021.000000;0.864850
8020.000000;0.865589
8019.000000;0.866016
8018.000000;0.865853
8017.000000;0.865237
8016.000000;0.864556
8015.000000;0.864152
8014.000000;0.864192
8013.000000;0.864651
8012.000000;0.865301
8011.000000;0.865798
8010.000000;0.865930
8009.000000;0.865795
8008.000000;0.865656
8007.000000;0.865653
8006.000000;0.865745
8005.000000;0.865870
8004.000000;0.866027
8003.000000;0.866175
8002.000000;0.866208
8001.000000;0.866082
8000.000000;0.865890
7999.000000;0.865767
7998.000000;0.865788
7997.000000;0.865958
7996.000000;0.866226
7995.000000;0.866493
7994.000000;0.866672
7993.000000;0.866781
7992.000000;0.866915
7991.000000;0.867094
7990.000000;0.867211
7989.000000;0.867141
7988.000000;0.866864
7987.000000;0.866501
7986.000000;0.866282
7985.000000;0.866434
7984.000000;0.866992
7983.000000;0.867692
7982.000000;0.868150
7981.000000;0.868197
7980.000000;0.867974
7979.000000;0.867704
7978.000000;0.867476
7977.000000;0.867288
7976.000000;0.867178
7975.000000;0.867223
7974.000000;0.867433
7973.000000;0.867728
7972.000000;0.867986
7971.000000;0.868111
7970.000000;0.868084
7969.000000;0.867964
7968.000000;0.867810
7967.000000;0.867626
7966.000000;0.867421
7965.000000;0.867301
7964.000000;0.867407
7963.000000;0.867760
7962.000000;0.868234
7961.000000;0.868696
7960.000000;0.869072
7959.000000;0.869288
7958.000000;0.869257
7957.000000;0.868979
7956.000000;0.868576
7955.000000;0.868220
7954.000000;0.868069
7953.000000;0.868248
7952.000000;0.868737
7951.000000;0.869273
7950.000000;0.869523
7949.000000;0.869422
7948.000000;0.869239
7947.000000;0.869244
7946.000000;0.869441
7945.000000;0.869683
7944.000000;0.869885
7943.000000;0.870003
7942.000000;0.869964
7941.000000;0.869774
7940.000000;0.869616
7939.000000;0.869657
7938.000000;0.869811
7937.000000;0.869863
7936.000000;0.869796
7935.000000;0.869795
7934.000000;0.869939
7933.000000;0.870099
7932.000000;0.870195
7931.000000;0.870380
7930.000000;0.870807
7929.000000;0.871323
7928.000000;0.871558
7927.000000;0.871326
7926.000000;0.870826
7925.000000;0.870439
7924.000000;0.870382
7923.000000;0.870596
7922.000000;0.870875
7921.000000;0.871030
7920.000000;0.870961
7919.000000;0.870688
7918.000000;0.870362
7917.000000;0.870206
7916.000000;0.870356
7915.000000;0.870725
7914.000000;0.871078
7913.000000;0.871242
7912.000000;0.871239
7911.000000;0.871209
7910.000000;0.871300
7909.000000;0.871609
7908.000000;0.872158
7907.000000;0.872846
7906.000000;0.873436
7905.000000;0.873673
7904.000000;0.873441
7903.000000;0.872841
7902.000000;0.872148
7901.000000;0.871673
7900.000000;0.871577
7899.000000;0.871765
7898.000000;0.871994
7897.000000;0.872123
7896.000000;0.872207
7895.000000;0.872332
7894.000000;0.872452
7893.000000;0.872474
7892.000000;0.872453
7891.000000;0.872549
7890.000000;0.872811
7889.000000;0.873092
7888.000000;0.873238
7887.000000;0.873274
7886.000000;0.873338
7885.000000;0.873497
7884.000000;0.873679
7883.000000;0.873774
7882.000000;0.873758
7881.000000;0.873697
7880.000000;0.873675
7879.000000;0.873730
7878.000000;0.873843
7877.000000;0.873996
7876.000000;0.874216
7875.000000;0.874559
7874.000000;0.875022
7873.000000;0.875490
7872.000000;0.875789
7871.000000;0.875813
7870.000000;0.875619
7869.000000;0.875390
7868.000000;0.875301
7867.000000;0.875388
7866.000000;0.875556
7865.000000;0.875683
7864.000000;0.875719
7863.000000;0.875680
7862.000000;0.875608
7861.000000;0.875557
7860.000000;0.875600
7859.000000;0.875798
7858.000000;0.876126
7857.000000;0.876452
7856.000000;0.876608
7855.000000;0.876506
7854.000000;0.876210
7853.000000;0.875910
7852.000000;0.875793
7851.000000;0.875933
7850.000000;0.876266
7849.000000;0.876672
7848.000000;0.877050
7847.000000;0.877315
7846.000000;0.877376
7845.000000;0.877218
7844.000000;0.877005
7843.000000;0.877022
7842.000000;0.877425
7841.000000;0.878053
7840.000000;0.878546
7839.000000;0.878648
7838.000000;0.878392
7837.000000;0.878009
7836.000000;0.877722
7835.000000;0.877637
7834.000000;0.877741
7833.000000;0.877923
7832.000000;0.878033
7831.000000;0.877990
7830.000000;0.877857
7829.000000;0.877778
7828.000000;0.877833
7827.000000;0.877980
7826.000000;0.878104
7825.000000;0.878105
7824.000000;0.877954
7823.000000;0.877735
7822.000000;0.877632
7821.000000;0.877806
7820.000000;0.878253
7819.000000;0.878816
7818.000000;0.879322
7817.000000;0.879666
7816.000000;0.879789
7815.000000;0.879719
7814.000000;0.879668
7813.000000;0.879927
7812.000000;0.880540
7811.000000;0.881152
7810.000000;0.881351
7809.000000;0.881122
7808.000000;0.880816
7807.000000;0.880694
7806.000000;0.880669
7805.000000;0.880560
7804.000000;0.880387
7803.000000;0.880307
7802.000000;0.880359
7801.000000;0.880446
7800.000000;0.880540
7799.000000;0.880726
7798.000000;0.881058
7797.000000;0.881462
7796.000000;0.881834
7795.000000;0.882132
7794.000000;0.882335
7793.000000;0.882387
7792.000000;0.882276
7791.000000;0.882112
7790.000000;0.882069
7789.000000;0.882245
7788.000000;0.882598
7787.000000;0.882980
7786.000000;0.883208
7785.000000;0.883151
7784.000000;0.882843
7783.000000;0.882526
7782.000000;0.882517
7781.000000;0.882958
7780.000000;0.883687
7779.000000;0.884345
7778.000000;0.884623
7777.000000;0.884457
7776.000000;0.884065
7775.000000;0.883794
7774.000000;0.883880
7773.000000;0.884293
7772.000000;0.884786
7771.000000;0.885106
7770.000000;0.885142
7769.000000;0.884923
7768.000000;0.884572
7767.000000;0.884294
7766.000000;0.884291
7765.000000;0.884598
7764.000000;0.885009
7763.000000;0.885269
7762.000000;0.885318
7761.000000;0.885295
7760.000000;0.885326
7759.000000;0.885412
7758.000000;0.885513
7757.000000;0.885643
7756.000000;0.885809
7755.000000;0.885946
7754.000000;0.885984
7753.000000;0.885960
7752.000000;0.885998
7751.000000;0.886202
7750.000000;0.886581
7749.000000;0.887051
7748.000000;0.887481
7747.000000;0.887777
7746.000000;0.887938
7745.000000;0.888047
7744.000000;0.888178
7743.000000;0.888325
7742.000000;0.888429
7741.000000;0.888453
7740.000000;0.888434
7739.000000;0.888481
7738.000000;0.888700
7737.000000;0.889061
7736.000000;0.889380
7735.000000;0.889500
7734.000000;0.889515
7733.000000;0.889677
7732.000000;0.890067
7731.000000;0.890464
7730.000000;0.890631
7729.000000;0.890617
7728.000000;0.890659
7727.000000;0.890858
7726.000000;0.891090
7725.000000;0.891210
7724.000000;0.891208
7723.000000;0.891148
7722.000000;0.891074
7721.000000;0.891039
7720.000000;0.891124
7719.000000;0.891368
7718.000000;0.891695
7717.000000;0.891985
7716.000000;0.892178
7715.000000;0.892313
7714.000000;0.892470
7713.000000;0.892705
7712.000000;0.893012
7711.000000;0.893339
7710.000000;0.893637
7709.000000;0.893877
7708.000000;0.894020
7707.000000;0.894012
7706.000000;0.893859
7705.000000;0.893678
7704.000000;0.893610
7703.000000;0.893673
7702.000000;0.893764
7701.000000;0.893798
7700.000000;0.893802
7699.000000;0.893841
7698.000000;0.893921
7697.000000;0.894025
7696.000000;0.894182
7695.000000;0.894441
7694.000000;0.894766
7693.000000;0.895027
7692.000000;0.895154
7691.000000;0.895248
7690.000000;0.895508
7689.000000;0.896005
7688.000000;0.896579
7687.000000;0.896983
7686.000000;0.897109
7685.000000;0.897060
7684.000000;0.897022
7683.000000;0.897102
7682.000000;0.897290
7681.000000;0.897512
7680.000000;0.897701
7679.000000;0.897856
7678.000000;0.898037
7677.000000;0.898273
7676.000000;0.898502
7675.000000;0.898653
7674.000000;0.898778
7673.000000;0.898999
7672.000000;0.899325
7671.000000;0.899601
7670.000000;0.899694
7669.000000;0.899644
7668.000000;0.899601
7667.000000;0.899684
7666.000000;0.899968
7665.000000;0.900493
7664.000000;0.901159
7663.000000;0.901694
7662.000000;0.901857
7661.000000;0.901694
7660.000000;0.901489
7659.000000;0.901478
7658.000000;0.901669
7657.000000;0.901920
7656.000000;0.902120
7655.000000;0.902287
7654.000000;0.902530
7653.000000;0.902923
7652.000000;0.903368
7651.000000;0.903651
7650.000000;0.903673
7649.000000;0.903596
7648.000000;0.903665
7647.000000;0.903960
7646.000000;0.904389
7645.000000;0.904863
7644.000000;0.905330
7643.000000;0.905692
7642.000000;0.905872
7641.000000;0.905986
7640.000000;0.906270
7639.000000;0.906783
7638.000000;0.907302
7637.000000;0.907594
7636.000000;0.907668
7635.000000;0.907702
7634.000000;0.907803
7633.000000;0.907955
7632.000000;0.908136
7631.000000;0.908389
7630.000000;0.908746
7629.000000;0.909129
7628.000000;0.909368
7627.000000;0.909346
7626.000000;0.909176
7625.000000;0.909171
7624.000000;0.909557
7623.000000;0.910203
7622.000000;0.910741
7621.000000;0.910971
7620.000000;0.911043
7619.000000;0.911238
7618.000000;0.911658
7617.000000;0.912184
7616.000000;0.912627
7615.000000;0.912872
7614.000000;0.912943
7613.000000;0.912996
7612.000000;0.913198
7611.000000;0.913551
7610.000000;0.913891
7609.000000;0.914106
7608.000000;0.914264
7607.000000;0.914465
7606.000000;0.914655
7605.000000;0.914687
7604.000000;0.914550
7603.000000;0.914433
7602.000000;0.914543
7601.000000;0.914895
7600.000000;0.915286
7599.000000;0.915476
7598.000000;0.915420
7597.000000;0.915352
7596.000000;0.915584
7595.000000;0.916219
7594.000000;0.917081
7593.000000;0.917911
7592.000000;0.918547
7591.000000;0.918948
7590.000000;0.919183
7589.000000;0.919429
7588.000000;0.919858
7587.000000;0.920429
7586.000000;0.920896
7585.000000;0.921106
7584.000000;0.921185
7583.000000;0.921342
7582.000000;0.921573
7581.000000;0.921737
7580.000000;0.921841
7579.000000;0.922083
7578.000000;0.922584
7577.000000;0.923216
7576.000000;0.923736
7575.000000;0.924003
7574.000000;0.924062
7573.000000;0.924086
7572.000000;0.924241
7571.000000;0.924555
7570.000000;0.924908
7569.000000;0.925190
7568.000000;0.925449
7567.000000;0.925801
7566.000000;0.926242
7565.000000;0.926638
7564.000000;0.926905
7563.000000;0.927095
7562.000000;0.927307
7561.000000;0.927601
7560.000000;0.928005
7559.000000;0.928509
7558.000000;0.929023
7557.000000;0.929442
7556.000000;0.929778
7555.000000;0.930146
7554.000000;0.930585
7553.000000;0.930957
7552.000000;0.931111
7551.000000;0.931077
7550.000000;0.931040
7549.000000;0.931162
7548.000000;0.931488
7547.000000;0.931971
7546.000000;0.932528
7545.000000;0.933076
7544.000000;0.933578
7543.000000;0.934044
7542.000000;0.934472
7541.000000;0.934841
7540.000000;0.935177
7539.000000;0.935576
7538.000000;0.936070
7537.000000;0.936511
7536.000000;0.936687
7535.000000;0.936608
7534.000000;0.936571
7533.000000;0.936872
7532.000000;0.937499
7531.000000;0.938165
7530.000000;0.938652
7529.000000;0.939002
7528.000000;0.939356
7527.000000;0.939717
7526.000000;0.939986
7525.000000;0.940174
7524.000000;0.940442
7523.000000;0.940883
7522.000000;0.941394
7521.000000;0.941830
7520.000000;0.942203
7519.000000;0.942650
7518.000000;0.943223
7517.000000;0.943820
7516.000000;0.944310
7515.000000;0.944653
7514.000000;0.944909
7513.000000;0.945188
7512.000000;0.945581
7511.000000;0.946078
7510.000000;0.946552
7509.000000;0.946893
7508.000000;0.947152
7507.000000;0.947461
7506.000000;0.947835
7505.000000;0.948158
7504.000000;0.948395
7503.000000;0.948673
7502.000000;0.949126
7501.000000;0.949684
7500.000000;0.950188
7499.000000;0.950558
7498.000000;0.950825
7497.000000;0.951086
7496.000000;0.951393
7495.000000;0.951755
7494.000000;0.952132
7493.000000;0.952475
7492.000000;0.952816
7491.000000;0.953269
7490.000000;0.953897
7489.000000;0.954601
7488.000000;0.955229
7487.000000;0.955746
7486.000000;0.956214
7485.000000;0.956639
7484.000000;0.956944
7483.000000;0.957115
7482.000000;0.957253
7481.000000;0.957470
7480.000000;0.957805
7479.000000;0.958302
7478.000000;0.959047
7477.000000;0.960042
7476.000000;0.961071
7475.000000;0.961807
7474.000000;0.962046
7473.000000;0.961849
7472.000000;0.961472
7471.000000;0.961235
7470.000000;0.961378
7469.000000;0.961941
7468.000000;0.962735
7467.000000;0.963498
7466.000000;0.964101
7465.000000;0.964575
7464.000000;0.964961
7463.000000;0.965252
7462.000000;0.965484
7461.000000;0.965803
7460.000000;0.966329
7459.000000;0.966979
7458.000000;0.967529
7457.000000;0.967849
7456.000000;0.968026
7455.000000;0.968248
7454.000000;0.968612
7453.000000;0.969090
7452.000000;0.969612
7451.000000;0.970113
7450.000000;0.970530
7449.000000;0.970809
7448.000000;0.970974
7447.000000;0.971134
7446.000000;0.971409
7445.000000;0.971848
7444.000000;0.972420
7443.000000;0.973067
7442.000000;0.973737
7441.000000;0.974385
7440.000000;0.974972
7439.000000;0.975463
7438.000000;0.975817
7437.000000;0.975989
7436.000000;0.976004
7435.000000;0.976013
7434.000000;0.976225
7433.000000;0.976730
7432.000000;0.977404
7431.000000;0.978028
7430.000000;0.978480
7429.000000;0.978804
7428.000000;0.979119
7427.000000;0.979497
7426.000000;0.979918
7425.000000;0.980294
7424.000000;0.980548
7423.000000;0.980700
7422.000000;0.980871
7421.000000;0.981156
7420.000000;0.981508
7419.000000;0.981805
7418.000000;0.982021
7417.000000;0.982256
7416.000000;0.982588
7415.000000;0.982988
7414.000000;0.983412
7413.000000;0.983890
7412.000000;0.984458
7411.000000;0.985056
7410.000000;0.985609
7409.000000;0.986171
7408.000000;0.986857
7407.000000;0.987607
7406.000000;0.988141
7405.000000;0.988234
7404.000000;0.987983
7403.000000;0.987722
7402.000000;0.987686
7401.000000;0.987844
7400.000000;0.988086
7399.000000;0.988435
7398.000000;0.988998
7397.000000;0.989757
7396.000000;0.990512
7395.000000;0.991070
7394.000000;0.991456
7393.000000;0.991880
7392.000000;0.992479
7391.000000;0.993132
7390.000000;0.993558
7389.000000;0.993609
7388.000000;0.993427
7387.000000;0.993299
7386.000000;0.993393
7385.000000;0.993638
7384.000000;0.993872
7383.000000;0.994083
7382.000000;0.994467
7381.000000;0.995196
7380.000000;0.996146
7379.000000;0.996985
7378.000000;0.997525
7377.000000;0.997896
7376.000000;0.998325
7375.000000;0.998853
7374.000000;0.999313
7373.000000;0.999534
7372.000000;0.999544
7371.000000;0.999589
7370.000000;0.999951
7369.000000;1.000671
7368.000000;1.001471
7367.000000;1.002002
7366.000000;1.002208
7365.000000;1.002401
7364.000000;1.002866
7363.000000;1.003548
7362.000000;1.004225
7361.000000;1.004845
7360.000000;1.005478
7359.000000;1.006080
7358.000000;1.006500
7357.000000;1.006719
7356.000000;1.006869
7355.000000;1.007063
7354.000000;1.007289
7353.000000;1.007523
7352.000000;1.007794
7351.000000;1.008122
7350.000000;1.008468
7349.000000;1.008797
7348.000000;1.009134
7347.000000;1.009525
7346.000000;1.010001
7345.000000;1.010551
7344.000000;1.011103
7343.000000;1.011533
7342.000000;1.011796
7341.000000;1.012025
7340.000000;1.012408
7339.000000;1.012978
7338.000000;1.013590
7337.000000;1.014129
7336.000000;1.014603
7335.000000;1.015034
7334.000000;1.015423
7333.000000;1.015811
7332.000000;1.016245
7331.000000;1.016665
7330.000000;1.016978
7329.000000;1.017230
7328.000000;1.017597
7327.000000;1.018182
7326.000000;1.018921
7325.000000;1.019734
7324.000000;1.020679
7323.000000;1.021827
7322.000000;1.023014
7321.000000;1.023905
7320.000000;1.024320
7319.000000;1.024402
7318.000000;1.024441
7317.000000;1.024666
7316.000000;1.025165
7315.000000;1.025863
7314.000000;1.026597
7313.000000;1.027262
7312.000000;1.027864
7311.000000;1.028458
7310.000000;1.029063
7309.000000;1.029696
7308.000000;1.030399
7307.000000;1.031192
7306.000000;1.032014
7305.000000;1.032771
7304.000000;1.033455
7303.000000;1.034177
7302.000000;1.035001
7301.000000;1.035853
7300.000000;1.036649
7299.000000;1.037412
7298.000000;1.038189
7297.000000;1.038961
7296.000000;1.039716
7295.000000;1.040501
7294.000000;1.041351
7293.000000;1.042222
7292.000000;1.043034
7291.000000;1.043799
7290.000000;1.044634
7289.000000;1.045602
7288.000000;1.046604
7287.000000;1.047492
7286.000000;1.048254
7285.000000;1.049018
7284.000000;1.049933
7283.000000;1.051069
7282.000000;1.052362
7281.000000;1.053652
7280.000000;1.054821
7279.000000;1.055881
7278.000000;1.056905
7277.000000;1.057893
7276.000000;1.058758
7275.000000;1.059482
7274.000000;1.060218
7273.000000;1.061179
7272.000000;1.062447
7271.000000;1.063920
7270.000000;1.065397
7269.000000;1.066717
7268.000000;1.067862
7267.000000;1.068960
7266.000000;1.070143
7265.000000;1.071439
7264.000000;1.072806
7263.000000;1.074221
7262.000000;1.075638
7261.000000;1.076892
7260.000000;1.077849
7259.000000;1.078689
7258.000000;1.079822
7257.000000;1.081424
7256.000000;1.083219
7255.000000;1.084845
7254.000000;1.086275
7253.000000;1.087741
7252.000000;1.089392
7251.000000;1.091206
7250.000000;1.093176
7249.000000;1.095332
7248.000000;1.097493
7247.000000;1.099311
7246.000000;1.100696
7245.000000;1.101983
7244.000000;1.103549
7243.000000;1.105412
7242.000000;1.107345
7241.000000;1.109211
7240.000000;1.111042
7239.000000;1.112946
7238.000000;1.115039
7237.000000;1.117335
7236.000000;1.119660
7235.000000;1.121754
7234.000000;1.123572
7233.000000;1.125440
7232.000000;1.127772
7231.000000;1.130577
7230.000000;1.133449
7229.000000;1.136034
7228.000000;1.138284
7227.000000;1.140331
7226.000000;1.142355
7225.000000;1.144567
7224.000000;1.147092
7223.000000;1.149818
7222.000000;1.152507
7221.000000;1.155049
7220.000000;1.157551
7219.000000;1.160196
7218.000000;1.163085
7217.000000;1.166195
7216.000000;1.169414
7215.000000;1.172596
7214.000000;1.175649
7213.000000;1.178622
7212.000000;1.181661
7211.000000;1.184799
7210.000000;1.187910
7209.000000;1.190906
7208.000000;1.193871
7207.000000;1.196920
7206.000000;1.200057
7205.000000;1.203243
7204.000000;1.206533
7203.000000;1.210002
7202.000000;1.213588
7201.000000;1.217150
7200.000000;1.220677
7199.000000;1.224331
7198.000000;1.228220
7197.000000;1.232263
7196.000000;1.236329
7195.000000;1.240400
7194.000000;1.244487
7193.000000;1.248456
7192.000000;1.252098
7191.000000;1.255417
7190.000000;1.258761
7189.000000;1.262584
7188.000000;1.267075
7187.000000;1.271996
7186.000000;1.276866
7185.000000;1.281345
7184.000000;1.285476
7183.000000;1.289541
7182.000000;1.293746
7181.000000;1.298136
7180.000000;1.302734
7179.000000;1.307560
7178.000000;1.312527
7177.000000;1.317408
7176.000000;1.322019
7175.000000;1.326398
7174.000000;1.330717
7173.000000;1.335049
7172.000000;1.339357
7171.000000;1.343688
7170.000000;1.348246
7169.000000;1.353151
7168.000000;1.358246
7167.000000;1.363220
7166.000000;1.367906
7165.000000;1.372458
7164.000000;1.377231
7163.000000;1.382474
7162.000000;1.388153
7161.000000;1.394054
7160.000000;1.399978
7159.000000;1.405745
7158.000000;1.411115
7157.000000;1.415865
7156.000000;1.419999
7155.000000;1.423795
7154.000000;1.427634
7153.000000;1.431797
7152.000000;1.436503
7151.000000;1.441911
7150.000000;1.447930
7149.000000;1.454113
7148.000000;1.459925
7147.000000;1.465124
7146.000000;1.469863
7145.000000;1.474442
7144.000000;1.479043
7143.000000;1.483737
7142.000000;1.488636
7141.000000;1.493857
7140.000000;1.499308
7139.000000;1.504680
7138.000000;1.509828
7137.000000;1.515084
7136.000000;1.520978
7135.000000;1.527612
7134.000000;1.534408
7133.000000;1.540500
7132.000000;1.545408
7131.000000;1.549402
7130.000000;1.553306
7129.000000;1.557937
7128.000000;1.563512
7127.000000;1.569486
7126.000000;1.575085
7125.000000;1.580065
7124.000000;1.584805
7123.000000;1.589645
7122.000000;1.594427
7121.000000;1.598832
7120.000000;1.602914
7119.000000;1.607057
7118.000000;1.611583
7117.000000;1.616619
7116.000000;1.622221
7115.000000;1.628301
7114.000000;1.634448
7113.000000;1.640058
7112.000000;1.644735
7111.000000;1.648557
7110.000000;1.652050
7109.000000;1.655926
7108.000000;1.660675
7107.000000;1.666164
7106.000000;1.671651
7105.000000;1.676399
7104.000000;1.680307
7103.000000;1.683856
7102.000000;1.687608
7101.000000;1.691917
7100.000000;1.696828
7099.000000;1.701949
7098.000000;1.706641
7097.000000;1.710680
7096.000000;1.714598
7095.000000;1.719037
7094.000000;1.723925
7093.000000;1.728637
7092.000000;1.732823
7091.000000;1.736655
7090.000000;1.740398
7089.000000;1.744229
7088.000000;1.748435
7087.000000;1.753193
7086.000000;1.758009
7085.000000;1.761947
7084.000000;1.764723
7083.000000;1.767139
7082.000000;1.770142
7081.000000;1.773811
7080.000000;1.777576
7079.000000;1.781078
7078.000000;1.784450
7077.000000;1.787919
7076.000000;1.791495
7075.000000;1.794982
7074.000000;1.798037
7073.000000;1.800324
7072.000000;1.801914
7071.000000;1.803459
7070.000000;1.805694
7069.000000;1.808801
7068.000000;1.812396
7067.000000;1.816022
7066.000000;1.819409
7065.000000;1.822419
7064.000000;1.825095
7063.000000;1.827735
7062.000000;1.830603
7061.000000;1.833542
7060.000000;1.836191
7059.000000;1.838635
7058.000000;1.841472
7057.000000;1.845074
7056.000000;1.849035
7055.000000;1.852626
7054.000000;1.855522
7053.000000;1.857798
7052.000000;1.859472
7051.000000;1.860527
7050.000000;1.861346
7049.000000;1.862646
7048.000000;1.864800
7047.000000;1.867511
7046.000000;1.870263
7045.000000;1.872836
7044.000000;1.875170
7043.000000;1.877038
7042.000000;1.878248
7041.000000;1.879084
7040.000000;1.880168
7039.000000;1.881868
7038.000000;1.884025
7037.000000;1.886269
7036.000000;1.888363
7035.000000;1.890265
7034.000000;1.892123
7033.000000;1.894310
7032.000000;1.897187
7031.000000;1.900599
7030.000000;1.903736
7029.000000;1.905766
7028.000000;1.906637
7027.000000;1.907093
7026.000000;1.907875
7025.000000;1.909039
7024.000000;1.910117
7023.000000;1.910913
7022.000000;1.911920
7021.000000;1.913736
7020.000000;1.916180
7019.000000;1.918386
7018.000000;1.919844
7017.000000;1.920986
7016.000000;1.922455
7015.000000;1.924146
7014.000000;1.925359
7013.000000;1.925748
7012.000000;1.925651
7011.000000;1.925563
7010.000000;1.925785
7009.000000;1.926596
7008.000000;1.928162
7007.000000;1.930019
7006.000000;1.931187
7005.000000;1.931252
7004.000000;1.931073
7003.000000;1.932033
7002.000000;1.934695
7001.000000;1.938336
7000.000000;1.941587
6999.000000;1.943396
6998.000000;1.943647
6997.000000;1.943159
6996.000000;1.942985
6995.000000;1.943523
6994.000000;1.944357
6993.000000;1.944946
6992.000000;1.945161
6991.000000;1.944976
6990.000000;1.944110
6989.000000;1.942573
6988.000000;1.941382
6987.000000;1.942026
6986.000000;1.944971
6985.000000;1.948941
6984.000000;1.951882
6983.000000;1.952652
6982.000000;1.951821
6981.000000;1.951029
6980.000000;1.951643
6979.000000;1.953747
6978.000000;1.956124
6977.000000;1.957286
6976.000000;1.956790
6975.000000;1.955562
6974.000000;1.954894
6973.000000;1.955264
6972.000000;1.956144
6971.000000;1.956739
6970.000000;1.956617
6969.000000;1.955713
6968.000000;1.954209
6967.000000;1.952718
6966.000000;1.952260
6965.000000;1.953488
6964.000000;1.955800
6963.000000;1.957586
6962.000000;1.957699
6961.000000;1.956558
6960.000000;1.955620
6959.000000;1.956005
6958.000000;1.957823
6957.000000;1.960345
6956.000000;1.962368
6955.000000;1.962746
6954.000000;1.961378
6953.000000;1.959618
6952.000000;1.959010
6951.000000;1.959635
6950.000000;1.960196
6949.000000;1.959799
6948.000000;1.959085
6947.000000;1.959230
6946.000000;1.960326
6945.000000;1.961276
6944.000000;1.961128
6943.000000;1.960062
6942.000000;1.959049
6941.000000;1.958842
6940.000000;1.959378
6939.000000;1.960064
6938.000000;1.960496
6937.000000;1.960766
6936.000000;1.960963
6935.000000;1.960737
6934.000000;1.959802
6933.000000;1.958727
6932.000000;1.958537
6931.000000;1.959342
6930.000000;1.959945
6929.000000;1.959243
6928.000000;1.957603
6927.000000;1.956317
6926.000000;1.955982
6925.000000;1.955969
6924.000000;1.955324
6923.000000;1.953726
6922.000000;1.951631
6921.000000;1.949971
6920.000000;1.949625
6919.000000;1.950676
6918.000000;1.951992
6917.000000;1.952016
6916.000000;1.950356
6915.000000;1.948345
6914.000000;1.947703
6913.000000;1.948821
6912.000000;1.950503
6911.000000;1.951311
6910.000000;1.951087
6909.000000;1.951014
6908.000000;1.952255
6907.000000;1.954713
6906.000000;1.957146
6905.000000;1.958380
6904.000000;1.958233
6903.000000;1.957262
6902.000000;1.955955
6901.000000;1.954436
6900.000000;1.952815
6899.000000;1.951509
6898.000000;1.951067
6897.000000;1.951608
6896.000000;1.952466
6895.000000;1.952654
6894.000000;1.951929
6893.000000;1.951244
6892.000000;1.951790
6891.000000;1.953571
6890.000000;1.955254
6889.000000;1.955551
6888.000000;1.954436
6887.000000;1.952836
6886.000000;1.951538
6885.000000;1.950707
6884.000000;1.950123
6883.000000;1.949524
6882.000000;1.948797
6881.000000;1.948049
6880.000000;1.947430
6879.000000;1.946899
6878.000000;1.946447
6877.000000;1.946484
6876.000000;1.947449
6875.000000;1.948793
6874.000000;1.948948
6873.000000;1.946942
6872.000000;1.943788
6871.000000;1.941639
6870.000000;1.941638
6869.000000;1.942993
6868.000000;1.943978
6867.000000;1.943514
6866.000000;1.941845
6865.000000;1.940103
6864.000000;1.939354
6863.000000;1.939752
6862.000000;1.940450
6861.000000;1.940451
6860.000000;1.939587
6859.000000;1.938538
6858.000000;1.937966
6857.000000;1.937922
6856.000000;1.938097
6855.000000;1.938254
6854.000000;1.938287
6853.000000;1.938092
6852.000000;1.937541
6851.000000;1.936508
6850.000000;1.934955
6849.000000;1.933148
6848.000000;1.931743
6847.000000;1.931369
6846.000000;1.931948
6845.000000;1.932551
6844.000000;1.932148
6843.000000;1.930594
6842.000000;1.928785
6841.000000;1.927779
6840.000000;1.927760
6839.000000;1.927967
6838.000000;1.927630
6837.000000;1.926801
6836.000000;1.926037
6835.000000;1.925481
6834.000000;1.924643
6833.000000;1.923046
6832.000000;1.920721
6831.000000;1.918077
6830.000000;1.915703
6829.000000;1.914319
6828.000000;1.914279
6827.000000;1.914779
6826.000000;1.914162
6825.000000;1.911664
6824.000000;1.908517
6823.000000;1.906667
6822.000000;1.906640
6821.000000;1.907256
6820.000000;1.907238
6819.000000;1.906412
6818.000000;1.905269
6817.000000;1.904064
6816.000000;1.902600
6815.000000;1.900513
6814.000000;1.897626
6813.000000;1.894289
6812.000000;1.891381
6811.000000;1.889573
6810.000000;1.888555
6809.000000;1.887368
6808.000000;1.885561
6807.000000;1.883565
6806.000000;1.881861
6805.000000;1.880431
6804.000000;1.879280
6803.000000;1.878793
6802.000000;1.879015
6801.000000;1.879143
6800.000000;1.878424
6799.000000;1.877139
6798.000000;1.875999
6797.000000;1.874864
6796.000000;1.872904
6795.000000;1.870039
6794.000000;1.867256
6793.000000;1.865195
6792.000000;1.863208
6791.000000;1.860306
6790.000000;1.856554
6789.000000;1.852998
6788.000000;1.850418
6787.000000;1.848710
6786.000000;1.847399
6785.000000;1.846212
6784.000000;1.845014
6783.000000;1.843597
6782.000000;1.841810
6781.000000;1.839752
6780.000000;1.837614
6779.000000;1.835413
6778.000000;1.832992
6777.000000;1.830262
6776.000000;1.827374
6775.000000;1.824713
6774.000000;1.822713
6773.000000;1.821531
6772.000000;1.820776
6771.000000;1.819702
6770.000000;1.817828
6769.000000;1.815355
6768.000000;1.812853
6767.000000;1.810630
6766.000000;1.808495
6765.000000;1.806023
6764.000000;1.802976
6763.000000;1.799576
6762.000000;1.796529
6761.000000;1.794674
6760.000000;1.794288
6759.000000;1.794663
6758.000000;1.794599
6757.000000;1.793411
6756.000000;1.791302
6755.000000;1.788773
6754.000000;1.786031
6753.000000;1.783101
6752.000000;1.780164
6751.000000;1.777421
6750.000000;1.774767
6749.000000;1.771939
6748.000000;1.769036
6747.000000;1.766638
6746.000000;1.765256
6745.000000;1.764738
6744.000000;1.764300
6743.000000;1.763142
6742.000000;1.761099
6741.000000;1.758728
6740.000000;1.756719
6739.000000;1.755197
6738.000000;1.753611
6737.000000;1.751367
6736.000000;1.748507
6735.000000;1.745657
6734.000000;1.743332
6733.000000;1.741438
6732.000000;1.739481
6731.000000;1.737129
6730.000000;1.734479
6729.000000;1.731863
6728.000000;1.729511
6727.000000;1.727475
6726.000000;1.725740
6725.000000;1.724269
6724.000000;1.722946
6723.000000;1.721547
6722.000000;1.719877
6721.000000;1.717901
6720.000000;1.715704
6719.000000;1.713401
6718.000000;1.711183
6717.000000;1.709317
6716.000000;1.707922
6715.000000;1.706685
6714.000000;1.705004
6713.000000;1.702530
6712.000000;1.699487
6711.000000;1.696392
6710.000000;1.693563
6709.000000;1.691013
6708.000000;1.688713
6707.000000;1.686809
6706.000000;1.685433
6705.000000;1.684407
6704.000000;1.683373
6703.000000;1.681911
6702.000000;1.679870
6701.000000;1.677434
6700.000000;1.674931
6699.000000;1.672561
6698.000000;1.670327
6697.000000;1.668165
6696.000000;1.666059
6695.000000;1.664022
6694.000000;1.662037
6693.000000;1.660050
6692.000000;1.657996
6691.000000;1.655871
6690.000000;1.653834
6689.000000;1.652175
6688.000000;1.651027
6687.000000;1.650102
6686.000000;1.648862
6685.000000;1.647025
6684.000000;1.644768
6683.000000;1.642404
6682.000000;1.640048
6681.000000;1.637722
6680.000000;1.635588
6679.000000;1.633845
6678.000000;1.632441
6677.000000;1.631081
6676.000000;1.629509
6675.000000;1.627673
6674.000000;1.625610
6673.000000;1.623356
6672.000000;1.621014
6671.000000;1.618795
6670.000000;1.616901
6669.000000;1.615350
6668.000000;1.613930
6667.000000;1.612330
6666.000000;1.610382
6665.000000;1.608198
6664.000000;1.606025
6663.000000;1.603939
6662.000000;1.601779
6661.000000;1.599462
6660.000000;1.597218
6659.000000;1.595371
6658.000000;1.593928
6657.000000;1.592565
6656.000000;1.591011
6655.000000;1.589307
6654.000000;1.587614
6653.000000;1.585937
6652.000000;1.584156
6651.000000;1.582255
6650.000000;1.580398
6649.000000;1.578758
6648.000000;1.577329
6647.000000;1.575918
6646.000000;1.574303
6645.000000;1.572390
6644.000000;1.570257
6643.000000;1.568093
6642.000000;1.566095
6641.000000;1.564382
6640.000000;1.562914
6639.000000;1.561512
6638.000000;1.560011
6637.000000;1.558398
6636.000000;1.556764
6635.000000;1.555139
6634.000000;1.553468
6633.000000;1.551751
6632.000000;1.550053
6631.000000;1.548332
6630.000000;1.546424
6629.000000;1.544323
6628.000000;1.542346
6627.000000;1.540793
6626.000000;1.539528
6625.000000;1.538104
6624.000000;1.536345
6623.000000;1.534547
6622.000000;1.533014
6621.000000;1.531592
6620.000000;1.529857
6619.000000;1.527696
6618.000000;1.525539
6617.000000;1.523931
6616.000000;1.522976
6615.000000;1.522221
6614.000000;1.521076
6613.000000;1.519337
6612.000000;1.517296
6611.000000;1.515380
6610.000000;1.513760
6609.000000;1.512313
6608.000000;1.510877
6607.000000;1.509386
6606.000000;1.507801
6605.000000;1.506066
6604.000000;1.504209
6603.000000;1.502389
6602.000000;1.500745
6601.000000;1.499244
6600.000000;1.497758
6599.000000;1.496238
6598.000000;1.494716
6597.000000;1.493184
6596.000000;1.491587
6595.000000;1.489927
6594.000000;1.488291
6593.000000;1.486746
6592.000000;1.485293
6591.000000;1.483950
6590.000000;1.482782
6589.000000;1.481791
6588.000000;1.480834
6587.000000;1.479759
6586.000000;1.478586
6585.000000;1.477452
6584.000000;1.476381
6583.000000;1.475207
6582.000000;1.473758
6581.000000;1.472013
6580.000000;1.470056
6579.000000;1.468000
6578.000000;1.466039
6577.000000;1.464433
6576.000000;1.463269
6575.000000;1.462281
6574.000000;1.461082
6573.000000;1.459592
6572.000000;1.458076
6571.000000;1.456737
6570.000000;1.455471
6569.000000;1.454088
6568.000000;1.452604
6567.000000;1.451144
6566.000000;1.449706
6565.000000;1.448195
6564.000000;1.446631
6563.000000;1.445148
6562.000000;1.443813
6561.000000;1.442591
6560.000000;1.441467
6559.000000;1.440432
6558.000000;1.439350
6557.000000;1.438028
6556.000000;1.436456
6555.000000;1.434855
6554.000000;1.433439
6553.000000;1.432246
6552.000000;1.431222
6551.000000;1.430318
6550.000000;1.429432
6549.000000;1.428397
6548.000000;1.427167
6547.000000;1.425914
6546.000000;1.424806
6545.000000;1.423765
6544.000000;1.422553
6543.000000;1.421063
6542.000000;1.419396
6541.000000;1.417712
6540.000000;1.416133
6539.000000;1.414784
6538.000000;1.413765
6537.000000;1.413012
6536.000000;1.412268
6535.000000;1.411274
6534.000000;1.409958
6533.000000;1.408432
6532.000000;1.406852
6531.000000;1.405337
6530.000000;1.403984
6529.000000;1.402870
6528.000000;1.402015
6527.000000;1.401350
6526.000000;1.400727
6525.000000;1.399976
6524.000000;1.398971
6523.000000;1.397675
6522.000000;1.396177
6521.000000;1.394690
6520.000000;1.393450
6519.000000;1.392529
6518.000000;1.391727
6517.000000;1.390739
6516.000000;1.389452
6515.000000;1.388042
6514.000000;1.386741
6513.000000;1.385588
6512.000000;1.384469
6511.000000;1.383320
6510.000000;1.382185
6509.000000;1.381111
6508.000000;1.380080
6507.000000;1.379069
6506.000000;1.378063
6505.000000;1.377018
6504.000000;1.375886
6503.000000;1.374702
6502.000000;1.373581
6501.000000;1.372589
6500.000000;1.371676
6499.000000;1.370741
6498.000000;1.369712
6497.000000;1.368550
6496.000000;1.367254
6495.000000;1.365917
6494.000000;1.364702
6493.000000;1.363679
6492.000000;1.362738
6491.000000;1.361726
6490.000000;1.360638
6489.000000;1.359600
6488.000000;1.358688
6487.000000;1.357847
6486.000000;1.356986
6485.000000;1.356090
6484.000000;1.355235
6483.000000;1.354501
6482.000000;1.353887
6481.000000;1.353259
6480.000000;1.352402
6479.000000;1.351197
6478.000000;1.349758
6477.000000;1.348363
6476.000000;1.347234
6475.000000;1.346386
6474.000000;1.345681
6473.000000;1.344958
6472.000000;1.344114
6471.000000;1.343148
6470.000000;1.342144
6469.000000;1.341194
6468.000000;1.340286
6467.000000;1.339327
6466.000000;1.338273
6465.000000;1.337207
6464.000000;1.336232
6463.000000;1.335348
6462.000000;1.334486
6461.000000;1.333632
6460.000000;1.332843
6459.000000;1.332139
6458.000000;1.331466
6457.000000;1.330775
6456.000000;1.330070
6455.000000;1.329348
6454.000000;1.328538
6453.000000;1.327571
6452.000000;1.326484
6451.000000;1.325401
6450.000000;1.324419
6449.000000;1.323544
6448.000000;1.322729
6447.000000;1.321941
6446.000000;1.321184
6445.000000;1.320477
6444.000000;1.319816
6443.000000;1.319140
6442.000000;1.318353
6441.000000;1.317402
6440.000000;1.316353
6439.000000;1.315324
6438.000000;1.314361
6437.000000;1.313390
6436.000000;1.312344
6435.000000;1.311278
6434.000000;1.310323
6433.000000;1.309544
6432.000000;1.308899
6431.000000;1.308339
6430.000000;1.307877
6429.000000;1.307514
6428.000000;1.307137
6427.000000;1.306563
6426.000000;1.305700
6425.000000;1.304620
6424.000000;1.303470
6423.000000;1.302362
6422.000000;1.301356
6421.000000;1.300493
6420.000000;1.299795
6419.000000;1.299214
6418.000000;1.298665
6417.000000;1.298090
6416.000000;1.297490
6415.000000;1.296884
6414.000000;1.296287
6413.000000;1.295721
6412.000000;1.295194
6411.000000;1.294630
6410.000000;1.293884
6409.000000;1.292881
6408.000000;1.291745
6407.000000;1.290711
6406.000000;1.289906
6405.000000;1.289259
6404.000000;1.288624
6403.000000;1.287930
6402.000000;1.287185
6401.000000;1.286413
6400.000000;1.285642
6399.000000;1.284908
6398.000000;1.284225
6397.000000;1.283566
6396.000000;1.282925
6395.000000;1.282382
6394.000000;1.282010
6393.000000;1.281731
6392.000000;1.281325
6391.000000;1.280628
6390.000000;1.279671
6389.000000;1.278620
6388.000000;1.277632
6387.000000;1.276801
6386.000000;1.276185
6385.000000;1.275784
6384.000000;1.275478
6383.000000;1.275066
6382.000000;1.274413
6381.000000;1.273562
6380.000000;1.272673
6379.000000;1.271880
6378.000000;1.271192
6377.000000;1.270528
6376.000000;1.269825
6375.000000;1.269114
6374.000000;1.268498
6373.000000;1.268044
6372.000000;1.267696
6371.000000;1.267298
6370.000000;1.266729
6369.000000;1.266000
6368.000000;1.265213
6367.000000;1.264447
6366.000000;1.263720
6365.000000;1.263050
6364.000000;1.262485
6363.000000;1.262019
6362.000000;1.261538
6361.000000;1.260920
6360.000000;1.260191
6359.000000;1.259531
6358.000000;1.259078
6357.000000;1.258773
6356.000000;1.258430
6355.000000;1.257912
6354.000000;1.257202
6353.000000;1.256348
6352.000000;1.255432
6351.000000;1.254576
6350.000000;1.253897
6349.000000;1.253404
6348.000000;1.252983
6347.000000;1.252504
6346.000000;1.251927
6345.000000;1.251301
6344.000000;1.250695
6343.000000;1.250156
6342.000000;1.249715
6341.000000;1.249363
6340.000000;1.249010
6339.000000;1.248513
6338.000000;1.247797
6337.000000;1.246955
6336.000000;1.246206
6335.000000;1.245697
6334.000000;1.245378
6333.000000;1.245099
6332.000000;1.244793
6331.000000;1.244497
6330.000000;1.244182
6329.000000;1.243689
6328.000000;1.242927
6327.000000;1.242064
6326.000000;1.241386
6325.000000;1.240989
6324.000000;1.240698
6323.000000;1.240309
6322.000000;1.239803
6321.000000;1.239284
6320.000000;1.238820
6319.000000;1.238398
6318.000000;1.237985
6317.000000;1.237540
6316.000000;1.237009
6315.000000;1.236388
6314.000000;1.235761
6313.000000;1.235232
6312.000000;1.234825
6311.000000;1.234482
6310.000000;1.234132
6309.000000;1.233718
6308.000000;1.233214
6307.000000;1.232637
6306.000000;1.232051
6305.000000;1.231500
6304.000000;1.230979
6303.000000;1.230477
6302.000000;1.230009
6301.000000;1.229575
6300.000000;1.229135
6299.000000;1.228674
6298.000000;1.228239
6297.000000;1.227852
6296.000000;1.227448
6295.000000;1.226980
6294.000000;1.226526
6293.000000;1.226185
6292.000000;1.225892
6291.000000;1.225485
6290.000000;1.224950
6289.000000;1.224468
6288.000000;1.224161
6287.000000;1.223922
6286.000000;1.223578
6285.000000;1.223118
6284.000000;1.222658
6283.000000;1.222231
6282.000000;1.221749
6281.000000;1.221180
6280.000000;1.220640
6279.000000;1.220274
6278.000000;1.220071
6277.000000;1.219873
6276.000000;1.219537
6275.000000;1.219078
6274.000000;1.218626
6273.000000;1.218287
6272.000000;1.218043
6271.000000;1.217794
6270.000000;1.217464
6269.000000;1.217032
6268.000000;1.216499
6267.000000;1.215896
6266.000000;1.215329
6265.000000;1.214942
6264.000000;1.214790
6263.000000;1.214747
6262.000000;1.214616
6261.000000;1.214297
6260.000000;1.213843
6259.000000;1.213356
6258.000000;1.212897
6257.000000;1.212487
6256.000000;1.212141
6255.000000;1.211843
6254.000000;1.211539
6253.000000;1.211197
6252.000000;1.210869
6251.000000;1.210647
6250.000000;1.210525
6249.000000;1.210365
6248.000000;1.210034
6247.000000;1.209551
6246.000000;1.209051
6245.000000;1.208623
6244.000000;1.208229
6243.000000;1.207813
6242.000000;1.207400
6241.000000;1.207058
6240.000000;1.206770
6239.000000;1.206432
6238.000000;1.205971
6237.000000;1.205444
6236.000000;1.204989
6235.000000;1.204696
6234.000000;1.204543
6233.000000;1.204428
6232.000000;1.204241
6231.000000;1.203915
6230.000000;1.203454
6229.000000;1.202938
6228.000000;1.202487
6227.000000;1.202184
6226.000000;1.202005
6225.000000;1.201848
6224.000000;1.201643
6223.000000;1.201410
6222.000000;1.201183
6221.000000;1.200908
6220.000000;1.200500
6219.000000;1.199981
6218.000000;1.199496
6217.000000;1.199163
6216.000000;1.198957
6215.000000;1.198789
6214.000000;1.198627
6213.000000;1.198489
6212.000000;1.198360
6211.000000;1.198184
6210.000000;1.197927
6209.000000;1.197600
6208.000000;1.197226
6207.000000;1.196841
6206.000000;1.196504
6205.000000;1.196252
6204.000000;1.196049
6203.000000;1.195813
6202.000000;1.195514
6201.000000;1.195205
6200.000000;1.194954
6199.000000;1.194774
6198.000000;1.194604
6197.000000;1.194352
6196.000000;1.193972
6195.000000;1.193537
6194.000000;1.193204
6193.000000;1.193074
6192.000000;1.193079
6191.000000;1.193044
6190.000000;1.192841
6189.000000;1.192464
6188.000000;1.191987
6187.000000;1.191529
6186.000000;1.191221
6185.000000;1.191105
6184.000000;1.191059
6183.000000;1.190886
6182.000000;1.190519
6181.000000;1.190086
6180.000000;1.189753
6179.000000;1.189558
6178.000000;1.189421
6177.000000;1.189257
6176.000000;1.189054
6175.000000;1.188858
6174.000000;1.188703
6173.000000;1.188552
6172.000000;1.188326
6171.000000;1.188017
6170.000000;1.187741
6169.000000;1.187603
6168.000000;1.187551
6167.000000;1.187429
6166.000000;1.187183
6165.000000;1.186894
6164.000000;1.186621
6163.000000;1.186324
6162.000000;1.186011
6161.000000;1.185821
6160.000000;1.185840
6159.000000;1.185939
6158.000000;1.185895
6157.000000;1.185654
6156.000000;1.185341
6155.000000;1.185053
6154.000000;1.184760
6153.000000;1.184438
6152.000000;1.184162
6151.000000;1.184023
6150.000000;1.183999
6149.000000;1.183985
6148.000000;1.183906
6147.000000;1.183771
6146.000000;1.183626
6145.000000;1.183492
6144.000000;1.183343
6143.000000;1.183126
6142.000000;1.182835
6141.000000;1.182539
6140.000000;1.182334
6139.000000;1.182228
6138.000000;1.182128
6137.000000;1.181950
6136.000000;1.181711
6135.000000;1.181483
6134.000000;1.181283
6133.000000;1.181063
6132.000000;1.180781
6131.000000;1.180456
6130.000000;1.180149
6129.000000;1.179915
6128.000000;1.179807
6127.000000;1.179854
6126.000000;1.180005
6125.000000;1.180096
6124.000000;1.179963
6123.000000;1.179593
6122.000000;1.179156
6121.000000;1.178854
6120.000000;1.178758
6119.000000;1.178790
6118.000000;1.178820
6117.000000;1.178755
6116.000000;1.178554
6115.000000;1.178236
6114.000000;1.177876
6113.000000;1.177567
6112.000000;1.177358
6111.000000;1.177228
6110.000000;1.177111
6109.000000;1.176965
6108.000000;1.176816
6107.000000;1.176740
6106.000000;1.176778
6105.000000;1.176859
6104.000000;1.176849
6103.000000;1.176696
6102.000000;1.176500
6101.000000;1.176400
6100.000000;1.176399
6099.000000;1.176362
6098.000000;1.176171
6097.000000;1.175852
6096.000000;1.175537
6095.000000;1.175346
6094.000000;1.175305
6093.000000;1.175349
6092.000000;1.175374
6091.000000;1.175308
6090.000000;1.175161
6089.000000;1.174981
6088.000000;1.174779
6087.000000;1.174518
6086.000000;1.174177
6085.000000;1.173809
6084.000000;1.173524
6083.000000;1.173404
6082.000000;1.173427
6081.000000;1.173462
6080.000000;1.173371
6079.000000;1.173150
6078.000000;1.172924
6077.000000;1.172805
6076.000000;1.172765
6075.000000;1.172713
6074.000000;1.172633
6073.000000;1.172573
6072.000000;1.172545
6071.000000;1.172526
6070.000000;1.172550
6069.000000;1.172686
6068.000000;1.172909
6067.000000;1.173074
6066.000000;1.173071
6065.000000;1.172920
6064.000000;1.172682
6063.000000;1.172383
6062.000000;1.172077
6061.000000;1.171892
6060.000000;1.171900
6059.000000;1.171986
6058.000000;1.171958
6057.000000;1.171787
6056.000000;1.171639
6055.000000;1.171656
6054.000000;1.171777
6053.000000;1.171825
6052.000000;1.171703
6051.000000;1.171482
6050.000000;1.171308
6049.000000;1.171272
6048.000000;1.171353
6047.000000;1.171456
6046.000000;1.171485
6045.000000;1.171384
6044.000000;1.171163
6043.000000;1.170905
6042.000000;1.170730
6041.000000;1.170712
6040.000000;1.170817
6039.000000;1.170952
6038.000000;1.171060
6037.000000;1.171120
6036.000000;1.171084
6035.000000;1.170898
6034.000000;1.170614
6033.000000;1.170398
6032.000000;1.170377
6031.000000;1.170503
6030.000000;1.170614
6029.000000;1.170602
6028.000000;1.170482
6027.000000;1.170342
6026.000000;1.170272
6025.000000;1.170313
6024.000000;1.170435
6023.000000;1.170560
6022.000000;1.170631
6021.000000;1.170646
6020.000000;1.170610
6019.000000;1.170509
6018.000000;1.170358
6017.000000;1.170229
6016.000000;1.170179
6015.000000;1.170175
6014.000000;1.170144
6013.000000;1.170070
6012.000000;1.170008
6011.000000;1.170024
6010.000000;1.170143
6009.000000;1.170334
6008.000000;1.170514
6007.000000;1.170609
6006.000000;1.170637
6005.000000;1.170696
6004.000000;1.170827
6003.000000;1.170949
6002.000000;1.170979
6001.000000;1.170984
6000.000000;1.171112
5999.000000;1.171388
5998.000000;1.171648
5997.000000;1.171712
5996.000000;1.171558
5995.000000;1.171330
5994.000000;1.171203
5993.000000;1.171244
5992.000000;1.171384
5991.000000;1.171502
5990.000000;1.171553
5989.000000;1.171586
5988.000000;1.171656
5987.000000;1.171743
5986.000000;1.171814
5985.000000;1.171900
5984.000000;1.172047
5983.000000;1.172222
5982.000000;1.172351
5981.000000;1.172435
5980.000000;1.172554
5979.000000;1.172755
5978.000000;1.173002
5977.000000;1.173246
5976.000000;1.173470
5975.000000;1.173645
5974.000000;1.173727
5973.000000;1.173732
5972.000000;1.173772
5971.000000;1.173958
5970.000000;1.174294
5969.000000;1.174687
5968.000000;1.175022
5967.000000;1.175228
5966.000000;1.175287
5965.000000;1.175234
5964.000000;1.175139
5963.000000;1.175083
5962.000000;1.175145
5961.000000;1.175390
5960.000000;1.175810
5959.000000;1.176294
5958.000000;1.176698
5957.000000;1.176970
5956.000000;1.177178
5955.000000;1.177418
5954.000000;1.177712
5953.000000;1.178000
5952.000000;1.178191
5951.000000;1.178226
5950.000000;1.178157
5949.000000;1.178151
5948.000000;1.178373
5947.000000;1.178823
5946.000000;1.179344
5945.000000;1.179786
5944.000000;1.180115
5943.000000;1.180361
5942.000000;1.180535
5941.000000;1.180635
5940.000000;1.180691
5939.000000;1.180741
5938.000000;1.180811
5937.000000;1.180952
5936.000000;1.181219
5935.000000;1.181588
5934.000000;1.181926
5933.000000;1.182140
5932.000000;1.182302
5931.000000;1.182559
5930.000000;1.182941
5929.000000;1.183330
5928.000000;1.183611
5927.000000;1.183784
5926.000000;1.183909
5925.000000;1.184018
5924.000000;1.184105
5923.000000;1.184171
5922.000000;1.184239
5921.000000;1.184337
5920.000000;1.184488
5919.000000;1.184695
5918.000000;1.184930
5917.000000;1.185155
5916.000000;1.185358
5915.000000;1.185555
5914.000000;1.185743
5913.000000;1.185895
5912.000000;1.186005
5911.000000;1.186096
5910.000000;1.186183
5909.000000;1.186228
5908.000000;1.186187
5907.000000;1.186093
5906.000000;1.186045
5905.000000;1.186108
5904.000000;1.186250
5903.000000;1.186398
5902.000000;1.186532
5901.000000;1.186694
5900.000000;1.186888
5899.000000;1.187046
5898.000000;1.187102
5897.000000;1.187104
5896.000000;1.187167
5895.000000;1.187336
5894.000000;1.187542
5893.000000;1.187701
5892.000000;1.187808
5891.000000;1.187905
5890.000000;1.188003
5889.000000;1.188091
5888.000000;1.188193
5887.000000;1.188345
5886.000000;1.188521
5885.000000;1.188645
5884.000000;1.188690
5883.000000;1.188715
5882.000000;1.188786
5881.000000;1.188903
5880.000000;1.189026
5879.000000;1.189142
5878.000000;1.189272
5877.000000;1.189438
5876.000000;1.189651
5875.000000;1.189913
5874.000000;1.190182
5873.000000;1.190379
5872.000000;1.190464
5871.000000;1.190510
5870.000000;1.190647
5869.000000;1.190925
5868.000000;1.191270
5867.000000;1.191590
5866.000000;1.191883
5865.000000;1.192204
5864.000000;1.192557
5863.000000;1.192875
5862.000000;1.193092
5861.000000;1.193219
5860.000000;1.193334
5859.000000;1.193526
5858.000000;1.193850
5857.000000;1.194284
5856.000000;1.194743
5855.000000;1.195140
5854.000000;1.195468
5853.000000;1.195785
5852.000000;1.196129
5851.000000;1.196476
5850.000000;1.196808
5849.000000;1.197172
5848.000000;1.197627
5847.000000;1.198153
5846.000000;1.198668
5845.000000;1.199126
5844.000000;1.199558
5843.000000;1.199983
5842.000000;1.200358
5841.000000;1.200627
5840.000000;1.200822
5839.000000;1.201058
5838.000000;1.201440
5837.000000;1.201993
5836.000000;1.202667
5835.000000;1.203383
5834.000000;1.204061
5833.000000;1.204621
5832.000000;1.205005
5831.000000;1.205211
5830.000000;1.205325
5829.000000;1.205499
5828.000000;1.205864
5827.000000;1.206444
5826.000000;1.207139
5825.000000;1.207800
5824.000000;1.208325
5823.000000;1.208706
5822.000000;1.209034
5821.000000;1.209452
5820.000000;1.210046
5819.000000;1.210753
5818.000000;1.211373
5817.000000;1.211736
5816.000000;1.211868
5815.000000;1.211976
5814.000000;1.212258
5813.000000;1.212744
5812.000000;1.213327
5811.000000;1.213893
5810.000000;1.214403
5809.000000;1.214860
5808.000000;1.215273
5807.000000;1.215673
5806.000000;1.216133
5805.000000;1.216720
5804.000000;1.217437
5803.000000;1.218201
5802.000000;1.218911
5801.000000;1.219509
5800.000000;1.219998
5799.000000;1.220421
5798.000000;1.220847
5797.000000;1.221333
5796.000000;1.221888
5795.000000;1.222457
5794.000000;1.222975
5793.000000;1.223425
5792.000000;1.223839
5791.000000;1.224266
5790.000000;1.224754
5789.000000;1.225353
5788.000000;1.226072
5787.000000;1.226821
5786.000000;1.227456
5785.000000;1.227924
5784.000000;1.228337
5783.000000;1.228852
5782.000000;1.229486
5781.000000;1.230102
5780.000000;1.230582
5779.000000;1.230953
5778.000000;1.231341
5777.000000;1.231826
5776.000000;1.232382
5775.000000;1.232936
5774.000000;1.233456
5773.000000;1.233965
5772.000000;1.234503
5771.000000;1.235079
5770.000000;1.235685
5769.000000;1.236332
5768.000000;1.237056
5767.000000;1.237848
5766.000000;1.238609
5765.000000;1.239213
5764.000000;1.239635
5763.000000;1.239985
5762.000000;1.240392
5761.000000;1.240882
5760.000000;1.241389
5759.000000;1.241868
5758.000000;1.242364
5757.000000;1.242965
5756.000000;1.243699
5755.000000;1.244486
5754.000000;1.245186
5753.000000;1.245718
5752.000000;1.246120
5751.000000;1.246501
5750.000000;1.246936
5749.000000;1.247434
5748.000000;1.248000
5747.000000;1.248673
5746.000000;1.249461
5745.000000;1.250295
5744.000000;1.251067
5743.000000;1.251734
5742.000000;1.252331
5741.000000;1.252903
5740.000000;1.253460
5739.000000;1.253988
5738.000000;1.254478
5737.000000;1.254929
5736.000000;1.255360
5735.000000;1.255816
5734.000000;1.256341
5733.000000;1.256937
5732.000000;1.257561
5731.000000;1.258171
5730.000000;1.258749
5729.000000;1.259303
5728.000000;1.259863
5727.000000;1.260479
5726.000000;1.261184
5725.000000;1.261951
5724.000000;1.262716
5723.000000;1.263431
5722.000000;1.264083
5721.000000;1.264662
5720.000000;1.265163
5719.000000;1.265623
5718.000000;1.266134
5717.000000;1.266766
5716.000000;1.267517
5715.000000;1.268318
5714.000000;1.269076
5713.000000;1.269716
5712.000000;1.270230
5711.000000;1.270711
5710.000000;1.271292
5709.000000;1.272022
5708.000000;1.272825
5707.000000;1.273604
5706.000000;1.274349
5705.000000;1.275111
5704.000000;1.275921
5703.000000;1.276775
5702.000000;1.277661
5701.000000;1.278512
5700.000000;1.279238
5699.000000;1.279758
5698.000000;1.280114
5697.000000;1.280465
5696.000000;1.280937
5695.000000;1.281552
5694.000000;1.282257
5693.000000;1.282980
5692.000000;1.283653
5691.000000;1.284238
5690.000000;1.284793
5689.000000;1.285436
5688.000000;1.286223
5687.000000;1.287062
5686.000000;1.287798
5685.000000;1.288380
5684.000000;1.288905
5683.000000;1.289494
5682.000000;1.290172
5681.000000;1.290879
5680.000000;1.291570
5679.000000;1.292268
5678.000000;1.293006
5677.000000;1.293757
5676.000000;1.294439
5675.000000;1.294994
5674.000000;1.295449
5673.000000;1.295898
5672.000000;1.296441
5671.000000;1.297118
5670.000000;1.297886
5669.000000;1.298658
5668.000000;1.299384
5667.000000;1.300095
5666.000000;1.300849
5665.000000;1.301641
5664.000000;1.302402
5663.000000;1.303089
5662.000000;1.303728
5661.000000;1.304340
5660.000000;1.304900
5659.000000;1.305392
5658.000000;1.305869
5657.000000;1.306374
5656.000000;1.306840
5655.000000;1.307164
5654.000000;1.307389
5653.000000;1.307725
5652.000000;1.308335
5651.000000;1.309163
5650.000000;1.309990
5649.000000;1.310648
5648.000000;1.311126
5647.000000;1.311536
5646.000000;1.312006
5645.000000;1.312593
5644.000000;1.313258
5643.000000;1.313918
5642.000000;1.314544
5641.000000;1.315188
5640.000000;1.315889
5639.000000;1.316577
5638.000000;1.317123
5637.000000;1.317492
5636.000000;1.317800
5635.000000;1.318208
5634.000000;1.318767
5633.000000;1.319386
5632.000000;1.319943
5631.000000;1.320410
5630.000000;1.320871
5629.000000;1.321422
5628.000000;1.322064
5627.000000;1.322689
5626.000000;1.323186
5625.000000;1.323537
5624.000000;1.323812
5623.000000;1.324088
5622.000000;1.324376
5621.000000;1.324641
5620.000000;1.324869
5619.000000;1.325110
5618.000000;1.325449
5617.000000;1.325916
5616.000000;1.326433
5615.000000;1.326858
5614.000000;1.327122
5613.000000;1.327306
5612.000000;1.327585
5611.000000;1.328066
5610.000000;1.328686
5609.000000;1.329278
5608.000000;1.329751
5607.000000;1.330162
5606.000000;1.330617
5605.000000;1.331104
5604.000000;1.331500
5603.000000;1.331738
5602.000000;1.331932
5601.000000;1.332258
5600.000000;1.332742
5599.000000;1.333214
5598.000000;1.333506
5597.000000;1.333639
5596.000000;1.333787
5595.000000;1.334073
5594.000000;1.334447
5593.000000;1.334764
5592.000000;1.334942
5591.000000;1.335024
5590.000000;1.335103
5589.000000;1.335220
5588.000000;1.335364
5587.000000;1.335529
5586.000000;1.335733
5585.000000;1.335974
5584.000000;1.336211
5583.000000;1.336405
5582.000000;1.336558
5581.000000;1.336701
5580.000000;1.336857
5579.000000;1.337042
5578.000000;1.337258
5577.000000;1.337463
5576.000000;1.337580
5575.000000;1.337581
5574.000000;1.337547
5573.000000;1.337604
5572.000000;1.337786
5571.000000;1.338027
5570.000000;1.338254
5569.000000;1.338453
5568.000000;1.338647
5567.000000;1.338847
5566.000000;1.339057
5565.000000;1.339267
5564.000000;1.339423
5563.000000;1.339459
5562.000000;1.339370
5561.000000;1.339229
5560.000000;1.339126
5559.000000;1.339103
5558.000000;1.339167
5557.000000;1.339302
5556.000000;1.339456
5555.000000;1.339560
5554.000000;1.339600
5553.000000;1.339647
5552.000000;1.339767
5551.000000;1.339944
5550.000000;1.340108
5549.000000;1.340220
5548.000000;1.340288
5547.000000;1.340315
5546.000000;1.340289
5545.000000;1.340204
5544.000000;1.340072
5543.000000;1.339910
5542.000000;1.339745
5541.000000;1.339636
5540.000000;1.339666
5539.000000;1.339888
5538.000000;1.340259
5537.000000;1.340626
5536.000000;1.340833
5535.000000;1.340858
5534.000000;1.340840
5533.000000;1.340922
5532.000000;1.341097
5531.000000;1.341243
5530.000000;1.341282
5529.000000;1.341235
5528.000000;1.341137
5527.000000;1.340964
5526.000000;1.340706
5525.000000;1.340466
5524.000000;1.340404
5523.000000;1.340592
5522.000000;1.340930
5521.000000;1.341211
5520.000000;1.341291
5519.000000;1.341209
5518.000000;1.341129
5517.000000;1.341170
5516.000000;1.341297
5515.000000;1.341413
5514.000000;1.341497
5513.000000;1.341567
5512.000000;1.341585
5511.000000;1.341512
5510.000000;1.341446
5509.000000;1.341573
5508.000000;1.341927
5507.000000;1.342295
5506.000000;1.342454
5505.000000;1.342442
5504.000000;1.342484
5503.000000;1.342701
5502.000000;1.342984
5501.000000;1.343139
5500.000000;1.343116
5499.000000;1.343036
5498.000000;1.343015
5497.000000;1.343033
5496.000000;1.343017
5495.000000;1.342991
5494.000000;1.343078
5493.000000;1.343338
5492.000000;1.343680
5491.000000;1.343973
5490.000000;1.344204
5489.000000;1.344458
5488.000000;1.344780
5487.000000;1.345122
5486.000000;1.345448
5485.000000;1.345793
5484.000000;1.346179
5483.000000;1.346573
5482.000000;1.346966
5481.000000;1.347387
5480.000000;1.347806
5479.000000;1.348136
5478.000000;1.348352
5477.000000;1.348528
5476.000000;1.348729
5475.000000;1.348938
5474.000000;1.349118
5473.000000;1.349242
5472.000000;1.349314
5471.000000;1.349401
5470.000000;1.349604
5469.000000;1.349955
5468.000000;1.350388
5467.000000;1.350866
5466.000000;1.351443
5465.000000;1.352155
5464.000000;1.352899
5463.000000;1.353532
5462.000000;1.354050
5461.000000;1.354549
5460.000000;1.355058
5459.000000;1.355540
5458.000000;1.356007
5457.000000;1.356524
5456.000000;1.357149
5455.000000;1.357876
5454.000000;1.358613
5453.000000;1.359232
5452.000000;1.359710
5451.000000;1.360188
5450.000000;1.360802
5449.000000;1.361490
5448.000000;1.362110
5447.000000;1.362713
5446.000000;1.363482
5445.000000;1.364459
5444.000000;1.365494
5443.000000;1.366453
5442.000000;1.367368
5441.000000;1.368312
5440.000000;1.369233
5439.000000;1.370013
5438.000000;1.370628
5437.000000;1.371180
5436.000000;1.371814
5435.000000;1.372648
5434.000000;1.373692
5433.000000;1.374830
5432.000000;1.375969
5431.000000;1.377149
5430.000000;1.378428
5429.000000;1.379775
5428.000000;1.381148
5427.000000;1.382555
5426.000000;1.384007
5425.000000;1.385513
5424.000000;1.387078
5423.000000;1.388630
5422.000000;1.390017
5421.000000;1.391143
5420.000000;1.392106
5419.000000;1.393130
5418.000000;1.394378
5417.000000;1.395850
5416.000000;1.397463
5415.000000;1.399180
5414.000000;1.401018
5413.000000;1.402997
5412.000000;1.405102
5411.000000;1.407302
5410.000000;1.409594
5409.000000;1.411953
5408.000000;1.414310
5407.000000;1.416614
5406.000000;1.418886
5405.000000;1.421155
5404.000000;1.423398
5403.000000;1.425606
5402.000000;1.427793
5401.000000;1.430020
5400.000000;1.432435
5399.000000;1.435139
5398.000000;1.438059
5397.000000;1.441017
5396.000000;1.443931
5395.000000;1.446891
5394.000000;1.450023
5393.000000;1.453358
5392.000000;1.456817
5391.000000;1.460291
5390.000000;1.463751
5389.000000;1.467215
5388.000000;1.470701
5387.000000;1.474268
5386.000000;1.477993
5385.000000;1.481856
5384.000000;1.485781
5383.000000;1.489801
5382.000000;1.494018
5381.000000;1.498441
5380.000000;1.502992
5379.000000;1.507686
5378.000000;1.512659
5377.000000;1.517936
5376.000000;1.523323
5375.000000;1.528614
5374.000000;1.533824
5373.000000;1.539135
5372.000000;1.544660
5371.000000;1.550366
5370.000000;1.556223
5369.000000;1.562259
5368.000000;1.568460
5367.000000;1.574821
5366.000000;1.581484
5365.000000;1.588597
5364.000000;1.596026
5363.000000;1.603406
5362.000000;1.610546
5361.000000;1.617704
5360.000000;1.625308
5359.000000;1.633496
5358.000000;1.642085
5357.000000;1.650885
5356.000000;1.659874
5355.000000;1.669079
5354.000000;1.678456
5353.000000;1.687945
5352.000000;1.697565
5351.000000;1.707423
5350.000000;1.717644
5349.000000;1.728262
5348.000000;1.739157
5347.000000;1.750232
5346.000000;1.761638
5345.000000;1.773668
5344.000000;1.786284
5343.000000;1.798894
5342.000000;1.810910
5341.000000;1.822590
5340.000000;1.834944
5339.000000;1.848776
5338.000000;1.863960
5337.000000;1.879599
5336.000000;1.894837
5335.000000;1.909549
5334.000000;1.924311
5333.000000;1.939785
5332.000000;1.956229
5331.000000;1.973534
5330.000000;1.991505
5329.000000;2.010062
5328.000000;2.029177
5327.000000;2.048672
5326.000000;2.068190
5325.000000;2.087392
5324.000000;2.106222
5323.000000;2.125072
5322.000000;2.144553
5321.000000;2.164941
5320.000000;2.185929
5319.000000;2.207092
5318.000000;2.228511
5317.000000;2.250645
5316.000000;2.273717
5315.000000;2.297527
5314.000000;2.321699
5313.000000;2.345802
5312.000000;2.369522
5311.000000;2.393065
5310.000000;2.417138
5309.000000;2.442063
5308.000000;2.467131
5307.000000;2.491379
5306.000000;2.514749
5305.000000;2.537743
5304.000000;2.560231
5303.000000;2.581632
5302.000000;2.602150
5301.000000;2.622742
5300.000000;2.643627
5299.000000;2.663770
5298.000000;2.682246
5297.000000;2.699545
5296.000000;2.717124
5295.000000;2.735829
5294.000000;2.754889
5293.000000;2.772411
5292.000000;2.787315
5291.000000;2.800946
5290.000000;2.816152
5289.000000;2.834425
5288.000000;2.854265
5287.000000;2.872467
5286.000000;2.886234
5285.000000;2.893725
5284.000000;2.894631
5283.000000;2.891810
5282.000000;2.890832
5281.000000;2.896408
5280.000000;2.909134
5279.000000;2.924941
5278.000000;2.937131
5277.000000;2.940618
5276.000000;2.936430
5275.000000;2.931088
5274.000000;2.929915
5273.000000;2.932133
5272.000000;2.934074
5271.000000;2.936163
5270.000000;2.942918
5269.000000;2.955031
5268.000000;2.965232
5267.000000;2.965778
5266.000000;2.957974
5265.000000;2.949291
5264.000000;2.944687
5263.000000;2.944562
5262.000000;2.947728
5261.000000;2.952970
5260.000000;2.958104
5259.000000;2.960609
5258.000000;2.960947
5257.000000;2.962871
5256.000000;2.968855
5255.000000;2.976717
5254.000000;2.980660
5253.000000;2.975789
5252.000000;2.963187
5251.000000;2.950382
5250.000000;2.945511
5249.000000;2.950245
5248.000000;2.957769
5247.000000;2.959809
5246.000000;2.956101
5245.000000;2.952539
5244.000000;2.952398
5243.000000;2.953658
5242.000000;2.953440
5241.000000;2.952404
5240.000000;2.953237
5239.000000;2.956658
5238.000000;2.960619
5237.000000;2.962344
5236.000000;2.960258
5235.000000;2.954839
5234.000000;2.948559
5233.000000;2.944444
5232.000000;2.943929
5231.000000;2.946313
5230.000000;2.950146
5229.000000;2.953951
5228.000000;2.955814
5227.000000;2.954185
5226.000000;2.950019
5225.000000;2.947114
5224.000000;2.948889
5223.000000;2.954742
5222.000000;2.960625
5221.000000;2.963306
5220.000000;2.962942
5219.000000;2.961080
5218.000000;2.957930
5217.000000;2.953465
5216.000000;2.950006
5215.000000;2.951253
5214.000000;2.958440
5213.000000;2.968389
5212.000000;2.975971
5211.000000;2.978409
5210.000000;2.976613
5209.000000;2.972885
5208.000000;2.968735
5207.000000;2.964831
5206.000000;2.961262
5205.000000;2.957360
5204.000000;2.952446
5203.000000;2.947232
5202.000000;2.943836
5201.000000;2.943146
5200.000000;2.943299
5199.000000;2.943144
5198.000000;2.944870
5197.000000;2.950652
5196.000000;2.958280
5195.000000;2.961996
5194.000000;2.958537
5193.000000;2.950710
5192.000000;2.943898
5191.000000;2.941120
5190.000000;2.942256
5189.000000;2.946064
5188.000000;2.951250
5187.000000;2.956340
5186.000000;2.960266
5185.000000;2.963660
5184.000000;2.967844
5183.000000;2.971730
5182.000000;2.972279
5181.000000;2.968920
5180.000000;2.965606
5179.000000;2.967160
5178.000000;2.973508
5177.000000;2.979098
5176.000000;2.979024
5175.000000;2.973711
5174.000000;2.966682
5173.000000;2.960596
5172.000000;2.956044
5171.000000;2.952251
5170.000000;2.948573
5169.000000;2.945976
5168.000000;2.946507
5167.000000;2.950811
5166.000000;2.957019
5165.000000;2.962496
5164.000000;2.966188
5163.000000;2.968410
5162.000000;2.968699
5161.000000;2.965959
5160.000000;2.961022
5159.000000;2.956562
5158.000000;2.953506
5157.000000;2.950155
5156.000000;2.946116
5155.000000;2.944161
5154.000000;2.946762
5153.000000;2.952420
5152.000000;2.956441
5151.000000;2.955597
5150.000000;2.951037
5149.000000;2.946511
5148.000000;2.945278
5147.000000;2.948420
5146.000000;2.954648
5145.000000;2.961633
5144.000000;2.967919
5143.000000;2.973049
5142.000000;2.975790
5141.000000;2.974106
5140.000000;2.968343
5139.000000;2.962819
5138.000000;2.962163
5137.000000;2.966748
5136.000000;2.972630
5135.000000;2.974996
5134.000000;2.970977
5133.000000;2.961004
5132.000000;2.949482
5131.000000;2.942739
5130.000000;2.944186
5129.000000;2.951381
5128.000000;2.958779
5127.000000;2.963482
5126.000000;2.966488
5125.000000;2.968589
5124.000000;2.968984
5123.000000;2.968871
5122.000000;2.971991
5121.000000;2.979261
5120.000000;2.985793
5119.000000;2.985555
5118.000000;2.978330
5117.000000;2.969662
5116.000000;2.964339
5115.000000;2.962888
5114.000000;2.963744
5113.000000;2.966059
5112.000000;2.969169
5111.000000;2.970402
5110.000000;2.966401
5109.000000;2.957837
5108.000000;2.950419
5107.000000;2.949488
5106.000000;2.954565
5105.000000;2.960247
5104.000000;2.962946
5103.000000;2.965345
5102.000000;2.971883
5101.000000;2.981196
5100.000000;2.986420
5099.000000;2.983809
5098.000000;2.977603
5097.000000;2.974282
5096.000000;2.974980
5095.000000;2.975547
5094.000000;2.972797
5093.000000;2.967990
5092.000000;2.963395
5091.000000;2.958111
5090.000000;2.949368
5089.000000;2.937403
5088.000000;2.926878
5087.000000;2.922690
5086.000000;2.925694
5085.000000;2.932658
5084.000000;2.939510
5083.000000;2.944222
5082.000000;2.946600
5081.000000;2.946705
5080.000000;2.945092
5079.000000;2.943443
5078.000000;2.942698
5077.000000;2.941250
5076.000000;2.937356
5075.000000;2.932940
5074.000000;2.932482
5073.000000;2.937414
5072.000000;2.943149
5071.000000;2.943371
5070.000000;2.937300
5069.000000;2.930618
5068.000000;2.928735
5067.000000;2.931553
5066.000000;2.935449
5065.000000;2.938362
5064.000000;2.941399
5063.000000;2.945087
5062.000000;2.945780
5061.000000;2.939651
5060.000000;2.929527
5059.000000;2.923246
5058.000000;2.924905
5057.000000;2.929903
5056.000000;2.930602
5055.000000;2.926261
5054.000000;2.922982
5053.000000;2.924834
5052.000000;2.930106
5051.000000;2.936068
5050.000000;2.942765
5049.000000;2.949454
5048.000000;2.951544
5047.000000;2.945811
5046.000000;2.936028
5045.000000;2.929089
5044.000000;2.927528
5043.000000;2.928398
5042.000000;2.928173
5041.000000;2.926656
5040.000000;2.925893
5039.000000;2.927241
5038.000000;2.930370
5037.000000;2.932913
5036.000000;2.930968
5035.000000;2.923586
5034.000000;2.915878
5033.000000;2.914055
5032.000000;2.918642
5031.000000;2.924155
5030.000000;2.925058
5029.000000;2.921034
5028.000000;2.915558
5027.000000;2.911131
5026.000000;2.907671
5025.000000;2.904144
5024.000000;2.900148
5023.000000;2.896384
5022.000000;2.894308
5021.000000;2.894958
5020.000000;2.897621
5019.000000;2.899918
5018.000000;2.899645
5017.000000;2.896911
5016.000000;2.894223
5015.000000;2.894091
5014.000000;2.896365
5013.000000;2.897836
5012.000000;2.895243
5011.000000;2.889396
5010.000000;2.885087
5009.000000;2.886156
5008.000000;2.891679
5007.000000;2.897308
5006.000000;2.899103
5005.000000;2.895089
5004.000000;2.885123
5003.000000;2.871620
5002.000000;2.859220
5001.000000;2.851908
5000.000000;2.850135
4999.000000;2.851094
4998.000000;2.852034
4997.000000;2.852401
4996.000000;2.852673
4995.000000;2.853139
4994.000000;2.854565
4993.000000;2.857782
4992.000000;2.861279
4991.000000;2.861100
4990.000000;2.855131
4989.000000;2.846538
4988.000000;2.840468
4987.000000;2.838434
4986.000000;2.838405
4985.000000;2.838832
4984.000000;2.839546
4983.000000;2.839174
4982.000000;2.834796
4981.000000;2.825576
4980.000000;2.814889
4979.000000;2.807351
4978.000000;2.805155
4977.000000;2.807675
4976.000000;2.812909
4975.000000;2.818373
4974.000000;2.821657
4973.000000;2.821469
4972.000000;2.818146
4971.000000;2.812919
4970.000000;2.807160
4969.000000;2.802317
4968.000000;2.799599
4967.000000;2.799134
4966.000000;2.799738
4965.000000;2.799887
4964.000000;2.798645
4963.000000;2.795314
4962.000000;2.789194
4961.000000;2.780734
4960.000000;2.771998
4959.000000;2.764976
4958.000000;2.760059
4957.000000;2.756488
4956.000000;2.753486
4955.000000;2.750478
4954.000000;2.746953
4953.000000;2.742933
4952.000000;2.739196
4951.000000;2.736382
4950.000000;2.734281
4949.000000;2.732600
4948.000000;2.731594
4947.000000;2.730966
4946.000000;2.729046
4945.000000;2.724399
4944.000000;2.717986
4943.000000;2.712415
4942.000000;2.709128
4941.000000;2.707374
4940.000000;2.705709
4939.000000;2.703427
4938.000000;2.700476
4937.000000;2.696887
4936.000000;2.692642
4935.000000;2.687648
4934.000000;2.681949
4933.000000;2.676482
4932.000000;2.673207
4931.000000;2.673271
4930.000000;2.674932
4929.000000;2.674467
4928.000000;2.670012
4927.000000;2.663915
4926.000000;2.660124
4925.000000;2.659964
4924.000000;2.661246
4923.000000;2.660864
4922.000000;2.657762
4921.000000;2.653086
4920.000000;2.647823
4919.000000;2.641652
4918.000000;2.634736
4917.000000;2.629372
4916.000000;2.628271
4915.000000;2.631341
4914.000000;2.635116
4913.000000;2.635813
4912.000000;2.632543
4911.000000;2.626994
4910.000000;2.621196
4909.000000;2.616748
4908.000000;2.614817
4907.000000;2.614959
4906.000000;2.614334
4905.000000;2.609935
4904.000000;2.601940
4903.000000;2.593263
4902.000000;2.585935
4901.000000;2.579827
4900.000000;2.574905
4899.000000;2.572462
4898.000000;2.572918
4897.000000;2.573952
4896.000000;2.572532
4895.000000;2.568368
4894.000000;2.563896
4893.000000;2.561092
4892.000000;2.559702
4891.000000;2.558245
4890.000000;2.555386
4889.000000;2.550488
4888.000000;2.544059
4887.000000;2.537869
4886.000000;2.533692
4885.000000;2.531554
4884.000000;2.529704
4883.000000;2.526548
4882.000000;2.522125
4881.000000;2.517443
4880.000000;2.513094
4879.000000;2.509041
4878.000000;2.505197
4877.000000;2.501622
4876.000000;2.498367
4875.000000;2.495344
4874.000000;2.492384
4873.000000;2.489394
4872.000000;2.486438
4871.000000;2.483753
4870.000000;2.481546
4869.000000;2.479701
4868.000000;2.477862
4867.000000;2.475890
4866.000000;2.473966
4865.000000;2.472033
4864.000000;2.469396
4863.000000;2.465288
4862.000000;2.459850
4861.000000;2.454310
4860.000000;2.450049
4859.000000;2.447379
4858.000000;2.445207
4857.000000;2.442040
4856.000000;2.437502
4855.000000;2.432723
4854.000000;2.429123
4853.000000;2.426957
4852.000000;2.425179
4851.000000;2.422600
4850.000000;2.418979
4849.000000;2.414940
4848.000000;2.411136
4847.000000;2.407711
4846.000000;2.404383
4845.000000;2.400791
4844.000000;2.396854
4843.000000;2.393027
4842.000000;2.390150
4841.000000;2.388841
4840.000000;2.388834
4839.000000;2.388874
4838.000000;2.387487
4837.000000;2.384032
4836.000000;2.379018
4835.000000;2.373451
4834.000000;2.368139
4833.000000;2.363515
4832.000000;2.359648
4831.000000;2.356198
4830.000000;2.352618
4829.000000;2.348703
4828.000000;2.344870
4827.000000;2.341734
4826.000000;2.339437
4825.000000;2.337550
4824.000000;2.335611
4823.000000;2.333522
4822.000000;2.331394
4821.000000;2.329225
4820.000000;2.326874
4819.000000;2.324203
4818.000000;2.321205
4817.000000;2.318080
4816.000000;2.315148
4815.000000;2.312537
4814.000000;2.310021
4813.000000;2.307319
4812.000000;2.304473
4811.000000;2.301663
4810.000000;2.298619
4809.000000;2.294626
4808.000000;2.289394
4807.000000;2.283775
4806.000000;2.279307
4805.000000;2.276941
4804.000000;2.276195
4803.000000;2.275555
4802.000000;2.273805
4801.000000;2.270980
4800.000000;2.267999
4799.000000;2.265407
4798.000000;2.262713
4797.000000;2.259084
4796.000000;2.254441
4795.000000;2.249621
4794.000000;2.245643
4793.000000;2.243103
4792.000000;2.242005
4791.000000;2.241722
4790.000000;2.241088
4789.000000;2.239005
4788.000000;2.235192
4787.000000;2.230235
4786.000000;2.225006
4785.000000;2.220330
4784.000000;2.216912
4783.000000;2.214915
4782.000000;2.213529
4781.000000;2.211556
4780.000000;2.208671
4779.000000;2.205673
4778.000000;2.203306
4777.000000;2.201392
4776.000000;2.199364
4775.000000;2.197064
4774.000000;2.194530
4773.000000;2.191505
4772.000000;2.187787
4771.000000;2.183825
4770.000000;2.180333
4769.000000;2.177404
4768.000000;2.174509
4767.000000;2.171312
4766.000000;2.168008
4765.000000;2.164889
4764.000000;2.162043
4763.000000;2.159506
4762.000000;2.157260
4761.000000;2.154994
4760.000000;2.152306
4759.000000;2.149286
4758.000000;2.146552
4757.000000;2.144436
4756.000000;2.142453
4755.000000;2.139847
4754.000000;2.136531
4753.000000;2.133272
4752.000000;2.130960
4751.000000;2.129742
4750.000000;2.128818
4749.000000;2.127152
4748.000000;2.124478
4747.000000;2.121470
4746.000000;2.118759
4745.000000;2.116085
4744.000000;2.112782
4743.000000;2.108922
4742.000000;2.105367
4741.000000;2.102639
4740.000000;2.100299
4739.000000;2.097671
4738.000000;2.094717
4737.000000;2.091825
4736.000000;2.089117
4735.000000;2.086455
4734.000000;2.083944
4733.000000;2.081914
4732.000000;2.080384
4731.000000;2.078884
4730.000000;2.076890
4729.000000;2.074249
4728.000000;2.071208
4727.000000;2.068222
4726.000000;2.065696
4725.000000;2.063621
4724.000000;2.061449
4723.000000;2.058636
4722.000000;2.055359
4721.000000;2.052411
4720.000000;2.050303
4719.000000;2.048716
4718.000000;2.047001
4717.000000;2.044941
4716.000000;2.042781
4715.000000;2.040663
4714.000000;2.038375
4713.000000;2.035697
4712.000000;2.032760
4711.000000;2.029959
4710.000000;2.027604
4709.000000;2.025698
4708.000000;2.023996
4707.000000;2.022256
4706.000000;2.020399
4705.000000;2.018423
4704.000000;2.016203
4703.000000;2.013570
4702.000000;2.010637
4701.000000;2.007836
4700.000000;2.005450
4699.000000;2.003277
4698.000000;2.000991
4697.000000;1.998726
4696.000000;1.996958
4695.000000;1.995829
4694.000000;1.994955
4693.000000;1.994003
4692.000000;1.993079
4691.000000;1.992302
4690.000000;1.991277
4689.000000;1.989464
4688.000000;1.986969
4687.000000;1.984581
4686.000000;1.982936
4685.000000;1.981927
4684.000000;1.980961
4683.000000;1.979515
4682.000000;1.977352
4681.000000;1.974535
4680.000000;1.971472
4679.000000;1.968757
4678.000000;1.966655
4677.000000;1.964778
4676.000000;1.962570
4675.000000;1.960102
4674.000000;1.958061
4673.000000;1.956848
4672.000000;1.956006
4671.000000;1.954786
4670.000000;1.953092
4669.000000;1.951494
4668.000000;1.950330
4667.000000;1.949192
4666.000000;1.947499
4665.000000;1.945296
4664.000000;1.943189
4663.000000;1.941579
4662.000000;1.940220
4661.000000;1.938557
4660.000000;1.936350
4659.000000;1.933920
4658.000000;1.931873
4657.000000;1.930570
4656.000000;1.929755
4655.000000;1.928715
4654.000000;1.926964
4653.000000;1.924769
4652.000000;1.922856
4651.000000;1.921596
4650.000000;1.920664
4649.000000;1.919543
4648.000000;1.918122
4647.000000;1.916652
4646.000000;1.915301
4645.000000;1.914011
4644.000000;1.912741
4643.000000;1.911587
4642.000000;1.910610
4641.000000;1.909656
4640.000000;1.908455
4639.000000;1.906864
4638.000000;1.905002
4637.000000;1.903175
4636.000000;1.901666
4635.000000;1.900536
4634.000000;1.899581
4633.000000;1.898474
4632.000000;1.896989
4631.000000;1.895177
4630.000000;1.893382
4629.000000;1.892018
4628.000000;1.891183
4627.000000;1.890472
4626.000000;1.889296
4625.000000;1.887413
4624.000000;1.885078
4623.000000;1.882734
4622.000000;1.880728
4621.000000;1.879301
4620.000000;1.878534
4619.000000;1.878166
4618.000000;1.877681
4617.000000;1.876794
4616.000000;1.875693
4615.000000;1.874671
4614.000000;1.873712
4613.000000;1.872645
4612.000000;1.871499
4611.000000;1.870388
4610.000000;1.869130
4609.000000;1.867351
4608.000000;1.865011
4607.000000;1.862627
4606.000000;1.860884
4605.000000;1.860153
4604.000000;1.860317
4603.000000;1.860849
4602.000000;1.861095
4601.000000;1.860740
4600.000000;1.860040
4599.000000;1.859441
4598.000000;1.858956
4597.000000;1.858125
4596.000000;1.856623
4595.000000;1.854658
4594.000000;1.852729
4593.000000;1.851214
4592.000000;1.850315
4591.000000;1.850119
4590.000000;1.850442
4589.000000;1.850732
4588.000000;1.850350
4587.000000;1.849012
4586.000000;1.846914
4585.000000;1.844492
4584.000000;1.842163
4583.000000;1.840226
4582.000000;1.838844
4581.000000;1.838045
4580.000000;1.837728
4579.000000;1.837698
4578.000000;1.837737
4577.000000;1.837723
4576.000000;1.837670
4575.000000;1.837606
4574.000000;1.837400
4573.000000;1.836831
4572.000000;1.835845
4571.000000;1.834678
4570.000000;1.833677
4569.000000;1.833020
4568.000000;1.832610
4567.000000;1.832165
4566.000000;1.831414
4565.000000;1.830301
4564.000000;1.829037
4563.000000;1.827911
4562.000000;1.827044
4561.000000;1.826387
4560.000000;1.825909
4559.000000;1.825654
4558.000000;1.825573
4557.000000;1.825376
4556.000000;1.824662
4555.000000;1.823237
4554.000000;1.821353
4553.000000;1.819619
4552.000000;1.818610
4551.000000;1.818440
4550.000000;1.818686
4549.000000;1.818779
4548.000000;1.818458
4547.000000;1.817860
4546.000000;1.817256
4545.000000;1.816824
4544.000000;1.816607
4543.000000;1.816552
4542.000000;1.816562
4541.000000;1.816600
4540.000000;1.816697
4539.000000;1.816798
4538.000000;1.816691
4537.000000;1.816192
4536.000000;1.815348
4535.000000;1.814344
4534.000000;1.813307
4533.000000;1.812348
4532.000000;1.811666
4531.000000;1.811401
4530.000000;1.811420
4529.000000;1.811433
4528.000000;1.811271
4527.000000;1.810883
4526.000000;1.810182
4525.000000;1.809188
4524.000000;1.808273
4523.000000;1.807911
4522.000000;1.808090
4521.000000;1.808241
4520.000000;1.807862
4519.000000;1.807013
4518.000000;1.806155
4517.000000;1.805691
4516.000000;1.805754
4515.000000;1.806195
4514.000000;1.806649
4513.000000;1.806803
4512.000000;1.806695
4511.000000;1.806588
4510.000000;1.806540
4509.000000;1.806331
4508.000000;1.805870
4507.000000;1.805405
4506.000000;1.805181
4505.000000;1.805161
4504.000000;1.805261
4503.000000;1.805593
4502.000000;1.806230
4501.000000;1.806898
4500.000000;1.807195
4499.000000;1.807066
4498.000000;1.806813
4497.000000;1.806695
4496.000000;1.806670
4495.000000;1.806498
4494.000000;1.805996
4493.000000;1.805206
4492.000000;1.804418
4491.000000;1.803968
4490.000000;1.803959
4489.000000;1.804214
4488.000000;1.804530
4487.000000;1.804888
4486.000000;1.805354
4485.000000;1.805927
4484.000000;1.806528
4483.000000;1.807032
4482.000000;1.807306
4481.000000;1.807371
4480.000000;1.807523
4479.000000;1.808066
4478.000000;1.808884
4477.000000;1.809513
4476.000000;1.809714
4475.000000;1.809702
4474.000000;1.809737
4473.000000;1.809835
4472.000000;1.810045
4471.000000;1.810564
4470.000000;1.811291
4469.000000;1.811650
4468.000000;1.811321
4467.000000;1.810874
4466.000000;1.811147
4465.000000;1.812154
4464.000000;1.813104
4463.000000;1.813412
4462.000000;1.813246
4461.000000;1.813055
4460.000000;1.813113
4459.000000;1.813706
4458.000000;1.815253
4457.000000;1.817797
4456.000000;1.820605
4455.000000;1.822697
4454.000000;1.823790
4453.000000;1.824507
4452.000000;1.825598
4451.000000;1.827127
4450.000000;1.828493
4449.000000;1.829159
4448.000000;1.829291
4447.000000;1.829628
4446.000000;1.830706
4445.000000;1.832268
4444.000000;1.833505
4443.000000;1.833890
4442.000000;1.833737
4441.000000;1.833976
4440.000000;1.835381
4439.000000;1.837946
4438.000000;1.840904
4437.000000;1.843421
4436.000000;1.845299
4435.000000;1.846929
4434.000000;1.848553
4433.000000;1.849869
4432.000000;1.850555
4431.000000;1.850938
4430.000000;1.851778
4429.000000;1.853464
4428.000000;1.855716
4427.000000;1.858053
4426.000000;1.860243
4425.000000;1.862251
4424.000000;1.864071
4423.000000;1.865820
4422.000000;1.867781
4421.000000;1.870174
4420.000000;1.872943
4419.000000;1.875824
4418.000000;1.878578
4417.000000;1.881146
4416.000000;1.883639
4415.000000;1.886237
4414.000000;1.889041
4413.000000;1.891971
4412.000000;1.894825
4411.000000;1.897419
4410.000000;1.899668
4409.000000;1.901612
4408.000000;1.903448
4407.000000;1.905456
4406.000000;1.907752
4405.000000;1.910155
4404.000000;1.912358
4403.000000;1.914171
4402.000000;1.915534
4401.000000;1.916534
4400.000000;1.917580
4399.000000;1.919295
4398.000000;1.921931
4397.000000;1.925053
4396.000000;1.928104
4395.000000;1.931156
4394.000000;1.934659
4393.000000;1.938545
4392.000000;1.942140
4391.000000;1.945079
4390.000000;1.947738
4389.000000;1.950406
4388.000000;1.952525
4387.000000;1.953327
4386.000000;1.953100
4385.000000;1.953248
4384.000000;1.955085
4383.000000;1.958847
4382.000000;1.963772
4381.000000;1.968722
4380.000000;1.972647
4379.000000;1.974907
4378.000000;1.975658
4377.000000;1.975821
4376.000000;1.976400
4375.000000;1.977819
4374.000000;1.979984
4373.000000;1.982754
4372.000000;1.985973
4371.000000;1.989020
4370.000000;1.990857
4369.000000;1.991027
4368.000000;1.990520
4367.000000;1.991174
4366.000000;1.993991
4365.000000;1.998159
4364.000000;2.001829
4363.000000;2.003879
4362.000000;2.004842
4361.000000;2.006190
4360.000000;2.008927
4359.000000;2.012858
4358.000000;2.016962
4357.000000;2.020232
4356.000000;2.022179
4355.000000;2.022927
4354.000000;2.023249
4353.000000;2.024340
4352.000000;2.026967
4351.000000;2.030539
4350.000000;2.033431
4349.000000;2.034734
4348.000000;2.035399
4347.000000;2.036997
4346.000000;2.039657
4345.000000;2.042023
4344.000000;2.043248
4343.000000;2.044126
4342.000000;2.045903
4341.000000;2.048782
4340.000000;2.052134
4339.000000;2.055536
4338.000000;2.058806
4337.000000;2.061319
4336.000000;2.062228
4335.000000;2.061548
4334.000000;2.060601
4333.000000;2.061198
4332.000000;2.064401
4331.000000;2.069742
4330.000000;2.075291
4329.000000;2.078848
4328.000000;2.079709
4327.000000;2.079253
4326.000000;2.079411
4325.000000;2.080670
4324.000000;2.081940
4323.000000;2.082394
4322.000000;2.082968
4321.000000;2.085661
4320.000000;2.091303
4319.000000;2.098052
4318.000000;2.102507
4317.000000;2.102981
4316.000000;2.101298
4315.000000;2.100640
4314.000000;2.102204
4313.000000;2.104759
4312.000000;2.107037
4311.000000;2.109346
4310.000000;2.112484
4309.000000;2.116257
4308.000000;2.119735
4307.000000;2.122055
4306.000000;2.122685
4305.000000;2.122159
4304.000000;2.122735
4303.000000;2.126573
4302.000000;2.132615
4301.000000;2.136938
4300.000000;2.137644
4299.000000;2.137691
4298.000000;2.140883
4297.000000;2.146693
4296.000000;2.151055
4295.000000;2.151693
4294.000000;2.150524
4293.000000;2.150578
4292.000000;2.152878
4291.000000;2.156613
4290.000000;2.160499
4289.000000;2.163565
4288.000000;2.165901
4287.000000;2.168785
4286.000000;2.172965
4285.000000;2.177114
4284.000000;2.179509
4283.000000;2.181093
4282.000000;2.184667
4281.000000;2.190470
4280.000000;2.194944
4279.000000;2.195189
4278.000000;2.192963
4277.000000;2.192467
4276.000000;2.195444
4275.000000;2.200120
4274.000000;2.203894
4273.000000;2.205843
4272.000000;2.206975
4271.000000;2.208899
4270.000000;2.212358
4269.000000;2.216531
4268.000000;2.219965
4267.000000;2.222615
4266.000000;2.226074
4265.000000;2.231530
4264.000000;2.238903
4263.000000;2.247916
4262.000000;2.258592
4261.000000;2.270314
4260.000000;2.281223
4259.000000;2.289085
4258.000000;2.292352
4257.000000;2.290482
4256.000000;2.284565
4255.000000;2.277628
4254.000000;2.272947
4253.000000;2.272094
4252.000000;2.275230
4251.000000;2.282023
4250.000000;2.290891
4249.000000;2.298205
4248.000000;2.301157
4247.000000;2.302075
4246.000000;2.306966
4245.000000;2.317746
4244.000000;2.328878
4243.000000;2.334268
4242.000000;2.335086
4241.000000;2.336877
4240.000000;2.341930
4239.000000;2.347572
4238.000000;2.349578
4237.000000;2.345850
4236.000000;2.337712
4235.000000;2.329511
4234.000000;2.327130
4233.000000;2.333422
4232.000000;2.344110
4231.000000;2.351357
4230.000000;2.353147
4229.000000;2.355711
4228.000000;2.365441
4227.000000;2.382110
4226.000000;2.400232
4225.000000;2.414053
4224.000000;2.419544
4223.000000;2.414908
4222.000000;2.403681
4221.000000;2.394198
4220.000000;2.392572
4219.000000;2.398148
4218.000000;2.406643
4217.000000;2.415834
4216.000000;2.426127
4215.000000;2.437122
4214.000000;2.446740
4213.000000;2.454100
4212.000000;2.461022
4211.000000;2.468660
4210.000000;2.474093
4209.000000;2.472570
4208.000000;2.463234
4207.000000;2.451489
4206.000000;2.444373
4205.000000;2.444548
4204.000000;2.448454
4203.000000;2.448611
4202.000000;2.441310
4201.000000;2.433101
4200.000000;2.435625
4199.000000;2.454197
4198.000000;2.480891
4197.000000;2.499058
4196.000000;2.500018
4195.000000;2.492946
4194.000000;2.492525
4193.000000;2.502574
4192.000000;2.513220
4191.000000;2.512232
4190.000000;2.499040
4189.000000;2.483878
4188.000000;2.477276
4187.000000;2.483088
4186.000000;2.498249
4185.000000;2.518770
4184.000000;2.544335
4183.000000;2.574844
4182.000000;2.603147
4181.000000;2.613526
4180.000000;2.596783
4179.000000;2.566900
4178.000000;2.544027
4177.000000;2.531977
4176.000000;2.521480
4175.000000;2.506418
4174.000000;2.493009
4173.000000;2.490758
4172.000000;2.499240
4171.000000;2.507242
4170.000000;2.503511
4169.000000;2.489914
4168.000000;2.482959
4167.000000;2.500903
4166.000000;2.548136
4165.000000;2.604916
4164.000000;2.635869
4163.000000;2.629446
4162.000000;2.613579
4161.000000;2.617350
4160.000000;2.642761
4159.000000;2.667937
4158.000000;2.672189
4157.000000;2.657661
4156.000000;2.633702
4155.000000;2.598952
4154.000000;2.556678
4153.000000;2.520435
4152.000000;2.499457
4151.000000;2.491072
4150.000000;2.487130
4149.000000;2.489385
4148.000000;2.510155
4147.000000;2.553252
4146.000000;2.593545
4145.000000;2.589327
4144.000000;2.547412
4143.000000;2.515627
4142.000000;2.520897
4141.000000;2.555740
4140.000000;2.587697
4139.000000;2.588112
4138.000000;2.563255
4137.000000;2.542336
4136.000000;2.545318
4135.000000;2.571054
4134.000000;2.598988
4133.000000;2.604200
4132.000000;2.591102
4131.000000;2.586400
4130.000000;2.590642
4129.000000;2.572830
4128.000000;2.522913
4127.000000;2.473919
4126.000000;2.460089
4125.000000;2.487667
4124.000000;2.531461
4123.000000;2.559293
4122.000000;2.570042
4121.000000;2.583433
4120.000000;2.608189
4119.000000;2.644053
4118.000000;2.695923
4117.000000;2.757598
4116.000000;2.785421
4115.000000;2.770785
4114.000000;2.752089
4113.000000;2.703957
4112.000000;2.624769
4111.000000;2.568882
4110.000000;2.565338
4109.000000;2.623776
4108.000000;2.741813
4107.000000;2.888854
4106.000000;2.952817
4105.000000;2.849367
4104.000000;2.707932
4103.000000;2.612645
4102.000000;2.568502
4101.000000;2.561573
4100.000000;2.571409
4099.000000;2.583601
4098.000000;2.598623
4097.000000;2.615971
4096.000000;2.617914
4095.000000;2.592978
4094.000000;2.562284
4093.000000;2.553594
4092.000000;2.563809
4091.000000;2.556897
4090.000000;2.512304
4089.000000;2.466597
4088.000000;2.461826
4087.000000;2.511551
4086.000000;2.614680
4085.000000;2.773329
4084.000000;2.954459
4083.000000;2.995350
4082.000000;2.890309
4081.000000;2.783418
4080.000000;2.717823
4079.000000;2.688297
4078.000000;2.662537
4077.000000;2.613398
4076.000000;2.539222
4075.000000;2.463399
4074.000000;2.404672
4073.000000;2.367635
4072.000000;2.351669
4071.000000;2.358363
4070.000000;2.393192
4069.000000;2.468197
4068.000000;2.593290
4067.000000;2.729792
4066.000000;2.697853
4065.000000;2.528951
4064.000000;2.400729
4063.000000;2.343589
4062.000000;2.333332
4061.000000;2.342287
4060.000000;2.372498
4059.000000;2.437209
4058.000000;2.496415
4057.000000;2.490845
4056.000000;2.461280
4055.000000;2.446731
4054.000000;2.448770
4053.000000;2.462327
4052.000000;2.472820
4051.000000;2.478840
4050.000000;2.497536
4049.000000;2.538764
4048.000000;2.595003
4047.000000;2.639999
4046.000000;2.651297
4045.000000;2.656014
4044.000000;2.712393
4043.000000;2.837119
4042.000000;2.898209
4041.000000;2.845805
4040.000000;2.764251
4039.000000;2.693207
4038.000000;2.645238
4037.000000;2.594200
4036.000000;2.535257
4035.000000;2.494219
4034.000000;2.482884
4033.000000;2.488684
4032.000000;2.494939
4031.000000;2.488054
4030.000000;2.467346
4029.000000;2.461418
4028.000000;2.516125
4027.000000;2.668902
4026.000000;2.893858
4025.000000;2.962005
4024.000000;2.788776
4023.000000;2.628317
4022.000000;2.545454
4021.000000;2.495681
4020.000000;2.435375
4019.000000;2.385464
4018.000000;2.387324
4017.000000;2.444887
4016.000000;2.533586
4015.000000;2.615015
4014.000000;2.636708
4013.000000;2.584304
4012.000000;2.515079
4011.000000;2.478416
4010.000000;2.480436
4009.000000;2.519468
4008.000000;2.605004
4007.000000;2.746564
4006.000000;2.898291
4005.000000;2.870342
4004.000000;2.709445
4003.000000;2.597117
4002.000000;2.532249
4001.000000;2.469266
4000.000000;2.417844
3999.000000;2.432188
3998.000000;2.536582
3997.000000;2.717707
3996.000000;2.896721
3995.000000;2.970291
3994.000000;3.104760
3993.000000;3.174690
3992.000000;2.907756
3991.000000;2.702606
3990.000000;2.601437
3989.000000;2.548487
3988.000000;2.512767
3987.000000;2.501603
3986.000000;2.529866
3985.000000;2.579996
3984.000000;2.614624
3983.000000;2.586596
3982.000000;2.524845
3981.000000;2.494246
3980.000000;2.519403
3979.000000;2.639431
3978.000000;3.031356
3977.000000;3.311603
3976.000000;2.823195
3975.000000;2.948867
3974.000000;3.278579
3973.000000;2.946846
3972.000000;2.703643
3971.000000;2.624607
3970.000000;2.615591
3969.000000;2.646123
3968.000000;2.714271
3967.000000;2.854142
3966.000000;3.064885
3965.000000;3.372137
3964.000000;3.353064
3963.000000;3.156650
3962.000000;3.322411
3961.000000;2.904699
3960.000000;2.632569
3959.000000;2.586819
3958.000000;2.612610
3957.000000;2.616266
3956.000000;2.594679
3955.000000;2.577665
3954.000000;2.611416
3953.000000;2.742656
3952.000000;2.940404
3951.000000;2.981174
3950.000000;2.898991
3949.000000;2.899380
3948.000000;3.071744
3947.000000;2.956156
3946.000000;2.649863
3945.000000;2.585342
3944.000000;2.664313
3943.000000;2.869641
3942.000000;3.068102
3941.000000;3.116625
3940.000000;3.265666
3939.000000;3.173652
3938.000000;2.890317
3937.000000;2.746359
3936.000000;2.731506
3935.000000;2.865011
3934.000000;3.126257
3933.000000;3.196008
3932.000000;3.380758
3931.000000;3.332392
3930.000000;3.003018
3929.000000;2.933358
3928.000000;3.015644
3927.000000;3.170871
3926.000000;3.247383
3925.000000;3.215546
3924.000000;3.359508
3923.000000;3.706470
3922.000000;3.315870
3921.000000;3.003212
3920.000000;2.886854
3919.000000;2.955807
3918.000000;3.159464
3917.000000;3.386531
3916.000000;3.483741
3915.000000;3.588569
3914.000000;3.592760
3913.000000;3.293521
3912.000000;3.294654
3911.000000;3.384672
3910.000000;3.013968
3909.000000;2.759674
3908.000000;2.627164
3907.000000;2.537607
3906.000000;2.497023
3905.000000;2.472463
3904.000000;2.388197
3903.000000;2.336328
3902.000000;2.426321
3901.000000;2.611598
3900.000000;2.695451
3899.000000;2.723113
3898.000000;2.768896
3897.000000;2.797435
3896.000000;2.850938
3895.000000;2.966027
3894.000000;3.040657
3893.000000;2.905404
3892.000000;2.818382
3891.000000;2.895348
3890.000000;3.281462
3889.000000;3.758778
3888.000000;3.267419
3887.000000;3.110087
3886.000000;3.047256
3885.000000;3.043831
3884.000000;3.108234
3883.000000;3.292108
3882.000000;3.432987
3881.000000;3.127765
3880.000000;2.915872
3879.000000;2.886411
3878.000000;2.985413
3877.000000;3.169739
3876.000000;3.285946
3875.000000;3.227574
3874.000000;3.188191
3873.000000;3.080162
3872.000000;2.885633
3871.000000;2.743624
3870.000000;2.677358
3869.000000;2.710213
3868.000000;2.969177
3867.000000;3.398612
3866.000000;3.130346
3865.000000;2.944576
3864.000000;2.869980
3863.000000;2.962603
3862.000000;3.254588
3861.000000;3.090396
3860.000000;2.809306
3859.000000;2.675114
3858.000000;2.604280
3857.000000;2.673679
3856.000000;2.881171
3855.000000;2.852299
3854.000000;2.852916
3853.000000;2.991518
3852.000000;3.060751
3851.000000;3.009905
3850.000000;2.937364
3849.000000;2.902046
3848.000000;2.907525
3847.000000;2.921754
3846.000000;2.887610
3845.000000;2.819782
3844.000000;2.787559
3843.000000;2.846122
3842.000000;3.002262
3841.000000;3.122219
3840.000000;3.071615
3839.000000;2.938182
3838.000000;2.820220
3837.000000;2.803913
3836.000000;2.957843
3835.000000;3.061290
3834.000000;2.975101
3833.000000;2.950744
3832.000000;2.930657
3831.000000;2.875715
3830.000000;2.802217
3829.000000;2.746565
3828.000000;2.714500
3827.000000;2.664821
3826.000000;2.576333
3825.000000;2.475977
3824.000000;2.425577
3823.000000;2.454731
3822.000000;2.542378
3821.000000;2.748082
3820.000000;3.268495
3819.000000;3.445180
3818.000000;3.154540
3817.000000;3.007787
3816.000000;2.836551
3815.000000;2.710685
3814.000000;2.667445
3813.000000;2.684824
3812.000000;2.725814
3811.000000;2.795169
3810.000000;2.912826
3809.000000;3.024992
3808.000000;3.086484
3807.000000;3.374413
3806.000000;3.613650
3805.000000;3.273252
3804.000000;3.280849
3803.000000;3.219830
3802.000000;2.961247
3801.000000;2.785839
3800.000000;2.788985
3799.000000;3.147435
3798.000000;3.337076
3797.000000;2.983777
3796.000000;2.924264
3795.000000;2.929055
3794.000000;2.917934
3793.000000;2.958805
3792.000000;2.953078
3791.000000;2.826288
3790.000000;2.782825
3789.000000;2.903467
3788.000000;3.177456
3787.000000;3.555405
3786.000000;3.490763
3785.000000;3.055539
3784.000000;2.818749
3783.000000;2.747955
3782.000000;2.957169
3781.000000;3.312713
3780.000000;3.027801
3779.000000;2.886203
3778.000000;3.118819
3777.000000;3.465776
3776.000000;3.011169
3775.000000;2.790910
3774.000000;2.826196
3773.000000;3.014226
3772.000000;3.116600
3771.000000;3.166797
3770.000000;3.028300
3769.000000;2.900274
3768.000000;2.952475
3767.000000;3.045275
3766.000000;3.026334
3765.000000;2.937146
3764.000000;2.796977
3763.000000;2.620347
3762.000000;2.506295
3761.000000;2.510452
3760.000000;2.648016
3759.000000;2.842551
3758.000000;2.863823
3757.000000;2.848194
3756.000000;2.918572
3755.000000;2.852818
3754.000000;2.690487
3753.000000;2.562139
3752.000000;2.448183
3751.000000;2.360173
3750.000000;2.322627
3749.000000;2.356984
3748.000000;2.474745
3747.000000;2.670024
3746.000000;2.959347
3745.000000;2.715520
3744.000000;2.526291
3743.000000;2.566761
3742.000000;2.771008
3741.000000;3.230818
3740.000000;3.053561
3739.000000;2.816635
3738.000000;2.801528
3737.000000;2.730698
3736.000000;2.589894
3735.000000;2.513176
3734.000000;2.530065
3733.000000;2.635562
3732.000000;3.001586
3731.000000;3.457725
3730.000000;3.052703
3729.000000;3.030229
3728.000000;3.201632
3727.000000;3.479915
3726.000000;3.616227
3725.000000;3.654583
3724.000000;3.607690
3723.000000;3.325426
3722.000000;3.165362
3721.000000;3.122470
3720.000000;3.161502
3719.000000;3.326184
3718.000000;3.723715
3717.000000;3.592738
3716.000000;3.277781
3715.000000;2.863858
3714.000000;2.671788
3713.000000;2.677759
3712.000000;2.802889
3711.000000;2.936522
3710.000000;2.829460
3709.000000;2.737888
3708.000000;2.769993
3707.000000;2.858572
3706.000000;2.937806
3705.000000;2.964405
3704.000000;2.960474
3703.000000;3.009844
3702.000000;3.316102
3701.000000;3.409201
3700.000000;3.059089
3699.000000;2.916159
3698.000000;2.843093
3697.000000;2.802043
3696.000000;2.793557
3695.000000;2.820970
3694.000000;2.910351
3693.000000;3.135989
3692.000000;3.261743
3691.000000;3.319438
3690.000000;3.187003
3689.000000;2.883109
3688.000000;2.767688
3687.000000;2.842763
3686.000000;3.082001
3685.000000;3.397835
3684.000000;3.636181
3683.000000;3.295930
3682.000000;2.915017
3681.000000;2.729332
3680.000000;2.646854
3679.000000;2.654280
3678.000000;2.655308
3677.000000;2.577942
3676.000000;2.527038
3675.000000;2.684518
3674.000000;2.914194
3673.000000;2.858603
3672.000000;2.877095
3671.000000;3.007256
3670.000000;3.136255
3669.000000;2.991758
3668.000000;2.813088
3667.000000;2.796284
3666.000000;2.895977
3665.000000;3.125847
3664.000000;3.365487
3663.000000;3.210999
3662.000000;3.081221
3661.000000;3.027118
3660.000000;2.896323
3659.000000;2.771516
3658.000000;2.720877
3657.000000;2.710776
3656.000000;2.686675
3655.000000;2.611671
3654.000000;2.486116
3653.000000;2.394761
3652.000000;2.429429
3651.000000;2.594463
3650.000000;2.796728
3649.000000;2.776095
3648.000000;2.632920
3647.000000;2.640110
3646.000000;2.782710
3645.000000;2.984360
3644.000000;3.190627
3643.000000;3.366244
3642.000000;3.461360
3641.000000;3.402099
3640.000000;3.360911
3639.000000;3.483701
3638.000000;3.872302
3637.000000;4.037581
3636.000000;3.434793
3635.000000;3.016518
3634.000000;2.748146
3633.000000;2.535131
3632.000000;2.413666
3631.000000;2.411242
3630.000000;2.637895
3629.000000;3.029409
3628.000000;2.778087
3627.000000;2.684937
3626.000000;2.774031
3625.000000;2.951750
3624.000000;3.231464
3623.000000;3.132676
3622.000000;3.003994
3621.000000;3.147401
3620.000000;3.464092
3619.000000;3.408981
3618.000000;3.199759
3617.000000;3.083787
3616.000000;3.011975
3615.000000;3.015549
3614.000000;3.315096
3613.000000;3.451881
3612.000000;3.074608
3611.000000;3.069649
3610.000000;3.262910
3609.000000;3.482623
3608.000000;3.497849
3607.000000;3.274160
3606.000000;3.160209
3605.000000;3.163434
3604.000000;3.259404
3603.000000;3.309255
3602.000000;3.225323
3601.000000;3.181455
3600.000000;3.267688
3599.000000;3.306450
3598.000000;3.141778
3597.000000;3.061602
3596.000000;3.062490
3595.000000;3.060893
3594.000000;3.077097
3593.000000;3.142913
3592.000000;3.145056
3591.000000;3.057601
3590.000000;3.063888
3589.000000;3.149078
3588.000000;3.276694
3587.000000;3.517782
3586.000000;3.432602
3585.000000;3.155441
3584.000000;3.030927
3583.000000;3.047332
3582.000000;3.113835
3581.000000;3.086230
3580.000000;3.101741
3579.000000;3.266386
3578.000000;3.465957
3577.000000;3.434342
3576.000000;3.492957
3575.000000;3.720614
3574.000000;3.492400
3573.000000;3.174236
3572.000000;2.936231
3571.000000;2.838515
3570.000000;2.918819
3569.000000;3.302975
3568.000000;3.490222
3567.000000;3.060487
3566.000000;2.924214
3565.000000;2.928733
3564.000000;3.035685
3563.000000;3.205110
3562.000000;3.287455
3561.000000;3.176770
3560.000000;3.041939
3559.000000;3.023619
3558.000000;3.087898
3557.000000;3.282241
3556.000000;3.877647
3555.000000;3.902287
3554.000000;3.858801
3553.000000;3.713391
3552.000000;3.176494
3551.000000;2.956514
3550.000000;2.887066
3549.000000;2.915486
3548.000000;3.042347
3547.000000;3.295858
3546.000000;3.841620
3545.000000;4.284956
3544.000000;3.944852
3543.000000;3.536174
3542.000000;3.092747
3541.000000;2.862820
3540.000000;2.779183
3539.000000;2.785146
3538.000000;2.826894
3537.000000;2.854335
3536.000000;2.948697
3535.000000;3.182726
3534.000000;3.098552
3533.000000;2.949708
3532.000000;2.953079
3531.000000;2.909586
3530.000000;2.850644
3529.000000;2.831791
3528.000000;2.855477
3527.000000;2.936382
3526.000000;3.104331
3525.000000;3.274192
3524.000000;3.173265
3523.000000;2.983139
3522.000000;2.867163
3521.000000;2.823624
3520.000000;2.832377
3519.000000;2.878728
3518.000000;3.002842
3517.000000;3.237445
3516.000000;3.211410
3515.000000;3.022533
3514.000000;3.127107
3513.000000;3.375996
3512.000000;3.156071
3511.000000;3.032045
3510.000000;3.033758
3509.000000;2.915784
3508.000000;2.847340
3507.000000;2.831929
3506.000000;2.764118
3505.000000;2.708925
3504.000000;2.712981
3503.000000;2.783290
3502.000000;2.901363
3501.000000;3.046988
3500.000000;3.187023
3499.000000;3.431374
3498.000000;3.550415
3497.000000;3.094563
3496.000000;2.851864
3495.000000;2.733210
3494.000000;2.680866
3493.000000;2.699537
3492.000000;2.790729
3491.000000;2.962328
3490.000000;3.120650
3489.000000;3.161009
3488.000000;3.231477
3487.000000;3.330752
3486.000000;3.364431
3485.000000;3.630306
3484.000000;3.499416
3483.000000;3.046586
3482.000000;2.846245
3481.000000;2.784673
3480.000000;2.842790
3479.000000;2.989907
3478.000000;3.105468
3477.000000;3.071610
3476.000000;2.921280
3475.000000;2.856937
3474.000000;2.929018
3473.000000;3.247163
3472.000000;3.663227
3471.000000;3.281966
3470.000000;3.151476
3469.000000;3.422218
3468.000000;3.966173
3467.000000;3.271080
3466.000000;3.190494
3465.000000;3.436898
3464.000000;3.954221
3463.000000;4.337808
3462.000000;3.724208
3461.000000;3.461300
3460.000000;3.196320
3459.000000;3.034346
3458.000000;2.935047
3457.000000;2.856389
3456.000000;2.850475
3455.000000;2.967007
3454.000000;3.255073
3453.000000;4.003866
3452.000000;3.909551
3451.000000;3.593167
3450.000000;3.713185
3449.000000;3.726479
3448.000000;3.382659
3447.000000;3.070152
3446.000000;2.913164
3445.000000;2.841673
3444.000000;2.801884
3443.000000;2.786448
3442.000000;2.838594
3441.000000;2.989279
3440.000000;3.388252
3439.000000;3.390439
3438.000000;2.883823
3437.000000;2.719152
3436.000000;2.721280
3435.000000;2.814499
3434.000000;2.900362
3433.000000;2.919757
3432.000000;2.927622
3431.000000;2.922283
3430.000000;2.960236
3429.000000;3.038158
3428.000000;3.034668
3427.000000;2.978796
3426.000000;2.965864
3425.000000;2.955829
3424.000000;2.927478
3423.000000;2.893607
3422.000000;2.854552
3421.000000;2.846637
3420.000000;2.864177
3419.000000;2.909893
3418.000000;2.967358
3417.000000;3.189832
3416.000000;3.796501
3415.000000;3.451264
3414.000000;3.228880
3413.000000;3.516221
3412.000000;3.653584
3411.000000;3.105877
3410.000000;3.004098
3409.000000;3.139133
3408.000000;3.404690
3407.000000;3.584897
3406.000000;3.500004
3405.000000;3.360502
3404.000000;3.124300
3403.000000;2.971792
3402.000000;2.859040
3401.000000;2.858470
3400.000000;2.895908
3399.000000;2.896566
3398.000000;2.882074
3397.000000;3.039338
3396.000000;3.669235
3395.000000;3.143473
3394.000000;2.822614
3393.000000;2.724989
3392.000000;2.663689
3391.000000;2.685166
3390.000000;2.769942
3389.000000;2.888262
3388.000000;2.961635
3387.000000;2.999926
3386.000000;3.083288
3385.000000;3.213545
3384.000000;3.464513
3383.000000;3.577479
3382.000000;3.268162
3381.000000;3.177267
3380.000000;3.218107
3379.000000;3.129030
3378.000000;2.958959
3377.000000;2.892044
3376.000000;2.925523
3375.000000;3.086882
3374.000000;3.309515
3373.000000;3.204585
3372.000000;3.093791
3371.000000;3.265208
3370.000000;3.806719
3369.000000;4.388228
3368.000000;3.713343
3367.000000;3.271549
3366.000000;3.066313
3365.000000;3.175465
3364.000000;3.630030
3363.000000;3.207742
3362.000000;2.970378
3361.000000;2.998183
3360.000000;3.135570
3359.000000;3.262339
3358.000000;3.097230
3357.000000;2.876257
3356.000000;2.746867
3355.000000;2.752474
3354.000000;2.881446
3353.000000;2.992987
3352.000000;3.041074
3351.000000;3.205304
3350.000000;3.484828
3349.000000;3.700140
3348.000000;3.594113
3347.000000;3.349525
3346.000000;3.206904
3345.000000;3.136984
3344.000000;3.057031
3343.000000;2.976393
3342.000000;2.955366
3341.000000;3.025123
3340.000000;3.203682
3339.000000;3.441283
3338.000000;3.500508
3337.000000;3.314905
3336.000000;3.144679
3335.000000;3.093065
3334.000000;3.186996
3333.000000;3.353011
3332.000000;3.298288
3331.000000;3.114010
3330.000000;3.011789
3329.000000;2.992372
3328.000000;3.045782
3327.000000;3.092504
3326.000000;2.969686
3325.000000;2.826024
3324.000000;2.852382
3323.000000;3.022797
3322.000000;3.033460
3321.000000;2.939364
3320.000000;2.960148
3319.000000;3.031453
3318.000000;3.169339
3317.000000;3.550777
3316.000000;3.687051
3315.000000;3.266452
3314.000000;3.086685
3313.000000;3.059715
3312.000000;3.113315
3311.000000;3.186388
3310.000000;3.271399
3309.000000;3.295268
3308.000000;3.141286
3307.000000;2.982263
3306.000000;2.914772
3305.000000;2.954050
3304.000000;3.088024
3303.000000;3.230875
3302.000000;3.328676
3301.000000;3.727517
3300.000000;3.645247
3299.000000;3.101103
3298.000000;3.001922
3297.000000;3.072170
3296.000000;3.171656
3295.000000;3.197522
3294.000000;3.269815
3293.000000;3.781393
3292.000000;3.525718
3291.000000;3.129291
3290.000000;3.075175
3289.000000;3.137001
3288.000000;3.286654
3287.000000;3.398382
3286.000000;3.374215
3285.000000;3.477659
3284.000000;3.536660
3283.000000;3.490152
3282.000000;3.748056
3281.000000;3.523388
3280.000000;3.157386
3279.000000;3.013905
3278.000000;2.943187
3277.000000;2.915909
3276.000000;2.916961
3275.000000;2.936836
3274.000000;3.047768
3273.000000;3.175222
3272.000000;3.109104
3271.000000;3.087493
3270.000000;3.033875
3269.000000;2.905734
3268.000000;2.878430
3267.000000;2.923819
3266.000000;2.919717
3265.000000;2.895482
3264.000000;2.935201
3263.000000;3.120347
3262.000000;3.479381
3261.000000;3.368715
3260.000000;3.062301
3259.000000;2.911318
3258.000000;2.819084
3257.000000;2.885401
3256.000000;3.130798
3255.000000;2.925721
3254.000000;2.671371
3253.000000;2.614203
3252.000000;2.678375
3251.000000;2.876972
3250.000000;3.218637
3249.000000;3.367959
3248.000000;3.508488
3247.000000;3.586473
3246.000000;3.145474
3245.000000;2.990773
3244.000000;2.963259
3243.000000;2.945637
3242.000000;2.901585
3241.000000;2.907076
3240.000000;3.047692
3239.000000;3.140082
3238.000000;3.072024
3237.000000;3.026643
3236.000000;3.026356
3235.000000;3.080359
3234.000000;3.211907
3233.000000;3.255478
3232.000000;3.199304
3231.000000;3.259539
3230.000000;3.332786
3229.000000;3.207320
3228.000000;3.102618
3227.000000;3.105958
3226.000000;3.125387
3225.000000;3.182625
3224.000000;3.450419
3223.000000;3.542649
3222.000000;3.449378
3221.000000;3.523820
3220.000000;3.235881
3219.000000;3.002105
3218.000000;2.927607
3217.000000;2.961169
3216.000000;3.055079
3215.000000;3.170086
3214.000000;3.494578
3213.000000;3.658286
3212.000000;3.319466
3211.000000;3.089690
3210.000000;3.122211
3209.000000;3.410554
3208.000000;3.115319
3207.000000;2.885873
3206.000000;2.899732
3205.000000;3.024442
3204.000000;3.371175
3203.000000;3.698365
3202.000000;3.343323
3201.000000;3.200894
3200.000000;3.224312
3199.000000;3.243516
3198.000000;3.125385
3197.000000;2.993721
3196.000000;2.955240
3195.000000;3.067438
3194.000000;3.215754
3193.000000;3.054658
3192.000000;3.003839
3191.000000;3.237367
3190.000000;3.199132
3189.000000;2.948948
3188.000000;2.904487
3187.000000;2.939399
3186.000000;2.995365
3185.000000;3.096723
3184.000000;3.275496
3183.000000;3.471383
3182.000000;3.395306
3181.000000;3.409308
3180.000000;3.542824
3179.000000;3.238479
3178.000000;3.028435
3177.000000;3.016227
3176.000000;3.128116
3175.000000;3.351412
3174.000000;3.380851
3173.000000;3.255103
3172.000000;3.341510
3171.000000;3.594408
3170.000000;3.685254
3169.000000;3.385702
3168.000000;3.050852
3167.000000;2.877817
3166.000000;2.850515
3165.000000;2.968123
3164.000000;3.183019
3163.000000;3.470362
3162.000000;3.315813
3161.000000;2.995361
3160.000000;2.894746
3159.000000;2.971953
3158.000000;3.405769
3157.000000;3.558839
3156.000000;3.109817
3155.000000;2.918063
3154.000000;2.822811
3153.000000;2.828638
3152.000000;2.988548
3151.000000;3.212922
3150.000000;3.302139
3149.000000;3.339271
3148.000000;2.943865
3147.000000;2.694548
3146.000000;2.657465
3145.000000;2.791603
3144.000000;3.152503
3143.000000;3.325144
3142.000000;3.424845
3141.000000;3.605182
3140.000000;3.233031
3139.000000;3.087271
3138.000000;3.091124
3137.000000;3.435627
3136.000000;3.389579
3135.000000;2.938365
3134.000000;2.893413
3133.000000;3.009695
3132.000000;3.191844
3131.000000;3.493060
3130.000000;3.385247
3129.000000;3.084964
3128.000000;2.988992
3127.000000;3.134078
3126.000000;3.437527
3125.000000;3.255985
3124.000000;3.184020
3123.000000;3.239113
3122.000000;3.126845
3121.000000;3.069720
3120.000000;3.020811
3119.000000;2.955650
3118.000000;2.940170
3117.000000;2.964347
3116.000000;3.011587
3115.000000;3.065812
3114.000000;3.117066
3113.000000;3.202854
3112.000000;3.063367
3111.000000;2.823722
3110.000000;2.774975
3109.000000;2.887756
3108.000000;3.051064
3107.000000;3.108895
3106.000000;3.140638
3105.000000;3.496916
3104.000000;3.540209
3103.000000;2.987435
3102.000000;2.783698
3101.000000;2.776177
3100.000000;2.976068
3099.000000;3.331849
3098.000000;3.255448
3097.000000;3.137097
3096.000000;3.094944
3095.000000;3.028866
3094.000000;3.032481
3093.000000;3.177842
3092.000000;3.165406
3091.000000;2.978895
3090.000000;2.960035
3089.000000;3.192485
3088.000000;3.378466
3087.000000;3.065863
3086.000000;2.933285
3085.000000;2.932923
3084.000000;3.020095
3083.000000;3.170239
3082.000000;3.161993
3081.000000;3.115810
3080.000000;3.238591
3079.000000;3.369208
3078.000000;3.226960
3077.000000;3.035044
3076.000000;2.857368
3075.000000;2.757481
3074.000000;2.758732
3073.000000;2.842493
3072.000000;2.985404
3071.000000;3.071066
3070.000000;3.035437
3069.000000;2.967232
3068.000000;2.958553
3067.000000;2.987354
3066.000000;3.174006
3065.000000;3.457414
3064.000000;3.059608
3063.000000;2.845758
3062.000000;2.828502
3061.000000;2.901832
3060.000000;2.942092
3059.000000;2.889192
3058.000000;2.890281
3057.000000;3.077808
3056.000000;3.456499
3055.000000;3.247048
3054.000000;3.167224
3053.000000;3.295496
3052.000000;3.101612
3051.000000;3.005932
3050.000000;3.024750
3049.000000;2.948010
3048.000000;2.874244
3047.000000;3.000914
3046.000000;3.222601
3045.000000;2.966727
3044.000000;2.776464
3043.000000;2.735462
3042.000000;2.778637
3041.000000;2.923233
3040.000000;3.033595
3039.000000;3.045288
3038.000000;3.099594
3037.000000;3.088800
3036.000000;2.974554
3035.000000;2.951614
3034.000000;3.074674
3033.000000;3.478441
3032.000000;3.755047
3031.000000;3.380727
3030.000000;3.368314
3029.000000;3.507589
3028.000000;3.421703
3027.000000;3.091817
3026.000000;2.871693
3025.000000;2.795287
3024.000000;2.817250
3023.000000;2.860525
3022.000000;2.836188
3021.000000;2.803926
3020.000000;2.843413
3019.000000;2.980034
3018.000000;3.142584
3017.000000;3.156409
3016.000000;3.038480
3015.000000;2.919593
3014.000000;2.853824
3013.000000;2.825806
3012.000000;2.786669
3011.000000;2.758295
3010.000000;2.803583
3009.000000;2.909994
3008.000000;2.995693
3007.000000;3.028387
3006.000000;3.168334
3005.000000;3.266491
3004.000000;3.017994
3003.000000;2.849378
3002.000000;2.931362
3001.000000;3.186747
3000.000000;3.036245
2999.000000;2.824721
2998.000000;2.888424
2997.000000;3.299224
2996.000000;3.124682
2995.000000;2.801150
2994.000000;2.787067
2993.000000;2.914214
2992.000000;3.154267
2991.000000;3.245493
2990.000000;3.142616
2989.000000;3.129123
2988.000000;3.211950
2987.000000;3.278294
2986.000000;3.161027
2985.000000;2.988765
2984.000000;2.850194
2983.000000;2.800708
2982.000000;2.849202
2981.000000;3.113966
2980.000000;3.675655
2979.000000;3.311230
2978.000000;3.089430
2977.000000;3.087545
2976.000000;3.283522
2975.000000;3.619517
2974.000000;3.332871
2973.000000;3.351198
2972.000000;3.675544
2971.000000;3.197197
2970.000000;2.952603
2969.000000;2.986697
2968.000000;3.108465
2967.000000;3.207419
2966.000000;3.261212
2965.000000;3.199339
2964.000000;3.218061
2963.000000;3.364907
2962.000000;3.157234
2961.000000;2.934266
2960.000000;2.847351
2959.000000;2.848451
2958.000000;2.945719
2957.000000;3.103356
2956.000000;3.167263
2955.000000;3.134059
2954.000000;3.174507
2953.000000;3.318742
2952.000000;3.532677
2951.000000;3.559306
2950.000000;3.275510
2949.000000;3.008128
2948.000000;2.863550
2947.000000;2.829486
2946.000000;2.862044
2945.000000;2.941367
2944.000000;3.013674
2943.000000;3.235131
2942.000000;3.708657
2941.000000;3.371846
2940.000000;3.265472
2939.000000;3.294882
2938.000000;3.250778
2937.000000;3.298453
2936.000000;3.271575
2935.000000;3.286407
2934.000000;3.458892
2933.000000;3.546924
2932.000000;3.261316
2931.000000;3.303884
2930.000000;3.647757
2929.000000;3.311141
2928.000000;3.133482
2927.000000;3.231434
2926.000000;3.658149
2925.000000;3.865017
2924.000000;3.501939
2923.000000;3.208534
2922.000000;2.942904
2921.000000;2.876684
2920.000000;2.940668
2919.000000;3.131423
2918.000000;3.615729
2917.000000;3.492543
2916.000000;3.323976
2915.000000;3.861910
2914.000000;3.546624
2913.000000;3.435761
2912.000000;3.872161
2911.000000;3.307962
2910.000000;3.101166
2909.000000;3.165382
2908.000000;3.260396
2907.000000;3.161550
2906.000000;2.978757
2905.000000;2.809600
2904.000000;2.706984
2903.000000;2.724474
2902.000000;2.971265
2901.000000;3.428533
2900.000000;3.799975
2899.000000;3.796944
2898.000000;3.108971
2897.000000;2.940482
2896.000000;2.898027
2895.000000;2.881189
2894.000000;2.932190
2893.000000;3.243354
2892.000000;3.686118
2891.000000;3.412659
2890.000000;3.893991
2889.000000;3.769070
2888.000000;3.426909
2887.000000;3.589621
2886.000000;3.366793
2885.000000;3.255337
2884.000000;3.235656
2883.000000;3.339878
2882.000000;4.156264
2881.000000;3.261892
2880.000000;2.861668
2879.000000;2.745054
2878.000000;2.831760
2877.000000;3.009541
2876.000000;2.828084
2875.000000;2.705798
2874.000000;2.726077
2873.000000;2.826901
2872.000000;2.981271
2871.000000;3.042178
2870.000000;2.975571
2869.000000;2.932850
2868.000000;2.968813
2867.000000;3.034337
2866.000000;3.005750
2865.000000;2.882033
2864.000000;2.821761
2863.000000;2.877867
2862.000000;3.003312
2861.000000;3.107642
2860.000000;3.145589
2859.000000;3.126133
2858.000000;3.102182
2857.000000;3.230373
2856.000000;3.278483
2855.000000;3.049593
2854.000000;2.959560
2853.000000;3.111375
2852.000000;3.432111
2851.000000;3.199791
2850.000000;3.034986
2849.000000;3.062562
2848.000000;3.170599
2847.000000;3.255051
2846.000000;3.129898
2845.000000;2.953810
2844.000000;2.822025
2843.000000;2.746998
2842.000000;2.722100
2841.000000;2.728713
2840.000000;2.747619
2839.000000;2.762380
2838.000000;2.770626
2837.000000;2.769866
2836.000000;2.821872
2835.000000;2.964413
2834.000000;3.254527
2833.000000;3.640075
2832.000000;3.200587
2831.000000;2.946967
2830.000000;3.037277
2829.000000;3.471406
2828.000000;3.360425
2827.000000;3.228249
2826.000000;3.384712
2825.000000;3.537404
2824.000000;3.735276
2823.000000;3.719010
2822.000000;3.399918
2821.000000;3.092839
2820.000000;2.923848
2819.000000;2.880057
2818.000000;2.975828
2817.000000;3.203040
2816.000000;3.136950
2815.000000;2.931350
2814.000000;2.920017
2813.000000;3.149967
2812.000000;3.673442
2811.000000;3.526162
2810.000000;3.523637
2809.000000;3.982577
2808.000000;3.559097
2807.000000;3.498732
2806.000000;3.400270
2805.000000;3.014779
2804.000000;2.830560
2803.000000;2.803925
2802.000000;2.862970
2801.000000;2.937589
2800.000000;3.002564
2799.000000;3.122484
2798.000000;3.232032
2797.000000;3.215700
2796.000000;3.184182
2795.000000;3.401200
2794.000000;3.497796
2793.000000;3.018315
2792.000000;2.824171
2791.000000;2.764858
2790.000000;2.797098
2789.000000;2.918676
2788.000000;3.180561
2787.000000;3.698473
2786.000000;3.489889
2785.000000;3.236074
2784.000000;3.166712
2783.000000;2.998081
2782.000000;2.780771
2781.000000;2.632241
2780.000000;2.605250
2779.000000;2.714284
2778.000000;3.024721
2777.000000;3.367016
2776.000000;3.138122
2775.000000;3.031407
2774.000000;3.094873
2773.000000;3.212238
2772.000000;3.420041
2771.000000;3.458491
2770.000000;3.479363
2769.000000;3.922995
2768.000000;3.273437
2767.000000;2.942188
2766.000000;2.856576
2765.000000;2.887826
2764.000000;2.999403
2763.000000;3.139985
2762.000000;3.285861
2761.000000;3.418714
2760.000000;3.514121
2759.000000;3.516443
2758.000000;3.482542
2757.000000;3.190511
2756.000000;2.949397
2755.000000;2.921270
2754.000000;3.072258
2753.000000;3.255386
2752.000000;3.154658
2751.000000;2.984841
2750.000000;2.944730
2749.000000;3.123070
2748.000000;3.340237
2747.000000;3.106472
2746.000000;2.986435
2745.000000;2.938168
2744.000000;2.884591
2743.000000;2.920958
2742.000000;2.994452
2741.000000;2.897542
2740.000000;2.756918
2739.000000;2.704722
2738.000000;2.739706
2737.000000;2.856460
2736.000000;3.010321
2735.000000;3.314588
2734.000000;3.561476
2733.000000;3.219437
2732.000000;3.143798
2731.000000;3.204455
2730.000000;3.415914
2729.000000;3.639039
2728.000000;3.644086
2727.000000;3.426478
2726.000000;2.948282
2725.000000;2.739143
2724.000000;2.732684
2723.000000;2.858098
2722.000000;3.054590
2721.000000;3.255052
2720.000000;3.513336
2719.000000;3.285049
2718.000000;3.038600
2717.000000;3.018567
2716.000000;3.197892
2715.000000;3.433813
2714.000000;3.401971
2713.000000;3.287792
2712.000000;3.105556
2711.000000;2.992769
2710.000000;2.960769
2709.000000;2.946963
2708.000000;2.918557
2707.000000;2.896428
2706.000000;2.932809
2705.000000;3.053233
2704.000000;3.190949
2703.000000;3.151619
2702.000000;2.959857
2701.000000;2.819694
2700.000000;2.792858
2699.000000;2.860621
2698.000000;2.955810
2697.000000;3.069627
2696.000000;3.407966
2695.000000;3.372203
2694.000000;2.941272
2693.000000;2.755733
2692.000000;2.694253
2691.000000;2.700234
2690.000000;2.771078
2689.000000;2.948768
2688.000000;3.079614
2687.000000;2.932236
2686.000000;2.870618
2685.000000;3.028699
2684.000000;3.482265
2683.000000;3.307165
2682.000000;3.007935
2681.000000;2.966381
2680.000000;3.033633
2679.000000;3.204900
2678.000000;3.300294
2677.000000;3.244182
2676.000000;3.203770
2675.000000;3.198583
2674.000000;3.065303
2673.000000;2.865915
2672.000000;2.787772
2671.000000;2.850700
2670.000000;3.029031
2669.000000;3.210327
2668.000000;3.132005
2667.000000;2.898134
2666.000000;2.780007
2665.000000;2.810578
2664.000000;3.054386
2663.000000;3.541113
2662.000000;3.213216
2661.000000;3.073492
2660.000000;3.124782
2659.000000;3.208653
2658.000000;3.156707
2657.000000;3.029935
2656.000000;2.941342
2655.000000;2.907525
2654.000000;2.955275
2653.000000;3.165124
2652.000000;3.699883
2651.000000;3.550860
2650.000000;3.188012
2649.000000;3.030697
2648.000000;2.954786
2647.000000;3.061781
2646.000000;3.346731
2645.000000;3.292627
2644.000000;3.107160
2643.000000;3.008340
2642.000000;2.958670
2641.000000;2.990467
2640.000000;3.064319
2639.000000;3.085549
2638.000000;3.029898
2637.000000;2.989718
2636.000000;3.100704
2635.000000;3.268508
2634.000000;3.048915
2633.000000;2.947547
2632.000000;3.001625
2631.000000;3.023991
2630.000000;2.998037
2629.000000;3.049766
2628.000000;3.250556
2627.000000;3.576385
2626.000000;3.421560
2625.000000;3.070018
2624.000000;2.808310
2623.000000;2.640728
2622.000000;2.588698
2621.000000;2.644570
2620.000000;2.804840
2619.000000;3.051906
2618.000000;3.200525
2617.000000;3.160708
2616.000000;3.047870
2615.000000;2.903069
2614.000000;2.799458
2613.000000;2.760375
2612.000000;2.791339
2611.000000;2.926675
2610.000000;3.117432
2609.000000;3.310108
2608.000000;3.652906
2607.000000;3.280687
2606.000000;3.066070
2605.000000;3.037168
2604.000000;3.092892
2603.000000;3.206613
2602.000000;3.420217
2601.000000;3.513800
2600.000000;3.186727
2599.000000;2.990186
2598.000000;2.908740
2597.000000;2.856631
2596.000000;2.785191
2595.000000;2.752156
2594.000000;2.814695
2593.000000;2.906125
2592.000000;2.943072
2591.000000;3.018358
2590.000000;3.162870
2589.000000;3.277677
2588.000000;3.260740
2587.000000;3.201443
2586.000000;3.218691
2585.000000;3.407442
2584.000000;4.001196
2583.000000;3.451442
2582.000000;3.171066
2581.000000;3.093962
2580.000000;3.119158
2579.000000;3.392847
2578.000000;3.775581
2577.000000;3.404067
2576.000000;3.713578
2575.000000;4.000641
2574.000000;3.518959
2573.000000;3.716903
2572.000000;3.601223
2571.000000;3.325564
2570.000000;3.196786
2569.000000;3.480201
2568.000000;3.567638
2567.000000;3.108332
2566.000000;3.085737
2565.000000;3.469308
2564.000000;3.362492
2563.000000;3.142910
2562.000000;3.246839
2561.000000;3.346258
2560.000000;3.148691
2559.000000;2.974713
2558.000000;2.868268
2557.000000;2.791469
2556.000000;2.769908
2555.000000;2.817524
2554.000000;2.915066
2553.000000;2.986056
2552.000000;2.980516
2551.000000;2.955092
2550.000000;2.921827
2549.000000;2.867851
2548.000000;2.818099
2547.000000;2.806488
2546.000000;2.843788
2545.000000;2.916561
2544.000000;3.033081
2543.000000;3.186633
2542.000000;3.164707
2541.000000;3.076882
2540.000000;3.085709
2539.000000;3.054830
2538.000000;3.003939
2537.000000;3.058602
2536.000000;3.195797
2535.000000;3.162383
2534.000000;3.092480
2533.000000;3.172048
2532.000000;3.382219
2531.000000;3.276592
2530.000000;3.010339
2529.000000;2.868114
2528.000000;2.836523
2527.000000;2.939055
2526.000000;3.086770
2525.000000;3.222105
2524.000000;3.600142
2523.000000;3.163587
2522.000000;2.891069
2521.000000;2.827500
2520.000000;2.809271
2519.000000;2.790204
2518.000000;2.805990
2517.000000;2.921356
2516.000000;3.121219
2515.000000;3.179799
2514.000000;3.084311
2513.000000;3.064945
2512.000000;3.123996
2511.000000;3.197242
2510.000000;3.228353
2509.000000;3.293526
2508.000000;4.282554
2507.000000;3.393039
2506.000000;2.996074
2505.000000;2.881405
2504.000000;2.810805
2503.000000;2.727076
2502.000000;2.653229
2501.000000;2.642113
2500.000000;2.700885
2499.000000;2.807267
2498.000000;2.938191
2497.000000;3.167566
2496.000000;3.415383
2495.000000;3.241791
2494.000000;3.150400
2493.000000;3.148345
2492.000000;3.137692
2491.000000;3.147493
2490.000000;3.191243
2489.000000;3.102679
2488.000000;2.958715
2487.000000;2.895866
2486.000000;2.921769
2485.000000;3.024709
2484.000000;3.180647
2483.000000;3.403991
2482.000000;3.229581
2481.000000;2.997445
2480.000000;2.937241
2479.000000;3.012905
2478.000000;3.238443
2477.000000;3.572391
2476.000000;3.435441
2475.000000;3.120446
2474.000000;2.993192
2473.000000;3.123331
2472.000000;3.470238
2471.000000;3.213550
2470.000000;3.137582
2469.000000;3.307907
2468.000000;3.611182
2467.000000;3.497416
2466.000000;3.363253
2465.000000;3.340464
2464.000000;3.811498
2463.000000;3.882337
2462.000000;3.148763
2461.000000;2.942415
2460.000000;2.835446
2459.000000;2.826413
2458.000000;2.889621
2457.000000;3.034089
2456.000000;3.339098
2455.000000;3.285244
2454.000000;3.087819
2453.000000;3.039588
2452.000000;3.038138
2451.000000;3.095994
2450.000000;3.140332
2449.000000;2.993148
2448.000000;2.843146
2447.000000;2.773580
2446.000000;2.759222
2445.000000;2.779303
2444.000000;2.805738
2443.000000;2.771598
2442.000000;2.696071
2441.000000;2.664544
2440.000000;2.697847
2439.000000;2.792155
2438.000000;2.969825
2437.000000;3.270122
2436.000000;3.620464
2435.000000;3.482499
2434.000000;3.094198
2433.000000;2.840031
2432.000000;2.710962
2431.000000;2.663933
2430.000000;2.660095
2429.000000;2.700464
2428.000000;2.816967
2427.000000;3.035740
2426.000000;3.486769
2425.000000;3.329071
2424.000000;3.075042
2423.000000;3.062122
2422.000000;3.206573
2421.000000;3.153127
2420.000000;2.992732
2419.000000;2.974274
2418.000000;3.003474
2417.000000;3.001336
2416.000000;3.033228
2415.000000;3.242434
2414.000000;3.684466
2413.000000;3.284079
2412.000000;3.029495
2411.000000;3.017196
2410.000000;3.194176
2409.000000;3.402605
2408.000000;3.202284
2407.000000;3.078349
2406.000000;3.150218
2405.000000;3.136180
2404.000000;3.055024
2403.000000;3.125368
2402.000000;3.302968
2401.000000;3.322900
2400.000000;3.251394
2399.000000;3.171588
2398.000000;2.982145
2397.000000;2.829481
2396.000000;2.776440
2395.000000;2.804098
2394.000000;2.881243
2393.000000;2.974935
2392.000000;3.068688
2391.000000;3.182548
2390.000000;3.357831
2389.000000;3.604985
2388.000000;3.758967
2387.000000;3.562150
2386.000000;3.306913
2385.000000;3.178504
2384.000000;3.190385
2383.000000;3.329087
2382.000000;3.572862
2381.000000;3.861467
2380.000000;3.942238
2379.000000;3.909248
2378.000000;3.854863
2377.000000;3.670710
2376.000000;3.470281
2375.000000;3.336020
2374.000000;3.286614
2373.000000;3.305060
2372.000000;3.341651
2371.000000;3.425403
2370.000000;3.601706
2369.000000;3.424284
2368.000000;3.270773
2367.000000;3.275631
2366.000000;3.353643
2365.000000;3.439939
2364.000000;3.556106
2363.000000;3.573573
2362.000000;3.380881
2361.000000;3.323990
2360.000000;3.442548
2359.000000;3.517782
2358.000000;3.441507
2357.000000;3.429930
2356.000000;3.380575
2355.000000;3.285865
2354.000000;3.225716
2353.000000;3.228733
2352.000000;3.373884
2351.000000;3.864684
2350.000000;3.423859
2349.000000;3.221041
2348.000000;3.374750
2347.000000;3.890187
2346.000000;3.885285
2345.000000;3.561364
2344.000000;3.484249
2343.000000;3.452677
2342.000000;3.429529
2341.000000;3.485853
2340.000000;3.639425
2339.000000;3.873357
2338.000000;3.951805
2337.000000;3.714440
2336.000000;3.473843
2335.000000;3.340575
2334.000000;3.345834
2333.000000;3.473844
2332.000000;3.533808
2331.000000;3.434907
2330.000000;3.344759
2329.000000;3.245041
2328.000000;3.164296
2327.000000;3.176088
2326.000000;3.305576
2325.000000;3.639778
2324.000000;3.841808
2323.000000;3.565287
2322.000000;3.448738
2321.000000;3.468841
2320.000000;3.739493
2319.000000;3.940563
2318.000000;3.619495
2317.000000;3.621128
2316.000000;3.816168
2315.000000;3.682520
2314.000000;3.392442
2313.000000;3.208452
2312.000000;3.138104
2311.000000;3.177634
2310.000000;3.316507
2309.000000;3.510403
2308.000000;3.467654
2307.000000;3.172373
2306.000000;3.023622
2305.000000;3.052139
2304.000000;3.534312
2303.000000;3.925218
2302.000000;3.371746
2301.000000;3.430806
2300.000000;3.154270
2299.000000;3.060425
2298.000000;3.090453
2297.000000;3.327038
2296.000000;3.202916
2295.000000;2.875811
2294.000000;2.734091
2293.000000;2.710011
2292.000000;2.771879
2291.000000;2.880477
2290.000000;3.015625
2289.000000;3.210231
2288.000000;3.288624
2287.000000;3.123710
2286.000000;3.017733
2285.000000;2.995501
2284.000000;2.999678
2283.000000;2.921573
2282.000000;2.823596
2281.000000;2.798453
2280.000000;2.855073
2279.000000;2.980703
2278.000000;3.087228
2277.000000;3.039376
2276.000000;2.941742
2275.000000;2.857111
2274.000000;2.772204
2273.000000;2.732479
2272.000000;2.791085
2271.000000;2.996525
2270.000000;3.310424
2269.000000;3.457312
2268.000000;3.226985
2267.000000;3.019141
2266.000000;3.003585
2265.000000;3.285202
2264.000000;3.552404
2263.000000;3.060708
2262.000000;2.889186
2261.000000;2.862185
2260.000000;2.901672
2259.000000;3.031297
2258.000000;3.356412
2257.000000;3.563535
2256.000000;3.698913
2255.000000;3.601827
2254.000000;3.109641
2253.000000;3.041782
2252.000000;3.099357
2251.000000;3.156447
2250.000000;3.147188
2249.000000;3.212733
2248.000000;3.655435
2247.000000;3.839227
2246.000000;3.429886
2245.000000;3.922481
2244.000000;3.803162
2243.000000;3.483560
2242.000000;3.503074
2241.000000;3.802803
2240.000000;3.761335
2239.000000;3.229509
2238.000000;2.992441
2237.000000;2.916991
2236.000000;2.936277
2235.000000;2.979681
2234.000000;3.039929
2233.000000;3.108995
2232.000000;3.144273
2231.000000;3.099617
2230.000000;3.014267
2229.000000;3.057219
2228.000000;3.308256
2227.000000;3.470678
2226.000000;3.157034
2225.000000;2.980343
2224.000000;2.848928
2223.000000;2.764174
2222.000000;2.733692
2221.000000;2.753150
2220.000000;2.791664
2219.000000;2.862915
2218.000000;3.036921
2217.000000;3.286232
2216.000000;3.082860
2215.000000;2.849097
2214.000000;2.773469
2213.000000;2.806166
2212.000000;2.933263
2211.000000;3.080888
2210.000000;3.062324
2209.000000;2.919979
2208.000000;2.816213
2207.000000;2.783314
2206.000000;2.826546
2205.000000;2.970506
2204.000000;3.225995
2203.000000;3.076859
2202.000000;2.922872
2201.000000;3.019103
2200.000000;3.226311
2199.000000;3.183613
2198.000000;3.257793
2197.000000;3.155632
2196.000000;2.991843
2195.000000;3.077015
2194.000000;3.279690
2193.000000;3.500873
2192.000000;3.457426
2191.000000;3.124366
2190.000000;2.996738
2189.000000;3.264369
2188.000000;3.377193
2187.000000;3.130994
2186.000000;3.210839
2185.000000;3.441506
2184.000000;3.298903
2183.000000;3.146524
2182.000000;3.176297
2181.000000;3.376226
2180.000000;4.510457
2179.000000;3.603360
2178.000000;3.657419
2177.000000;3.353718
2176.000000;2.973452
2175.000000;2.855862
2174.000000;2.894593
2173.000000;3.034762
2172.000000;3.174319
2171.000000;3.190349
2170.000000;3.083483
2169.000000;3.017939
2168.000000;3.094692
2167.000000;3.150782
2166.000000;2.990875
2165.000000;2.888993
2164.000000;2.908184
2163.000000;3.014813
2162.000000;3.201803
2161.000000;3.292544
2160.000000;3.210669
2159.000000;3.217494
2158.000000;3.503054
2157.000000;3.661793
2156.000000;3.219111
2155.000000;3.027947
2154.000000;2.936916
2153.000000;2.854325
2152.000000;2.807412
2151.000000;2.850685
2150.000000;3.002966
2149.000000;3.237898
2148.000000;3.280874
2147.000000;3.029957
2146.000000;2.882109
2145.000000;2.874787
2144.000000;2.989106
2143.000000;3.104507
2142.000000;3.215393
2141.000000;3.233822
2140.000000;3.075637
2139.000000;3.077904
2138.000000;3.303226
2137.000000;3.615026
2136.000000;3.464393
2135.000000;3.264336
2134.000000;3.061635
2133.000000;2.927894
2132.000000;2.937423
2131.000000;3.087844
2130.000000;3.324960
2129.000000;3.322163
2128.000000;3.232457
2127.000000;3.215270
2126.000000;3.196629
2125.000000;3.164720
2124.000000;3.184753
2123.000000;3.243080
2122.000000;3.274746
2121.000000;3.239286
2120.000000;3.133257
2119.000000;3.024588
2118.000000;2.941351
2117.000000;2.881144
2116.000000;2.854406
2115.000000;2.886273
2114.000000;2.938794
2113.000000;2.853872
2112.000000;2.767805
2111.000000;2.803900
2110.000000;3.132284
2109.000000;3.456743
2108.000000;2.981864
2107.000000;2.779367
2106.000000;2.711487
2105.000000;2.721810
2104.000000;2.798709
2103.000000;2.881444
2102.000000;2.875328
2101.000000;2.791608
2100.000000;2.731303
2099.000000;2.739186
2098.000000;2.814699
2097.000000;2.926170
2096.000000;3.003170
2095.000000;3.005325
2094.000000;2.983024
2093.000000;3.028525
2092.000000;3.227323
2091.000000;3.322160
2090.000000;3.238978
2089.000000;3.176158
2088.000000;2.946592
2087.000000;2.858450
2086.000000;2.926809
2085.000000;3.113605
2084.000000;3.220294
2083.000000;3.102564
2082.000000;2.967371
2081.000000;2.911753
2080.000000;2.970838
2079.000000;3.143492
2078.000000;3.428487
2077.000000;3.340373
2076.000000;3.198760
2075.000000;3.255200
2074.000000;3.558814
2073.000000;3.666078
2072.000000;3.197862
2071.000000;3.023300
2070.000000;3.013747
2069.000000;2.974789
2068.000000;2.848786
2067.000000;2.811022
2066.000000;2.835137
2065.000000;2.872633
2064.000000;2.964529
2063.000000;3.187863
2062.000000;3.505672
2061.000000;3.475267
2060.000000;3.145115
2059.000000;2.909476
2058.000000;2.829522
2057.000000;2.893303
2056.000000;3.120087
2055.000000;3.547079
2054.000000;4.001310
2053.000000;3.782969
2052.000000;3.363413
2051.000000;3.174140
2050.000000;3.155597
2049.000000;3.210527
2048.000000;3.062929
2047.000000;2.931841
2046.000000;2.968563
2045.000000;3.305227
2044.000000;3.322383
2043.000000;2.962523
2042.000000;2.913143
2041.000000;3.077550
2040.000000;3.596301
2039.000000;3.297364
2038.000000;3.048203
2037.000000;3.014278
2036.000000;2.955410
2035.000000;2.905410
2034.000000;3.023173
2033.000000;3.238065
2032.000000;3.088504
2031.000000;2.932704
2030.000000;2.928216
2029.000000;3.026548
2028.000000;3.229301
2027.000000;3.291066
2026.000000;3.199856
2025.000000;3.199115
2024.000000;3.414220
2023.000000;3.559185
2022.000000;3.222771
2021.000000;3.094893
2020.000000;3.150078
2019.000000;3.239297
2018.000000;3.102337
2017.000000;2.958776
2016.000000;2.874776
2015.000000;2.846108
2014.000000;2.890613
2013.000000;3.100130
2012.000000;3.455748
2011.000000;3.107391
2010.000000;2.963785
2009.000000;3.061223
2008.000000;3.409853
2007.000000;3.356591
2006.000000;3.170297
2005.000000;3.175465
2004.000000;3.314872
2003.000000;3.203858
2002.000000;2.834721
2001.000000;2.636074
2000.000000;2.555837
1999.000000;2.571619
1998.000000;2.672199
1997.000000;2.857094
1996.000000;3.142815
1995.000000;3.494318
1994.000000;3.303694
1993.000000;3.132310
1992.000000;3.060627
1991.000000;3.022390
1990.000000;3.002523
1989.000000;3.017886
1988.000000;3.095261
1987.000000;3.180496
1986.000000;3.203582
1985.000000;3.292407
1984.000000;3.501638
1983.000000;3.554744
1982.000000;3.362754
1981.000000;3.200062
1980.000000;3.054042
1979.000000;2.977279
1978.000000;3.019793
1977.000000;3.276740
1976.000000;3.303365
1975.000000;3.154530
1974.000000;3.294443
1973.000000;3.843321
1972.000000;3.630939
1971.000000;3.392354
1970.000000;3.569520
1969.000000;3.344019
1968.000000;2.986699
1967.000000;2.788346
1966.000000;2.708140
1965.000000;2.726301
1964.000000;2.794088
1963.000000;2.843706
1962.000000;2.902703
1961.000000;2.945001
1960.000000;2.805433
1959.000000;2.655377
1958.000000;2.623281
1957.000000;2.719547
1956.000000;3.163775
1955.000000;3.329710
1954.000000;2.774526
1953.000000;2.772862
1952.000000;2.925645
1951.000000;3.196553
1950.000000;3.266204
1949.000000;3.525783
1948.000000;3.550225
1947.000000;4.004734
1946.000000;3.525187
1945.000000;3.111611
1944.000000;3.100305
1943.000000;3.257920
1942.000000;3.655364
1941.000000;3.808785
1940.000000;3.305725
1939.000000;2.988690
1938.000000;2.825708
1937.000000;2.798016
1936.000000;2.887250
1935.000000;3.032494
1934.000000;3.088470
1933.000000;3.033212
1932.000000;2.986818
1931.000000;2.972676
1930.000000;2.958568
1929.000000;2.945741
1928.000000;2.974217
1927.000000;3.114667
1926.000000;3.275086
1925.000000;3.134852
1924.000000;3.007381
1923.000000;2.997893
1922.000000;3.007107
1921.000000;2.922789
1920.000000;2.871234
1919.000000;2.937572
1918.000000;2.986194
1917.000000;2.917103
1916.000000;2.895726
1915.000000;3.038047
1914.000000;3.173564
1913.000000;3.042088
1912.000000;2.995687
1911.000000;3.053093
1910.000000;3.050277
1909.000000;3.055350
1908.000000;3.339183
1907.000000;3.467160
1906.000000;2.962785
1905.000000;2.887537
1904.000000;2.945317
1903.000000;3.206883
1902.000000;3.579307
1901.000000;3.144091
1900.000000;2.920193
1899.000000;2.857927
1898.000000;2.907730
1897.000000;3.027554
1896.000000;3.154010
1895.000000;3.286385
1894.000000;3.196330
1893.000000;2.981560
1892.000000;2.895683
1891.000000;2.921354
1890.000000;3.018525
1889.000000;3.193446
1888.000000;3.239161
1887.000000;3.079952
1886.000000;3.031289
1885.000000;3.063668
1884.000000;3.069747
1883.000000;2.965619
1882.000000;2.854349
1881.000000;2.848367
1880.000000;2.951409
1879.000000;3.095913
1878.000000;3.150409
1877.000000;3.063174
1876.000000;2.965452
1875.000000;2.967554
1874.000000;3.020757
1873.000000;2.955941
1872.000000;2.858359
1871.000000;2.889593
1870.000000;3.062723
1869.000000;3.619878
1868.000000;3.669703
1867.000000;3.249261
1866.000000;3.190058
1865.000000;2.990930
1864.000000;2.767509
1863.000000;2.636514
1862.000000;2.603967
1861.000000;2.624698
1860.000000;2.657404
1859.000000;2.687995
1858.000000;2.741737
1857.000000;2.876307
1856.000000;3.193823
1855.000000;3.328278
1854.000000;3.113971
1853.000000;3.032484
1852.000000;2.925935
1851.000000;2.952853
1850.000000;3.183673
1849.000000;3.302572
1848.000000;3.200337
1847.000000;3.198633
1846.000000;3.121388
1845.000000;3.100279
1844.000000;3.169071
1843.000000;3.228461
1842.000000;3.259795
1841.000000;3.303372
1840.000000;3.144968
1839.000000;3.006775
1838.000000;2.970675
1837.000000;2.978781
1836.000000;3.052309
1835.000000;3.179417
1834.000000;3.218145
1833.000000;3.192643
1832.000000;3.284928
1831.000000;3.609801
1830.000000;3.414794
1829.000000;3.103579
1828.000000;3.006398
1827.000000;3.059491
1826.000000;3.165925
1825.000000;3.175489
1824.000000;3.120408
1823.000000;3.115582
1822.000000;3.108441
1821.000000;3.122182
1820.000000;3.185427
1819.000000;3.198510
1818.000000;3.171465
1817.000000;3.166796
1816.000000;3.273039
1815.000000;3.408507
1814.000000;3.297908
1813.000000;3.269293
1812.000000;3.318146
1811.000000;3.114834
1810.000000;2.939959
1809.000000;2.887405
1808.000000;2.911521
1807.000000;2.998960
1806.000000;3.358147
1805.000000;3.411180
1804.000000;3.031474
1803.000000;2.993215
1802.000000;3.129411
1801.000000;3.319474
1800.000000;3.245405
1799.000000;3.012662
1798.000000;2.847700
1797.000000;2.770290
1796.000000;2.749916
1795.000000;2.794506
1794.000000;2.939609
1793.000000;3.145390
1792.000000;3.296763
1791.000000;3.311663
1790.000000;3.128680
1789.000000;2.945750
1788.000000;2.910321
1787.000000;3.026333
1786.000000;3.253623
1785.000000;3.398421
1784.000000;3.284282
1783.000000;3.178775
1782.000000;3.254649
1781.000000;3.592621
1780.000000;3.473268
1779.000000;3.291488
1778.000000;3.394642
1777.000000;3.425568
1776.000000;3.081416
1775.000000;2.916960
1774.000000;2.975051
1773.000000;3.204007
1772.000000;3.184368
1771.000000;3.085293
1770.000000;3.060203
1769.000000;3.017029
1768.000000;2.983682
1767.000000;2.995726
1766.000000;3.197163
1765.000000;3.547807
1764.000000;3.353427
1763.000000;3.237209
1762.000000;3.229041
1761.000000;3.814306
1760.000000;3.456545
1759.000000;2.996372
1758.000000;3.003215
1757.000000;3.153922
1756.000000;3.796434
1755.000000;3.171632
1754.000000;2.870511
1753.000000;2.849922
1752.000000;2.894621
1751.000000;2.946884
1750.000000;2.970199
1749.000000;2.966330
1748.000000;2.968783
1747.000000;2.996782
1746.000000;3.047402
1745.000000;3.240904
1744.000000;3.443873
1743.000000;3.161337
1742.000000;3.059411
1741.000000;3.062267
1740.000000;3.056335
1739.000000;3.044305
1738.000000;3.002449
1737.000000;2.969013
1736.000000;3.070546
1735.000000;3.304893
1734.000000;3.601409
1733.000000;3.789627
1732.000000;3.672981
1731.000000;3.577929
1730.000000;3.467408
1729.000000;3.298097
1728.000000;3.109758
1727.000000;2.951430
1726.000000;2.890943
1725.000000;2.948628
1724.000000;3.097033
1723.000000;3.288526
1722.000000;3.530097
1721.000000;3.469079
1720.000000;3.360869
1719.000000;3.451945
1718.000000;3.388539
1717.000000;3.176974
1716.000000;3.099587
1715.000000;3.128685
1714.000000;3.179907
1713.000000;3.157808
1712.000000;3.133202
1711.000000;3.087386
1710.000000;2.968953
1709.000000;2.894238
1708.000000;2.898958
1707.000000;2.979137
1706.000000;3.117657
1705.000000;3.207763
1704.000000;3.167349
1703.000000;3.199409
1702.000000;3.412703
1701.000000;3.564453
1700.000000;3.364501
1699.000000;3.158357
1698.000000;3.140555
1697.000000;3.206466
1696.000000;3.216621
1695.000000;3.376165
1694.000000;3.783620
1693.000000;3.129755
1692.000000;2.916766
1691.000000;2.907495
1690.000000;3.007071
1689.000000;2.992321
1688.000000;2.781643
1687.000000;2.722220
1686.000000;2.881486
1685.000000;3.116021
1684.000000;3.177599
1683.000000;3.075765
1682.000000;2.948033
1681.000000;2.865884
1680.000000;2.818084
1679.000000;2.848787
1678.000000;2.913800
1677.000000;2.873695
1676.000000;2.863334
1675.000000;2.930991
1674.000000;3.040396
1673.000000;3.271398
1672.000000;4.028544
1671.000000;3.430757
1670.000000;3.168712
1669.000000;3.100733
1668.000000;3.068875
1667.000000;3.098955
1666.000000;3.093380
1665.000000;2.945792
1664.000000;2.803717
1663.000000;2.741289
1662.000000;2.746580
1661.000000;2.802877
1660.000000;2.884448
1659.000000;2.967609
1658.000000;3.034834
1657.000000;3.053218
1656.000000;2.999750
1655.000000;2.940617
1654.000000;2.923065
1653.000000;2.957954
1652.000000;3.044195
1651.000000;2.939844
1650.000000;2.878508
1649.000000;2.967810
1648.000000;3.224251
1647.000000;3.690558
1646.000000;3.090230
1645.000000;2.811249
1644.000000;2.746271
1643.000000;2.838392
1642.000000;3.279029
1641.000000;3.156920
1640.000000;2.785545
1639.000000;2.729711
1638.000000;3.012614
1637.000000;3.443600
1636.000000;3.141277
1635.000000;3.229729
1634.000000;2.921846
1633.000000;2.691663
1632.000000;2.668557
1631.000000;2.743331
1630.000000;2.816293
1629.000000;2.835152
1628.000000;2.888198
1627.000000;2.980238
1626.000000;2.973365
1625.000000;2.902321
1624.000000;2.914145
1623.000000;2.988949
1622.000000;3.105076
1621.000000;3.246946
1620.000000;3.055418
1619.000000;2.860966
1618.000000;2.830845
1617.000000;2.812650
1616.000000;2.764588
1615.000000;2.765631
1614.000000;2.849060
1613.000000;3.000313
1612.000000;3.185363
1611.000000;3.301721
1610.000000;3.173650
1609.000000;3.024579
1608.000000;2.916681
1607.000000;2.874434
1606.000000;2.974400
1605.000000;3.111830
1604.000000;3.160251
1603.000000;3.282461
1602.000000;3.289024
1601.000000;3.406339
1600.000000;3.455200
1599.000000;3.108072
1598.000000;2.990758
1597.000000;3.029349
1596.000000;3.156349
1595.000000;3.263653
1594.000000;3.135898
1593.000000;2.970052
1592.000000;2.880612
1591.000000;2.827871
1590.000000;2.792403
1589.000000;2.799858
1588.000000;2.900802
1587.000000;3.137028
1586.000000;3.152994
1585.000000;2.944591
1584.000000;2.857800
1583.000000;2.849002
1582.000000;2.896724
1581.000000;2.994718
1580.000000;3.238620
1579.000000;3.506178
1578.000000;3.488389
1577.000000;3.290576
1576.000000;2.891858
1575.000000;2.748436
1574.000000;2.776746
1573.000000;2.898745
1572.000000;3.006092
1571.000000;3.035882
1570.000000;3.092531
1569.000000;3.223959
1568.000000;3.586630
1567.000000;3.859042
1566.000000;3.573864
1565.000000;3.497597
1564.000000;3.545994
1563.000000;3.889693
1562.000000;3.746801
1561.000000;3.293891
1560.000000;3.151046
1559.000000;3.099009
1558.000000;3.073145
1557.000000;3.114256
1556.000000;3.325747
1555.000000;3.841359
1554.000000;3.689792
1553.000000;3.342618
1552.000000;3.278668
1551.000000;3.321906
1550.000000;3.557129
1549.000000;3.633165
1548.000000;3.211225
1547.000000;3.088412
1546.000000;3.102558
1545.000000;3.091847
1544.000000;3.050785
1543.000000;3.029045
1542.000000;3.118355
1541.000000;3.325509
1540.000000;3.178805
1539.000000;3.061045
1538.000000;3.160308
1537.000000;3.271506
1536.000000;3.219845
1535.000000;3.182608
1534.000000;3.221533
1533.000000;3.255960
1532.000000;3.282185
1531.000000;3.456531
1530.000000;3.899664
1529.000000;3.996767
1528.000000;3.932244
1527.000000;3.864476
1526.000000;3.498624
1525.000000;3.281558
1524.000000;3.105007
1523.000000;2.953468
1522.000000;2.969985
1521.000000;3.165169
1520.000000;3.525737
1519.000000;3.600255
1518.000000;3.618480
1517.000000;3.812528
1516.000000;3.780782
1515.000000;3.703662
1514.000000;3.499921
1513.000000;3.459718
1512.000000;3.690267
1511.000000;3.736671
1510.000000;3.529455
1509.000000;3.425224
1508.000000;3.339974
1507.000000;3.290654
1506.000000;3.355515
1505.000000;3.400344
1504.000000;3.313074
1503.000000;3.145446
1502.000000;3.064091
1501.000000;3.143451
1500.000000;3.497688
1499.000000;3.654232
1498.000000;3.194360
1497.000000;3.053531
1496.000000;3.058739
1495.000000;3.240977
1494.000000;3.537101
1493.000000;3.607177
1492.000000;3.590817
1491.000000;3.462234
1490.000000;3.250384
1489.000000;3.064155
1488.000000;2.985333
1487.000000;3.114453
1486.000000;3.110722
1485.000000;2.854192
1484.000000;2.788562
1483.000000;2.972504
1482.000000;3.489101
1481.000000;3.544971
1480.000000;3.241109
1479.000000;3.049153
1478.000000;2.962502
1477.000000;2.993316
1476.000000;3.081987
1475.000000;3.201619
1474.000000;3.272218
1473.000000;3.217858
1472.000000;3.055647
1471.000000;2.922183
1470.000000;2.906694
1469.000000;3.312921
1468.000000;3.583376
1467.000000;3.040301
1466.000000;2.942184
1465.000000;2.877195
1464.000000;2.799675
1463.000000;2.755165
1462.000000;2.804536
1461.000000;2.991843
1460.000000;3.265196
1459.000000;3.495534
1458.000000;3.625153
1457.000000;3.648045
1456.000000;3.446795
1455.000000;3.257352
1454.000000;3.253190
1453.000000;3.492774
1452.000000;4.076421
1451.000000;4.659431
1450.000000;3.818103
1449.000000;3.551163
1448.000000;3.575572
1447.000000;3.645120
1446.000000;3.434423
1445.000000;3.230581
1444.000000;3.181400
1443.000000;3.263647
1442.000000;3.421598
1441.000000;3.437496
1440.000000;3.312281
1439.000000;3.305692
1438.000000;3.580978
1437.000000;4.163238
1436.000000;3.741224
1435.000000;3.464112
1434.000000;3.308198
1433.000000;3.103952
1432.000000;3.027775
1431.000000;3.061942
1430.000000;3.168220
1429.000000;3.348766
1428.000000;3.423590
1427.000000;3.344055
1426.000000;3.333917
1425.000000;3.390761
1424.000000;3.384230
1423.000000;3.360306
1422.000000;3.432506
1421.000000;3.420332
1420.000000;3.345006
1419.000000;3.300768
1418.000000;3.234925
1417.000000;3.205740
1416.000000;3.262991
1415.000000;3.347660
1414.000000;3.540749
1413.000000;3.923024
1412.000000;3.644071
1411.000000;3.280699
1410.000000;3.057527
1409.000000;2.999837
1408.000000;3.140267
1407.000000;3.178576
1406.000000;3.015797
1405.000000;2.874441
1404.000000;2.755535
1403.000000;2.694699
1402.000000;2.736515
1401.000000;2.888574
1400.000000;3.117589
1399.000000;3.313331
1398.000000;3.299518
1397.000000;3.190711
1396.000000;3.126067
1395.000000;3.079633
1394.000000;3.036663
1393.000000;3.028790
1392.000000;3.210685
1391.000000;3.489804
1390.000000;3.349476
1389.000000;3.263009
1388.000000;3.223513
1387.000000;3.152557
1386.000000;3.081726
1385.000000;2.991844
1384.000000;2.955901
1383.000000;3.010089
1382.000000;3.017237
1381.000000;2.948502
1380.000000;2.910073
1379.000000;2.924844
1378.000000;2.940148
1377.000000;3.021569
1376.000000;3.154324
1375.000000;3.405183
1374.000000;4.391654
1373.000000;3.296441
1372.000000;2.911719
1371.000000;2.805288
1370.000000;2.863670
1369.000000;3.134224
1368.000000;3.513577
1367.000000;3.489520
1366.000000;3.351026
1365.000000;3.195174
1364.000000;3.133015
1363.000000;3.173933
1362.000000;3.200614
1361.000000;3.299346
1360.000000;3.416776
1359.000000;3.197698
1358.000000;3.085793
1357.000000;3.176894
1356.000000;3.158125
1355.000000;2.987957
1354.000000;2.898991
1353.000000;2.922158
1352.000000;3.142310
1351.000000;3.802169
1350.000000;4.240556
1349.000000;3.775767
1348.000000;3.386146
1347.000000;3.217733
1346.000000;3.370428
1345.000000;3.695170
1344.000000;3.240027
1343.000000;2.997699
1342.000000;3.011023
1341.000000;3.189644
1340.000000;3.451162
1339.000000;3.466532
1338.000000;3.407396
1337.000000;3.515036
1336.000000;3.730324
1335.000000;3.498307
1334.000000;3.226584
1333.000000;3.091951
1332.000000;3.003248
1331.000000;2.911883
1330.000000;2.813912
1329.000000;2.777678
1328.000000;2.841421
1327.000000;3.118451
1326.000000;3.530846
1325.000000;3.121343
1324.000000;2.890063
1323.000000;2.839606
1322.000000;2.860067
1321.000000;2.941508
1320.000000;3.023021
1319.000000;3.096211
1318.000000;3.207624
1317.000000;3.360778
1316.000000;3.514108
1315.000000;3.477750
1314.000000;3.698519
1313.000000;3.968007
1312.000000;3.216967
1311.000000;3.045125
1310.000000;3.105885
1309.000000;3.286531
1308.000000;3.329234
1307.000000;3.139968
1306.000000;3.022821
1305.000000;3.006856
1304.000000;3.020042
1303.000000;3.035247
1302.000000;3.069221
1301.000000;3.177472
1300.000000;3.785047
1299.000000;3.556411
1298.000000;3.137428
1297.000000;3.092655
1296.000000;3.175453
1295.000000;3.524860
1294.000000;3.567742
1293.000000;3.370122
1292.000000;3.507747
1291.000000;3.642916
1290.000000;3.419532
1289.000000;3.148303
1288.000000;3.039050
1287.000000;3.054792
1286.000000;2.989570
1285.000000;2.881500
1284.000000;2.877244
1283.000000;3.070730
1282.000000;3.380973
1281.000000;3.134772
1280.000000;3.036084
1279.000000;3.184487
1278.000000;2.967091
1277.000000;2.708916
1276.000000;2.654834
1275.000000;2.743968
1274.000000;3.020096
1273.000000;3.686088
1272.000000;4.282037
1271.000000;4.045867
1270.000000;3.968720
1269.000000;3.801446
1268.000000;3.431607
1267.000000;3.187390
1266.000000;3.120296
1265.000000;3.225900
1264.000000;3.529157
1263.000000;3.498860
1262.000000;3.313503
1261.000000;3.292380
1260.000000;3.341676
1259.000000;3.704142
1258.000000;3.655487
1257.000000;3.115565
1256.000000;2.952404
1255.000000;2.931418
1254.000000;3.019773
1253.000000;3.162506
1252.000000;3.206319
1251.000000;3.413269
1250.000000;3.559731
1249.000000;3.203468
1248.000000;3.074405
1247.000000;3.163045
1246.000000;3.368585
1245.000000;3.470597
1244.000000;3.272467
1243.000000;3.110668
1242.000000;3.047600
1241.000000;2.962355
1240.000000;2.866920
1239.000000;2.859317
1238.000000;2.976608
1237.000000;3.244808
1236.000000;3.374961
1235.000000;3.224654
1234.000000;3.162007
1233.000000;3.123267
1232.000000;3.117444
1231.000000;3.292375
1230.000000;3.593197
1229.000000;3.389390
1228.000000;3.169165
1227.000000;3.052198
1226.000000;2.939453
1225.000000;2.857521
1224.000000;2.886964
1223.000000;3.083936
1222.000000;3.243586
1221.000000;3.163428
1220.000000;3.000080
1219.000000;2.864774
1218.000000;2.858595
1217.000000;2.963462
1216.000000;3.181875
1215.000000;3.580423
1214.000000;3.605326
1213.000000;3.377943
1212.000000;3.246673
1211.000000;3.197471
1210.000000;3.258366
1209.000000;3.222105
1208.000000;3.084774
1207.000000;3.016473
1206.000000;3.055543
1205.000000;3.181667
1204.000000;3.640408
1203.000000;4.303226
1202.000000;3.497751
1201.000000;3.230392
1200.000000;3.076490
