Criado como novo conjunto de dados;"e0108.spp","-4248163.1 Secs"
cm-1;Abs
10000.000000;0.998643
9999.000000;0.997966
9998.000000;0.997770
9997.000000;0.997380
9996.000000;0.995935
9995.000000;0.993806
9994.000000;0.992096
9993.000000;0.991563
9992.000000;0.992077
9991.000000;0.993274
9990.000000;0.994968
9989.000000;0.996889
9988.000000;0.998394
9987.000000;0.998846
9986.000000;0.998225
9985.000000;0.997104
9984.000000;0.996062
9983.000000;0.995307
9982.000000;0.994821
9981.000000;0.994566
9980.000000;0.994454
9979.000000;0.994349
9978.000000;0.994273
9977.000000;0.994460
9976.000000;0.995038
9975.000000;0.995723
9974.000000;0.995960
9973.000000;0.995299
9972.000000;0.993587
9971.000000;0.990993
9970.000000;0.988080
9969.000000;0.985636
9968.000000;0.984142
9967.000000;0.983478
9966.000000;0.983367
9965.000000;0.983937
9964.000000;0.985494
9963.000000;0.987777
9962.000000;0.989861
9961.000000;0.990927
9960.000000;0.990835
9959.000000;0.989831
9958.000000;0.988151
9957.000000;0.986167
9956.000000;0.984555
9955.000000;0.983860
9954.000000;0.983959
9953.000000;0.984228
9952.000000;0.984190
9951.000000;0.983826
9950.000000;0.983362
9949.000000;0.982979
9948.000000;0.982715
9947.000000;0.982481
9946.000000;0.982156
9945.000000;0.981713
9944.000000;0.981177
9943.000000;0.980445
9942.000000;0.979282
9941.000000;0.977613
9940.000000;0.975694
9939.000000;0.973955
9938.000000;0.972838
9937.000000;0.972812
9936.000000;0.974201
9935.000000;0.976673
9934.000000;0.979038
9933.000000;0.979947
9932.000000;0.978907
9931.000000;0.976602
9930.000000;0.974283
9929.000000;0.972921
9928.000000;0.972750
9927.000000;0.973304
9926.000000;0.973837
9925.000000;0.973859
9924.000000;0.973345
9923.000000;0.972418
9922.000000;0.971061
9921.000000;0.969327
9920.000000;0.967682
9919.000000;0.966835
9918.000000;0.967187
9917.000000;0.968492
9916.000000;0.969976
9915.000000;0.970732
9914.000000;0.970318
9913.000000;0.969196
9912.000000;0.968380
9911.000000;0.968380
9910.000000;0.968622
9909.000000;0.968231
9908.000000;0.967203
9907.000000;0.966347
9906.000000;0.966195
9905.000000;0.966546
9904.000000;0.967105
9903.000000;0.967907
9902.000000;0.968821
9901.000000;0.969179
9900.000000;0.968364
9899.000000;0.966554
9898.000000;0.964572
9897.000000;0.963184
9896.000000;0.962718
9895.000000;0.963047
9894.000000;0.963593
9893.000000;0.963609
9892.000000;0.962834
9891.000000;0.961773
9890.000000;0.961106
9889.000000;0.961008
9888.000000;0.961263
9887.000000;0.961688
9886.000000;0.962079
9885.000000;0.962019
9884.000000;0.961317
9883.000000;0.960486
9882.000000;0.960152
9881.000000;0.960044
9880.000000;0.959273
9879.000000;0.957707
9878.000000;0.956351
9877.000000;0.956040
9876.000000;0.956398
9875.000000;0.956502
9874.000000;0.956082
9873.000000;0.955545
9872.000000;0.955173
9871.000000;0.954945
9870.000000;0.954976
9869.000000;0.955450
9868.000000;0.956069
9867.000000;0.956141
9866.000000;0.955433
9865.000000;0.954507
9864.000000;0.954022
9863.000000;0.954066
9862.000000;0.954347
9861.000000;0.954635
9860.000000;0.954741
9859.000000;0.954423
9858.000000;0.953710
9857.000000;0.953092
9856.000000;0.952922
9855.000000;0.952752
9854.000000;0.951745
9853.000000;0.949879
9852.000000;0.948297
9851.000000;0.948187
9850.000000;0.949573
9849.000000;0.951410
9848.000000;0.952669
9847.000000;0.952962
9846.000000;0.952214
9845.000000;0.950312
9844.000000;0.947530
9843.000000;0.944949
9842.000000;0.943832
9841.000000;0.944441
9840.000000;0.945758
9839.000000;0.946525
9838.000000;0.946339
9837.000000;0.945589
9836.000000;0.944730
9835.000000;0.944042
9834.000000;0.943846
9833.000000;0.944304
9832.000000;0.944886
9831.000000;0.944657
9830.000000;0.943424
9829.000000;0.942151
9828.000000;0.941781
9827.000000;0.942041
9826.000000;0.941968
9825.000000;0.941334
9824.000000;0.940834
9823.000000;0.940835
9822.000000;0.940695
9821.000000;0.939734
9820.000000;0.938381
9819.000000;0.937786
9818.000000;0.938441
9817.000000;0.939645
9816.000000;0.940279
9815.000000;0.939778
9814.000000;0.938403
9813.000000;0.936898
9812.000000;0.935959
9811.000000;0.935751
9810.000000;0.935783
9809.000000;0.935441
9808.000000;0.934720
9807.000000;0.934269
9806.000000;0.934632
9805.000000;0.935626
9804.000000;0.936511
9803.000000;0.936632
9802.000000;0.935893
9801.000000;0.934753
9800.000000;0.933830
9799.000000;0.933336
9798.000000;0.932852
9797.000000;0.931874
9796.000000;0.930610
9795.000000;0.929879
9794.000000;0.930023
9793.000000;0.930324
9792.000000;0.929867
9791.000000;0.928693
9790.000000;0.927634
9789.000000;0.927241
9788.000000;0.927361
9787.000000;0.927654
9786.000000;0.927926
9785.000000;0.927896
9784.000000;0.927299
9783.000000;0.926442
9782.000000;0.926135
9781.000000;0.926700
9780.000000;0.927426
9779.000000;0.927402
9778.000000;0.926618
9777.000000;0.925845
9776.000000;0.925691
9775.000000;0.926169
9774.000000;0.926926
9773.000000;0.927447
9772.000000;0.927231
9771.000000;0.926285
9770.000000;0.925342
9769.000000;0.925087
9768.000000;0.925241
9767.000000;0.924944
9766.000000;0.924016
9765.000000;0.923218
9764.000000;0.923094
9763.000000;0.923157
9762.000000;0.922607
9761.000000;0.921408
9760.000000;0.920222
9759.000000;0.919552
9758.000000;0.919351
9757.000000;0.919262
9756.000000;0.918868
9755.000000;0.917896
9754.000000;0.916599
9753.000000;0.915835
9752.000000;0.916308
9751.000000;0.917674
9750.000000;0.918745
9749.000000;0.918759
9748.000000;0.918163
9747.000000;0.917904
9746.000000;0.918167
9745.000000;0.918175
9744.000000;0.917227
9743.000000;0.915614
9742.000000;0.914338
9741.000000;0.914068
9740.000000;0.914588
9739.000000;0.915181
9738.000000;0.915340
9737.000000;0.915036
9736.000000;0.914525
9735.000000;0.914072
9734.000000;0.913776
9733.000000;0.913454
9732.000000;0.912800
9731.000000;0.911860
9730.000000;0.911225
9729.000000;0.911459
9728.000000;0.912323
9727.000000;0.912870
9726.000000;0.912434
9725.000000;0.911318
9724.000000;0.910374
9723.000000;0.910104
9722.000000;0.910303
9721.000000;0.910397
9720.000000;0.909993
9719.000000;0.909222
9718.000000;0.908630
9717.000000;0.908637
9716.000000;0.909011
9715.000000;0.909002
9714.000000;0.908100
9713.000000;0.906616
9712.000000;0.905459
9711.000000;0.905375
9710.000000;0.906377
9709.000000;0.907709
9708.000000;0.908362
9707.000000;0.907836
9706.000000;0.906509
9705.000000;0.905164
9704.000000;0.904184
9703.000000;0.903398
9702.000000;0.902644
9701.000000;0.902136
9700.000000;0.902177
9699.000000;0.902817
9698.000000;0.903894
9697.000000;0.905083
9696.000000;0.905833
9695.000000;0.905709
9694.000000;0.904965
9693.000000;0.904358
9692.000000;0.904104
9691.000000;0.903525
9690.000000;0.902130
9689.000000;0.900608
9688.000000;0.900133
9687.000000;0.900881
9686.000000;0.901832
9685.000000;0.901920
9684.000000;0.900883
9683.000000;0.899086
9682.000000;0.897160
9681.000000;0.895867
9680.000000;0.895693
9679.000000;0.896350
9678.000000;0.897114
9677.000000;0.897783
9676.000000;0.898724
9675.000000;0.899821
9674.000000;0.900093
9673.000000;0.898881
9672.000000;0.896981
9671.000000;0.895915
9670.000000;0.896216
9669.000000;0.896882
9668.000000;0.896524
9667.000000;0.894751
9666.000000;0.892375
9665.000000;0.890535
9664.000000;0.889805
9663.000000;0.890022
9662.000000;0.890737
9661.000000;0.891630
9660.000000;0.892423
9659.000000;0.892671
9658.000000;0.892056
9657.000000;0.890919
9656.000000;0.890053
9655.000000;0.889811
9654.000000;0.889741
9653.000000;0.889335
9652.000000;0.888831
9651.000000;0.888856
9650.000000;0.889503
9649.000000;0.890173
9648.000000;0.890334
9647.000000;0.890059
9646.000000;0.889755
9645.000000;0.889647
9644.000000;0.889634
9643.000000;0.889445
9642.000000;0.888822
9641.000000;0.887711
9640.000000;0.886391
9639.000000;0.885328
9638.000000;0.884796
9637.000000;0.884735
9636.000000;0.884967
9635.000000;0.885431
9634.000000;0.886054
9633.000000;0.886512
9632.000000;0.886325
9631.000000;0.885279
9630.000000;0.883682
9629.000000;0.882162
9628.000000;0.881237
9627.000000;0.881080
9626.000000;0.881566
9625.000000;0.882357
9624.000000;0.882908
9623.000000;0.882697
9622.000000;0.881708
9621.000000;0.880614
9620.000000;0.880234
9619.000000;0.880724
9618.000000;0.881448
9617.000000;0.881724
9616.000000;0.881501
9615.000000;0.881164
9614.000000;0.880891
9613.000000;0.880541
9612.000000;0.880089
9611.000000;0.879811
9610.000000;0.879871
9609.000000;0.879962
9608.000000;0.879592
9607.000000;0.878715
9606.000000;0.877887
9605.000000;0.877693
9604.000000;0.878094
9603.000000;0.878390
9602.000000;0.877829
9601.000000;0.876235
9600.000000;0.874116
9599.000000;0.872288
9598.000000;0.871426
9597.000000;0.871774
9596.000000;0.873026
9595.000000;0.874431
9594.000000;0.875218
9593.000000;0.875131
9592.000000;0.874549
9591.000000;0.874030
9590.000000;0.873751
9589.000000;0.873472
9588.000000;0.872963
9587.000000;0.872300
9586.000000;0.871713
9585.000000;0.871258
9584.000000;0.870760
9583.000000;0.870098
9582.000000;0.869476
9581.000000;0.869305
9580.000000;0.869757
9579.000000;0.870475
9578.000000;0.870834
9577.000000;0.870509
9576.000000;0.869735
9575.000000;0.868984
9574.000000;0.868496
9573.000000;0.868159
9572.000000;0.867750
9571.000000;0.867187
9570.000000;0.866575
9569.000000;0.866105
9568.000000;0.865861
9567.000000;0.865650
9566.000000;0.865076
9565.000000;0.863990
9564.000000;0.862865
9563.000000;0.862463
9562.000000;0.863000
9561.000000;0.863795
9560.000000;0.863982
9559.000000;0.863460
9558.000000;0.862902
9557.000000;0.862849
9556.000000;0.863130
9555.000000;0.863252
9554.000000;0.863061
9553.000000;0.862791
9552.000000;0.862633
9551.000000;0.862503
9550.000000;0.862213
9549.000000;0.861682
9548.000000;0.861043
9547.000000;0.860618
9546.000000;0.860654
9545.000000;0.860922
9544.000000;0.860782
9543.000000;0.859987
9542.000000;0.859253
9541.000000;0.859546
9540.000000;0.860804
9539.000000;0.861881
9538.000000;0.861936
9537.000000;0.861370
9536.000000;0.861024
9535.000000;0.860956
9534.000000;0.860562
9533.000000;0.859623
9532.000000;0.858594
9531.000000;0.857885
9530.000000;0.857415
9529.000000;0.857018
9528.000000;0.856815
9527.000000;0.856981
9526.000000;0.857406
9525.000000;0.857820
9524.000000;0.858033
9523.000000;0.857862
9522.000000;0.857101
9521.000000;0.855862
9520.000000;0.854780
9519.000000;0.854587
9518.000000;0.855414
9517.000000;0.856630
9516.000000;0.857381
9515.000000;0.857219
9514.000000;0.856289
9513.000000;0.855082
9512.000000;0.854047
9511.000000;0.853394
9510.000000;0.853166
9509.000000;0.853339
9508.000000;0.853741
9507.000000;0.853924
9506.000000;0.853420
9505.000000;0.852256
9504.000000;0.851062
9503.000000;0.850504
9502.000000;0.850666
9501.000000;0.851134
9500.000000;0.851565
9499.000000;0.851968
9498.000000;0.852386
9497.000000;0.852539
9496.000000;0.852010
9495.000000;0.850803
9494.000000;0.849547
9493.000000;0.848978
9492.000000;0.849238
9491.000000;0.849751
9490.000000;0.849825
9489.000000;0.849261
9488.000000;0.848304
9487.000000;0.847206
9486.000000;0.846097
9485.000000;0.845207
9484.000000;0.844889
9483.000000;0.845301
9482.000000;0.846141
9481.000000;0.846815
9480.000000;0.846831
9479.000000;0.846157
9478.000000;0.845301
9477.000000;0.844957
9476.000000;0.845332
9475.000000;0.845837
9474.000000;0.845712
9473.000000;0.844960
9472.000000;0.844283
9471.000000;0.844018
9470.000000;0.843605
9469.000000;0.842436
9468.000000;0.840917
9467.000000;0.840163
9466.000000;0.840679
9465.000000;0.841808
9464.000000;0.842543
9463.000000;0.842518
9462.000000;0.842052
9461.000000;0.841560
9460.000000;0.841210
9459.000000;0.841015
9458.000000;0.840941
9457.000000;0.840899
9456.000000;0.840788
9455.000000;0.840614
9454.000000;0.840466
9453.000000;0.840401
9452.000000;0.840415
9451.000000;0.840515
9450.000000;0.840652
9449.000000;0.840601
9448.000000;0.840088
9447.000000;0.839138
9446.000000;0.838188
9445.000000;0.837710
9444.000000;0.837779
9443.000000;0.838095
9442.000000;0.838332
9441.000000;0.838346
9440.000000;0.838141
9439.000000;0.837858
9438.000000;0.837787
9437.000000;0.838124
9436.000000;0.838610
9435.000000;0.838631
9434.000000;0.837828
9433.000000;0.836474
9432.000000;0.835156
9431.000000;0.834285
9430.000000;0.834019
9429.000000;0.834368
9428.000000;0.835033
9427.000000;0.835356
9426.000000;0.834874
9425.000000;0.833914
9424.000000;0.833287
9423.000000;0.833348
9422.000000;0.833665
9421.000000;0.833675
9420.000000;0.833334
9419.000000;0.833019
9418.000000;0.833049
9417.000000;0.833476
9416.000000;0.834075
9415.000000;0.834381
9414.000000;0.833950
9413.000000;0.832823
9412.000000;0.831561
9411.000000;0.830673
9410.000000;0.830170
9409.000000;0.829834
9408.000000;0.829655
9407.000000;0.829741
9406.000000;0.829990
9405.000000;0.830147
9404.000000;0.830086
9403.000000;0.829756
9402.000000;0.829020
9401.000000;0.827913
9400.000000;0.826965
9399.000000;0.826826
9398.000000;0.827503
9397.000000;0.828296
9396.000000;0.828625
9395.000000;0.828614
9394.000000;0.828715
9393.000000;0.829021
9392.000000;0.829195
9391.000000;0.828920
9390.000000;0.828208
9389.000000;0.827328
9388.000000;0.826541
9387.000000;0.825880
9386.000000;0.825136
9385.000000;0.824176
9384.000000;0.823215
9383.000000;0.822630
9382.000000;0.822471
9381.000000;0.822440
9380.000000;0.822397
9379.000000;0.822603
9378.000000;0.823245
9377.000000;0.824015
9376.000000;0.824420
9375.000000;0.824330
9374.000000;0.823927
9373.000000;0.823305
9372.000000;0.822515
9371.000000;0.821936
9370.000000;0.822107
9369.000000;0.823069
9368.000000;0.824190
9367.000000;0.824793
9366.000000;0.824698
9365.000000;0.824063
9364.000000;0.823056
9363.000000;0.821936
9362.000000;0.821190
9361.000000;0.821202
9360.000000;0.821858
9359.000000;0.822671
9358.000000;0.823225
9357.000000;0.823270
9356.000000;0.822618
9355.000000;0.821338
9354.000000;0.820042
9353.000000;0.819537
9352.000000;0.819991
9351.000000;0.820720
9350.000000;0.820961
9349.000000;0.820628
9348.000000;0.820116
9347.000000;0.819639
9346.000000;0.819135
9345.000000;0.818702
9344.000000;0.818659
9343.000000;0.819030
9342.000000;0.819282
9341.000000;0.818857
9340.000000;0.817857
9339.000000;0.816966
9338.000000;0.816737
9337.000000;0.817136
9336.000000;0.817748
9335.000000;0.818203
9334.000000;0.818331
9333.000000;0.818100
9332.000000;0.817606
9331.000000;0.817054
9330.000000;0.816570
9329.000000;0.816042
9328.000000;0.815302
9327.000000;0.814484
9326.000000;0.814004
9325.000000;0.814119
9324.000000;0.814597
9323.000000;0.814918
9322.000000;0.814730
9321.000000;0.814083
9320.000000;0.813334
9319.000000;0.812891
9318.000000;0.812908
9317.000000;0.813106
9316.000000;0.812979
9315.000000;0.812341
9314.000000;0.811579
9313.000000;0.811202
9312.000000;0.811237
9311.000000;0.811284
9310.000000;0.811096
9309.000000;0.810827
9308.000000;0.810687
9307.000000;0.810615
9306.000000;0.810424
9305.000000;0.810088
9304.000000;0.809763
9303.000000;0.809654
9302.000000;0.809919
9301.000000;0.810535
9300.000000;0.811156
9299.000000;0.811284
9298.000000;0.810750
9297.000000;0.809913
9296.000000;0.809289
9295.000000;0.809059
9294.000000;0.809011
9293.000000;0.808790
9292.000000;0.808133
9291.000000;0.807056
9290.000000;0.806001
9289.000000;0.805622
9288.000000;0.806173
9287.000000;0.807197
9286.000000;0.807990
9285.000000;0.808294
9284.000000;0.808300
9283.000000;0.808122
9282.000000;0.807611
9281.000000;0.806708
9280.000000;0.805690
9279.000000;0.804928
9278.000000;0.804576
9277.000000;0.804570
9276.000000;0.804746
9275.000000;0.804893
9274.000000;0.804847
9273.000000;0.804668
9272.000000;0.804608
9271.000000;0.804794
9270.000000;0.805049
9269.000000;0.805117
9268.000000;0.804983
9267.000000;0.804859
9266.000000;0.804869
9265.000000;0.804878
9264.000000;0.804647
9263.000000;0.804133
9262.000000;0.803629
9261.000000;0.803564
9260.000000;0.804117
9259.000000;0.804991
9258.000000;0.805607
9257.000000;0.805550
9256.000000;0.804823
9255.000000;0.803740
9254.000000;0.802693
9253.000000;0.802000
9252.000000;0.801821
9251.000000;0.802088
9250.000000;0.802485
9249.000000;0.802604
9248.000000;0.802207
9247.000000;0.801396
9246.000000;0.800519
9245.000000;0.799850
9244.000000;0.799379
9243.000000;0.799006
9242.000000;0.798881
9241.000000;0.799359
9240.000000;0.800480
9239.000000;0.801676
9238.000000;0.802222
9237.000000;0.801964
9236.000000;0.801401
9235.000000;0.801075
9234.000000;0.801122
9233.000000;0.801374
9232.000000;0.801636
9231.000000;0.801762
9230.000000;0.801679
9229.000000;0.801491
9228.000000;0.801383
9227.000000;0.801283
9226.000000;0.800781
9225.000000;0.799608
9224.000000;0.798134
9223.000000;0.797129
9222.000000;0.796971
9221.000000;0.797224
9220.000000;0.797075
9219.000000;0.796151
9218.000000;0.794906
9217.000000;0.794224
9216.000000;0.794649
9215.000000;0.795952
9214.000000;0.797371
9213.000000;0.798260
9212.000000;0.798487
9211.000000;0.798297
9210.000000;0.797930
9209.000000;0.797461
9208.000000;0.796903
9207.000000;0.796294
9206.000000;0.795622
9205.000000;0.794764
9204.000000;0.793624
9203.000000;0.792379
9202.000000;0.791491
9201.000000;0.791370
9200.000000;0.791961
9199.000000;0.792758
9198.000000;0.793266
9197.000000;0.793406
9196.000000;0.793416
9195.000000;0.793498
9194.000000;0.793696
9193.000000;0.794013
9192.000000;0.794427
9191.000000;0.794769
9190.000000;0.794782
9189.000000;0.794412
9188.000000;0.793914
9187.000000;0.793596
9186.000000;0.793511
9185.000000;0.793455
9184.000000;0.793196
9183.000000;0.792640
9182.000000;0.791847
9181.000000;0.790927
9180.000000;0.789938
9179.000000;0.788917
9178.000000;0.788054
9177.000000;0.787691
9176.000000;0.787982
9175.000000;0.788607
9174.000000;0.789093
9173.000000;0.789423
9172.000000;0.790035
9171.000000;0.791107
9170.000000;0.792136
9169.000000;0.792465
9168.000000;0.792029
9167.000000;0.791280
9166.000000;0.790508
9165.000000;0.789612
9164.000000;0.788576
9163.000000;0.787807
9162.000000;0.787799
9161.000000;0.788563
9160.000000;0.789519
9159.000000;0.789943
9158.000000;0.789500
9157.000000;0.788423
9156.000000;0.787249
9155.000000;0.786381
9154.000000;0.785917
9153.000000;0.785841
9152.000000;0.786198
9151.000000;0.786950
9150.000000;0.787772
9149.000000;0.788215
9148.000000;0.788129
9147.000000;0.787781
9146.000000;0.787471
9145.000000;0.787179
9144.000000;0.786679
9143.000000;0.785934
9142.000000;0.785237
9141.000000;0.784917
9140.000000;0.784984
9139.000000;0.785113
9138.000000;0.785003
9137.000000;0.784714
9136.000000;0.784571
9135.000000;0.784720
9134.000000;0.784899
9133.000000;0.784759
9132.000000;0.784348
9131.000000;0.784090
9130.000000;0.784259
9129.000000;0.784616
9128.000000;0.784657
9127.000000;0.784153
9126.000000;0.783381
9125.000000;0.782866
9124.000000;0.782973
9123.000000;0.783640
9122.000000;0.784445
9121.000000;0.784946
9120.000000;0.785010
9119.000000;0.784798
9118.000000;0.784470
9117.000000;0.784028
9116.000000;0.783496
9115.000000;0.783098
9114.000000;0.783068
9113.000000;0.783336
9112.000000;0.783585
9111.000000;0.783624
9110.000000;0.783541
9109.000000;0.783447
9108.000000;0.783209
9107.000000;0.782626
9106.000000;0.781796
9105.000000;0.781176
9104.000000;0.781210
9103.000000;0.781923
9102.000000;0.782868
9101.000000;0.783439
9100.000000;0.783266
9099.000000;0.782437
9098.000000;0.781370
9097.000000;0.780452
9096.000000;0.779785
9095.000000;0.779308
9094.000000;0.779086
9093.000000;0.779301
9092.000000;0.779885
9091.000000;0.780368
9090.000000;0.780305
9089.000000;0.779818
9088.000000;0.779486
9087.000000;0.779660
9086.000000;0.780111
9085.000000;0.780401
9084.000000;0.780379
9083.000000;0.780149
9082.000000;0.779775
9081.000000;0.779287
9080.000000;0.778881
9079.000000;0.778787
9078.000000;0.778942
9077.000000;0.779045
9076.000000;0.779031
9075.000000;0.779223
9074.000000;0.779890
9073.000000;0.780811
9072.000000;0.781420
9071.000000;0.781298
9070.000000;0.780446
9069.000000;0.779261
9068.000000;0.778351
9067.000000;0.778162
9066.000000;0.778571
9065.000000;0.778906
9064.000000;0.778580
9063.000000;0.777657
9062.000000;0.776682
9061.000000;0.776087
9060.000000;0.775972
9059.000000;0.776310
9058.000000;0.777011
9057.000000;0.777782
9056.000000;0.778213
9055.000000;0.778123
9054.000000;0.777665
9053.000000;0.777079
9052.000000;0.776576
9051.000000;0.776404
9050.000000;0.776680
9049.000000;0.777043
9048.000000;0.776856
9047.000000;0.775977
9046.000000;0.775050
9045.000000;0.774761
9044.000000;0.775043
9043.000000;0.775296
9042.000000;0.775224
9041.000000;0.775102
9040.000000;0.775304
9039.000000;0.775879
9038.000000;0.776608
9037.000000;0.777184
9036.000000;0.777331
9035.000000;0.776962
9034.000000;0.776305
9033.000000;0.775718
9032.000000;0.775352
9031.000000;0.775137
9030.000000;0.775045
9029.000000;0.775145
9028.000000;0.775395
9027.000000;0.775594
9026.000000;0.775610
9025.000000;0.775470
9024.000000;0.775219
9023.000000;0.774860
9022.000000;0.774458
9021.000000;0.774118
9020.000000;0.773813
9019.000000;0.773427
9018.000000;0.773016
9017.000000;0.772854
9016.000000;0.773108
9015.000000;0.773640
9014.000000;0.774214
9013.000000;0.774707
9012.000000;0.775020
9011.000000;0.774978
9010.000000;0.774524
9009.000000;0.773923
9008.000000;0.773612
9007.000000;0.773858
9006.000000;0.774614
9005.000000;0.775581
9004.000000;0.776319
9003.000000;0.776417
9002.000000;0.775718
9001.000000;0.774387
9000.000000;0.772760
8999.000000;0.771234
8998.000000;0.770243
8997.000000;0.770114
8996.000000;0.770762
8995.000000;0.771677
8994.000000;0.772326
8993.000000;0.772497
8992.000000;0.772221
8991.000000;0.771589
8990.000000;0.770820
8989.000000;0.770283
8988.000000;0.770176
8987.000000;0.770221
8986.000000;0.769911
8985.000000;0.769075
8984.000000;0.768087
8983.000000;0.767552
8982.000000;0.767860
8981.000000;0.768941
8980.000000;0.770266
8979.000000;0.771181
8978.000000;0.771393
8977.000000;0.771157
8976.000000;0.770939
8975.000000;0.770968
8974.000000;0.771206
8973.000000;0.771592
8972.000000;0.772096
8971.000000;0.772598
8970.000000;0.772911
8969.000000;0.772946
8968.000000;0.772709
8967.000000;0.772188
8966.000000;0.771398
8965.000000;0.770520
8964.000000;0.769842
8963.000000;0.769520
8962.000000;0.769492
8961.000000;0.769578
8960.000000;0.769547
8959.000000;0.769194
8958.000000;0.768562
8957.000000;0.768057
8956.000000;0.768102
8955.000000;0.768623
8954.000000;0.769066
8953.000000;0.768978
8952.000000;0.768448
8951.000000;0.767914
8950.000000;0.767684
8949.000000;0.767733
8948.000000;0.767863
8947.000000;0.767929
8946.000000;0.767896
8945.000000;0.767732
8944.000000;0.767333
8943.000000;0.766666
8942.000000;0.766012
8941.000000;0.765870
8940.000000;0.766437
8939.000000;0.767267
8938.000000;0.767669
8937.000000;0.767434
8936.000000;0.767009
8935.000000;0.766953
8934.000000;0.767414
8933.000000;0.768126
8932.000000;0.768684
8931.000000;0.768787
8930.000000;0.768415
8929.000000;0.767900
8928.000000;0.767688
8927.000000;0.767967
8926.000000;0.768566
8925.000000;0.769214
8924.000000;0.769713
8923.000000;0.769887
8922.000000;0.769595
8921.000000;0.768894
8920.000000;0.768039
8919.000000;0.767242
8918.000000;0.766592
8917.000000;0.766213
8916.000000;0.766285
8915.000000;0.766743
8914.000000;0.767179
8913.000000;0.767211
8912.000000;0.766850
8911.000000;0.766364
8910.000000;0.765931
8909.000000;0.765575
8908.000000;0.765321
8907.000000;0.765207
8906.000000;0.765205
8905.000000;0.765276
8904.000000;0.765438
8903.000000;0.765667
8902.000000;0.765818
8901.000000;0.765824
8900.000000;0.765878
8899.000000;0.766243
8898.000000;0.766865
8897.000000;0.767369
8896.000000;0.767451
8895.000000;0.767156
8894.000000;0.766768
8893.000000;0.766532
8892.000000;0.766496
8891.000000;0.766527
8890.000000;0.766454
8889.000000;0.766243
8888.000000;0.766033
8887.000000;0.765950
8886.000000;0.765960
8885.000000;0.765996
8884.000000;0.766132
8883.000000;0.766465
8882.000000;0.766872
8881.000000;0.767075
8880.000000;0.766988
8879.000000;0.766847
8878.000000;0.766929
8877.000000;0.767256
8876.000000;0.767613
8875.000000;0.767775
8874.000000;0.767636
8873.000000;0.767208
8872.000000;0.766586
8871.000000;0.765946
8870.000000;0.765482
8869.000000;0.765324
8868.000000;0.765463
8867.000000;0.765778
8866.000000;0.766150
8865.000000;0.766552
8864.000000;0.766963
8863.000000;0.767204
8862.000000;0.767017
8861.000000;0.766385
8860.000000;0.765676
8859.000000;0.765299
8858.000000;0.765301
8857.000000;0.765453
8856.000000;0.765662
8855.000000;0.766076
8854.000000;0.766766
8853.000000;0.767493
8852.000000;0.767880
8851.000000;0.767674
8850.000000;0.766868
8849.000000;0.765741
8848.000000;0.764815
8847.000000;0.764516
8846.000000;0.764757
8845.000000;0.765039
8844.000000;0.765095
8843.000000;0.765236
8842.000000;0.765883
8841.000000;0.766960
8840.000000;0.767994
8839.000000;0.768662
8838.000000;0.768942
8837.000000;0.768847
8836.000000;0.768414
8835.000000;0.767969
8834.000000;0.767996
8833.000000;0.768554
8832.000000;0.769076
8831.000000;0.768967
8830.000000;0.768250
8829.000000;0.767406
8828.000000;0.766762
8827.000000;0.766290
8826.000000;0.765932
8825.000000;0.765808
8824.000000;0.766011
8823.000000;0.766381
8822.000000;0.766641
8821.000000;0.766712
8820.000000;0.766794
8819.000000;0.767096
8818.000000;0.767540
8817.000000;0.767810
8816.000000;0.767758
8815.000000;0.767656
8814.000000;0.767866
8813.000000;0.768265
8812.000000;0.768278
8811.000000;0.767635
8810.000000;0.766869
8809.000000;0.766790
8808.000000;0.767607
8807.000000;0.768810
8806.000000;0.769823
8805.000000;0.770395
8804.000000;0.770372
8803.000000;0.769584
8802.000000;0.768248
8801.000000;0.767172
8800.000000;0.767135
8799.000000;0.768097
8798.000000;0.769286
8797.000000;0.770052
8796.000000;0.770407
8795.000000;0.770712
8794.000000;0.771127
8793.000000;0.771531
8792.000000;0.771771
8791.000000;0.771772
8790.000000;0.771444
8789.000000;0.770689
8788.000000;0.769611
8787.000000;0.768639
8786.000000;0.768299
8785.000000;0.768787
8784.000000;0.769760
8783.000000;0.770602
8782.000000;0.770918
8781.000000;0.770813
8780.000000;0.770702
8779.000000;0.770905
8778.000000;0.771388
8777.000000;0.771826
8776.000000;0.771907
8775.000000;0.771639
8774.000000;0.771376
8773.000000;0.771479
8772.000000;0.771922
8771.000000;0.772313
8770.000000;0.772333
8769.000000;0.772031
8768.000000;0.771654
8767.000000;0.771356
8766.000000;0.771217
8765.000000;0.771388
8764.000000;0.771970
8763.000000;0.772750
8762.000000;0.773335
8761.000000;0.773614
8760.000000;0.773902
8759.000000;0.774515
8758.000000;0.775353
8757.000000;0.776052
8756.000000;0.776412
8755.000000;0.776497
8754.000000;0.776379
8753.000000;0.776034
8752.000000;0.775584
8751.000000;0.775413
8750.000000;0.775852
8749.000000;0.776766
8748.000000;0.777594
8747.000000;0.777858
8746.000000;0.777572
8745.000000;0.777129
8744.000000;0.776852
8743.000000;0.776779
8742.000000;0.776833
8741.000000;0.777062
8740.000000;0.777562
8739.000000;0.778213
8738.000000;0.778645
8737.000000;0.778583
8736.000000;0.778207
8735.000000;0.778041
8734.000000;0.778430
8733.000000;0.779191
8732.000000;0.779843
8731.000000;0.780130
8730.000000;0.780225
8729.000000;0.780406
8728.000000;0.780678
8727.000000;0.780809
8726.000000;0.780665
8725.000000;0.780390
8724.000000;0.780286
8723.000000;0.780597
8722.000000;0.781353
8721.000000;0.782288
8720.000000;0.782920
8719.000000;0.782890
8718.000000;0.782328
8717.000000;0.781773
8716.000000;0.781655
8715.000000;0.781910
8714.000000;0.782152
8713.000000;0.782107
8712.000000;0.781813
8711.000000;0.781503
8710.000000;0.781412
8709.000000;0.781630
8708.000000;0.782019
8707.000000;0.782289
8706.000000;0.782263
8705.000000;0.782074
8704.000000;0.782045
8703.000000;0.782385
8702.000000;0.783068
8701.000000;0.783902
8700.000000;0.784604
8699.000000;0.784897
8698.000000;0.784703
8697.000000;0.784281
8696.000000;0.783997
8695.000000;0.783923
8694.000000;0.783813
8693.000000;0.783542
8692.000000;0.783382
8691.000000;0.783684
8690.000000;0.784402
8689.000000;0.785135
8688.000000;0.785633
8687.000000;0.786035
8686.000000;0.786531
8685.000000;0.786972
8684.000000;0.787044
8683.000000;0.786784
8682.000000;0.786681
8681.000000;0.787137
8680.000000;0.787958
8679.000000;0.788550
8678.000000;0.788577
8677.000000;0.788258
8676.000000;0.788021
8675.000000;0.788053
8674.000000;0.788262
8673.000000;0.788489
8672.000000;0.788600
8671.000000;0.788476
8670.000000;0.788141
8669.000000;0.787869
8668.000000;0.787974
8667.000000;0.788440
8666.000000;0.788872
8665.000000;0.788922
8664.000000;0.788690
8663.000000;0.788618
8662.000000;0.788992
8661.000000;0.789584
8660.000000;0.789861
8659.000000;0.789575
8658.000000;0.789097
8657.000000;0.789021
8656.000000;0.789442
8655.000000;0.789801
8654.000000;0.789567
8653.000000;0.788887
8652.000000;0.788352
8651.000000;0.788240
8650.000000;0.788324
8649.000000;0.788424
8648.000000;0.788773
8647.000000;0.789633
8646.000000;0.790780
8645.000000;0.791644
8644.000000;0.791931
8643.000000;0.791872
8642.000000;0.791853
8641.000000;0.791990
8640.000000;0.792117
8639.000000;0.792067
8638.000000;0.791827
8637.000000;0.791475
8636.000000;0.791087
8635.000000;0.790744
8634.000000;0.790591
8633.000000;0.790787
8632.000000;0.791342
8631.000000;0.792041
8630.000000;0.792603
8629.000000;0.792878
8628.000000;0.792863
8627.000000;0.792600
8626.000000;0.792182
8625.000000;0.791857
8624.000000;0.791907
8623.000000;0.792318
8622.000000;0.792676
8621.000000;0.792554
8620.000000;0.792000
8619.000000;0.791542
8618.000000;0.791657
8617.000000;0.792310
8616.000000;0.793022
8615.000000;0.793319
8614.000000;0.793109
8613.000000;0.792674
8612.000000;0.792368
8611.000000;0.792349
8610.000000;0.792536
8609.000000;0.792766
8608.000000;0.792920
8607.000000;0.792957
8606.000000;0.792896
8605.000000;0.792820
8604.000000;0.792838
8603.000000;0.793009
8602.000000;0.793302
8601.000000;0.793618
8600.000000;0.793834
8599.000000;0.793849
8598.000000;0.793641
8597.000000;0.793306
8596.000000;0.792982
8595.000000;0.792708
8594.000000;0.792408
8593.000000;0.792043
8592.000000;0.791762
8591.000000;0.791814
8590.000000;0.792284
8589.000000;0.792914
8588.000000;0.793246
8587.000000;0.792995
8586.000000;0.792351
8585.000000;0.791861
8584.000000;0.791941
8583.000000;0.792503
8582.000000;0.793115
8581.000000;0.793495
8580.000000;0.793744
8579.000000;0.794095
8578.000000;0.794549
8577.000000;0.794880
8576.000000;0.794937
8575.000000;0.794837
8574.000000;0.794829
8573.000000;0.795027
8572.000000;0.795280
8571.000000;0.795329
8570.000000;0.795068
8569.000000;0.794642
8568.000000;0.794281
8567.000000;0.794079
8566.000000;0.793967
8565.000000;0.793844
8564.000000;0.793660
8563.000000;0.793431
8562.000000;0.793276
8561.000000;0.793399
8560.000000;0.793902
8559.000000;0.794599
8558.000000;0.795155
8557.000000;0.795431
8556.000000;0.795542
8555.000000;0.795555
8554.000000;0.795336
8553.000000;0.794838
8552.000000;0.794360
8551.000000;0.794311
8550.000000;0.794735
8549.000000;0.795234
8548.000000;0.795339
8547.000000;0.794895
8546.000000;0.794171
8545.000000;0.793690
8544.000000;0.793881
8543.000000;0.794705
8542.000000;0.795612
8541.000000;0.795986
8540.000000;0.795650
8539.000000;0.794899
8538.000000;0.794148
8537.000000;0.793719
8536.000000;0.793832
8535.000000;0.794500
8534.000000;0.795349
8533.000000;0.795782
8532.000000;0.795511
8531.000000;0.794850
8530.000000;0.794357
8529.000000;0.794293
8528.000000;0.794497
8527.000000;0.794684
8526.000000;0.794725
8525.000000;0.794672
8524.000000;0.794628
8523.000000;0.794622
8522.000000;0.794595
8521.000000;0.794514
8520.000000;0.794508
8519.000000;0.794782
8518.000000;0.795335
8517.000000;0.795833
8516.000000;0.795899
8515.000000;0.795521
8514.000000;0.795088
8513.000000;0.795007
8512.000000;0.795311
8511.000000;0.795671
8510.000000;0.795742
8509.000000;0.795483
8508.000000;0.795161
8507.000000;0.795099
8506.000000;0.795437
8505.000000;0.796085
8504.000000;0.796805
8503.000000;0.797267
8502.000000;0.797148
8501.000000;0.796383
8500.000000;0.795332
8499.000000;0.794566
8498.000000;0.794388
8497.000000;0.794640
8496.000000;0.794993
8495.000000;0.795307
8494.000000;0.795627
8493.000000;0.795982
8492.000000;0.796325
8491.000000;0.796564
8490.000000;0.796545
8489.000000;0.796110
8488.000000;0.795343
8487.000000;0.794680
8486.000000;0.794534
8485.000000;0.794832
8484.000000;0.795122
8483.000000;0.795160
8482.000000;0.795136
8481.000000;0.795251
8480.000000;0.795330
8479.000000;0.795071
8478.000000;0.794527
8477.000000;0.794094
8476.000000;0.794060
8475.000000;0.794355
8474.000000;0.794722
8473.000000;0.794930
8472.000000;0.794820
8471.000000;0.794364
8470.000000;0.793825
8469.000000;0.793703
8468.000000;0.794303
8467.000000;0.795348
8466.000000;0.796149
8465.000000;0.796237
8464.000000;0.795789
8463.000000;0.795383
8462.000000;0.795364
8461.000000;0.795574
8460.000000;0.795650
8459.000000;0.795480
8458.000000;0.795252
8457.000000;0.795166
8456.000000;0.795239
8455.000000;0.795410
8454.000000;0.795665
8453.000000;0.796001
8452.000000;0.796349
8451.000000;0.796639
8450.000000;0.796850
8449.000000;0.796924
8448.000000;0.796735
8447.000000;0.796278
8446.000000;0.795810
8445.000000;0.795638
8444.000000;0.795762
8443.000000;0.795912
8442.000000;0.795922
8441.000000;0.795902
8440.000000;0.795973
8439.000000;0.796051
8438.000000;0.796019
8437.000000;0.795966
8436.000000;0.796069
8435.000000;0.796303
8434.000000;0.796476
8433.000000;0.796508
8432.000000;0.796504
8431.000000;0.796513
8430.000000;0.796406
8429.000000;0.796097
8428.000000;0.795750
8427.000000;0.795642
8426.000000;0.795861
8425.000000;0.796226
8424.000000;0.796497
8423.000000;0.796591
8422.000000;0.796591
8421.000000;0.796631
8420.000000;0.796800
8419.000000;0.797093
8418.000000;0.797390
8417.000000;0.797477
8416.000000;0.797175
8415.000000;0.796525
8414.000000;0.795854
8413.000000;0.795576
8412.000000;0.795878
8411.000000;0.796586
8410.000000;0.797370
8409.000000;0.798019
8408.000000;0.798472
8407.000000;0.798663
8406.000000;0.798518
8405.000000;0.798127
8404.000000;0.797773
8403.000000;0.797692
8402.000000;0.797833
8401.000000;0.797971
8400.000000;0.798002
8399.000000;0.798023
8398.000000;0.798127
8397.000000;0.798234
8396.000000;0.798194
8395.000000;0.798017
8394.000000;0.797898
8393.000000;0.798008
8392.000000;0.798277
8391.000000;0.798457
8390.000000;0.798415
8389.000000;0.798310
8388.000000;0.798424
8387.000000;0.798821
8386.000000;0.799247
8385.000000;0.799393
8384.000000;0.799208
8383.000000;0.798900
8382.000000;0.798693
8381.000000;0.798628
8380.000000;0.798574
8379.000000;0.798374
8378.000000;0.797993
8377.000000;0.797587
8376.000000;0.797417
8375.000000;0.797617
8374.000000;0.798064
8373.000000;0.798498
8372.000000;0.798739
8371.000000;0.798731
8370.000000;0.798447
8369.000000;0.797920
8368.000000;0.797378
8367.000000;0.797198
8366.000000;0.797590
8365.000000;0.798396
8364.000000;0.799264
8363.000000;0.799968
8362.000000;0.800463
8361.000000;0.800696
8360.000000;0.800547
8359.000000;0.800002
8358.000000;0.799286
8357.000000;0.798731
8356.000000;0.798516
8355.000000;0.798557
8354.000000;0.798617
8353.000000;0.798522
8352.000000;0.798311
8351.000000;0.798203
8350.000000;0.798402
8349.000000;0.798878
8348.000000;0.799374
8347.000000;0.799641
8346.000000;0.799683
8345.000000;0.799712
8344.000000;0.799893
8343.000000;0.800167
8342.000000;0.800341
8341.000000;0.800300
8340.000000;0.800066
8339.000000;0.799734
8338.000000;0.799443
8337.000000;0.799376
8336.000000;0.799619
8335.000000;0.799979
8334.000000;0.800074
8333.000000;0.799738
8332.000000;0.799254
8331.000000;0.799044
8330.000000;0.799183
8329.000000;0.799392
8328.000000;0.799480
8327.000000;0.799572
8326.000000;0.799845
8325.000000;0.800242
8324.000000;0.800559
8323.000000;0.800683
8322.000000;0.800626
8321.000000;0.800429
8320.000000;0.800181
8319.000000;0.800030
8318.000000;0.800022
8317.000000;0.799987
8316.000000;0.799762
8315.000000;0.799473
8314.000000;0.799405
8313.000000;0.799595
8312.000000;0.799774
8311.000000;0.799744
8310.000000;0.799612
8309.000000;0.799552
8308.000000;0.799513
8307.000000;0.799338
8306.000000;0.799068
8305.000000;0.798956
8304.000000;0.799175
8303.000000;0.799641
8302.000000;0.800119
8301.000000;0.800422
8300.000000;0.800496
8299.000000;0.800359
8298.000000;0.800046
8297.000000;0.799623
8296.000000;0.799267
8295.000000;0.799232
8294.000000;0.799599
8293.000000;0.800089
8292.000000;0.800265
8291.000000;0.800025
8290.000000;0.799769
8289.000000;0.799944
8288.000000;0.800507
8287.000000;0.800984
8286.000000;0.801019
8285.000000;0.800722
8284.000000;0.800459
8283.000000;0.800454
8282.000000;0.800670
8281.000000;0.800951
8280.000000;0.801157
8279.000000;0.801180
8278.000000;0.800951
8277.000000;0.800496
8276.000000;0.799981
8275.000000;0.799659
8274.000000;0.799709
8273.000000;0.800070
8272.000000;0.800488
8271.000000;0.800736
8270.000000;0.800770
8269.000000;0.800637
8268.000000;0.800327
8267.000000;0.799839
8266.000000;0.799346
8265.000000;0.799146
8264.000000;0.799352
8263.000000;0.799766
8262.000000;0.800094
8261.000000;0.800232
8260.000000;0.800262
8259.000000;0.800277
8258.000000;0.800332
8257.000000;0.800478
8256.000000;0.800706
8255.000000;0.800861
8254.000000;0.800771
8253.000000;0.800493
8252.000000;0.800326
8251.000000;0.800505
8250.000000;0.800926
8249.000000;0.801240
8248.000000;0.801179
8247.000000;0.800767
8246.000000;0.800272
8245.000000;0.799998
8244.000000;0.800090
8243.000000;0.800451
8242.000000;0.800847
8241.000000;0.801096
8240.000000;0.801194
8239.000000;0.801249
8238.000000;0.801370
8237.000000;0.801609
8236.000000;0.801955
8235.000000;0.802305
8234.000000;0.802496
8233.000000;0.802450
8232.000000;0.802277
8231.000000;0.802167
8230.000000;0.802192
8229.000000;0.802285
8228.000000;0.802383
8227.000000;0.802498
8226.000000;0.802617
8225.000000;0.802621
8224.000000;0.802403
8223.000000;0.802034
8222.000000;0.801774
8221.000000;0.801888
8220.000000;0.802423
8219.000000;0.803125
8218.000000;0.803593
8217.000000;0.803598
8216.000000;0.803281
8215.000000;0.802952
8214.000000;0.802742
8213.000000;0.802550
8212.000000;0.802351
8211.000000;0.802337
8210.000000;0.802631
8209.000000;0.802993
8208.000000;0.803034
8207.000000;0.802695
8206.000000;0.802337
8205.000000;0.802327
8204.000000;0.802685
8203.000000;0.803150
8202.000000;0.803470
8201.000000;0.803550
8200.000000;0.803427
8199.000000;0.803202
8198.000000;0.802972
8197.000000;0.802766
8196.000000;0.802575
8195.000000;0.802441
8194.000000;0.802461
8193.000000;0.802650
8192.000000;0.802864
8191.000000;0.802905
8190.000000;0.802680
8189.000000;0.802257
8188.000000;0.801834
8187.000000;0.801633
8186.000000;0.801781
8185.000000;0.802251
8184.000000;0.802919
8183.000000;0.803648
8182.000000;0.804236
8181.000000;0.804384
8180.000000;0.803924
8179.000000;0.803135
8178.000000;0.802626
8177.000000;0.802780
8176.000000;0.803373
8175.000000;0.803848
8174.000000;0.803878
8173.000000;0.803572
8172.000000;0.803247
8171.000000;0.803151
8170.000000;0.803358
8169.000000;0.803748
8168.000000;0.804064
8167.000000;0.804121
8166.000000;0.804005
8165.000000;0.803980
8164.000000;0.804163
8163.000000;0.804393
8162.000000;0.804443
8161.000000;0.804292
8160.000000;0.804131
8159.000000;0.804136
8158.000000;0.804272
8157.000000;0.804335
8156.000000;0.804188
8155.000000;0.803956
8154.000000;0.803926
8153.000000;0.804210
8152.000000;0.804595
8151.000000;0.804785
8150.000000;0.804743
8149.000000;0.804675
8148.000000;0.804732
8147.000000;0.804882
8146.000000;0.805072
8145.000000;0.805342
8144.000000;0.805689
8143.000000;0.805960
8142.000000;0.806016
8141.000000;0.805920
8140.000000;0.805855
8139.000000;0.805880
8138.000000;0.805885
8137.000000;0.805772
8136.000000;0.805597
8135.000000;0.805499
8134.000000;0.805574
8133.000000;0.805809
8132.000000;0.806062
8131.000000;0.806121
8130.000000;0.805860
8129.000000;0.805422
8128.000000;0.805172
8127.000000;0.805377
8126.000000;0.805926
8125.000000;0.806421
8124.000000;0.806522
8123.000000;0.806195
8122.000000;0.805637
8121.000000;0.805084
8120.000000;0.804730
8119.000000;0.804716
8118.000000;0.805071
8117.000000;0.805646
8116.000000;0.806216
8115.000000;0.806683
8114.000000;0.807134
8113.000000;0.807634
8112.000000;0.808042
8111.000000;0.808083
8110.000000;0.807614
8109.000000;0.806755
8108.000000;0.805791
8107.000000;0.804996
8106.000000;0.804567
8105.000000;0.804610
8104.000000;0.805099
8103.000000;0.805823
8102.000000;0.806445
8101.000000;0.806696
8100.000000;0.806536
8099.000000;0.806149
8098.000000;0.805805
8097.000000;0.805726
8096.000000;0.806014
8095.000000;0.806597
8094.000000;0.807224
8093.000000;0.807607
8092.000000;0.807678
8091.000000;0.807633
8090.000000;0.807676
8089.000000;0.807771
8088.000000;0.807743
8087.000000;0.807550
8086.000000;0.807322
8085.000000;0.807129
8084.000000;0.806906
8083.000000;0.806668
8082.000000;0.806621
8081.000000;0.806940
8080.000000;0.807526
8079.000000;0.808094
8078.000000;0.808449
8077.000000;0.808581
8076.000000;0.808555
8075.000000;0.808424
8074.000000;0.808233
8073.000000;0.808006
8072.000000;0.807732
8071.000000;0.807458
8070.000000;0.807342
8069.000000;0.807510
8068.000000;0.807843
8067.000000;0.808054
8066.000000;0.807996
8065.000000;0.807830
8064.000000;0.807828
8063.000000;0.808090
8062.000000;0.808481
8061.000000;0.808785
8060.000000;0.808863
8059.000000;0.808732
8058.000000;0.808544
8057.000000;0.808472
8056.000000;0.808574
8055.000000;0.808755
8054.000000;0.808859
8053.000000;0.808792
8052.000000;0.808564
8051.000000;0.808286
8050.000000;0.808116
8049.000000;0.808168
8048.000000;0.808423
8047.000000;0.808736
8046.000000;0.808962
8045.000000;0.809060
8044.000000;0.809101
8043.000000;0.809199
8042.000000;0.809416
8041.000000;0.809687
8040.000000;0.809862
8039.000000;0.809865
8038.000000;0.809800
8037.000000;0.809855
8036.000000;0.810091
8035.000000;0.810390
8034.000000;0.810622
8033.000000;0.810783
8032.000000;0.810925
8031.000000;0.811022
8030.000000;0.810965
8029.000000;0.810707
8028.000000;0.810346
8027.000000;0.810081
8026.000000;0.810059
8025.000000;0.810263
8024.000000;0.810520
8023.000000;0.810648
8022.000000;0.810616
8021.000000;0.810526
8020.000000;0.810461
8019.000000;0.810378
8018.000000;0.810213
8017.000000;0.810033
8016.000000;0.810017
8015.000000;0.810281
8014.000000;0.810757
8013.000000;0.811233
8012.000000;0.811500
8011.000000;0.811477
8010.000000;0.811247
8009.000000;0.810995
8008.000000;0.810903
8007.000000;0.811070
8006.000000;0.811473
8005.000000;0.811962
8004.000000;0.812287
8003.000000;0.812218
8002.000000;0.811739
8001.000000;0.811126
8000.000000;0.810744
7999.000000;0.810735
7998.000000;0.810945
7997.000000;0.811163
7996.000000;0.811356
7995.000000;0.811575
7994.000000;0.811729
7993.000000;0.811639
7992.000000;0.811333
7991.000000;0.811124
7990.000000;0.811260
7989.000000;0.811598
7988.000000;0.811790
7987.000000;0.811743
7986.000000;0.811730
7985.000000;0.812002
7984.000000;0.812461
7983.000000;0.812821
7982.000000;0.812976
7981.000000;0.813069
7980.000000;0.813225
7979.000000;0.813386
7978.000000;0.813426
7977.000000;0.813346
7976.000000;0.813242
7975.000000;0.813139
7974.000000;0.812950
7973.000000;0.812633
7972.000000;0.812334
7971.000000;0.812295
7970.000000;0.812612
7969.000000;0.813112
7968.000000;0.813513
7967.000000;0.813683
7966.000000;0.813703
7965.000000;0.813716
7964.000000;0.813760
7963.000000;0.813757
7962.000000;0.813643
7961.000000;0.813483
7960.000000;0.813455
7959.000000;0.813675
7958.000000;0.814023
7957.000000;0.814197
7956.000000;0.814034
7955.000000;0.813742
7954.000000;0.813714
7953.000000;0.814102
7952.000000;0.814656
7951.000000;0.814985
7950.000000;0.814912
7949.000000;0.814568
7948.000000;0.814223
7947.000000;0.814076
7946.000000;0.814146
7945.000000;0.814294
7944.000000;0.814376
7943.000000;0.814350
7942.000000;0.814238
7941.000000;0.814048
7940.000000;0.813841
7939.000000;0.813830
7938.000000;0.814226
7937.000000;0.814929
7936.000000;0.815516
7935.000000;0.815640
7934.000000;0.815352
7933.000000;0.814975
7932.000000;0.814767
7931.000000;0.814800
7930.000000;0.815019
7929.000000;0.815291
7928.000000;0.815434
7927.000000;0.815357
7926.000000;0.815168
7925.000000;0.815055
7924.000000;0.815091
7923.000000;0.815222
7922.000000;0.815389
7921.000000;0.815570
7920.000000;0.815744
7919.000000;0.815913
7918.000000;0.816120
7917.000000;0.816343
7916.000000;0.816437
7915.000000;0.816291
7914.000000;0.816020
7913.000000;0.815876
7912.000000;0.815982
7911.000000;0.816247
7910.000000;0.816522
7909.000000;0.816744
7908.000000;0.816918
7907.000000;0.817069
7906.000000;0.817212
7905.000000;0.817299
7904.000000;0.817222
7903.000000;0.816947
7902.000000;0.816622
7901.000000;0.816447
7900.000000;0.816456
7899.000000;0.816522
7898.000000;0.816575
7897.000000;0.816664
7896.000000;0.816823
7895.000000;0.816990
7894.000000;0.817111
7893.000000;0.817215
7892.000000;0.817324
7891.000000;0.817385
7890.000000;0.817335
7889.000000;0.817178
7888.000000;0.816995
7887.000000;0.816923
7886.000000;0.817136
7885.000000;0.817721
7884.000000;0.818537
7883.000000;0.819262
7882.000000;0.819615
7881.000000;0.819533
7880.000000;0.819154
7879.000000;0.818722
7878.000000;0.818500
7877.000000;0.818620
7876.000000;0.818979
7875.000000;0.819326
7874.000000;0.819504
7873.000000;0.819545
7872.000000;0.819532
7871.000000;0.819483
7870.000000;0.819418
7869.000000;0.819431
7868.000000;0.819596
7867.000000;0.819861
7866.000000;0.820098
7865.000000;0.820254
7864.000000;0.820395
7863.000000;0.820593
7862.000000;0.820798
7861.000000;0.820829
7860.000000;0.820543
7859.000000;0.820038
7858.000000;0.819650
7857.000000;0.819654
7856.000000;0.819987
7855.000000;0.820352
7854.000000;0.820565
7853.000000;0.820697
7852.000000;0.820871
7851.000000;0.821067
7850.000000;0.821176
7849.000000;0.821158
7848.000000;0.821054
7847.000000;0.820917
7846.000000;0.820779
7845.000000;0.820645
7844.000000;0.820499
7843.000000;0.820366
7842.000000;0.820368
7841.000000;0.820615
7840.000000;0.821031
7839.000000;0.821387
7838.000000;0.821557
7837.000000;0.821633
7836.000000;0.821737
7835.000000;0.821837
7834.000000;0.821831
7833.000000;0.821720
7832.000000;0.821595
7831.000000;0.821530
7830.000000;0.821578
7829.000000;0.821781
7828.000000;0.822066
7827.000000;0.822210
7826.000000;0.822047
7825.000000;0.821703
7824.000000;0.821496
7823.000000;0.821607
7822.000000;0.821956
7821.000000;0.822374
7820.000000;0.822777
7819.000000;0.823117
7818.000000;0.823309
7817.000000;0.823277
7816.000000;0.823070
7815.000000;0.822871
7814.000000;0.822892
7813.000000;0.823225
7812.000000;0.823754
7811.000000;0.824236
7810.000000;0.824498
7809.000000;0.824574
7808.000000;0.824616
7807.000000;0.824703
7806.000000;0.824783
7805.000000;0.824778
7804.000000;0.824679
7803.000000;0.824527
7802.000000;0.824396
7801.000000;0.824394
7800.000000;0.824603
7799.000000;0.824977
7798.000000;0.825340
7797.000000;0.825545
7796.000000;0.825605
7795.000000;0.825640
7794.000000;0.825721
7793.000000;0.825840
7792.000000;0.825968
7791.000000;0.826096
7790.000000;0.826190
7789.000000;0.826168
7788.000000;0.825988
7787.000000;0.825724
7786.000000;0.825524
7785.000000;0.825499
7784.000000;0.825656
7783.000000;0.825940
7782.000000;0.826279
7781.000000;0.826597
7780.000000;0.826829
7779.000000;0.826958
7778.000000;0.827030
7777.000000;0.827101
7776.000000;0.827180
7775.000000;0.827229
7774.000000;0.827221
7773.000000;0.827170
7772.000000;0.827142
7771.000000;0.827216
7770.000000;0.827420
7769.000000;0.827677
7768.000000;0.827852
7767.000000;0.827905
7766.000000;0.827944
7765.000000;0.828081
7764.000000;0.828274
7763.000000;0.828388
7762.000000;0.828396
7761.000000;0.828417
7760.000000;0.828549
7759.000000;0.828736
7758.000000;0.828849
7757.000000;0.828856
7756.000000;0.828847
7755.000000;0.828920
7754.000000;0.829082
7753.000000;0.829264
7752.000000;0.829426
7751.000000;0.829612
7750.000000;0.829875
7749.000000;0.830142
7748.000000;0.830242
7747.000000;0.830111
7746.000000;0.829932
7745.000000;0.829974
7744.000000;0.830304
7743.000000;0.830739
7742.000000;0.831057
7741.000000;0.831197
7740.000000;0.831225
7739.000000;0.831240
7738.000000;0.831342
7737.000000;0.831598
7736.000000;0.831959
7735.000000;0.832252
7734.000000;0.832312
7733.000000;0.832114
7732.000000;0.831788
7731.000000;0.831524
7730.000000;0.831482
7729.000000;0.831723
7728.000000;0.832162
7727.000000;0.832628
7726.000000;0.832987
7725.000000;0.833211
7724.000000;0.833330
7723.000000;0.833374
7722.000000;0.833377
7721.000000;0.833376
7720.000000;0.833373
7719.000000;0.833360
7718.000000;0.833372
7717.000000;0.833475
7716.000000;0.833668
7715.000000;0.833875
7714.000000;0.834046
7713.000000;0.834207
7712.000000;0.834370
7711.000000;0.834508
7710.000000;0.834647
7709.000000;0.834889
7708.000000;0.835250
7707.000000;0.835573
7706.000000;0.835708
7705.000000;0.835721
7704.000000;0.835819
7703.000000;0.836088
7702.000000;0.836410
7701.000000;0.836625
7700.000000;0.836697
7699.000000;0.836703
7698.000000;0.836747
7697.000000;0.836898
7696.000000;0.837142
7695.000000;0.837387
7694.000000;0.837542
7693.000000;0.837615
7692.000000;0.837707
7691.000000;0.837914
7690.000000;0.838247
7689.000000;0.838616
7688.000000;0.838855
7687.000000;0.838837
7686.000000;0.838614
7685.000000;0.838421
7684.000000;0.838448
7683.000000;0.838627
7682.000000;0.838725
7681.000000;0.838652
7680.000000;0.838582
7679.000000;0.838768
7678.000000;0.839281
7677.000000;0.839954
7676.000000;0.840507
7675.000000;0.840751
7674.000000;0.840725
7673.000000;0.840687
7672.000000;0.840880
7671.000000;0.841304
7670.000000;0.841740
7669.000000;0.841997
7668.000000;0.842062
7667.000000;0.842003
7666.000000;0.841856
7665.000000;0.841673
7664.000000;0.841583
7663.000000;0.841685
7662.000000;0.841909
7661.000000;0.842086
7660.000000;0.842168
7659.000000;0.842280
7658.000000;0.842549
7657.000000;0.842918
7656.000000;0.843211
7655.000000;0.843324
7654.000000;0.843327
7653.000000;0.843361
7652.000000;0.843498
7651.000000;0.843706
7650.000000;0.843949
7649.000000;0.844251
7648.000000;0.844629
7647.000000;0.844989
7646.000000;0.845165
7645.000000;0.845105
7644.000000;0.844964
7643.000000;0.844977
7642.000000;0.845250
7641.000000;0.845694
7640.000000;0.846137
7639.000000;0.846456
7638.000000;0.846624
7637.000000;0.846697
7636.000000;0.846770
7635.000000;0.846894
7634.000000;0.847022
7633.000000;0.847075
7632.000000;0.847094
7631.000000;0.847245
7630.000000;0.847637
7629.000000;0.848172
7628.000000;0.848630
7627.000000;0.848902
7626.000000;0.849089
7625.000000;0.849358
7624.000000;0.849762
7623.000000;0.850194
7622.000000;0.850504
7621.000000;0.850634
7620.000000;0.850665
7619.000000;0.850726
7618.000000;0.850848
7617.000000;0.850951
7616.000000;0.850984
7615.000000;0.851038
7614.000000;0.851235
7613.000000;0.851549
7612.000000;0.851855
7611.000000;0.852148
7610.000000;0.852578
7609.000000;0.853202
7608.000000;0.853830
7607.000000;0.854214
7606.000000;0.854325
7605.000000;0.854333
7604.000000;0.854393
7603.000000;0.854557
7602.000000;0.854855
7601.000000;0.855273
7600.000000;0.855659
7599.000000;0.855797
7598.000000;0.855684
7597.000000;0.855598
7596.000000;0.855825
7595.000000;0.856366
7594.000000;0.856978
7593.000000;0.857454
7592.000000;0.857757
7591.000000;0.857958
7590.000000;0.858134
7589.000000;0.858353
7588.000000;0.858658
7587.000000;0.859010
7586.000000;0.859290
7585.000000;0.859421
7584.000000;0.859465
7583.000000;0.859556
7582.000000;0.859744
7581.000000;0.859947
7580.000000;0.860089
7579.000000;0.860255
7578.000000;0.860627
7577.000000;0.861267
7576.000000;0.862016
7575.000000;0.862644
7574.000000;0.863054
7573.000000;0.863292
7572.000000;0.863413
7571.000000;0.863439
7570.000000;0.863426
7569.000000;0.863501
7568.000000;0.863762
7567.000000;0.864195
7566.000000;0.864680
7565.000000;0.865078
7564.000000;0.865321
7563.000000;0.865459
7562.000000;0.865646
7561.000000;0.866014
7560.000000;0.866561
7559.000000;0.867170
7558.000000;0.867731
7557.000000;0.868196
7556.000000;0.868534
7555.000000;0.868731
7554.000000;0.868823
7553.000000;0.868867
7552.000000;0.868868
7551.000000;0.868803
7550.000000;0.868765
7549.000000;0.868956
7548.000000;0.869482
7547.000000;0.870211
7546.000000;0.870895
7545.000000;0.871368
7544.000000;0.871585
7543.000000;0.871563
7542.000000;0.871401
7541.000000;0.871317
7540.000000;0.871505
7539.000000;0.871955
7538.000000;0.872488
7537.000000;0.872994
7536.000000;0.873527
7535.000000;0.874143
7534.000000;0.874752
7533.000000;0.875188
7532.000000;0.875398
7531.000000;0.875497
7530.000000;0.875648
7529.000000;0.875929
7528.000000;0.876290
7527.000000;0.876620
7526.000000;0.876863
7525.000000;0.877076
7524.000000;0.877353
7523.000000;0.877688
7522.000000;0.877965
7521.000000;0.878132
7520.000000;0.878326
7519.000000;0.878755
7518.000000;0.879464
7517.000000;0.880261
7516.000000;0.880884
7515.000000;0.881207
7514.000000;0.881289
7513.000000;0.881288
7512.000000;0.881367
7511.000000;0.881630
7510.000000;0.882076
7509.000000;0.882594
7508.000000;0.883039
7507.000000;0.883342
7506.000000;0.883555
7505.000000;0.883783
7504.000000;0.884093
7503.000000;0.884475
7502.000000;0.884863
7501.000000;0.885214
7500.000000;0.885552
7499.000000;0.885935
7498.000000;0.886387
7497.000000;0.886881
7496.000000;0.887391
7495.000000;0.887934
7494.000000;0.888510
7493.000000;0.889035
7492.000000;0.889405
7491.000000;0.889632
7490.000000;0.889843
7489.000000;0.890155
7488.000000;0.890564
7487.000000;0.890985
7486.000000;0.891342
7485.000000;0.891616
7484.000000;0.891866
7483.000000;0.892218
7482.000000;0.892772
7481.000000;0.893452
7480.000000;0.894032
7479.000000;0.894348
7478.000000;0.894457
7477.000000;0.894540
7476.000000;0.894713
7475.000000;0.894976
7474.000000;0.895278
7473.000000;0.895554
7472.000000;0.895741
7471.000000;0.895841
7470.000000;0.895970
7469.000000;0.896254
7468.000000;0.896706
7467.000000;0.897253
7466.000000;0.897855
7465.000000;0.898502
7464.000000;0.899100
7463.000000;0.899500
7462.000000;0.899670
7461.000000;0.899761
7460.000000;0.899964
7459.000000;0.900339
7458.000000;0.900813
7457.000000;0.901279
7456.000000;0.901679
7455.000000;0.902031
7454.000000;0.902400
7453.000000;0.902804
7452.000000;0.903161
7451.000000;0.903383
7450.000000;0.903537
7449.000000;0.903823
7448.000000;0.904348
7447.000000;0.904983
7446.000000;0.905495
7445.000000;0.905794
7444.000000;0.906004
7443.000000;0.906316
7442.000000;0.906784
7441.000000;0.907280
7440.000000;0.907624
7439.000000;0.907764
7438.000000;0.907818
7437.000000;0.907934
7436.000000;0.908156
7435.000000;0.908464
7434.000000;0.908875
7433.000000;0.909399
7432.000000;0.909945
7431.000000;0.910394
7430.000000;0.910766
7429.000000;0.911195
7428.000000;0.911713
7427.000000;0.912174
7426.000000;0.912454
7425.000000;0.912583
7424.000000;0.912638
7423.000000;0.912609
7422.000000;0.912508
7421.000000;0.912508
7420.000000;0.912822
7419.000000;0.913457
7418.000000;0.914193
7417.000000;0.914820
7416.000000;0.915306
7415.000000;0.915737
7414.000000;0.916183
7413.000000;0.916664
7412.000000;0.917167
7411.000000;0.917648
7410.000000;0.918031
7409.000000;0.918252
7408.000000;0.918337
7407.000000;0.918413
7406.000000;0.918628
7405.000000;0.919027
7404.000000;0.919494
7403.000000;0.919843
7402.000000;0.919980
7401.000000;0.919986
7400.000000;0.920035
7399.000000;0.920264
7398.000000;0.920678
7397.000000;0.921155
7396.000000;0.921549
7395.000000;0.921831
7394.000000;0.922126
7393.000000;0.922559
7392.000000;0.923080
7391.000000;0.923524
7390.000000;0.923838
7389.000000;0.924148
7388.000000;0.924575
7387.000000;0.925051
7386.000000;0.925388
7385.000000;0.925478
7384.000000;0.925351
7383.000000;0.925131
7382.000000;0.925001
7381.000000;0.925159
7380.000000;0.925683
7379.000000;0.926418
7378.000000;0.927064
7377.000000;0.927439
7376.000000;0.927635
7375.000000;0.927912
7374.000000;0.928418
7373.000000;0.929030
7372.000000;0.929475
7371.000000;0.929650
7370.000000;0.929763
7369.000000;0.930098
7368.000000;0.930653
7367.000000;0.931153
7366.000000;0.931419
7365.000000;0.931585
7364.000000;0.931847
7363.000000;0.932187
7362.000000;0.932469
7361.000000;0.932699
7360.000000;0.933001
7359.000000;0.933375
7358.000000;0.933677
7357.000000;0.933832
7356.000000;0.933929
7355.000000;0.934093
7354.000000;0.934386
7353.000000;0.934816
7352.000000;0.935306
7351.000000;0.935663
7350.000000;0.935741
7349.000000;0.935658
7348.000000;0.935722
7347.000000;0.936082
7346.000000;0.936591
7345.000000;0.937061
7344.000000;0.937468
7343.000000;0.937851
7342.000000;0.938189
7341.000000;0.938519
7340.000000;0.939015
7339.000000;0.939765
7338.000000;0.940564
7337.000000;0.941108
7336.000000;0.941350
7335.000000;0.941540
7334.000000;0.941925
7333.000000;0.942528
7332.000000;0.943160
7331.000000;0.943580
7330.000000;0.943661
7329.000000;0.943518
7328.000000;0.943484
7327.000000;0.943872
7326.000000;0.944699
7325.000000;0.945698
7324.000000;0.946589
7323.000000;0.947275
7322.000000;0.947836
7321.000000;0.948416
7320.000000;0.949118
7319.000000;0.949909
7318.000000;0.950608
7317.000000;0.951042
7316.000000;0.951215
7315.000000;0.951286
7314.000000;0.951383
7313.000000;0.951510
7312.000000;0.951659
7311.000000;0.951882
7310.000000;0.952202
7309.000000;0.952558
7308.000000;0.952931
7307.000000;0.953456
7306.000000;0.954294
7305.000000;0.955410
7304.000000;0.956578
7303.000000;0.957585
7302.000000;0.958341
7301.000000;0.958859
7300.000000;0.959243
7299.000000;0.959686
7298.000000;0.960319
7297.000000;0.961030
7296.000000;0.961562
7295.000000;0.961848
7294.000000;0.962164
7293.000000;0.962842
7292.000000;0.963891
7291.000000;0.965003
7290.000000;0.965905
7289.000000;0.966596
7288.000000;0.967269
7287.000000;0.968101
7286.000000;0.969138
7285.000000;0.970286
7284.000000;0.971376
7283.000000;0.972273
7282.000000;0.972969
7281.000000;0.973576
7280.000000;0.974214
7279.000000;0.974946
7278.000000;0.975773
7277.000000;0.976660
7276.000000;0.977562
7275.000000;0.978475
7274.000000;0.979451
7273.000000;0.980508
7272.000000;0.981524
7271.000000;0.982338
7270.000000;0.982945
7269.000000;0.983544
7268.000000;0.984354
7267.000000;0.985440
7266.000000;0.986716
7265.000000;0.988022
7264.000000;0.989182
7263.000000;0.990090
7262.000000;0.990828
7261.000000;0.991642
7260.000000;0.992723
7259.000000;0.994044
7258.000000;0.995454
7257.000000;0.996855
7256.000000;0.998227
7255.000000;0.999522
7254.000000;1.000669
7253.000000;1.001649
7252.000000;1.002522
7251.000000;1.003369
7250.000000;1.004285
7249.000000;1.005417
7248.000000;1.006883
7247.000000;1.008609
7246.000000;1.010325
7245.000000;1.011775
7244.000000;1.012924
7243.000000;1.013968
7242.000000;1.015182
7241.000000;1.016736
7240.000000;1.018571
7239.000000;1.020432
7238.000000;1.022086
7237.000000;1.023532
7236.000000;1.024967
7235.000000;1.026544
7234.000000;1.028218
7233.000000;1.029873
7232.000000;1.031527
7231.000000;1.033355
7230.000000;1.035518
7229.000000;1.038003
7228.000000;1.040588
7227.000000;1.042974
7226.000000;1.045004
7225.000000;1.046828
7224.000000;1.048761
7223.000000;1.050939
7222.000000;1.053173
7221.000000;1.055202
7220.000000;1.057028
7219.000000;1.058915
7218.000000;1.061091
7217.000000;1.063547
7216.000000;1.066119
7215.000000;1.068683
7214.000000;1.071225
7213.000000;1.073790
7212.000000;1.076430
7211.000000;1.079188
7210.000000;1.082051
7209.000000;1.084903
7208.000000;1.087568
7207.000000;1.089959
7206.000000;1.092189
7205.000000;1.094501
7204.000000;1.097061
7203.000000;1.099844
7202.000000;1.102763
7201.000000;1.105837
7200.000000;1.109167
7199.000000;1.112715
7198.000000;1.116210
7197.000000;1.119340
7196.000000;1.122058
7195.000000;1.124668
7194.000000;1.127550
7193.000000;1.130794
7192.000000;1.134125
7191.000000;1.137204
7190.000000;1.139988
7189.000000;1.142736
7188.000000;1.145703
7187.000000;1.148947
7186.000000;1.152408
7185.000000;1.156034
7184.000000;1.159733
7183.000000;1.163330
7182.000000;1.166727
7181.000000;1.170060
7180.000000;1.173599
7179.000000;1.177472
7178.000000;1.181600
7177.000000;1.185850
7176.000000;1.190133
7175.000000;1.194357
7174.000000;1.198401
7173.000000;1.202194
7172.000000;1.205762
7171.000000;1.209195
7170.000000;1.212618
7169.000000;1.216213
7168.000000;1.220157
7167.000000;1.224492
7166.000000;1.229096
7165.000000;1.233795
7164.000000;1.238441
7163.000000;1.242909
7162.000000;1.247107
7161.000000;1.251073
7160.000000;1.255012
7159.000000;1.259189
7158.000000;1.263709
7157.000000;1.268393
7156.000000;1.272858
7155.000000;1.276813
7154.000000;1.280376
7153.000000;1.284056
7152.000000;1.288322
7151.000000;1.293188
7150.000000;1.298245
7149.000000;1.303043
7148.000000;1.307359
7147.000000;1.311209
7146.000000;1.314815
7145.000000;1.318581
7144.000000;1.322885
7143.000000;1.327740
7142.000000;1.332772
7141.000000;1.337568
7140.000000;1.341999
7139.000000;1.346198
7138.000000;1.350400
7137.000000;1.354855
7136.000000;1.359711
7135.000000;1.364830
7134.000000;1.369811
7133.000000;1.374369
7132.000000;1.378649
7131.000000;1.383049
7130.000000;1.387735
7129.000000;1.392456
7128.000000;1.396822
7127.000000;1.400709
7126.000000;1.404377
7125.000000;1.408232
7124.000000;1.412485
7123.000000;1.417025
7122.000000;1.421609
7121.000000;1.426101
7120.000000;1.430472
7119.000000;1.434671
7118.000000;1.438674
7117.000000;1.442640
7116.000000;1.446854
7115.000000;1.451439
7114.000000;1.456227
7113.000000;1.460939
7112.000000;1.465362
7111.000000;1.469400
7110.000000;1.473084
7109.000000;1.476607
7108.000000;1.480206
7107.000000;1.483974
7106.000000;1.487867
7105.000000;1.491849
7104.000000;1.495865
7103.000000;1.499729
7102.000000;1.503298
7101.000000;1.506800
7100.000000;1.510689
7099.000000;1.515079
7098.000000;1.519547
7097.000000;1.523621
7096.000000;1.527266
7095.000000;1.530786
7094.000000;1.534447
7093.000000;1.538330
7092.000000;1.542347
7091.000000;1.546256
7090.000000;1.549882
7089.000000;1.553434
7088.000000;1.557335
7087.000000;1.561598
7086.000000;1.565682
7085.000000;1.569215
7084.000000;1.572542
7083.000000;1.576213
7082.000000;1.580164
7081.000000;1.583754
7080.000000;1.586462
7079.000000;1.588321
7078.000000;1.589851
7077.000000;1.591865
7076.000000;1.595057
7075.000000;1.599374
7074.000000;1.603914
7073.000000;1.607772
7072.000000;1.610882
7071.000000;1.613678
7070.000000;1.616216
7069.000000;1.618210
7068.000000;1.619861
7067.000000;1.621943
7066.000000;1.624894
7065.000000;1.628292
7064.000000;1.631433
7063.000000;1.634101
7062.000000;1.636575
7061.000000;1.639167
7060.000000;1.641942
7059.000000;1.644730
7058.000000;1.647291
7057.000000;1.649598
7056.000000;1.651949
7055.000000;1.654589
7054.000000;1.657247
7053.000000;1.659411
7052.000000;1.661117
7051.000000;1.663069
7050.000000;1.665802
7049.000000;1.669025
7048.000000;1.672034
7047.000000;1.674514
7046.000000;1.676693
7045.000000;1.678862
7044.000000;1.681080
7043.000000;1.683301
7042.000000;1.685524
7041.000000;1.687752
7040.000000;1.689875
7039.000000;1.691644
7038.000000;1.692814
7037.000000;1.693441
7036.000000;1.694040
7035.000000;1.695286
7034.000000;1.697444
7033.000000;1.700122
7032.000000;1.702628
7031.000000;1.704470
7030.000000;1.705544
7029.000000;1.706081
7028.000000;1.706566
7027.000000;1.707573
7026.000000;1.709415
7025.000000;1.711888
7024.000000;1.714350
7023.000000;1.716106
7022.000000;1.716836
7021.000000;1.716815
7020.000000;1.716757
7019.000000;1.717275
7018.000000;1.718455
7017.000000;1.720011
7016.000000;1.721851
7015.000000;1.724237
7014.000000;1.727282
7013.000000;1.730426
7012.000000;1.732714
7011.000000;1.733646
7010.000000;1.733588
7009.000000;1.733312
7008.000000;1.733345
7007.000000;1.733841
7006.000000;1.734851
7005.000000;1.736365
7004.000000;1.738080
7003.000000;1.739431
7002.000000;1.740167
7001.000000;1.740758
7000.000000;1.741902
6999.000000;1.743635
6998.000000;1.745230
6997.000000;1.746040
6996.000000;1.746143
6995.000000;1.745987
6994.000000;1.745801
6993.000000;1.745719
6992.000000;1.746145
6991.000000;1.747394
6990.000000;1.748970
6989.000000;1.749780
6988.000000;1.749356
6987.000000;1.748512
6986.000000;1.748488
6985.000000;1.749744
6984.000000;1.751829
6983.000000;1.754094
6982.000000;1.756082
6981.000000;1.757371
6980.000000;1.757682
6979.000000;1.757343
6978.000000;1.757231
6977.000000;1.757937
6976.000000;1.759149
6975.000000;1.760062
6974.000000;1.760292
6973.000000;1.760182
6972.000000;1.760293
6971.000000;1.760879
6970.000000;1.761867
6969.000000;1.763059
6968.000000;1.764202
6967.000000;1.765044
6966.000000;1.765494
6965.000000;1.765647
6964.000000;1.765584
6963.000000;1.765254
6962.000000;1.764607
6961.000000;1.763708
6960.000000;1.762680
6959.000000;1.761701
6958.000000;1.761173
6957.000000;1.761628
6956.000000;1.763199
6955.000000;1.765282
6954.000000;1.766949
6953.000000;1.767667
6952.000000;1.767497
6951.000000;1.766814
6950.000000;1.766099
6949.000000;1.765823
6948.000000;1.766100
6947.000000;1.766499
6946.000000;1.766605
6945.000000;1.766714
6944.000000;1.767440
6943.000000;1.768649
6942.000000;1.769411
6941.000000;1.769223
6940.000000;1.768722
6939.000000;1.768774
6938.000000;1.769320
6937.000000;1.769646
6936.000000;1.769491
6935.000000;1.769287
6934.000000;1.769354
6933.000000;1.769412
6932.000000;1.768986
6931.000000;1.767963
6930.000000;1.766667
6929.000000;1.765648
6928.000000;1.765383
6927.000000;1.765876
6926.000000;1.766497
6925.000000;1.766504
6924.000000;1.765901
6923.000000;1.765550
6922.000000;1.766284
6921.000000;1.767996
6920.000000;1.769661
6919.000000;1.770179
6918.000000;1.769208
6917.000000;1.767365
6916.000000;1.765738
6915.000000;1.765123
6914.000000;1.765574
6913.000000;1.766560
6912.000000;1.767452
6911.000000;1.767878
6910.000000;1.767760
6909.000000;1.767221
6908.000000;1.766471
6907.000000;1.765703
6906.000000;1.765065
6905.000000;1.764699
6904.000000;1.764670
6903.000000;1.764758
6902.000000;1.764548
6901.000000;1.763960
6900.000000;1.763566
6899.000000;1.764070
6898.000000;1.765503
6897.000000;1.767184
6896.000000;1.768435
6895.000000;1.769004
6894.000000;1.768759
6893.000000;1.767505
6892.000000;1.765455
6891.000000;1.763512
6890.000000;1.762588
6889.000000;1.762688
6888.000000;1.763012
6887.000000;1.762964
6886.000000;1.762773
6885.000000;1.763044
6884.000000;1.763983
6883.000000;1.765203
6882.000000;1.766107
6881.000000;1.766263
6880.000000;1.765598
6879.000000;1.764504
6878.000000;1.763732
6877.000000;1.763903
6876.000000;1.764945
6875.000000;1.766125
6874.000000;1.766709
6873.000000;1.766516
6872.000000;1.765790
6871.000000;1.764782
6870.000000;1.763697
6869.000000;1.762889
6868.000000;1.762743
6867.000000;1.763263
6866.000000;1.763979
6865.000000;1.764410
6864.000000;1.764472
6863.000000;1.764328
6862.000000;1.764018
6861.000000;1.763440
6860.000000;1.762626
6859.000000;1.761777
6858.000000;1.761016
6857.000000;1.760284
6856.000000;1.759561
6855.000000;1.759066
6854.000000;1.758997
6853.000000;1.759092
6852.000000;1.758733
6851.000000;1.757606
6850.000000;1.756098
6849.000000;1.754858
6848.000000;1.754090
6847.000000;1.753520
6846.000000;1.753044
6845.000000;1.753031
6844.000000;1.753717
6843.000000;1.754560
6842.000000;1.754656
6841.000000;1.753801
6840.000000;1.752727
6839.000000;1.752148
6838.000000;1.751940
6837.000000;1.751470
6836.000000;1.750473
6835.000000;1.749290
6834.000000;1.748363
6833.000000;1.747752
6832.000000;1.747161
6831.000000;1.746289
6830.000000;1.745142
6829.000000;1.744060
6828.000000;1.743375
6827.000000;1.743026
6826.000000;1.742651
6825.000000;1.742059
6824.000000;1.741376
6823.000000;1.740636
6822.000000;1.739559
6821.000000;1.738013
6820.000000;1.736411
6819.000000;1.735241
6818.000000;1.734347
6817.000000;1.733068
6816.000000;1.731113
6815.000000;1.728954
6814.000000;1.727253
6813.000000;1.726213
6812.000000;1.725556
6811.000000;1.724829
6810.000000;1.723603
6809.000000;1.721715
6808.000000;1.719589
6807.000000;1.718111
6806.000000;1.717883
6805.000000;1.718586
6804.000000;1.719154
6803.000000;1.718557
6802.000000;1.716431
6801.000000;1.713192
6800.000000;1.709813
6799.000000;1.707337
6798.000000;1.706230
6797.000000;1.705994
6796.000000;1.705543
6795.000000;1.704115
6794.000000;1.701885
6793.000000;1.699695
6792.000000;1.698238
6791.000000;1.697457
6790.000000;1.696654
6789.000000;1.695184
6788.000000;1.693054
6787.000000;1.690826
6786.000000;1.688950
6785.000000;1.687317
6784.000000;1.685526
6783.000000;1.683469
6782.000000;1.681505
6781.000000;1.680050
6780.000000;1.679129
6779.000000;1.678394
6778.000000;1.677472
6777.000000;1.676216
6776.000000;1.674678
6775.000000;1.672980
6774.000000;1.671273
6773.000000;1.669719
6772.000000;1.668362
6771.000000;1.666979
6770.000000;1.665163
6769.000000;1.662714
6768.000000;1.659958
6767.000000;1.657563
6766.000000;1.655960
6765.000000;1.654992
6764.000000;1.654165
6763.000000;1.653194
6762.000000;1.652203
6761.000000;1.651400
6760.000000;1.650670
6759.000000;1.649571
6758.000000;1.647719
6757.000000;1.645144
6756.000000;1.642269
6755.000000;1.639568
6754.000000;1.637278
6753.000000;1.635384
6752.000000;1.633790
6751.000000;1.632389
6750.000000;1.631021
6749.000000;1.629488
6748.000000;1.627700
6747.000000;1.625733
6746.000000;1.623719
6745.000000;1.621739
6744.000000;1.619853
6743.000000;1.618147
6742.000000;1.616603
6741.000000;1.614993
6740.000000;1.613050
6739.000000;1.610829
6738.000000;1.608770
6737.000000;1.607305
6736.000000;1.606378
6735.000000;1.605423
6734.000000;1.603842
6733.000000;1.601554
6732.000000;1.599080
6731.000000;1.597083
6730.000000;1.595784
6729.000000;1.594783
6728.000000;1.593446
6727.000000;1.591458
6726.000000;1.588997
6725.000000;1.586463
6724.000000;1.584159
6723.000000;1.582201
6722.000000;1.580596
6721.000000;1.579250
6720.000000;1.577939
6719.000000;1.576372
6718.000000;1.574408
6717.000000;1.572236
6716.000000;1.570269
6715.000000;1.568781
6714.000000;1.567608
6713.000000;1.566254
6712.000000;1.564353
6711.000000;1.562020
6710.000000;1.559725
6709.000000;1.557888
6708.000000;1.556618
6707.000000;1.555713
6706.000000;1.554833
6705.000000;1.553679
6704.000000;1.552202
6703.000000;1.550648
6702.000000;1.549275
6701.000000;1.547962
6700.000000;1.546249
6699.000000;1.543874
6698.000000;1.541194
6697.000000;1.538946
6696.000000;1.537563
6695.000000;1.536747
6694.000000;1.535690
6693.000000;1.533748
6692.000000;1.530999
6691.000000;1.528178
6690.000000;1.526026
6689.000000;1.524665
6688.000000;1.523595
6687.000000;1.522252
6686.000000;1.520464
6685.000000;1.518367
6684.000000;1.516119
6683.000000;1.513821
6682.000000;1.511617
6681.000000;1.509679
6680.000000;1.508108
6679.000000;1.506886
6678.000000;1.505844
6677.000000;1.504657
6676.000000;1.503018
6675.000000;1.500999
6674.000000;1.499127
6673.000000;1.497865
6672.000000;1.497058
6671.000000;1.496071
6670.000000;1.494486
6669.000000;1.492477
6668.000000;1.490493
6667.000000;1.488771
6666.000000;1.487247
6665.000000;1.485756
6664.000000;1.484165
6663.000000;1.482437
6662.000000;1.480706
6661.000000;1.479230
6660.000000;1.478114
6659.000000;1.477112
6658.000000;1.475793
6657.000000;1.473961
6656.000000;1.471851
6655.000000;1.469918
6654.000000;1.468418
6653.000000;1.467192
6652.000000;1.465848
6651.000000;1.464194
6650.000000;1.462452
6649.000000;1.460995
6648.000000;1.459888
6647.000000;1.458806
6646.000000;1.457394
6645.000000;1.455591
6644.000000;1.453573
6643.000000;1.451539
6642.000000;1.449624
6641.000000;1.447923
6640.000000;1.446424
6639.000000;1.444993
6638.000000;1.443549
6637.000000;1.442212
6636.000000;1.441147
6635.000000;1.440267
6634.000000;1.439239
6633.000000;1.437829
6632.000000;1.436132
6631.000000;1.434421
6630.000000;1.432865
6629.000000;1.431471
6628.000000;1.430189
6627.000000;1.428964
6626.000000;1.427671
6625.000000;1.426142
6624.000000;1.424338
6623.000000;1.422452
6622.000000;1.420790
6621.000000;1.419524
6620.000000;1.418565
6619.000000;1.417663
6618.000000;1.416608
6617.000000;1.415347
6616.000000;1.413969
6615.000000;1.412594
6614.000000;1.411252
6613.000000;1.409831
6612.000000;1.408189
6611.000000;1.406373
6610.000000;1.404670
6609.000000;1.403371
6608.000000;1.402444
6607.000000;1.401523
6606.000000;1.400264
6605.000000;1.398683
6604.000000;1.397104
6603.000000;1.395794
6602.000000;1.394716
6601.000000;1.393657
6600.000000;1.392540
6599.000000;1.391518
6598.000000;1.390716
6597.000000;1.389981
6596.000000;1.389005
6595.000000;1.387691
6594.000000;1.386249
6593.000000;1.384860
6592.000000;1.383422
6591.000000;1.381747
6590.000000;1.379914
6589.000000;1.378231
6588.000000;1.376885
6587.000000;1.375813
6586.000000;1.374898
6585.000000;1.374086
6584.000000;1.373262
6583.000000;1.372225
6582.000000;1.370897
6581.000000;1.369432
6580.000000;1.367978
6579.000000;1.366487
6578.000000;1.364895
6577.000000;1.363374
6576.000000;1.362207
6575.000000;1.361418
6574.000000;1.360681
6573.000000;1.359650
6572.000000;1.358265
6571.000000;1.356733
6570.000000;1.355300
6569.000000;1.354083
6568.000000;1.353050
6567.000000;1.352115
6566.000000;1.351254
6565.000000;1.350508
6564.000000;1.349864
6563.000000;1.349170
6562.000000;1.348239
6561.000000;1.347050
6560.000000;1.345778
6559.000000;1.344603
6558.000000;1.343555
6557.000000;1.342550
6556.000000;1.341521
6555.000000;1.340471
6554.000000;1.339418
6553.000000;1.338323
6552.000000;1.337097
6551.000000;1.335696
6550.000000;1.334219
6549.000000;1.332864
6548.000000;1.331782
6547.000000;1.330949
6546.000000;1.330213
6545.000000;1.329438
6544.000000;1.328591
6543.000000;1.327719
6542.000000;1.326890
6541.000000;1.326119
6540.000000;1.325331
6539.000000;1.324386
6538.000000;1.323179
6537.000000;1.321740
6536.000000;1.320226
6535.000000;1.318837
6534.000000;1.317704
6533.000000;1.316812
6532.000000;1.315999
6531.000000;1.315077
6530.000000;1.314012
6529.000000;1.312951
6528.000000;1.312061
6527.000000;1.311336
6526.000000;1.310607
6525.000000;1.309718
6524.000000;1.308678
6523.000000;1.307618
6522.000000;1.306619
6521.000000;1.305597
6520.000000;1.304389
6519.000000;1.302985
6518.000000;1.301639
6517.000000;1.300652
6516.000000;1.300045
6515.000000;1.299518
6514.000000;1.298768
6513.000000;1.297778
6512.000000;1.296734
6511.000000;1.295772
6510.000000;1.294905
6509.000000;1.294121
6508.000000;1.293399
6507.000000;1.292642
6506.000000;1.291724
6505.000000;1.290661
6504.000000;1.289631
6503.000000;1.288785
6502.000000;1.288085
6501.000000;1.287385
6500.000000;1.286599
6499.000000;1.285750
6498.000000;1.284889
6497.000000;1.284053
6496.000000;1.283267
6495.000000;1.282515
6494.000000;1.281699
6493.000000;1.280684
6492.000000;1.279438
6491.000000;1.278115
6490.000000;1.276961
6489.000000;1.276115
6488.000000;1.275509
6487.000000;1.274951
6486.000000;1.274310
6485.000000;1.273605
6484.000000;1.272926
6483.000000;1.272313
6482.000000;1.271721
6481.000000;1.271063
6480.000000;1.270278
6479.000000;1.269353
6478.000000;1.268316
6477.000000;1.267225
6476.000000;1.266150
6475.000000;1.265164
6474.000000;1.264345
6473.000000;1.263728
6472.000000;1.263253
6471.000000;1.262775
6470.000000;1.262155
6469.000000;1.261362
6468.000000;1.260490
6467.000000;1.259681
6466.000000;1.259017
6465.000000;1.258445
6464.000000;1.257825
6463.000000;1.257060
6462.000000;1.256186
6461.000000;1.255317
6460.000000;1.254509
6459.000000;1.253741
6458.000000;1.253004
6457.000000;1.252334
6456.000000;1.251708
6455.000000;1.250998
6454.000000;1.250096
6453.000000;1.249076
6452.000000;1.248175
6451.000000;1.247605
6450.000000;1.247367
6449.000000;1.247212
6448.000000;1.246786
6447.000000;1.245893
6446.000000;1.244687
6445.000000;1.243558
6444.000000;1.242773
6443.000000;1.242256
6442.000000;1.241720
6441.000000;1.240985
6440.000000;1.240095
6439.000000;1.239184
6438.000000;1.238349
6437.000000;1.237640
6436.000000;1.237073
6435.000000;1.236601
6434.000000;1.236129
6433.000000;1.235600
6432.000000;1.235029
6431.000000;1.234438
6430.000000;1.233804
6429.000000;1.233101
6428.000000;1.232359
6427.000000;1.231645
6426.000000;1.230996
6425.000000;1.230407
6424.000000;1.229846
6423.000000;1.229266
6422.000000;1.228597
6421.000000;1.227789
6420.000000;1.226869
6419.000000;1.225964
6418.000000;1.225215
6417.000000;1.224657
6416.000000;1.224202
6415.000000;1.223755
6414.000000;1.223317
6413.000000;1.222938
6412.000000;1.222574
6411.000000;1.222073
6410.000000;1.221337
6409.000000;1.220439
6408.000000;1.219543
6407.000000;1.218758
6406.000000;1.218108
6405.000000;1.217611
6404.000000;1.217271
6403.000000;1.217019
6402.000000;1.216729
6401.000000;1.216321
6400.000000;1.215806
6399.000000;1.215231
6398.000000;1.214617
6397.000000;1.213954
6396.000000;1.213226
6395.000000;1.212431
6394.000000;1.211608
6393.000000;1.210831
6392.000000;1.210142
6391.000000;1.209507
6390.000000;1.208866
6389.000000;1.208232
6388.000000;1.207677
6387.000000;1.207221
6386.000000;1.206796
6385.000000;1.206325
6384.000000;1.205790
6383.000000;1.205201
6382.000000;1.204571
6381.000000;1.203941
6380.000000;1.203396
6379.000000;1.202984
6378.000000;1.202643
6377.000000;1.202244
6376.000000;1.201709
6375.000000;1.201054
6374.000000;1.200340
6373.000000;1.199612
6372.000000;1.198886
6371.000000;1.198176
6370.000000;1.197522
6369.000000;1.196965
6368.000000;1.196506
6367.000000;1.196081
6366.000000;1.195606
6365.000000;1.195068
6364.000000;1.194538
6363.000000;1.194087
6362.000000;1.193701
6361.000000;1.193302
6360.000000;1.192845
6359.000000;1.192349
6358.000000;1.191852
6357.000000;1.191353
6356.000000;1.190824
6355.000000;1.190260
6354.000000;1.189690
6353.000000;1.189147
6352.000000;1.188627
6351.000000;1.188105
6350.000000;1.187598
6349.000000;1.187175
6348.000000;1.186875
6347.000000;1.186630
6346.000000;1.186295
6345.000000;1.185782
6344.000000;1.185148
6343.000000;1.184534
6342.000000;1.184041
6341.000000;1.183651
6340.000000;1.183254
6339.000000;1.182730
6338.000000;1.182046
6337.000000;1.181285
6336.000000;1.180606
6335.000000;1.180128
6334.000000;1.179857
6333.000000;1.179683
6332.000000;1.179450
6331.000000;1.179044
6330.000000;1.178465
6329.000000;1.177813
6328.000000;1.177207
6327.000000;1.176705
6326.000000;1.176292
6325.000000;1.175937
6324.000000;1.175607
6323.000000;1.175248
6322.000000;1.174804
6321.000000;1.174289
6320.000000;1.173786
6319.000000;1.173353
6318.000000;1.172950
6317.000000;1.172505
6316.000000;1.172013
6315.000000;1.171519
6314.000000;1.171044
6313.000000;1.170584
6312.000000;1.170175
6311.000000;1.169874
6310.000000;1.169672
6309.000000;1.169463
6308.000000;1.169150
6307.000000;1.168727
6306.000000;1.168235
6305.000000;1.167709
6304.000000;1.167204
6303.000000;1.166818
6302.000000;1.166591
6301.000000;1.166425
6300.000000;1.166170
6299.000000;1.165797
6298.000000;1.165398
6297.000000;1.165008
6296.000000;1.164538
6295.000000;1.163925
6294.000000;1.163256
6293.000000;1.162671
6292.000000;1.162192
6291.000000;1.161751
6290.000000;1.161347
6289.000000;1.161078
6288.000000;1.160981
6287.000000;1.160941
6286.000000;1.160803
6285.000000;1.160516
6284.000000;1.160130
6283.000000;1.159701
6282.000000;1.159250
6281.000000;1.158820
6280.000000;1.158475
6279.000000;1.158235
6278.000000;1.158022
6277.000000;1.157716
6276.000000;1.157275
6275.000000;1.156781
6274.000000;1.156368
6273.000000;1.156097
6272.000000;1.155912
6271.000000;1.155706
6270.000000;1.155423
6269.000000;1.155081
6268.000000;1.154719
6267.000000;1.154356
6266.000000;1.154002
6265.000000;1.153676
6264.000000;1.153396
6263.000000;1.153153
6262.000000;1.152904
6261.000000;1.152601
6260.000000;1.152227
6259.000000;1.151812
6258.000000;1.151400
6257.000000;1.151013
6256.000000;1.150652
6255.000000;1.150339
6254.000000;1.150107
6253.000000;1.149936
6252.000000;1.149753
6251.000000;1.149528
6250.000000;1.149332
6249.000000;1.149236
6248.000000;1.149171
6247.000000;1.148970
6246.000000;1.148552
6245.000000;1.148025
6244.000000;1.147564
6243.000000;1.147243
6242.000000;1.147008
6241.000000;1.146763
6240.000000;1.146454
6239.000000;1.146096
6238.000000;1.145771
6237.000000;1.145544
6236.000000;1.145380
6235.000000;1.145168
6234.000000;1.144853
6233.000000;1.144512
6232.000000;1.144248
6231.000000;1.144048
6230.000000;1.143804
6229.000000;1.143454
6228.000000;1.143041
6227.000000;1.142664
6226.000000;1.142387
6225.000000;1.142209
6224.000000;1.142055
6223.000000;1.141816
6222.000000;1.141450
6221.000000;1.141058
6220.000000;1.140798
6219.000000;1.140718
6218.000000;1.140699
6217.000000;1.140595
6216.000000;1.140381
6215.000000;1.140137
6214.000000;1.139924
6213.000000;1.139721
6212.000000;1.139477
6211.000000;1.139198
6210.000000;1.138953
6209.000000;1.138809
6208.000000;1.138749
6207.000000;1.138657
6206.000000;1.138409
6205.000000;1.137979
6204.000000;1.137479
6203.000000;1.137055
6202.000000;1.136776
6201.000000;1.136608
6200.000000;1.136478
6199.000000;1.136336
6198.000000;1.136176
6197.000000;1.136010
6196.000000;1.135856
6195.000000;1.135713
6194.000000;1.135550
6193.000000;1.135306
6192.000000;1.134936
6191.000000;1.134449
6190.000000;1.133926
6189.000000;1.133488
6188.000000;1.133222
6187.000000;1.133124
6186.000000;1.133104
6185.000000;1.133060
6184.000000;1.132953
6183.000000;1.132803
6182.000000;1.132626
6181.000000;1.132408
6180.000000;1.132147
6179.000000;1.131890
6178.000000;1.131696
6177.000000;1.131581
6176.000000;1.131523
6175.000000;1.131495
6174.000000;1.131461
6173.000000;1.131343
6172.000000;1.131067
6171.000000;1.130660
6170.000000;1.130272
6169.000000;1.130051
6168.000000;1.130003
6167.000000;1.129990
6166.000000;1.129853
6165.000000;1.129550
6164.000000;1.129185
6163.000000;1.128931
6162.000000;1.128885
6161.000000;1.128966
6160.000000;1.128989
6159.000000;1.128855
6158.000000;1.128654
6157.000000;1.128522
6156.000000;1.128454
6155.000000;1.128323
6154.000000;1.128063
6153.000000;1.127733
6152.000000;1.127407
6151.000000;1.127092
6150.000000;1.126801
6149.000000;1.126623
6148.000000;1.126629
6147.000000;1.126745
6146.000000;1.126793
6145.000000;1.126670
6144.000000;1.126435
6143.000000;1.126217
6142.000000;1.126079
6141.000000;1.125988
6140.000000;1.125891
6139.000000;1.125779
6138.000000;1.125685
6137.000000;1.125621
6136.000000;1.125530
6135.000000;1.125333
6134.000000;1.125011
6133.000000;1.124631
6132.000000;1.124288
6131.000000;1.124047
6130.000000;1.123947
6129.000000;1.124001
6128.000000;1.124149
6127.000000;1.124247
6126.000000;1.124170
6125.000000;1.123946
6124.000000;1.123731
6123.000000;1.123637
6122.000000;1.123628
6121.000000;1.123567
6120.000000;1.123359
6119.000000;1.123007
6118.000000;1.122598
6117.000000;1.122252
6116.000000;1.122055
6115.000000;1.121995
6114.000000;1.121964
6113.000000;1.121845
6112.000000;1.121621
6111.000000;1.121374
6110.000000;1.121210
6109.000000;1.121180
6108.000000;1.121261
6107.000000;1.121369
6106.000000;1.121379
6105.000000;1.121196
6104.000000;1.120845
6103.000000;1.120486
6102.000000;1.120295
6101.000000;1.120318
6100.000000;1.120465
6099.000000;1.120629
6098.000000;1.120773
6097.000000;1.120878
6096.000000;1.120880
6095.000000;1.120721
6094.000000;1.120449
6093.000000;1.120201
6092.000000;1.120055
6091.000000;1.119948
6090.000000;1.119773
6089.000000;1.119531
6088.000000;1.119339
6087.000000;1.119280
6086.000000;1.119297
6085.000000;1.119259
6084.000000;1.119110
6083.000000;1.118909
6082.000000;1.118748
6081.000000;1.118645
6080.000000;1.118548
6079.000000;1.118420
6078.000000;1.118284
6077.000000;1.118198
6076.000000;1.118198
6075.000000;1.118274
6074.000000;1.118370
6073.000000;1.118400
6072.000000;1.118301
6071.000000;1.118105
6070.000000;1.117940
6069.000000;1.117915
6068.000000;1.118008
6067.000000;1.118085
6066.000000;1.118037
6065.000000;1.117880
6064.000000;1.117727
6063.000000;1.117678
6062.000000;1.117742
6061.000000;1.117834
6060.000000;1.117846
6059.000000;1.117740
6058.000000;1.117587
6057.000000;1.117481
6056.000000;1.117437
6055.000000;1.117372
6054.000000;1.117225
6053.000000;1.117040
6052.000000;1.116929
6051.000000;1.116967
6050.000000;1.117145
6049.000000;1.117393
6048.000000;1.117626
6047.000000;1.117765
6046.000000;1.117763
6045.000000;1.117635
6044.000000;1.117438
6043.000000;1.117225
6042.000000;1.117010
6041.000000;1.116801
6040.000000;1.116636
6039.000000;1.116573
6038.000000;1.116635
6037.000000;1.116772
6036.000000;1.116892
6035.000000;1.116931
6034.000000;1.116887
6033.000000;1.116803
6032.000000;1.116733
6031.000000;1.116720
6030.000000;1.116769
6029.000000;1.116832
6028.000000;1.116844
6027.000000;1.116780
6026.000000;1.116694
6025.000000;1.116677
6024.000000;1.116787
6023.000000;1.117015
6022.000000;1.117278
6021.000000;1.117443
6020.000000;1.117399
6019.000000;1.117164
6018.000000;1.116911
6017.000000;1.116842
6016.000000;1.117014
6015.000000;1.117313
6014.000000;1.117576
6013.000000;1.117705
6012.000000;1.117680
6011.000000;1.117530
6010.000000;1.117341
6009.000000;1.117245
6008.000000;1.117347
6007.000000;1.117632
6006.000000;1.117961
6005.000000;1.118168
6004.000000;1.118173
6003.000000;1.118028
6002.000000;1.117867
6001.000000;1.117793
6000.000000;1.117823
5999.000000;1.117945
5998.000000;1.118187
5997.000000;1.118562
5996.000000;1.118977
5995.000000;1.119260
5994.000000;1.119333
5993.000000;1.119304
5992.000000;1.119340
5991.000000;1.119495
5990.000000;1.119681
5989.000000;1.119793
5988.000000;1.119798
5987.000000;1.119738
5986.000000;1.119700
5985.000000;1.119772
5984.000000;1.119984
5983.000000;1.120275
5982.000000;1.120554
5981.000000;1.120790
5980.000000;1.121022
5979.000000;1.121283
5978.000000;1.121543
5977.000000;1.121756
5976.000000;1.121924
5975.000000;1.122078
5974.000000;1.122235
5973.000000;1.122393
5972.000000;1.122556
5971.000000;1.122754
5970.000000;1.123019
5969.000000;1.123349
5968.000000;1.123699
5967.000000;1.124003
5966.000000;1.124232
5965.000000;1.124434
5964.000000;1.124694
5963.000000;1.125046
5962.000000;1.125428
5961.000000;1.125756
5960.000000;1.126018
5959.000000;1.126265
5958.000000;1.126525
5957.000000;1.126771
5956.000000;1.127004
5955.000000;1.127293
5954.000000;1.127673
5953.000000;1.128059
5952.000000;1.128325
5951.000000;1.128468
5950.000000;1.128619
5949.000000;1.128880
5948.000000;1.129234
5947.000000;1.129635
5946.000000;1.130102
5945.000000;1.130654
5944.000000;1.131219
5943.000000;1.131672
5942.000000;1.131962
5941.000000;1.132127
5940.000000;1.132235
5939.000000;1.132367
5938.000000;1.132629
5937.000000;1.133075
5936.000000;1.133606
5935.000000;1.134030
5934.000000;1.134250
5933.000000;1.134355
5932.000000;1.134503
5931.000000;1.134781
5930.000000;1.135177
5929.000000;1.135620
5928.000000;1.136002
5927.000000;1.136228
5926.000000;1.136296
5925.000000;1.136318
5924.000000;1.136419
5923.000000;1.136649
5922.000000;1.136991
5921.000000;1.137412
5920.000000;1.137851
5919.000000;1.138207
5918.000000;1.138386
5917.000000;1.138380
5916.000000;1.138263
5915.000000;1.138140
5914.000000;1.138094
5913.000000;1.138157
5912.000000;1.138276
5911.000000;1.138353
5910.000000;1.138349
5909.000000;1.138334
5908.000000;1.138409
5907.000000;1.138581
5906.000000;1.138768
5905.000000;1.138891
5904.000000;1.138940
5903.000000;1.138953
5902.000000;1.138996
5901.000000;1.139127
5900.000000;1.139347
5899.000000;1.139555
5898.000000;1.139629
5897.000000;1.139559
5896.000000;1.139475
5895.000000;1.139514
5894.000000;1.139685
5893.000000;1.139880
5892.000000;1.140000
5891.000000;1.140027
5890.000000;1.139994
5889.000000;1.139923
5888.000000;1.139828
5887.000000;1.139762
5886.000000;1.139805
5885.000000;1.139982
5884.000000;1.140199
5883.000000;1.140313
5882.000000;1.140276
5881.000000;1.140190
5880.000000;1.140206
5879.000000;1.140395
5878.000000;1.140698
5877.000000;1.140998
5876.000000;1.141205
5875.000000;1.141304
5874.000000;1.141350
5873.000000;1.141415
5872.000000;1.141539
5871.000000;1.141732
5870.000000;1.142008
5869.000000;1.142376
5868.000000;1.142790
5867.000000;1.143155
5866.000000;1.143423
5865.000000;1.143644
5864.000000;1.143894
5863.000000;1.144195
5862.000000;1.144531
5861.000000;1.144907
5860.000000;1.145325
5859.000000;1.145737
5858.000000;1.146069
5857.000000;1.146306
5856.000000;1.146518
5855.000000;1.146776
5854.000000;1.147100
5853.000000;1.147479
5852.000000;1.147914
5851.000000;1.148411
5850.000000;1.148959
5849.000000;1.149521
5848.000000;1.150039
5847.000000;1.150466
5846.000000;1.150814
5845.000000;1.151173
5844.000000;1.151615
5843.000000;1.152104
5842.000000;1.152538
5841.000000;1.152879
5840.000000;1.153199
5839.000000;1.153580
5838.000000;1.154024
5837.000000;1.154507
5836.000000;1.155059
5835.000000;1.155737
5834.000000;1.156512
5833.000000;1.157245
5832.000000;1.157784
5831.000000;1.158086
5830.000000;1.158242
5829.000000;1.158407
5828.000000;1.158701
5827.000000;1.159141
5826.000000;1.159671
5825.000000;1.160237
5824.000000;1.160824
5823.000000;1.161419
5822.000000;1.161976
5821.000000;1.162463
5820.000000;1.162925
5819.000000;1.163439
5818.000000;1.164008
5817.000000;1.164542
5816.000000;1.164981
5815.000000;1.165382
5814.000000;1.165853
5813.000000;1.166423
5812.000000;1.167025
5811.000000;1.167602
5810.000000;1.168160
5809.000000;1.168723
5808.000000;1.169288
5807.000000;1.169848
5806.000000;1.170424
5805.000000;1.171033
5804.000000;1.171635
5803.000000;1.172180
5802.000000;1.172671
5801.000000;1.173170
5800.000000;1.173726
5799.000000;1.174329
5798.000000;1.174937
5797.000000;1.175526
5796.000000;1.176100
5795.000000;1.176671
5794.000000;1.177258
5793.000000;1.177873
5792.000000;1.178513
5791.000000;1.179151
5790.000000;1.179753
5789.000000;1.180301
5788.000000;1.180798
5787.000000;1.181280
5786.000000;1.181801
5785.000000;1.182394
5784.000000;1.183033
5783.000000;1.183653
5782.000000;1.184214
5781.000000;1.184732
5780.000000;1.185245
5779.000000;1.185773
5778.000000;1.186323
5777.000000;1.186897
5776.000000;1.187495
5775.000000;1.188093
5774.000000;1.188664
5773.000000;1.189197
5772.000000;1.189721
5771.000000;1.190283
5770.000000;1.190910
5769.000000;1.191572
5768.000000;1.192183
5767.000000;1.192689
5766.000000;1.193142
5765.000000;1.193651
5764.000000;1.194257
5763.000000;1.194880
5762.000000;1.195413
5761.000000;1.195847
5760.000000;1.196267
5759.000000;1.196747
5758.000000;1.197291
5757.000000;1.197861
5756.000000;1.198429
5755.000000;1.198993
5754.000000;1.199550
5753.000000;1.200071
5752.000000;1.200517
5751.000000;1.200879
5750.000000;1.201219
5749.000000;1.201638
5748.000000;1.202191
5747.000000;1.202823
5746.000000;1.203419
5745.000000;1.203908
5744.000000;1.204330
5743.000000;1.204811
5742.000000;1.205469
5741.000000;1.206304
5740.000000;1.207169
5739.000000;1.207856
5738.000000;1.208272
5737.000000;1.208510
5736.000000;1.208735
5735.000000;1.209025
5734.000000;1.209352
5733.000000;1.209690
5732.000000;1.210088
5731.000000;1.210594
5730.000000;1.211183
5729.000000;1.211773
5728.000000;1.212307
5727.000000;1.212805
5726.000000;1.213317
5725.000000;1.213871
5724.000000;1.214455
5723.000000;1.215036
5722.000000;1.215600
5721.000000;1.216144
5720.000000;1.216668
5719.000000;1.217176
5718.000000;1.217706
5717.000000;1.218317
5716.000000;1.219030
5715.000000;1.219777
5714.000000;1.220459
5713.000000;1.221025
5712.000000;1.221510
5711.000000;1.221978
5710.000000;1.222484
5709.000000;1.223060
5708.000000;1.223697
5707.000000;1.224335
5706.000000;1.224905
5705.000000;1.225400
5704.000000;1.225896
5703.000000;1.226469
5702.000000;1.227118
5701.000000;1.227772
5700.000000;1.228340
5699.000000;1.228778
5698.000000;1.229108
5697.000000;1.229410
5696.000000;1.229762
5695.000000;1.230185
5694.000000;1.230644
5693.000000;1.231108
5692.000000;1.231605
5691.000000;1.232200
5690.000000;1.232934
5689.000000;1.233768
5688.000000;1.234583
5687.000000;1.235246
5686.000000;1.235716
5685.000000;1.236079
5684.000000;1.236459
5683.000000;1.236899
5682.000000;1.237346
5681.000000;1.237779
5680.000000;1.238276
5679.000000;1.238933
5678.000000;1.239719
5677.000000;1.240472
5676.000000;1.241045
5675.000000;1.241432
5674.000000;1.241748
5673.000000;1.242111
5672.000000;1.242548
5671.000000;1.243009
5670.000000;1.243469
5669.000000;1.243989
5668.000000;1.244651
5667.000000;1.245422
5666.000000;1.246131
5665.000000;1.246625
5664.000000;1.246938
5663.000000;1.247244
5662.000000;1.247663
5661.000000;1.248155
5660.000000;1.248627
5659.000000;1.249070
5658.000000;1.249550
5657.000000;1.250073
5656.000000;1.250540
5655.000000;1.250836
5654.000000;1.250951
5653.000000;1.250985
5652.000000;1.251063
5651.000000;1.251266
5650.000000;1.251625
5649.000000;1.252139
5648.000000;1.252770
5647.000000;1.253441
5646.000000;1.254058
5645.000000;1.254548
5644.000000;1.254900
5643.000000;1.255179
5642.000000;1.255508
5641.000000;1.255992
5640.000000;1.256624
5639.000000;1.257259
5638.000000;1.257742
5637.000000;1.258044
5636.000000;1.258273
5635.000000;1.258559
5634.000000;1.258955
5633.000000;1.259455
5632.000000;1.260039
5631.000000;1.260651
5630.000000;1.261204
5629.000000;1.261645
5628.000000;1.262014
5627.000000;1.262387
5626.000000;1.262765
5625.000000;1.263085
5624.000000;1.263319
5623.000000;1.263524
5622.000000;1.263763
5621.000000;1.264037
5620.000000;1.264293
5619.000000;1.264493
5618.000000;1.264645
5617.000000;1.264792
5616.000000;1.264987
5615.000000;1.265257
5614.000000;1.265577
5613.000000;1.265903
5612.000000;1.266222
5611.000000;1.266532
5610.000000;1.266798
5609.000000;1.266985
5608.000000;1.267148
5607.000000;1.267423
5606.000000;1.267881
5605.000000;1.268426
5604.000000;1.268904
5603.000000;1.269260
5602.000000;1.269541
5601.000000;1.269778
5600.000000;1.269946
5599.000000;1.270016
5598.000000;1.270013
5597.000000;1.269991
5596.000000;1.270020
5595.000000;1.270179
5594.000000;1.270489
5593.000000;1.270850
5592.000000;1.271107
5591.000000;1.271211
5590.000000;1.271256
5589.000000;1.271348
5588.000000;1.271486
5587.000000;1.271604
5586.000000;1.271683
5585.000000;1.271761
5584.000000;1.271866
5583.000000;1.271990
5582.000000;1.272117
5581.000000;1.272240
5580.000000;1.272348
5579.000000;1.272445
5578.000000;1.272560
5577.000000;1.272723
5576.000000;1.272925
5575.000000;1.273119
5574.000000;1.273246
5573.000000;1.273272
5572.000000;1.273209
5571.000000;1.273120
5570.000000;1.273079
5569.000000;1.273105
5568.000000;1.273170
5567.000000;1.273263
5566.000000;1.273401
5565.000000;1.273558
5564.000000;1.273657
5563.000000;1.273654
5562.000000;1.273588
5561.000000;1.273497
5560.000000;1.273356
5559.000000;1.273165
5558.000000;1.273032
5557.000000;1.273066
5556.000000;1.273220
5555.000000;1.273342
5554.000000;1.273379
5553.000000;1.273424
5552.000000;1.273529
5551.000000;1.273606
5550.000000;1.273561
5549.000000;1.273453
5548.000000;1.273430
5547.000000;1.273540
5546.000000;1.273670
5545.000000;1.273664
5544.000000;1.273465
5543.000000;1.273156
5542.000000;1.272903
5541.000000;1.272836
5540.000000;1.272965
5539.000000;1.273194
5538.000000;1.273423
5537.000000;1.273624
5536.000000;1.273820
5535.000000;1.274027
5534.000000;1.274219
5533.000000;1.274335
5532.000000;1.274307
5531.000000;1.274115
5530.000000;1.273825
5529.000000;1.273562
5528.000000;1.273418
5527.000000;1.273405
5526.000000;1.273467
5525.000000;1.273519
5524.000000;1.273482
5523.000000;1.273351
5522.000000;1.273219
5521.000000;1.273205
5520.000000;1.273324
5519.000000;1.273481
5518.000000;1.273607
5517.000000;1.273729
5516.000000;1.273894
5515.000000;1.274063
5514.000000;1.274152
5513.000000;1.274120
5512.000000;1.273982
5511.000000;1.273759
5510.000000;1.273476
5509.000000;1.273214
5508.000000;1.273095
5507.000000;1.273199
5506.000000;1.273487
5505.000000;1.273825
5504.000000;1.274078
5503.000000;1.274195
5502.000000;1.274214
5501.000000;1.274207
5500.000000;1.274215
5499.000000;1.274246
5498.000000;1.274296
5497.000000;1.274347
5496.000000;1.274336
5495.000000;1.274216
5494.000000;1.274061
5493.000000;1.274061
5492.000000;1.274332
5491.000000;1.274769
5490.000000;1.275159
5489.000000;1.275396
5488.000000;1.275534
5487.000000;1.275658
5486.000000;1.275789
5485.000000;1.275917
5484.000000;1.276043
5483.000000;1.276158
5482.000000;1.276246
5481.000000;1.276333
5480.000000;1.276493
5479.000000;1.276761
5478.000000;1.277053
5477.000000;1.277239
5476.000000;1.277317
5475.000000;1.277447
5474.000000;1.277774
5473.000000;1.278268
5472.000000;1.278787
5471.000000;1.279230
5470.000000;1.279583
5469.000000;1.279862
5468.000000;1.280102
5467.000000;1.280385
5466.000000;1.280787
5465.000000;1.281272
5464.000000;1.281694
5463.000000;1.281946
5462.000000;1.282092
5461.000000;1.282327
5460.000000;1.282800
5459.000000;1.283457
5458.000000;1.284071
5457.000000;1.284444
5456.000000;1.284618
5455.000000;1.284851
5454.000000;1.285365
5453.000000;1.286120
5452.000000;1.286885
5451.000000;1.287474
5450.000000;1.287873
5449.000000;1.288158
5448.000000;1.288393
5447.000000;1.288652
5446.000000;1.289092
5445.000000;1.289845
5444.000000;1.290831
5443.000000;1.291792
5442.000000;1.292566
5441.000000;1.293277
5440.000000;1.294168
5439.000000;1.295250
5438.000000;1.296246
5437.000000;1.296902
5436.000000;1.297272
5435.000000;1.297678
5434.000000;1.298406
5433.000000;1.299464
5432.000000;1.300626
5431.000000;1.301667
5430.000000;1.302564
5429.000000;1.303507
5428.000000;1.304707
5427.000000;1.306190
5426.000000;1.307801
5425.000000;1.309366
5424.000000;1.310806
5423.000000;1.312122
5422.000000;1.313310
5421.000000;1.314344
5420.000000;1.315249
5419.000000;1.316131
5418.000000;1.317081
5417.000000;1.318076
5416.000000;1.319034
5415.000000;1.319994
5414.000000;1.321160
5413.000000;1.322720
5412.000000;1.324647
5411.000000;1.326763
5410.000000;1.328949
5409.000000;1.331193
5408.000000;1.333486
5407.000000;1.335745
5406.000000;1.337881
5405.000000;1.339886
5404.000000;1.341829
5403.000000;1.343773
5402.000000;1.345722
5401.000000;1.347643
5400.000000;1.349551
5399.000000;1.351558
5398.000000;1.353818
5397.000000;1.356389
5396.000000;1.359144
5395.000000;1.361886
5394.000000;1.364536
5393.000000;1.367170
5392.000000;1.369909
5391.000000;1.372829
5390.000000;1.375915
5389.000000;1.379083
5388.000000;1.382265
5387.000000;1.385488
5386.000000;1.388859
5385.000000;1.392428
5384.000000;1.396076
5383.000000;1.399642
5382.000000;1.403120
5381.000000;1.406639
5380.000000;1.410305
5379.000000;1.414136
5378.000000;1.418133
5377.000000;1.422347
5376.000000;1.426842
5375.000000;1.431636
5374.000000;1.436699
5373.000000;1.441924
5372.000000;1.447126
5371.000000;1.452191
5370.000000;1.457260
5369.000000;1.462610
5368.000000;1.468323
5367.000000;1.474151
5366.000000;1.479828
5365.000000;1.485415
5364.000000;1.491247
5363.000000;1.497528
5362.000000;1.504088
5361.000000;1.510583
5360.000000;1.516918
5359.000000;1.523373
5358.000000;1.530277
5357.000000;1.537659
5356.000000;1.545320
5355.000000;1.553206
5354.000000;1.561480
5353.000000;1.570145
5352.000000;1.578812
5351.000000;1.587167
5350.000000;1.595463
5349.000000;1.604217
5348.000000;1.613533
5347.000000;1.623046
5346.000000;1.632520
5345.000000;1.642182
5344.000000;1.652388
5343.000000;1.663201
5342.000000;1.674459
5341.000000;1.686041
5340.000000;1.697884
5339.000000;1.709954
5338.000000;1.722341
5337.000000;1.735236
5336.000000;1.748639
5335.000000;1.762257
5334.000000;1.775887
5333.000000;1.789770
5332.000000;1.804333
5331.000000;1.819622
5330.000000;1.835214
5329.000000;1.850731
5328.000000;1.866257
5327.000000;1.882166
5326.000000;1.898635
5325.000000;1.915486
5324.000000;1.932597
5323.000000;1.950272
5322.000000;1.968988
5321.000000;1.988722
5320.000000;2.008778
5319.000000;2.028451
5318.000000;2.047714
5317.000000;2.067078
5316.000000;2.087021
5315.000000;2.107716
5314.000000;2.129052
5313.000000;2.150640
5312.000000;2.172090
5311.000000;2.193635
5310.000000;2.216146
5309.000000;2.240099
5308.000000;2.264834
5307.000000;2.289392
5306.000000;2.313849
5305.000000;2.338997
5304.000000;2.364772
5303.000000;2.389866
5302.000000;2.413111
5301.000000;2.434755
5300.000000;2.456290
5299.000000;2.479370
5298.000000;2.504659
5297.000000;2.531082
5296.000000;2.556498
5295.000000;2.579888
5294.000000;2.602463
5293.000000;2.625669
5292.000000;2.648733
5291.000000;2.669478
5290.000000;2.687313
5289.000000;2.703901
5288.000000;2.720707
5287.000000;2.737519
5286.000000;2.753636
5285.000000;2.769089
5284.000000;2.784574
5283.000000;2.800931
5282.000000;2.818356
5281.000000;2.835670
5280.000000;2.850790
5279.000000;2.862464
5278.000000;2.871235
5277.000000;2.878247
5276.000000;2.884134
5275.000000;2.889506
5274.000000;2.894901
5273.000000;2.899695
5272.000000;2.902902
5271.000000;2.905655
5270.000000;2.910829
5269.000000;2.919209
5268.000000;2.927778
5267.000000;2.933370
5266.000000;2.936362
5265.000000;2.938886
5264.000000;2.941405
5263.000000;2.943099
5262.000000;2.944219
5261.000000;2.945558
5260.000000;2.946487
5259.000000;2.945995
5258.000000;2.945173
5257.000000;2.946745
5256.000000;2.952098
5255.000000;2.959430
5254.000000;2.964651
5253.000000;2.964878
5252.000000;2.961607
5251.000000;2.958906
5250.000000;2.958328
5249.000000;2.957338
5248.000000;2.953839
5247.000000;2.950721
5246.000000;2.952533
5245.000000;2.958756
5244.000000;2.964227
5243.000000;2.966129
5242.000000;2.966355
5241.000000;2.965851
5240.000000;2.962479
5239.000000;2.956993
5238.000000;2.955415
5237.000000;2.961718
5236.000000;2.971631
5235.000000;2.977148
5234.000000;2.976106
5233.000000;2.973292
5232.000000;2.973067
5231.000000;2.975476
5230.000000;2.978242
5229.000000;2.978891
5228.000000;2.975845
5227.000000;2.970354
5226.000000;2.966703
5225.000000;2.968284
5224.000000;2.973574
5223.000000;2.977656
5222.000000;2.977969
5221.000000;2.976212
5220.000000;2.974513
5219.000000;2.972636
5218.000000;2.969402
5217.000000;2.965278
5216.000000;2.962247
5215.000000;2.961303
5214.000000;2.961685
5213.000000;2.961331
5212.000000;2.957895
5211.000000;2.951770
5210.000000;2.946581
5209.000000;2.945397
5208.000000;2.948129
5207.000000;2.952433
5206.000000;2.955939
5205.000000;2.957693
5204.000000;2.958230
5203.000000;2.958470
5202.000000;2.958806
5201.000000;2.959264
5200.000000;2.960042
5199.000000;2.961903
5198.000000;2.965697
5197.000000;2.971250
5196.000000;2.977103
5195.000000;2.980982
5194.000000;2.980296
5193.000000;2.973707
5192.000000;2.963499
5191.000000;2.954685
5190.000000;2.950208
5189.000000;2.948926
5188.000000;2.949380
5187.000000;2.953051
5186.000000;2.961845
5185.000000;2.972958
5184.000000;2.979306
5183.000000;2.977675
5182.000000;2.972505
5181.000000;2.969418
5180.000000;2.970083
5179.000000;2.973698
5178.000000;2.979344
5177.000000;2.985444
5176.000000;2.989564
5175.000000;2.990973
5174.000000;2.991366
5173.000000;2.991377
5172.000000;2.989010
5171.000000;2.982923
5170.000000;2.974375
5169.000000;2.965022
5168.000000;2.956511
5167.000000;2.952930
5166.000000;2.958963
5165.000000;2.972968
5164.000000;2.984769
5163.000000;2.985063
5162.000000;2.976235
5161.000000;2.968525
5160.000000;2.967120
5159.000000;2.967618
5158.000000;2.963803
5157.000000;2.956185
5156.000000;2.950932
5155.000000;2.952619
5154.000000;2.959614
5153.000000;2.965610
5152.000000;2.965544
5151.000000;2.960427
5150.000000;2.955941
5149.000000;2.956562
5148.000000;2.961867
5147.000000;2.968117
5146.000000;2.971563
5145.000000;2.969900
5144.000000;2.963176
5143.000000;2.954865
5142.000000;2.950259
5141.000000;2.951931
5140.000000;2.957452
5139.000000;2.962659
5138.000000;2.965861
5137.000000;2.968081
5136.000000;2.970278
5135.000000;2.971855
5134.000000;2.972118
5133.000000;2.971161
5132.000000;2.969403
5131.000000;2.967294
5130.000000;2.964599
5129.000000;2.959882
5128.000000;2.952265
5127.000000;2.944178
5126.000000;2.940506
5125.000000;2.943873
5124.000000;2.951771
5123.000000;2.958517
5122.000000;2.959867
5121.000000;2.955678
5120.000000;2.948759
5119.000000;2.942948
5118.000000;2.941398
5117.000000;2.944525
5116.000000;2.949940
5115.000000;2.955369
5114.000000;2.960680
5113.000000;2.965826
5112.000000;2.968815
5111.000000;2.968363
5110.000000;2.966735
5109.000000;2.967317
5108.000000;2.970538
5107.000000;2.973627
5106.000000;2.973499
5105.000000;2.968873
5104.000000;2.960746
5103.000000;2.952422
5102.000000;2.948129
5101.000000;2.949471
5100.000000;2.953381
5099.000000;2.955458
5098.000000;2.955031
5097.000000;2.954680
5096.000000;2.955779
5095.000000;2.957162
5094.000000;2.957554
5093.000000;2.957092
5092.000000;2.956398
5091.000000;2.955830
5090.000000;2.955658
5089.000000;2.955573
5088.000000;2.954166
5087.000000;2.950405
5086.000000;2.945291
5085.000000;2.940870
5084.000000;2.938162
5083.000000;2.936946
5082.000000;2.936896
5081.000000;2.937725
5080.000000;2.938980
5079.000000;2.940836
5078.000000;2.944005
5077.000000;2.947848
5076.000000;2.949816
5075.000000;2.948236
5074.000000;2.944777
5073.000000;2.942542
5072.000000;2.942775
5071.000000;2.944989
5070.000000;2.948711
5069.000000;2.952990
5068.000000;2.955434
5067.000000;2.953888
5066.000000;2.948911
5065.000000;2.942998
5064.000000;2.937427
5063.000000;2.931818
5062.000000;2.926693
5061.000000;2.924591
5060.000000;2.928076
5059.000000;2.937093
5058.000000;2.947887
5057.000000;2.954364
5056.000000;2.952294
5055.000000;2.943776
5054.000000;2.936099
5053.000000;2.934715
5052.000000;2.937828
5051.000000;2.938513
5050.000000;2.932617
5049.000000;2.923046
5048.000000;2.915248
5047.000000;2.910964
5046.000000;2.907764
5045.000000;2.903598
5044.000000;2.900077
5043.000000;2.900152
5042.000000;2.903672
5041.000000;2.907246
5040.000000;2.909003
5039.000000;2.911475
5038.000000;2.917400
5037.000000;2.924019
5036.000000;2.924672
5035.000000;2.916734
5034.000000;2.905036
5033.000000;2.896268
5032.000000;2.893173
5031.000000;2.894239
5030.000000;2.895668
5029.000000;2.893089
5028.000000;2.884858
5027.000000;2.875300
5026.000000;2.871647
5025.000000;2.876176
5024.000000;2.883108
5023.000000;2.885017
5022.000000;2.881322
5021.000000;2.877172
5020.000000;2.875899
5019.000000;2.876539
5018.000000;2.877072
5017.000000;2.876614
5016.000000;2.874532
5015.000000;2.870531
5014.000000;2.865760
5013.000000;2.861260
5012.000000;2.855843
5011.000000;2.847871
5010.000000;2.838929
5009.000000;2.833242
5008.000000;2.832994
5007.000000;2.835718
5006.000000;2.836538
5005.000000;2.832354
5004.000000;2.823724
5003.000000;2.813877
5002.000000;2.806672
5001.000000;2.804192
5000.000000;2.805498
4999.000000;2.808165
4998.000000;2.810937
4997.000000;2.814082
4996.000000;2.817418
4995.000000;2.819483
4994.000000;2.819131
4993.000000;2.816735
4992.000000;2.813140
4991.000000;2.808475
4990.000000;2.802610
4989.000000;2.796214
4988.000000;2.790750
4987.000000;2.786972
4986.000000;2.783574
4985.000000;2.777916
4984.000000;2.768967
4983.000000;2.760039
4982.000000;2.756606
4981.000000;2.760604
4980.000000;2.768383
4979.000000;2.774683
4978.000000;2.777679
4977.000000;2.778851
4976.000000;2.779046
4975.000000;2.777101
4974.000000;2.771975
4973.000000;2.764262
4972.000000;2.755609
4971.000000;2.747948
4970.000000;2.743313
4969.000000;2.742640
4968.000000;2.744442
4967.000000;2.745883
4966.000000;2.745239
4965.000000;2.742398
4964.000000;2.737747
4963.000000;2.732164
4962.000000;2.727540
4961.000000;2.725516
4960.000000;2.725422
4959.000000;2.724539
4958.000000;2.720876
4957.000000;2.714744
4956.000000;2.707545
4955.000000;2.700367
4954.000000;2.693941
4953.000000;2.688552
4952.000000;2.683696
4951.000000;2.678772
4950.000000;2.674168
4949.000000;2.670866
4948.000000;2.669323
4947.000000;2.669350
4946.000000;2.670163
4945.000000;2.669914
4944.000000;2.666051
4943.000000;2.657643
4942.000000;2.647770
4941.000000;2.641484
4940.000000;2.640996
4939.000000;2.644136
4938.000000;2.646766
4937.000000;2.645908
4936.000000;2.641346
4935.000000;2.635419
4934.000000;2.631257
4933.000000;2.630001
4932.000000;2.629459
4931.000000;2.626480
4930.000000;2.620707
4929.000000;2.614544
4928.000000;2.609710
4927.000000;2.605934
4926.000000;2.603093
4925.000000;2.602198
4924.000000;2.603018
4923.000000;2.602534
4922.000000;2.597732
4921.000000;2.589313
4920.000000;2.580984
4919.000000;2.575673
4918.000000;2.573708
4917.000000;2.573816
4916.000000;2.574528
4915.000000;2.574698
4914.000000;2.573675
4913.000000;2.571281
4912.000000;2.567419
4911.000000;2.562013
4910.000000;2.555652
4909.000000;2.549700
4908.000000;2.545217
4907.000000;2.541897
4906.000000;2.538388
4905.000000;2.533677
4904.000000;2.528047
4903.000000;2.522744
4902.000000;2.518848
4901.000000;2.516345
4900.000000;2.514194
4899.000000;2.511642
4898.000000;2.509247
4897.000000;2.507923
4896.000000;2.507268
4895.000000;2.505733
4894.000000;2.502524
4893.000000;2.498407
4892.000000;2.494249
4891.000000;2.489933
4890.000000;2.485399
4889.000000;2.481643
4888.000000;2.479463
4887.000000;2.477811
4886.000000;2.474682
4885.000000;2.469544
4884.000000;2.463914
4883.000000;2.459575
4882.000000;2.457057
4881.000000;2.455741
4880.000000;2.454671
4879.000000;2.453140
4878.000000;2.450982
4877.000000;2.448510
4876.000000;2.445990
4875.000000;2.443240
4874.000000;2.439994
4873.000000;2.436440
4872.000000;2.433027
4871.000000;2.429881
4870.000000;2.426879
4869.000000;2.424249
4868.000000;2.422523
4867.000000;2.421632
4866.000000;2.420457
4865.000000;2.417709
4864.000000;2.413284
4863.000000;2.408535
4862.000000;2.405133
4861.000000;2.403639
4860.000000;2.403101
4859.000000;2.401917
4858.000000;2.399111
4857.000000;2.394843
4856.000000;2.389977
4855.000000;2.385466
4854.000000;2.382027
4853.000000;2.379806
4852.000000;2.378164
4851.000000;2.376152
4850.000000;2.373414
4849.000000;2.370344
4848.000000;2.367266
4847.000000;2.364034
4846.000000;2.360681
4845.000000;2.357790
4844.000000;2.355637
4843.000000;2.353431
4842.000000;2.350105
4841.000000;2.345675
4840.000000;2.341198
4839.000000;2.337423
4838.000000;2.334188
4837.000000;2.331280
4836.000000;2.329122
4835.000000;2.328154
4834.000000;2.327872
4833.000000;2.326847
4832.000000;2.323945
4831.000000;2.319504
4830.000000;2.315102
4829.000000;2.312176
4828.000000;2.310950
4827.000000;2.310561
4826.000000;2.309897
4825.000000;2.308161
4824.000000;2.304931
4823.000000;2.300264
4822.000000;2.294907
4821.000000;2.290002
4820.000000;2.286198
4819.000000;2.283197
4818.000000;2.280405
4817.000000;2.277771
4816.000000;2.275692
4815.000000;2.274244
4814.000000;2.273013
4813.000000;2.271604
4812.000000;2.269890
4811.000000;2.267739
4810.000000;2.264942
4809.000000;2.261606
4808.000000;2.258251
4807.000000;2.255291
4806.000000;2.252600
4805.000000;2.249839
4804.000000;2.247001
4803.000000;2.244255
4802.000000;2.241481
4801.000000;2.238360
4800.000000;2.234932
4799.000000;2.231667
4798.000000;2.228814
4797.000000;2.226039
4796.000000;2.222928
4795.000000;2.219591
4794.000000;2.216548
4793.000000;2.214158
4792.000000;2.212420
4791.000000;2.211195
4790.000000;2.210216
4789.000000;2.208800
4788.000000;2.206007
4787.000000;2.201526
4786.000000;2.196315
4785.000000;2.192008
4784.000000;2.189596
4783.000000;2.188689
4782.000000;2.187923
4781.000000;2.186068
4780.000000;2.182891
4779.000000;2.179064
4778.000000;2.175328
4777.000000;2.171852
4776.000000;2.168504
4775.000000;2.165499
4774.000000;2.163319
4773.000000;2.161904
4772.000000;2.160416
4771.000000;2.158208
4770.000000;2.155706
4769.000000;2.153843
4768.000000;2.152796
4767.000000;2.151759
4766.000000;2.149936
4765.000000;2.147332
4764.000000;2.144485
4763.000000;2.141811
4762.000000;2.139400
4761.000000;2.137087
4760.000000;2.134571
4759.000000;2.131694
4758.000000;2.128709
4757.000000;2.125998
4756.000000;2.123524
4755.000000;2.120887
4754.000000;2.117994
4753.000000;2.115314
4752.000000;2.113326
4751.000000;2.112002
4750.000000;2.110911
4749.000000;2.109529
4748.000000;2.107342
4747.000000;2.104097
4746.000000;2.100197
4745.000000;2.096549
4744.000000;2.093782
4743.000000;2.091821
4742.000000;2.090230
4741.000000;2.088584
4740.000000;2.086426
4739.000000;2.083447
4738.000000;2.080074
4737.000000;2.077364
4736.000000;2.075819
4735.000000;2.074634
4734.000000;2.072618
4733.000000;2.069584
4732.000000;2.066307
4731.000000;2.063383
4730.000000;2.060822
4729.000000;2.058579
4728.000000;2.056759
4727.000000;2.055179
4726.000000;2.053372
4725.000000;2.051184
4724.000000;2.048915
4723.000000;2.046721
4722.000000;2.044346
4721.000000;2.041617
4720.000000;2.038769
4719.000000;2.036040
4718.000000;2.033351
4717.000000;2.030679
4716.000000;2.028374
4715.000000;2.026721
4714.000000;2.025403
4713.000000;2.023781
4712.000000;2.021650
4711.000000;2.019412
4710.000000;2.017496
4709.000000;2.015881
4708.000000;2.014238
4707.000000;2.012392
4706.000000;2.010466
4705.000000;2.008602
4704.000000;2.006616
4703.000000;2.004117
4702.000000;2.001070
4701.000000;1.998073
4700.000000;1.995781
4699.000000;1.994107
4698.000000;1.992340
4697.000000;1.990083
4696.000000;1.987717
4695.000000;1.985741
4694.000000;1.984053
4693.000000;1.982208
4692.000000;1.980157
4691.000000;1.978303
4690.000000;1.976892
4689.000000;1.975700
4688.000000;1.974385
4687.000000;1.972858
4686.000000;1.971177
4685.000000;1.969285
4684.000000;1.967111
4683.000000;1.964826
4682.000000;1.962762
4681.000000;1.961000
4680.000000;1.959181
4679.000000;1.956895
4678.000000;1.954230
4677.000000;1.951768
4676.000000;1.949980
4675.000000;1.948723
4674.000000;1.947452
4673.000000;1.945819
4672.000000;1.943881
4671.000000;1.941806
4670.000000;1.939626
4669.000000;1.937355
4668.000000;1.935141
4667.000000;1.933141
4666.000000;1.931373
4665.000000;1.929766
4664.000000;1.928286
4663.000000;1.926914
4662.000000;1.925550
4661.000000;1.924044
4660.000000;1.922269
4659.000000;1.920170
4658.000000;1.917821
4657.000000;1.915454
4656.000000;1.913278
4655.000000;1.911239
4654.000000;1.909119
4653.000000;1.906911
4652.000000;1.904932
4651.000000;1.903472
4650.000000;1.902480
4649.000000;1.901695
4648.000000;1.900923
4647.000000;1.900046
4646.000000;1.898935
4645.000000;1.897569
4644.000000;1.896119
4643.000000;1.894729
4642.000000;1.893264
4641.000000;1.891480
4640.000000;1.889411
4639.000000;1.887381
4638.000000;1.885629
4637.000000;1.884080
4636.000000;1.882514
4635.000000;1.880895
4634.000000;1.879464
4633.000000;1.878499
4632.000000;1.877938
4631.000000;1.877255
4630.000000;1.875910
4629.000000;1.873987
4628.000000;1.872208
4627.000000;1.871114
4626.000000;1.870391
4625.000000;1.869198
4624.000000;1.867108
4623.000000;1.864531
4622.000000;1.862240
4621.000000;1.860723
4620.000000;1.859991
4619.000000;1.859766
4618.000000;1.859705
4617.000000;1.859550
4616.000000;1.859144
4615.000000;1.858309
4614.000000;1.856821
4613.000000;1.854642
4612.000000;1.852144
4611.000000;1.849886
4610.000000;1.848135
4609.000000;1.846708
4608.000000;1.845289
4607.000000;1.843786
4606.000000;1.842381
4605.000000;1.841379
4604.000000;1.840990
4603.000000;1.841068
4602.000000;1.841006
4601.000000;1.840118
4600.000000;1.838249
4599.000000;1.835928
4598.000000;1.833877
4597.000000;1.832445
4596.000000;1.831527
4595.000000;1.830849
4594.000000;1.830239
4593.000000;1.829719
4592.000000;1.829421
4591.000000;1.829363
4590.000000;1.829285
4589.000000;1.828751
4588.000000;1.827456
4587.000000;1.825370
4586.000000;1.822689
4585.000000;1.819845
4584.000000;1.817539
4583.000000;1.816410
4582.000000;1.816432
4581.000000;1.816752
4580.000000;1.816406
4579.000000;1.815240
4578.000000;1.813994
4577.000000;1.813454
4576.000000;1.813642
4575.000000;1.813828
4574.000000;1.813248
4573.000000;1.811768
4572.000000;1.809880
4571.000000;1.808166
4570.000000;1.806861
4569.000000;1.805904
4568.000000;1.805233
4567.000000;1.804841
4566.000000;1.804604
4565.000000;1.804270
4564.000000;1.803654
4563.000000;1.802749
4562.000000;1.801645
4561.000000;1.800492
4560.000000;1.799505
4559.000000;1.798796
4558.000000;1.798188
4557.000000;1.797429
4556.000000;1.796643
4555.000000;1.796217
4554.000000;1.796087
4553.000000;1.795472
4552.000000;1.793697
4551.000000;1.791131
4550.000000;1.788910
4549.000000;1.787739
4548.000000;1.787277
4547.000000;1.786726
4546.000000;1.785777
4545.000000;1.784860
4544.000000;1.784608
4543.000000;1.785154
4542.000000;1.785885
4541.000000;1.785891
4540.000000;1.784753
4539.000000;1.782910
4538.000000;1.781181
4537.000000;1.779979
4536.000000;1.779112
4535.000000;1.778231
4534.000000;1.777254
4533.000000;1.776320
4532.000000;1.775558
4531.000000;1.775030
4530.000000;1.774785
4529.000000;1.774840
4528.000000;1.775102
4527.000000;1.775323
4526.000000;1.775152
4525.000000;1.774357
4524.000000;1.773127
4523.000000;1.772101
4522.000000;1.771863
4521.000000;1.772357
4520.000000;1.772913
4519.000000;1.772899
4518.000000;1.772209
4517.000000;1.771127
4516.000000;1.769947
4515.000000;1.768870
4514.000000;1.768107
4513.000000;1.767842
4512.000000;1.768082
4511.000000;1.768600
4510.000000;1.769000
4509.000000;1.768851
4508.000000;1.767911
4507.000000;1.766383
4506.000000;1.764891
4505.000000;1.764069
4504.000000;1.764100
4503.000000;1.764630
4502.000000;1.765105
4501.000000;1.765198
4500.000000;1.764979
4499.000000;1.764704
4498.000000;1.764432
4497.000000;1.763933
4496.000000;1.763039
4495.000000;1.761990
4494.000000;1.761221
4493.000000;1.760820
4492.000000;1.760452
4491.000000;1.759882
4490.000000;1.759341
4489.000000;1.759167
4488.000000;1.759311
4487.000000;1.759448
4486.000000;1.759467
4485.000000;1.759538
4484.000000;1.759761
4483.000000;1.760049
4482.000000;1.760400
4481.000000;1.760968
4480.000000;1.761690
4479.000000;1.762036
4478.000000;1.761393
4477.000000;1.759745
4476.000000;1.757832
4475.000000;1.756572
4474.000000;1.756349
4473.000000;1.756834
4472.000000;1.757436
4471.000000;1.757884
4470.000000;1.758373
4469.000000;1.759202
4468.000000;1.760417
4467.000000;1.761831
4466.000000;1.763232
4465.000000;1.764481
4464.000000;1.765506
4463.000000;1.766332
4462.000000;1.767067
4461.000000;1.767723
4460.000000;1.768121
4459.000000;1.768168
4458.000000;1.768186
4457.000000;1.768759
4456.000000;1.770204
4455.000000;1.772338
4454.000000;1.774716
4453.000000;1.776863
4452.000000;1.778328
4451.000000;1.778866
4450.000000;1.778761
4449.000000;1.778707
4448.000000;1.779183
4447.000000;1.780098
4446.000000;1.781194
4445.000000;1.782520
4444.000000;1.784188
4443.000000;1.785901
4442.000000;1.787173
4441.000000;1.788012
4440.000000;1.788948
4439.000000;1.790301
4438.000000;1.791785
4437.000000;1.793023
4436.000000;1.794173
4435.000000;1.795740
4434.000000;1.797884
4433.000000;1.800235
4432.000000;1.802389
4431.000000;1.804309
4430.000000;1.806209
4429.000000;1.808279
4428.000000;1.810658
4427.000000;1.813504
4426.000000;1.816815
4425.000000;1.820182
4424.000000;1.822936
4423.000000;1.824736
4422.000000;1.825990
4421.000000;1.827529
4420.000000;1.829835
4419.000000;1.832660
4418.000000;1.835419
4417.000000;1.837855
4416.000000;1.840179
4415.000000;1.842602
4414.000000;1.844994
4413.000000;1.847142
4412.000000;1.849177
4411.000000;1.851480
4410.000000;1.854177
4409.000000;1.856975
4408.000000;1.859591
4407.000000;1.862124
4406.000000;1.864848
4405.000000;1.867852
4404.000000;1.871083
4403.000000;1.874592
4402.000000;1.878358
4401.000000;1.881922
4400.000000;1.884618
4399.000000;1.886396
4398.000000;1.888110
4397.000000;1.890719
4396.000000;1.894341
4395.000000;1.898326
4394.000000;1.902090
4393.000000;1.905593
4392.000000;1.909110
4391.000000;1.912805
4390.000000;1.916472
4389.000000;1.919515
4388.000000;1.921423
4387.000000;1.922586
4386.000000;1.924378
4385.000000;1.927865
4384.000000;1.932457
4383.000000;1.936384
4382.000000;1.938637
4381.000000;1.939875
4380.000000;1.941185
4379.000000;1.942738
4378.000000;1.944156
4377.000000;1.945586
4376.000000;1.947655
4375.000000;1.950513
4374.000000;1.953543
4373.000000;1.956086
4372.000000;1.958027
4371.000000;1.959623
4370.000000;1.961121
4369.000000;1.962692
4368.000000;1.964449
4367.000000;1.966490
4366.000000;1.968991
4365.000000;1.972031
4364.000000;1.975170
4363.000000;1.977540
4362.000000;1.978830
4361.000000;1.979978
4360.000000;1.982275
4359.000000;1.985855
4358.000000;1.989629
4357.000000;1.992696
4356.000000;1.995153
4355.000000;1.997366
4354.000000;1.999126
4353.000000;2.000014
4352.000000;2.000266
4351.000000;2.000857
4350.000000;2.002763
4349.000000;2.006042
4348.000000;2.009339
4347.000000;2.010658
4346.000000;2.009382
4345.000000;2.007385
4344.000000;2.007512
4343.000000;2.010781
4342.000000;2.015576
4341.000000;2.019854
4340.000000;2.023252
4339.000000;2.026194
4338.000000;2.028089
4337.000000;2.028032
4336.000000;2.026799
4335.000000;2.026523
4334.000000;2.028183
4333.000000;2.030528
4332.000000;2.031807
4331.000000;2.031793
4330.000000;2.031508
4329.000000;2.031648
4328.000000;2.032104
4327.000000;2.032581
4326.000000;2.033069
4325.000000;2.033956
4324.000000;2.035857
4323.000000;2.038917
4322.000000;2.042093
4321.000000;2.043738
4320.000000;2.043457
4319.000000;2.042799
4318.000000;2.043537
4317.000000;2.045903
4316.000000;2.048950
4315.000000;2.052101
4314.000000;2.055687
4313.000000;2.059990
4312.000000;2.064425
4311.000000;2.067891
4310.000000;2.069611
4309.000000;2.069618
4308.000000;2.068759
4307.000000;2.068164
4306.000000;2.068207
4305.000000;2.068112
4304.000000;2.066905
4303.000000;2.064707
4302.000000;2.062898
4301.000000;2.062888
4300.000000;2.064919
4299.000000;2.068146
4298.000000;2.071489
4297.000000;2.074516
4296.000000;2.078008
4295.000000;2.083544
4294.000000;2.091758
4293.000000;2.100668
4292.000000;2.106527
4291.000000;2.107241
4290.000000;2.104420
4289.000000;2.101384
4288.000000;2.100059
4287.000000;2.100499
4286.000000;2.102510
4285.000000;2.106204
4284.000000;2.110871
4283.000000;2.114759
4282.000000;2.116849
4281.000000;2.118198
4280.000000;2.120729
4279.000000;2.124932
4278.000000;2.129361
4277.000000;2.132155
4276.000000;2.132682
4275.000000;2.132079
4274.000000;2.132763
4273.000000;2.137100
4272.000000;2.145410
4271.000000;2.154848
4270.000000;2.161223
4269.000000;2.162973
4268.000000;2.162643
4267.000000;2.163744
4266.000000;2.167314
4265.000000;2.171627
4264.000000;2.174361
4263.000000;2.175175
4262.000000;2.176403
4261.000000;2.180831
4260.000000;2.188580
4259.000000;2.196514
4258.000000;2.201494
4257.000000;2.203986
4256.000000;2.207080
4255.000000;2.212253
4254.000000;2.217679
4253.000000;2.220765
4252.000000;2.221001
4251.000000;2.219849
4250.000000;2.219201
4249.000000;2.220853
4248.000000;2.225751
4247.000000;2.232449
4246.000000;2.237610
4245.000000;2.239812
4244.000000;2.241841
4243.000000;2.247047
4242.000000;2.254794
4241.000000;2.262144
4240.000000;2.268852
4239.000000;2.277315
4238.000000;2.287922
4237.000000;2.297764
4236.000000;2.304428
4235.000000;2.308566
4234.000000;2.312016
4233.000000;2.315384
4232.000000;2.317822
4231.000000;2.317472
4230.000000;2.312359
4229.000000;2.303100
4228.000000;2.295009
4227.000000;2.294320
4226.000000;2.301115
4225.000000;2.308723
4224.000000;2.311746
4223.000000;2.311792
4222.000000;2.312867
4221.000000;2.315593
4220.000000;2.319556
4219.000000;2.327578
4218.000000;2.342524
4217.000000;2.361289
4216.000000;2.376768
4215.000000;2.385303
4214.000000;2.386885
4213.000000;2.379795
4212.000000;2.363312
4211.000000;2.345847
4210.000000;2.341393
4209.000000;2.355815
4208.000000;2.379695
4207.000000;2.396426
4206.000000;2.398984
4205.000000;2.395334
4204.000000;2.396918
4203.000000;2.407326
4202.000000;2.422761
4201.000000;2.438087
4200.000000;2.449734
4199.000000;2.456218
4198.000000;2.457872
4197.000000;2.454871
4196.000000;2.448307
4195.000000;2.443974
4194.000000;2.447626
4193.000000;2.456994
4192.000000;2.462572
4191.000000;2.457600
4190.000000;2.449684
4189.000000;2.455310
4188.000000;2.480650
4187.000000;2.512587
4186.000000;2.530550
4185.000000;2.528310
4184.000000;2.514964
4183.000000;2.498845
4182.000000;2.481858
4181.000000;2.465060
4180.000000;2.452762
4179.000000;2.448972
4178.000000;2.453329
4177.000000;2.463612
4176.000000;2.478877
4175.000000;2.497492
4174.000000;2.515129
4173.000000;2.525229
4172.000000;2.526836
4171.000000;2.531401
4170.000000;2.549014
4169.000000;2.574586
4168.000000;2.589265
4167.000000;2.576022
4166.000000;2.543083
4165.000000;2.517617
4164.000000;2.515734
4163.000000;2.530433
4162.000000;2.540281
4161.000000;2.535129
4160.000000;2.529221
4159.000000;2.536357
4158.000000;2.549391
4157.000000;2.552490
4156.000000;2.541668
4155.000000;2.524474
4154.000000;2.508689
4153.000000;2.497389
4152.000000;2.494158
4151.000000;2.502106
4150.000000;2.516000
4149.000000;2.524014
4148.000000;2.524123
4147.000000;2.531344
4146.000000;2.556332
4145.000000;2.585956
4144.000000;2.593413
4143.000000;2.572969
4142.000000;2.547773
4141.000000;2.537305
4140.000000;2.541029
4139.000000;2.554354
4138.000000;2.583906
4137.000000;2.634972
4136.000000;2.690036
4135.000000;2.713529
4134.000000;2.697794
4133.000000;2.675934
4132.000000;2.669964
4131.000000;2.669542
4130.000000;2.651559
4129.000000;2.610020
4128.000000;2.574141
4127.000000;2.579053
4126.000000;2.630070
4125.000000;2.694719
4124.000000;2.728566
4123.000000;2.728363
4122.000000;2.740957
4121.000000;2.796204
4120.000000;2.850988
4119.000000;2.827446
4118.000000;2.740284
4117.000000;2.653492
4116.000000;2.585924
4115.000000;2.534784
4114.000000;2.508791
4113.000000;2.527527
4112.000000;2.598059
4111.000000;2.692753
4110.000000;2.749087
4109.000000;2.717506
4108.000000;2.634561
4107.000000;2.566160
4106.000000;2.536178
4105.000000;2.550311
4104.000000;2.610572
4103.000000;2.695749
4102.000000;2.730039
4101.000000;2.683511
4100.000000;2.623780
4099.000000;2.601010
4098.000000;2.644654
4097.000000;2.780875
4096.000000;2.981616
4095.000000;3.102058
4094.000000;3.106192
4093.000000;2.861252
4092.000000;2.620007
4091.000000;2.478442
4090.000000;2.408136
4089.000000;2.384633
4088.000000;2.386101
4087.000000;2.397958
4086.000000;2.417404
4085.000000;2.448399
4084.000000;2.490458
4083.000000;2.537189
4082.000000;2.586581
4081.000000;2.638479
4080.000000;2.665817
4079.000000;2.617408
4078.000000;2.508465
4077.000000;2.408366
4076.000000;2.352063
4075.000000;2.341658
4074.000000;2.370345
4073.000000;2.427260
4072.000000;2.487631
4071.000000;2.515002
4070.000000;2.474492
4069.000000;2.412558
4068.000000;2.418165
4067.000000;2.512220
4066.000000;2.600016
4065.000000;2.614855
4064.000000;2.616510
4063.000000;2.568245
4062.000000;2.487040
4061.000000;2.444998
4060.000000;2.462181
4059.000000;2.509159
4058.000000;2.509750
4057.000000;2.446130
4056.000000;2.384167
4055.000000;2.349868
4054.000000;2.321389
4053.000000;2.284344
4052.000000;2.255368
4051.000000;2.260533
4050.000000;2.312495
4049.000000;2.400022
4048.000000;2.490670
4047.000000;2.549970
4046.000000;2.569246
4045.000000;2.556255
4044.000000;2.526701
4043.000000;2.508424
4042.000000;2.517576
4041.000000;2.541990
4040.000000;2.554725
4039.000000;2.542555
4038.000000;2.507933
4037.000000;2.461137
4036.000000;2.422291
4035.000000;2.403561
4034.000000;2.388568
4033.000000;2.364698
4032.000000;2.353131
4031.000000;2.372958
4030.000000;2.431734
4029.000000;2.515956
4028.000000;2.579252
4027.000000;2.588516
4026.000000;2.554180
4025.000000;2.538357
4024.000000;2.593688
4023.000000;2.672564
4022.000000;2.672974
4021.000000;2.621768
4020.000000;2.553068
4019.000000;2.480824
4018.000000;2.437207
4017.000000;2.438628
4016.000000;2.498947
4015.000000;2.593475
4014.000000;2.648906
4013.000000;2.686824
4012.000000;2.816682
4011.000000;2.893148
4010.000000;2.892947
4009.000000;3.246277
4008.000000;3.119310
4007.000000;2.767326
4006.000000;2.747498
4005.000000;2.878783
4004.000000;2.827817
4003.000000;2.601249
4002.000000;2.461632
4001.000000;2.387240
4000.000000;2.355130
3999.000000;2.354939
3998.000000;2.380420
3997.000000;2.432920
3996.000000;2.488505
3995.000000;2.513902
3994.000000;2.522306
3993.000000;2.527063
3992.000000;2.507718
3991.000000;2.485400
3990.000000;2.522507
3989.000000;2.681340
3988.000000;2.890391
3987.000000;2.862234
3986.000000;2.803452
3985.000000;2.863581
3984.000000;2.907286
3983.000000;2.809631
3982.000000;2.764489
3981.000000;2.816346
3980.000000;2.927444
3979.000000;3.150902
3978.000000;3.292160
3977.000000;3.101730
3976.000000;2.960963
3975.000000;2.890763
3974.000000;2.925043
3973.000000;3.023328
3972.000000;2.914331
3971.000000;2.713728
3970.000000;2.596858
3969.000000;2.559346
3968.000000;2.612201
3967.000000;2.778951
3966.000000;3.059307
3965.000000;3.198239
3964.000000;2.952211
3963.000000;2.737163
3962.000000;2.672039
3961.000000;2.718422
3960.000000;2.775479
3959.000000;2.732498
3958.000000;2.630661
3957.000000;2.565405
3956.000000;2.565444
3955.000000;2.632416
3954.000000;2.755029
3953.000000;2.831738
3952.000000;2.712234
3951.000000;2.509319
3950.000000;2.365472
3949.000000;2.319822
3948.000000;2.368654
3947.000000;2.487161
3946.000000;2.611193
3945.000000;2.654540
3944.000000;2.639915
3943.000000;2.652529
3942.000000;2.727757
3941.000000;2.897702
3940.000000;3.289770
3939.000000;3.974527
3938.000000;3.969405
3937.000000;3.435516
3936.000000;3.090232
3935.000000;2.945299
3934.000000;2.933513
3933.000000;2.958258
3932.000000;2.902554
3931.000000;2.842362
3930.000000;2.821866
3929.000000;2.807533
3928.000000;2.820929
3927.000000;2.906380
3926.000000;3.063975
3925.000000;3.197648
3924.000000;3.322992
3923.000000;3.665604
3922.000000;3.511273
3921.000000;3.218480
3920.000000;3.121610
3919.000000;2.916508
3918.000000;2.792506
3917.000000;2.814779
3916.000000;2.867770
3915.000000;2.879515
3914.000000;2.920151
3913.000000;3.035901
3912.000000;3.200526
3911.000000;3.320842
3910.000000;3.369929
3909.000000;3.180256
3908.000000;2.835235
3907.000000;2.629762
3906.000000;2.513601
3905.000000;2.423795
3904.000000;2.400643
3903.000000;2.532498
3902.000000;2.827186
3901.000000;2.879726
3900.000000;2.789544
3899.000000;2.806587
3898.000000;2.835127
3897.000000;2.832325
3896.000000;2.805759
3895.000000;2.849895
3894.000000;3.096820
3893.000000;3.034201
3892.000000;2.759349
3891.000000;2.907982
3890.000000;3.322755
3889.000000;2.938737
3888.000000;2.689626
3887.000000;2.702079
3886.000000;2.865218
3885.000000;3.139951
3884.000000;3.034306
3883.000000;2.886478
3882.000000;2.926922
3881.000000;2.824572
3880.000000;2.703813
3879.000000;2.685751
3878.000000;2.726616
3877.000000;2.774217
3876.000000;2.775555
3875.000000;2.743131
3874.000000;2.714241
3873.000000;2.707489
3872.000000;2.723664
3871.000000;2.704137
3870.000000;2.618956
3869.000000;2.544295
3868.000000;2.506683
3867.000000;2.510315
3866.000000;2.565225
3865.000000;2.597574
3864.000000;2.559863
3863.000000;2.556455
3862.000000;2.817865
3861.000000;3.278888
3860.000000;3.040021
3859.000000;2.948190
3858.000000;2.983748
3857.000000;2.992458
3856.000000;3.037110
3855.000000;3.235412
3854.000000;3.414817
3853.000000;3.005594
3852.000000;2.801899
3851.000000;2.772919
3850.000000;2.872360
3849.000000;3.166892
3848.000000;3.134350
3847.000000;2.876775
3846.000000;2.778534
3845.000000;2.771871
3844.000000;2.762231
3843.000000;2.751595
3842.000000;2.807070
3841.000000;2.905078
3840.000000;3.027798
3839.000000;3.254166
3838.000000;3.378436
3837.000000;3.169237
3836.000000;3.021293
3835.000000;2.949779
3834.000000;2.921552
3833.000000;2.954215
3832.000000;3.076893
3831.000000;3.061755
3830.000000;2.840789
3829.000000;2.692270
3828.000000;2.651957
3827.000000;2.688818
3826.000000;2.692144
3825.000000;2.605183
3824.000000;2.521453
3823.000000;2.554929
3822.000000;2.663395
3821.000000;2.722235
3820.000000;2.771606
3819.000000;2.827466
3818.000000;2.861062
3817.000000;2.923667
3816.000000;3.036789
3815.000000;2.961496
3814.000000;2.850659
3813.000000;2.897102
3812.000000;2.891423
3811.000000;2.747018
3810.000000;2.632299
3809.000000;2.581476
3808.000000;2.595145
3807.000000;2.679976
3806.000000;2.816467
3805.000000;2.967059
3804.000000;3.096277
3803.000000;2.920833
3802.000000;2.697783
3801.000000;2.679292
3800.000000;2.823005
3799.000000;3.109425
3798.000000;3.528322
3797.000000;3.692237
3796.000000;3.911375
3795.000000;4.000527
3794.000000;3.410670
3793.000000;3.139221
3792.000000;2.987859
3791.000000;2.988952
3790.000000;3.264560
3789.000000;3.031347
3788.000000;2.669895
3787.000000;2.595159
3786.000000;2.680814
3785.000000;3.078236
3784.000000;3.701979
3783.000000;3.115017
3782.000000;3.022912
3781.000000;2.982305
3780.000000;3.085790
3779.000000;3.328347
3778.000000;3.044988
3777.000000;2.825530
3776.000000;2.740825
3775.000000;2.756000
3774.000000;2.799289
3773.000000;2.689874
3772.000000;2.564685
3771.000000;2.569925
3770.000000;2.678709
3769.000000;3.011768
3768.000000;3.590648
3767.000000;3.092800
3766.000000;3.209888
3765.000000;3.430153
3764.000000;2.796528
3763.000000;2.556461
3762.000000;2.508404
3761.000000;2.655108
3760.000000;2.874680
3759.000000;2.933091
3758.000000;3.057546
3757.000000;3.151450
3756.000000;3.142837
3755.000000;3.092453
3754.000000;2.994216
3753.000000;2.890768
3752.000000;2.773601
3751.000000;2.663656
3750.000000;2.644252
3749.000000;2.701807
3748.000000;2.748277
3747.000000;2.725070
3746.000000;2.714489
3745.000000;2.845354
3744.000000;2.835015
3743.000000;2.714473
3742.000000;2.713279
3741.000000;2.713272
3740.000000;2.550166
3739.000000;2.416122
3738.000000;2.363890
3737.000000;2.673285
3736.000000;3.645595
3735.000000;2.795112
3734.000000;2.721128
3733.000000;2.818217
3732.000000;2.892832
3731.000000;2.901627
3730.000000;2.770600
3729.000000;2.703731
3728.000000;2.720443
3727.000000;2.841954
3726.000000;2.925161
3725.000000;2.868202
3724.000000;2.776688
3723.000000;2.739098
3722.000000;2.737836
3721.000000;2.749387
3720.000000;2.803183
3719.000000;2.944542
3718.000000;2.987825
3717.000000;2.846730
3716.000000;2.740448
3715.000000;2.670522
3714.000000;2.604216
3713.000000;2.562871
3712.000000;2.590746
3711.000000;2.696037
3710.000000;2.835667
3709.000000;2.978123
3708.000000;3.102048
3707.000000;3.202441
3706.000000;3.511396
3705.000000;4.157730
3704.000000;3.492643
3703.000000;3.017972
3702.000000;2.816519
3701.000000;2.842194
3700.000000;3.102296
3699.000000;3.529812
3698.000000;3.378592
3697.000000;3.011237
3696.000000;2.785126
3695.000000;2.704608
3694.000000;2.741035
3693.000000;2.793983
3692.000000;2.782691
3691.000000;2.719962
3690.000000;2.676563
3689.000000;2.698091
3688.000000;2.765976
3687.000000;2.826856
3686.000000;2.891502
3685.000000;2.974383
3684.000000;3.010844
3683.000000;3.027576
3682.000000;3.147155
3681.000000;3.351784
3680.000000;3.124510
3679.000000;2.806100
3678.000000;2.598850
3677.000000;2.605972
3676.000000;2.996478
3675.000000;3.101619
3674.000000;2.754713
3673.000000;2.658467
3672.000000;2.649067
3671.000000;2.761718
3670.000000;2.955869
3669.000000;3.193710
3668.000000;3.353636
3667.000000;3.316962
3666.000000;3.376349
3665.000000;3.440199
3664.000000;3.436907
3663.000000;3.263727
3662.000000;2.986886
3661.000000;2.820677
3660.000000;2.767741
3659.000000;2.885674
3658.000000;3.151278
3657.000000;2.949922
3656.000000;2.888987
3655.000000;2.930865
3654.000000;2.623731
3653.000000;2.381498
3652.000000;2.266958
3651.000000;2.262091
3650.000000;2.355040
3649.000000;2.561882
3648.000000;2.857734
3647.000000;2.939398
3646.000000;2.858303
3645.000000;2.789392
3644.000000;2.699898
3643.000000;2.658655
3642.000000;2.718841
3641.000000;2.983092
3640.000000;3.288728
3639.000000;2.929847
3638.000000;2.750000
3637.000000;2.725654
3636.000000;2.656191
3635.000000;2.587319
3634.000000;2.613594
3633.000000;2.768943
3632.000000;2.865102
3631.000000;2.797779
3630.000000;2.864787
3629.000000;2.965644
3628.000000;2.879904
3627.000000;2.779104
3626.000000;2.751674
3625.000000;2.807700
3624.000000;3.039431
3623.000000;3.490297
3622.000000;2.978136
3621.000000;2.599041
3620.000000;2.480947
3619.000000;2.521944
3618.000000;2.681801
3617.000000;2.865964
3616.000000;2.894740
3615.000000;2.744896
3614.000000;2.674656
3613.000000;2.737418
3612.000000;2.795021
3611.000000;2.753273
3610.000000;2.721027
3609.000000;2.761900
3608.000000;2.849794
3607.000000;2.924822
3606.000000;2.958044
3605.000000;3.043201
3604.000000;3.183995
3603.000000;3.274462
3602.000000;3.272689
3601.000000;3.032177
3600.000000;2.811932
3599.000000;2.734924
3598.000000;2.806386
3597.000000;3.070672
3596.000000;3.188511
3595.000000;3.027920
3594.000000;3.019266
3593.000000;3.112478
3592.000000;3.157990
3591.000000;3.019257
3590.000000;3.122070
3589.000000;3.182972
3588.000000;2.824078
3587.000000;2.715711
3586.000000;2.789916
3585.000000;2.986926
3584.000000;3.344268
3583.000000;3.534992
3582.000000;3.430915
3581.000000;3.341345
3580.000000;3.209031
3579.000000;3.116693
3578.000000;3.106323
3577.000000;3.103221
3576.000000;3.063769
3575.000000;3.037827
3574.000000;3.019403
3573.000000;2.946496
3572.000000;3.034784
3571.000000;3.420199
3570.000000;3.052123
3569.000000;2.805794
3568.000000;2.944199
3567.000000;3.112736
3566.000000;3.045829
3565.000000;3.111981
3564.000000;3.375433
3563.000000;3.716459
3562.000000;3.857098
3561.000000;3.278374
3560.000000;3.020099
3559.000000;3.040163
3558.000000;3.121543
3557.000000;3.102911
3556.000000;3.056164
3555.000000;2.982230
3554.000000;2.859329
3553.000000;2.766403
3552.000000;2.747941
3551.000000;2.816201
3550.000000;2.997035
3549.000000;3.118563
3548.000000;2.980775
3547.000000;2.875479
3546.000000;2.818261
3545.000000;2.771808
3544.000000;2.774589
3543.000000;2.831473
3542.000000;2.852709
3541.000000;2.793108
3540.000000;2.755545
3539.000000;2.812121
3538.000000;3.031541
3537.000000;3.283939
3536.000000;3.205728
3535.000000;3.104895
3534.000000;3.135044
3533.000000;3.553331
3532.000000;3.428505
3531.000000;3.258865
3530.000000;3.650261
3529.000000;3.459025
3528.000000;3.465072
3527.000000;3.167908
3526.000000;2.873567
3525.000000;2.839969
3524.000000;2.984633
3523.000000;3.415082
3522.000000;3.570485
3521.000000;3.121081
3520.000000;2.985502
3519.000000;2.966005
3518.000000;2.973169
3517.000000;2.962569
3516.000000;2.946028
3515.000000;2.962276
3514.000000;3.111248
3513.000000;3.297088
3512.000000;3.022115
3511.000000;2.839127
3510.000000;2.869038
3509.000000;3.007375
3508.000000;3.109211
3507.000000;3.091914
3506.000000;3.194970
3505.000000;3.284822
3504.000000;3.062058
3503.000000;3.030683
3502.000000;3.225990
3501.000000;3.301684
3500.000000;3.153986
3499.000000;3.013181
3498.000000;2.977749
3497.000000;3.083375
3496.000000;3.280222
3495.000000;3.299487
3494.000000;3.137355
3493.000000;2.967934
3492.000000;2.831990
3491.000000;2.751010
3490.000000;2.728610
3489.000000;2.774106
3488.000000;2.927896
3487.000000;3.241777
3486.000000;3.256461
3485.000000;3.093996
3484.000000;3.218573
3483.000000;3.184904
3482.000000;2.926634
3481.000000;2.792030
3480.000000;2.785832
3479.000000;2.902953
3478.000000;3.074565
3477.000000;3.041803
3476.000000;2.864239
3475.000000;2.746657
3474.000000;2.733928
3473.000000;2.844350
3472.000000;3.120408
3471.000000;3.358794
3470.000000;3.173361
3469.000000;3.072147
3468.000000;3.058225
3467.000000;3.097704
3466.000000;3.125572
3465.000000;3.090431
3464.000000;3.128917
3463.000000;3.188860
3462.000000;3.099688
3461.000000;3.011076
3460.000000;2.989238
3459.000000;3.007730
3458.000000;3.047076
3457.000000;3.127290
3456.000000;3.466898
3455.000000;3.537520
3454.000000;3.258039
3453.000000;3.234176
3452.000000;3.186871
3451.000000;3.160878
3450.000000;3.122373
3449.000000;3.082798
3448.000000;3.115567
3447.000000;3.006746
3446.000000;2.876657
3445.000000;2.874576
3444.000000;2.957791
3443.000000;2.945801
3442.000000;2.845515
3441.000000;2.832347
3440.000000;3.003260
3439.000000;3.367333
3438.000000;3.342647
3437.000000;3.595121
3436.000000;4.174541
3435.000000;3.379941
3434.000000;3.373208
3433.000000;3.346187
3432.000000;3.285180
3431.000000;3.125864
3430.000000;2.898383
3429.000000;2.769396
3428.000000;2.742746
3427.000000;2.808670
3426.000000;2.893921
3425.000000;2.871532
3424.000000;2.804772
3423.000000;2.809939
3422.000000;2.909430
3421.000000;3.102877
3420.000000;3.317265
3419.000000;3.092816
3418.000000;2.874063
3417.000000;2.813882
3416.000000;2.863968
3415.000000;3.020224
3414.000000;3.298330
3413.000000;3.410802
3412.000000;3.334798
3411.000000;3.412779
3410.000000;3.343336
3409.000000;3.159803
3408.000000;3.052199
3407.000000;3.051837
3406.000000;3.293842
3405.000000;3.782679
3404.000000;3.436567
3403.000000;3.126645
3402.000000;2.957204
3401.000000;2.864929
3400.000000;2.905178
3399.000000;3.215486
3398.000000;3.169283
3397.000000;2.947873
3396.000000;3.062363
3395.000000;3.237076
3394.000000;2.990043
3393.000000;2.836011
3392.000000;2.829324
3391.000000;2.924109
3390.000000;3.052912
3389.000000;3.131709
3388.000000;3.339536
3387.000000;3.745796
3386.000000;3.872598
3385.000000;3.615711
3384.000000;3.035827
3383.000000;2.837173
3382.000000;2.852541
3381.000000;3.116163
3380.000000;3.750353
3379.000000;3.919837
3378.000000;3.676919
3377.000000;3.347430
3376.000000;3.035929
3375.000000;2.844203
3374.000000;2.765577
3373.000000;2.808407
3372.000000;3.000518
3371.000000;3.254016
3370.000000;3.141366
3369.000000;3.021158
3368.000000;2.932714
3367.000000;2.796347
3366.000000;2.729166
3365.000000;2.740554
3364.000000;2.706521
3363.000000;2.639913
3362.000000;2.669790
3361.000000;2.880785
3360.000000;3.331045
3359.000000;3.215774
3358.000000;3.070098
3357.000000;3.077708
3356.000000;3.126929
3355.000000;3.196213
3354.000000;3.231924
3353.000000;3.187329
3352.000000;3.052357
3351.000000;2.905523
3350.000000;2.811219
3349.000000;2.763336
3348.000000;2.728411
3347.000000;2.703725
3346.000000;2.741762
3345.000000;2.891562
3344.000000;3.448484
3343.000000;3.185792
3342.000000;2.877013
3341.000000;2.860748
3340.000000;2.975354
3339.000000;3.074940
3338.000000;3.011785
3337.000000;3.084262
3336.000000;3.197126
3335.000000;3.018672
3334.000000;2.968459
3333.000000;2.997404
3332.000000;2.944286
3331.000000;2.915269
3330.000000;2.985142
3329.000000;3.076497
3328.000000;3.053974
3327.000000;3.001138
3326.000000;3.037566
3325.000000;3.207658
3324.000000;3.545424
3323.000000;3.714384
3322.000000;3.595110
3321.000000;3.556225
3320.000000;3.562011
3319.000000;3.546573
3318.000000;3.435771
3317.000000;3.411425
3316.000000;3.371907
3315.000000;3.252450
3314.000000;3.468393
3313.000000;3.427104
3312.000000;3.019171
3311.000000;2.977447
3310.000000;3.395560
3309.000000;3.242806
3308.000000;2.939657
3307.000000;2.927721
3306.000000;3.013439
3305.000000;3.288131
3304.000000;3.990615
3303.000000;3.101757
3302.000000;2.895439
3301.000000;2.826466
3300.000000;2.850983
3299.000000;2.939184
3298.000000;3.144181
3297.000000;3.301432
3296.000000;3.195469
3295.000000;3.165245
3294.000000;3.111204
3293.000000;3.002134
3292.000000;2.947245
3291.000000;2.958721
3290.000000;3.024824
3289.000000;3.127416
3288.000000;3.278339
3287.000000;3.478659
3286.000000;3.683219
3285.000000;3.712475
3284.000000;3.157536
3283.000000;2.992282
3282.000000;3.073700
3281.000000;3.305066
3280.000000;3.250477
3279.000000;3.161308
3278.000000;3.203018
3277.000000;3.317826
3276.000000;3.681505
3275.000000;3.615730
3274.000000;3.031588
3273.000000;2.823568
3272.000000;2.778849
3271.000000;2.960393
3270.000000;3.433888
3269.000000;3.211829
3268.000000;2.976938
3267.000000;3.031756
3266.000000;3.140123
3265.000000;3.311361
3264.000000;3.248565
3263.000000;2.995312
3262.000000;2.911676
3261.000000;3.023175
3260.000000;3.579831
3259.000000;3.121869
3258.000000;2.904600
3257.000000;2.913257
3256.000000;3.015580
3255.000000;3.077422
3254.000000;2.960772
3253.000000;2.916152
3252.000000;3.022089
3251.000000;3.252698
3250.000000;3.285562
3249.000000;3.116902
3248.000000;3.326713
3247.000000;3.762745
3246.000000;3.177802
3245.000000;3.015442
3244.000000;2.782581
3243.000000;2.602848
3242.000000;2.572531
3241.000000;2.688286
3240.000000;3.098273
3239.000000;3.372948
3238.000000;3.107344
3237.000000;3.195737
3236.000000;3.470296
3235.000000;3.806013
3234.000000;3.210805
3233.000000;2.884520
3232.000000;2.783459
3231.000000;2.844775
3230.000000;3.016387
3229.000000;3.068431
3228.000000;3.136844
3227.000000;3.603454
3226.000000;3.096930
3225.000000;2.795957
3224.000000;2.676929
3223.000000;2.666984
3222.000000;2.741610
3221.000000;2.867724
3220.000000;2.971160
3219.000000;2.997043
3218.000000;2.972973
3217.000000;2.951474
3216.000000;2.930394
3215.000000;2.882493
3214.000000;2.862924
3213.000000;2.868821
3212.000000;2.782777
3211.000000;2.726125
3210.000000;2.817326
3209.000000;3.036500
3208.000000;3.151856
3207.000000;3.340169
3206.000000;3.586617
3205.000000;3.142953
3204.000000;3.030058
3203.000000;3.151863
3202.000000;3.489300
3201.000000;3.588383
3200.000000;3.621151
3199.000000;4.254485
3198.000000;3.510960
3197.000000;3.288583
3196.000000;3.231964
3195.000000;3.230042
3194.000000;3.239787
3193.000000;3.247369
3192.000000;3.209355
3191.000000;3.220574
3190.000000;3.305057
3189.000000;3.312995
3188.000000;3.288195
3187.000000;3.389080
3186.000000;3.421403
3185.000000;3.287173
3184.000000;3.220603
3183.000000;3.249079
3182.000000;3.283235
3181.000000;3.221135
3180.000000;3.140110
3179.000000;3.115464
3178.000000;3.091526
3177.000000;2.973671
3176.000000;2.851268
3175.000000;2.799852
3174.000000;2.840148
3173.000000;2.984174
3172.000000;3.180045
3171.000000;3.231487
3170.000000;3.156266
3169.000000;3.097518
3168.000000;3.194568
3167.000000;3.572678
3166.000000;3.495028
3165.000000;3.218536
3164.000000;3.247564
3163.000000;3.552176
3162.000000;3.871681
3161.000000;3.391012
3160.000000;3.101861
3159.000000;2.866319
3158.000000;2.716502
3157.000000;2.656334
3156.000000;2.675334
3155.000000;2.736458
3154.000000;2.780906
3153.000000;2.786545
3152.000000;2.821880
3151.000000;2.977084
3150.000000;3.258103
3149.000000;3.206601
3148.000000;3.165421
3147.000000;3.222935
3146.000000;3.206653
3145.000000;3.122337
3144.000000;3.045648
3143.000000;2.957291
3142.000000;2.840997
3141.000000;2.733170
3140.000000;2.673986
3139.000000;2.663995
3138.000000;2.694264
3137.000000;2.764796
3136.000000;3.044465
3135.000000;3.190593
3134.000000;2.906874
3133.000000;2.891909
3132.000000;3.278505
3131.000000;3.307803
3130.000000;3.046039
3129.000000;3.177523
3128.000000;3.882482
3127.000000;3.588904
3126.000000;3.400530
3125.000000;3.165434
3124.000000;2.901901
3123.000000;2.780794
3122.000000;2.749839
3121.000000;2.765349
3120.000000;2.799529
3119.000000;2.846957
3118.000000;2.882312
3117.000000;2.910763
3116.000000;3.007607
3115.000000;3.175310
3114.000000;3.238015
3113.000000;3.136620
3112.000000;3.063194
3111.000000;3.063760
3110.000000;3.078045
3109.000000;3.054499
3108.000000;3.024376
3107.000000;3.030470
3106.000000;3.053766
3105.000000;3.048540
3104.000000;3.002075
3103.000000;2.988448
3102.000000;3.020742
3101.000000;3.478875
3100.000000;3.289639
3099.000000;2.915964
3098.000000;2.855425
3097.000000;2.952447
3096.000000;3.182679
3095.000000;3.227795
3094.000000;3.074728
3093.000000;3.034021
3092.000000;2.999927
3091.000000;2.924775
3090.000000;2.901116
3089.000000;2.923054
3088.000000;2.968432
3087.000000;3.064671
3086.000000;3.220917
3085.000000;3.372679
3084.000000;3.303959
3083.000000;3.128486
3082.000000;3.081685
3081.000000;3.216373
3080.000000;3.462486
3079.000000;3.355417
3078.000000;3.127982
3077.000000;2.954856
3076.000000;2.828879
3075.000000;2.772368
3074.000000;2.775344
3073.000000;2.840664
3072.000000;3.002000
3071.000000;3.317720
3070.000000;3.767681
3069.000000;4.067329
3068.000000;3.929759
3067.000000;3.390026
3066.000000;3.041803
3065.000000;2.880385
3064.000000;2.852327
3063.000000;2.892469
3062.000000;2.914894
3061.000000;2.929656
3060.000000;3.048750
3059.000000;3.244361
3058.000000;3.190640
3057.000000;3.129760
3056.000000;3.235659
3055.000000;3.353313
3054.000000;3.312608
3053.000000;3.128242
3052.000000;2.945378
3051.000000;2.886738
3050.000000;2.942510
3049.000000;3.536067
3048.000000;3.329655
3047.000000;2.906358
3046.000000;2.849593
3045.000000;2.948337
3044.000000;3.213196
3043.000000;3.411522
3042.000000;3.322514
3041.000000;3.073568
3040.000000;2.938320
3039.000000;2.938688
3038.000000;2.988509
3037.000000;2.981826
3036.000000;2.921046
3035.000000;2.897048
3034.000000;2.895287
3033.000000;2.848056
3032.000000;2.836967
3031.000000;2.926039
3030.000000;3.028905
3029.000000;3.078952
3028.000000;3.177857
3027.000000;3.176812
3026.000000;3.046271
3025.000000;2.998376
3024.000000;3.076058
3023.000000;3.348148
3022.000000;3.971326
3021.000000;3.577565
3020.000000;3.282393
3019.000000;3.157872
3018.000000;3.094605
3017.000000;3.147507
3016.000000;3.294120
3015.000000;3.019989
3014.000000;2.714216
3013.000000;2.560664
3012.000000;2.529052
3011.000000;2.574489
3010.000000;2.621868
3009.000000;2.647567
3008.000000;2.695685
3007.000000;2.797302
3006.000000;2.867168
3005.000000;2.795017
3004.000000;2.775471
3003.000000;2.893842
3002.000000;3.037417
3001.000000;2.998128
3000.000000;2.821614
2999.000000;2.723220
2998.000000;2.755927
2997.000000;2.853164
2996.000000;2.923830
2995.000000;2.935905
2994.000000;2.939477
2993.000000;2.945954
2992.000000;2.952759
2991.000000;3.002436
2990.000000;3.159578
2989.000000;3.546871
2988.000000;3.203945
2987.000000;2.879016
2986.000000;2.772859
2985.000000;2.810342
2984.000000;3.080904
2983.000000;3.831821
2982.000000;3.105785
2981.000000;2.914449
2980.000000;2.948366
2979.000000;3.226362
2978.000000;3.473145
2977.000000;3.162315
2976.000000;3.050856
2975.000000;3.084799
2974.000000;3.146555
2973.000000;3.072335
2972.000000;3.039847
2971.000000;3.093574
2970.000000;3.085253
2969.000000;3.018340
2968.000000;3.003954
2967.000000;3.061647
2966.000000;3.200658
2965.000000;3.484735
2964.000000;3.689504
2963.000000;3.944366
2962.000000;3.747162
2961.000000;3.327950
2960.000000;3.178579
2959.000000;3.105525
2958.000000;3.062054
2957.000000;3.044620
2956.000000;3.018452
2955.000000;2.991958
2954.000000;3.046763
2953.000000;3.204297
2952.000000;3.076573
2951.000000;2.863428
2950.000000;2.863297
2949.000000;3.070566
2948.000000;3.140603
2947.000000;2.902018
2946.000000;2.785170
2945.000000;2.789302
2944.000000;2.913709
2943.000000;3.093189
2942.000000;3.093863
2941.000000;2.954205
2940.000000;2.874584
2939.000000;2.960820
2938.000000;3.434948
2937.000000;3.404381
2936.000000;3.038457
2935.000000;2.962732
2934.000000;3.095675
2933.000000;3.597419
2932.000000;3.538084
2931.000000;3.209133
2930.000000;3.223690
2929.000000;3.572240
2928.000000;3.691690
2927.000000;3.727172
2926.000000;3.805895
2925.000000;3.186860
2924.000000;3.081043
2923.000000;3.147159
2922.000000;3.270075
2921.000000;3.275838
2920.000000;3.087182
2919.000000;2.881642
2918.000000;2.741893
2917.000000;2.704479
2916.000000;2.732056
2915.000000;2.771301
2914.000000;2.823684
2913.000000;2.961477
2912.000000;3.319343
2911.000000;3.482859
2910.000000;3.302761
2909.000000;3.092211
2908.000000;2.905890
2907.000000;2.849932
2906.000000;2.928986
2905.000000;3.105698
2904.000000;3.016651
2903.000000;2.831720
2902.000000;2.751092
2901.000000;2.733721
2900.000000;2.779731
2899.000000;2.889027
2898.000000;2.991282
2897.000000;3.006467
2896.000000;2.995008
2895.000000;3.104425
2894.000000;3.468679
2893.000000;3.316681
2892.000000;3.043927
2891.000000;3.061674
2890.000000;3.301858
2889.000000;3.753030
2888.000000;3.598399
2887.000000;3.340701
2886.000000;3.008192
2885.000000;2.841197
2884.000000;2.861502
2883.000000;3.062414
2882.000000;3.515857
2881.000000;3.107680
2880.000000;2.777794
2879.000000;2.640012
2878.000000;2.625739
2877.000000;2.758458
2876.000000;3.115017
2875.000000;3.173407
2874.000000;2.791285
2873.000000;2.678247
2872.000000;2.716014
2871.000000;2.883493
2870.000000;3.164694
2869.000000;3.247375
2868.000000;3.009408
2867.000000;2.814149
2866.000000;2.736020
2865.000000;2.744276
2864.000000;2.779961
2863.000000;2.758679
2862.000000;2.707339
2861.000000;2.736256
2860.000000;2.973644
2859.000000;3.344706
2858.000000;3.279810
2857.000000;3.212662
2856.000000;3.099175
2855.000000;2.991677
2854.000000;2.929876
2853.000000;2.875808
2852.000000;2.885528
2851.000000;2.969185
2850.000000;3.124227
2849.000000;3.210070
2848.000000;3.176363
2847.000000;3.345479
2846.000000;3.541267
2845.000000;3.328004
2844.000000;3.328354
2843.000000;3.432675
2842.000000;3.664039
2841.000000;3.748738
2840.000000;3.392152
2839.000000;3.439203
2838.000000;3.786936
2837.000000;3.245622
2836.000000;2.943141
2835.000000;2.911536
2834.000000;3.103009
2833.000000;3.763839
2832.000000;3.711661
2831.000000;3.582561
2830.000000;3.518063
2829.000000;3.339395
2828.000000;3.431134
2827.000000;3.546328
2826.000000;3.405129
2825.000000;3.199680
2824.000000;3.052642
2823.000000;2.976762
2822.000000;2.998992
2821.000000;3.241004
2820.000000;3.798238
2819.000000;3.481916
2818.000000;3.099747
2817.000000;2.892844
2816.000000;2.797090
2815.000000;2.749091
2814.000000;2.702853
2813.000000;2.683852
2812.000000;2.715855
2811.000000;2.818535
2810.000000;2.914145
2809.000000;2.870373
2808.000000;2.802515
2807.000000;2.823883
2806.000000;2.879149
2805.000000;2.854316
2804.000000;2.836920
2803.000000;2.853450
2802.000000;2.780366
2801.000000;2.698210
2800.000000;2.675706
2799.000000;2.696701
2798.000000;2.773131
2797.000000;2.943100
2796.000000;3.206762
2795.000000;3.218416
2794.000000;2.931707
2793.000000;2.751417
2792.000000;2.736922
2791.000000;2.864061
2790.000000;3.049742
2789.000000;3.086198
2788.000000;3.001901
2787.000000;2.973334
2786.000000;3.101809
2785.000000;3.455679
2784.000000;3.291431
2783.000000;3.005124
2782.000000;2.977576
2781.000000;3.056639
2780.000000;3.048065
2779.000000;3.042097
2778.000000;3.119279
2777.000000;2.978455
2776.000000;2.819716
2775.000000;2.779272
2774.000000;2.779829
2773.000000;2.744038
2772.000000;2.681394
2771.000000;2.687324
2770.000000;2.801229
2769.000000;2.883224
2768.000000;2.835489
2767.000000;2.841813
2766.000000;2.881261
2765.000000;2.867125
2764.000000;2.848567
2763.000000;2.850298
2762.000000;2.809129
2761.000000;2.740324
2760.000000;2.753928
2759.000000;2.936509
2758.000000;3.189186
2757.000000;3.079003
2756.000000;2.960008
2755.000000;2.982442
2754.000000;3.031269
2753.000000;3.041516
2752.000000;3.044621
2751.000000;2.997165
2750.000000;2.821131
2749.000000;2.691623
2748.000000;2.666359
2747.000000;2.712380
2746.000000;2.796632
2745.000000;2.915100
2744.000000;3.052860
2743.000000;3.020238
2742.000000;2.873015
2741.000000;2.764309
2740.000000;2.741787
2739.000000;2.754319
2738.000000;3.024531
2737.000000;3.488974
2736.000000;2.843273
2735.000000;2.612098
2734.000000;2.569853
2733.000000;2.628800
2732.000000;2.863403
2731.000000;3.132307
2730.000000;2.955224
2729.000000;2.758650
2728.000000;2.722495
2727.000000;2.746450
2726.000000;2.853399
2725.000000;2.993905
2724.000000;3.156189
2723.000000;3.665578
2722.000000;3.405529
2721.000000;2.974828
2720.000000;2.855991
2719.000000;2.866174
2718.000000;2.945531
2717.000000;3.015354
2716.000000;3.076806
2715.000000;3.156518
2714.000000;3.295570
2713.000000;3.294142
2712.000000;3.133858
2711.000000;3.126977
2710.000000;3.558636
2709.000000;3.709619
2708.000000;3.271460
2707.000000;3.309903
2706.000000;3.343226
2705.000000;3.616456
2704.000000;3.650217
2703.000000;3.142915
2702.000000;3.050039
2701.000000;3.082090
2700.000000;3.240874
2699.000000;3.988950
2698.000000;3.601475
2697.000000;3.155950
2696.000000;3.118647
2695.000000;3.113751
2694.000000;3.048609
2693.000000;3.032536
2692.000000;3.202962
2691.000000;3.531897
2690.000000;3.285895
2689.000000;3.375997
2688.000000;3.727836
2687.000000;3.088476
2686.000000;2.898511
2685.000000;2.900778
2684.000000;2.974397
2683.000000;3.114199
2682.000000;3.230339
2681.000000;3.351940
2680.000000;3.504157
2679.000000;3.592613
2678.000000;3.682528
2677.000000;3.692741
2676.000000;3.511782
2675.000000;3.533156
2674.000000;3.859169
2673.000000;4.001419
2672.000000;3.588791
2671.000000;3.368296
2670.000000;3.397636
2669.000000;3.721616
2668.000000;3.664157
2667.000000;3.377074
2666.000000;3.112360
2665.000000;2.940093
2664.000000;2.883622
2663.000000;3.055378
2662.000000;3.264039
2661.000000;2.840222
2660.000000;2.636606
2659.000000;2.615817
2658.000000;2.747171
2657.000000;3.211927
2656.000000;3.195551
2655.000000;2.855674
2654.000000;2.809928
2653.000000;2.840092
2652.000000;2.895028
2651.000000;2.949609
2650.000000;3.388427
2649.000000;3.467153
2648.000000;2.902035
2647.000000;2.824006
2646.000000;2.882593
2645.000000;2.929732
2644.000000;2.862295
2643.000000;2.836193
2642.000000;2.927162
2641.000000;3.045829
2640.000000;3.140794
2639.000000;3.080847
2638.000000;2.951209
2637.000000;2.877350
2636.000000;2.852331
2635.000000;2.854688
2634.000000;2.911078
2633.000000;3.019742
2632.000000;3.070314
2631.000000;3.059992
2630.000000;3.077920
2629.000000;3.066818
2628.000000;3.002344
2627.000000;2.958442
2626.000000;2.980622
2625.000000;3.045169
2624.000000;3.042801
2623.000000;2.983182
2622.000000;2.985425
2621.000000;3.125213
2620.000000;3.248836
2619.000000;3.167119
2618.000000;3.140453
2617.000000;3.373920
2616.000000;4.032202
2615.000000;3.672125
2614.000000;3.173980
2613.000000;2.856969
2612.000000;2.687737
2611.000000;2.637957
2610.000000;2.656493
2609.000000;2.756439
2608.000000;2.946176
2607.000000;3.253169
2606.000000;3.318082
2605.000000;3.044541
2604.000000;3.067169
2603.000000;3.224622
2602.000000;3.082810
2601.000000;3.055643
2600.000000;3.379293
2599.000000;3.393745
2598.000000;3.117636
2597.000000;3.253049
2596.000000;3.440947
2595.000000;3.178417
2594.000000;3.021142
2593.000000;3.029069
2592.000000;3.151292
2591.000000;3.377449
2590.000000;3.465463
2589.000000;3.286422
2588.000000;3.145773
2587.000000;3.046211
2586.000000;2.980695
2585.000000;2.968016
2584.000000;2.986788
2583.000000;2.980968
2582.000000;2.934572
2581.000000;2.892782
2580.000000;2.872923
2579.000000;2.864805
2578.000000;2.856214
2577.000000;2.860796
2576.000000;2.891250
2575.000000;3.006348
2574.000000;3.348470
2573.000000;3.246332
2572.000000;2.911316
2571.000000;2.869128
2570.000000;2.962452
2569.000000;3.167896
2568.000000;3.401491
2567.000000;3.236644
2566.000000;3.057880
2565.000000;3.028165
2564.000000;3.083461
2563.000000;3.174716
2562.000000;3.250409
2561.000000;3.179354
2560.000000;3.067819
2559.000000;3.036613
2558.000000;3.226834
2557.000000;3.514863
2556.000000;3.163385
2555.000000;3.001593
2554.000000;3.046224
2553.000000;3.328950
2552.000000;3.615086
2551.000000;3.275235
2550.000000;3.194650
2549.000000;3.328568
2548.000000;3.789360
2547.000000;3.875714
2546.000000;3.297390
2545.000000;3.031229
2544.000000;2.920576
2543.000000;2.995450
2542.000000;3.365561
2541.000000;3.492838
2540.000000;3.149368
2539.000000;3.101746
2538.000000;3.203475
2537.000000;3.089017
2536.000000;2.844429
2535.000000;2.687578
2534.000000;2.617862
2533.000000;2.637405
2532.000000;2.759333
2531.000000;3.052516
2530.000000;3.242969
2529.000000;2.997608
2528.000000;2.935729
2527.000000;2.987614
2526.000000;2.967149
2525.000000;2.824906
2524.000000;2.665949
2523.000000;2.580161
2522.000000;2.586595
2521.000000;2.717240
2520.000000;2.887587
2519.000000;2.856948
2518.000000;2.782092
2517.000000;2.766564
2516.000000;2.773424
2515.000000;2.834959
2514.000000;3.027824
2513.000000;3.258720
2512.000000;3.289244
2511.000000;3.255593
2510.000000;3.115152
2509.000000;2.963792
2508.000000;2.927715
2507.000000;2.907533
2506.000000;2.993857
2505.000000;3.465319
2504.000000;3.267609
2503.000000;2.931525
2502.000000;2.940695
2501.000000;3.106654
2500.000000;2.999335
2499.000000;2.759215
2498.000000;2.660900
2497.000000;2.646891
2496.000000;2.701852
2495.000000;2.810032
2494.000000;2.879752
2493.000000;2.887685
2492.000000;2.922532
2491.000000;2.992992
2490.000000;3.100301
2489.000000;3.344417
2488.000000;3.470921
2487.000000;3.174247
2486.000000;2.963740
2485.000000;2.861142
2484.000000;2.856768
2483.000000;2.918408
2482.000000;2.908736
2481.000000;2.878393
2480.000000;2.979300
2479.000000;3.145352
2478.000000;3.135221
2477.000000;3.085496
2476.000000;3.081350
2475.000000;3.128560
2474.000000;3.115957
2473.000000;2.961112
2472.000000;2.872845
2471.000000;2.884879
2470.000000;3.024691
2469.000000;3.229302
2468.000000;3.170990
2467.000000;3.116832
2466.000000;3.206496
2465.000000;3.321083
2464.000000;3.419145
2463.000000;3.380163
2462.000000;3.132855
2461.000000;2.905516
2460.000000;2.770367
2459.000000;2.711107
2458.000000;2.722630
2457.000000;2.777399
2456.000000;2.875272
2455.000000;2.932371
2454.000000;3.001981
2453.000000;3.221101
2452.000000;2.969020
2451.000000;2.737427
2450.000000;2.713189
2449.000000;2.802729
2448.000000;3.005567
2447.000000;3.434848
2446.000000;3.396394
2445.000000;2.986556
2444.000000;2.872747
2443.000000;2.899635
2442.000000;3.007598
2441.000000;3.068460
2440.000000;3.010759
2439.000000;2.979227
2438.000000;3.032475
2437.000000;3.256166
2436.000000;3.488207
2435.000000;3.260892
2434.000000;3.133205
2433.000000;3.142551
2432.000000;3.087383
2431.000000;2.977899
2430.000000;2.900433
2429.000000;2.859852
2428.000000;2.845600
2427.000000;2.858928
2426.000000;2.900076
2425.000000;2.885981
2424.000000;2.825599
2423.000000;2.838068
2422.000000;2.953507
2421.000000;3.137940
2420.000000;3.120677
2419.000000;2.909632
2418.000000;2.782310
2417.000000;2.756839
2416.000000;2.819304
2415.000000;3.098307
2414.000000;3.387284
2413.000000;3.028528
2412.000000;2.964526
2411.000000;3.098314
2410.000000;3.252829
2409.000000;3.162651
2408.000000;3.018131
2407.000000;3.014663
2406.000000;3.185748
2405.000000;3.554359
2404.000000;3.841529
2403.000000;4.046815
2402.000000;3.732194
2401.000000;3.519626
2400.000000;3.734956
2399.000000;3.820653
2398.000000;3.539574
2397.000000;3.854715
2396.000000;3.675578
2395.000000;3.515242
2394.000000;3.595133
2393.000000;3.108319
2392.000000;2.950316
2391.000000;3.049770
2390.000000;3.251101
2389.000000;3.169675
2388.000000;3.049397
2387.000000;2.987262
2386.000000;2.875870
2385.000000;2.747752
2384.000000;2.692568
2383.000000;2.675567
2382.000000;2.955859
2381.000000;2.885060
2380.000000;2.587815
2379.000000;2.818991
2378.000000;2.829156
2377.000000;3.190085
2376.000000;3.440216
2375.000000;3.471784
2374.000000;3.307812
2373.000000;3.198829
2372.000000;3.249779
2371.000000;3.299552
2370.000000;3.287615
2369.000000;3.271820
2368.000000;3.066685
2367.000000;2.904043
2366.000000;2.913912
2365.000000;3.073377
2364.000000;3.110693
2363.000000;2.993365
2362.000000;2.987689
2361.000000;3.081510
2360.000000;3.137665
2359.000000;3.006610
2358.000000;2.845277
2357.000000;2.693320
2356.000000;2.600494
2355.000000;2.614454
2354.000000;2.730848
2353.000000;3.240119
2352.000000;3.236247
2351.000000;2.726883
2350.000000;2.586487
2349.000000;2.559058
2348.000000;2.629228
2347.000000;2.753358
2346.000000;2.839801
2345.000000;2.791971
2344.000000;2.698522
2343.000000;2.654803
2342.000000;2.644823
2341.000000;2.648276
2340.000000;2.690570
2339.000000;2.829621
2338.000000;3.103121
2337.000000;3.110988
2336.000000;2.845105
2335.000000;2.753933
2334.000000;2.805504
2333.000000;3.024475
2332.000000;3.314190
2331.000000;3.113049
2330.000000;2.914489
2329.000000;2.865168
2328.000000;2.933992
2327.000000;3.080979
2326.000000;3.096758
2325.000000;3.024067
2324.000000;3.014803
2323.000000;3.083765
2322.000000;3.432809
2321.000000;3.596813
2320.000000;3.190961
2319.000000;3.359762
2318.000000;3.366719
2317.000000;2.681808
2316.000000;2.591965
2315.000000;2.652741
2314.000000;2.813776
2313.000000;3.105902
2312.000000;3.593942
2311.000000;3.105464
2310.000000;2.831954
2309.000000;2.806309
2308.000000;2.955050
2307.000000;3.243850
2306.000000;3.267929
2305.000000;2.946072
2304.000000;2.772088
2303.000000;2.717320
2302.000000;2.749224
2301.000000;2.845723
2300.000000;3.027241
2299.000000;3.407128
2298.000000;3.679421
2297.000000;4.173841
2296.000000;3.845915
2295.000000;3.426558
2294.000000;3.547674
2293.000000;3.519249
2292.000000;3.237695
2291.000000;3.069244
2290.000000;2.984911
2289.000000;2.925706
2288.000000;2.859688
2287.000000;2.836122
2286.000000;2.944081
2285.000000;3.134044
2284.000000;2.956265
2283.000000;2.795883
2282.000000;2.781126
2281.000000;2.868812
2280.000000;2.960351
2279.000000;3.018285
2278.000000;3.121012
2277.000000;3.273451
2276.000000;3.425489
2275.000000;3.417749
2274.000000;3.351018
2273.000000;3.326037
2272.000000;3.323099
2271.000000;3.365867
2270.000000;3.322295
2269.000000;3.192530
2268.000000;3.097742
2267.000000;3.103883
2266.000000;3.278301
2265.000000;3.824029
2264.000000;4.038109
2263.000000;3.658324
2262.000000;3.264509
2261.000000;2.913024
2260.000000;2.703653
2259.000000;2.633641
2258.000000;2.690400
2257.000000;2.855601
2256.000000;3.081973
2255.000000;3.457439
2254.000000;3.892534
2253.000000;3.238479
2252.000000;3.033783
2251.000000;2.878264
2250.000000;2.798927
2249.000000;2.830486
2248.000000;2.982732
2247.000000;3.276235
2246.000000;3.565814
2245.000000;3.493032
2244.000000;3.373228
2243.000000;3.163465
2242.000000;2.978773
2241.000000;2.936625
2240.000000;3.049127
2239.000000;3.474827
2238.000000;3.073023
2237.000000;2.767203
2236.000000;2.643488
2235.000000;2.606186
2234.000000;2.653371
2233.000000;2.776529
2232.000000;2.937213
2231.000000;3.001589
2230.000000;2.905077
2229.000000;2.811749
2228.000000;2.815087
2227.000000;2.952568
2226.000000;3.173595
2225.000000;3.174712
2224.000000;3.068656
2223.000000;3.040802
2222.000000;3.046376
2221.000000;3.233215
2220.000000;3.557158
2219.000000;3.081248
2218.000000;2.802723
2217.000000;2.723970
2216.000000;2.737732
2215.000000;2.932673
2214.000000;3.127120
2213.000000;2.879719
2212.000000;2.779127
2211.000000;2.835464
2210.000000;2.914848
2209.000000;2.957231
2208.000000;3.023857
2207.000000;3.226491
2206.000000;3.453172
2205.000000;3.072875
2204.000000;2.907013
2203.000000;2.932573
2202.000000;3.073537
2201.000000;3.047459
2200.000000;2.951634
2199.000000;2.908284
2198.000000;2.855853
2197.000000;2.785375
2196.000000;2.743265
2195.000000;2.780001
2194.000000;2.896040
2193.000000;3.019490
2192.000000;3.078589
2191.000000;3.100086
2190.000000;3.032445
2189.000000;2.924150
2188.000000;2.890314
2187.000000;2.982526
2186.000000;3.245235
2185.000000;3.899243
2184.000000;3.525013
2183.000000;3.485283
2182.000000;3.435617
2181.000000;3.037189
2180.000000;2.836245
2179.000000;2.770483
2178.000000;2.792354
2177.000000;2.879449
2176.000000;3.041791
2175.000000;3.231654
2174.000000;3.189579
2173.000000;3.102900
2172.000000;3.219246
2171.000000;3.441016
2170.000000;3.237095
2169.000000;3.122406
2168.000000;3.176144
2167.000000;3.344350
2166.000000;3.520938
2165.000000;3.421241
2164.000000;3.299233
2163.000000;3.299232
2162.000000;3.396949
2161.000000;3.504648
2160.000000;3.430946
2159.000000;3.326504
2158.000000;3.314809
2157.000000;3.167642
2156.000000;3.057169
2155.000000;3.120410
2154.000000;3.258965
2153.000000;3.140385
2152.000000;3.074035
2151.000000;3.183042
2150.000000;3.540358
2149.000000;3.414000
2148.000000;2.969012
2147.000000;2.766634
2146.000000;2.665454
2145.000000;2.644805
2144.000000;2.710850
2143.000000;2.888591
2142.000000;3.270817
2141.000000;3.878143
2140.000000;3.403463
2139.000000;3.045066
2138.000000;2.879129
2137.000000;2.841998
2136.000000;2.884566
2135.000000;2.994384
2134.000000;3.077286
2133.000000;2.984864
2132.000000;2.908557
2131.000000;2.864498
2130.000000;2.807900
2129.000000;2.787519
2128.000000;2.832421
2127.000000;2.934124
2126.000000;3.044165
2125.000000;3.139543
2124.000000;3.321549
2123.000000;4.024716
2122.000000;3.333699
2121.000000;3.146876
2120.000000;3.224040
2119.000000;3.224697
2118.000000;3.036501
2117.000000;3.113746
2116.000000;3.289138
2115.000000;2.999194
2114.000000;2.780526
2113.000000;2.747381
2112.000000;2.852918
2111.000000;3.258872
2110.000000;3.588734
2109.000000;3.357702
2108.000000;3.329473
2107.000000;3.179860
2106.000000;3.118489
2105.000000;3.146990
2104.000000;3.313416
2103.000000;3.183047
2102.000000;2.923083
2101.000000;2.836461
2100.000000;2.870079
2099.000000;2.927321
2098.000000;3.025773
2097.000000;3.682978
2096.000000;2.982803
2095.000000;2.728595
2094.000000;2.712691
2093.000000;2.836534
2092.000000;2.992783
2091.000000;3.099307
2090.000000;3.222402
2089.000000;3.402454
2088.000000;3.141291
2087.000000;2.861134
2086.000000;2.787170
2085.000000;2.842370
2084.000000;2.968716
2083.000000;3.139887
2082.000000;3.283370
2081.000000;3.290077
2080.000000;3.111740
2079.000000;2.870048
2078.000000;2.747231
2077.000000;2.765644
2076.000000;2.914979
2075.000000;3.330193
2074.000000;3.268630
2073.000000;2.910418
2072.000000;2.780980
2071.000000;2.793225
2070.000000;2.920682
2069.000000;3.060438
2068.000000;3.042681
2067.000000;3.055903
2066.000000;3.166631
2065.000000;3.340814
2064.000000;3.645929
2063.000000;4.025881
2062.000000;3.959081
2061.000000;3.622809
2060.000000;3.179162
2059.000000;2.900354
2058.000000;2.788141
2057.000000;2.779574
2056.000000;2.836474
2055.000000;2.973591
2054.000000;3.154437
2053.000000;3.030742
2052.000000;2.859155
2051.000000;2.792593
2050.000000;2.780015
2049.000000;2.806933
2048.000000;2.897273
2047.000000;3.069806
2046.000000;3.219704
2045.000000;3.195665
2044.000000;3.092017
2043.000000;3.002520
2042.000000;2.918040
2041.000000;2.824119
2040.000000;2.728069
2039.000000;2.690072
2038.000000;2.774768
2037.000000;3.014955
2036.000000;3.311183
2035.000000;3.547412
2034.000000;3.509639
2033.000000;3.353623
2032.000000;3.378140
2031.000000;3.398785
2030.000000;3.408093
2029.000000;3.198231
2028.000000;3.101470
2027.000000;3.192982
2026.000000;3.330498
2025.000000;3.231574
2024.000000;3.077013
2023.000000;3.036847
2022.000000;3.083018
2021.000000;3.159842
2020.000000;3.290289
2019.000000;4.104474
2018.000000;3.310396
2017.000000;3.115473
2016.000000;3.103146
2015.000000;3.021722
2014.000000;2.979309
2013.000000;3.065238
2012.000000;3.439473
2011.000000;3.657048
2010.000000;3.120164
2009.000000;3.108445
2008.000000;3.395436
2007.000000;3.630873
2006.000000;3.254633
2005.000000;3.287991
2004.000000;3.686461
2003.000000;3.272722
2002.000000;2.906450
2001.000000;2.818846
2000.000000;2.857310
1999.000000;2.987380
1998.000000;2.989257
1997.000000;2.914365
1996.000000;2.894268
1995.000000;2.956730
1994.000000;3.241862
1993.000000;3.304563
1992.000000;3.104467
1991.000000;3.283548
1990.000000;3.674446
1989.000000;3.128442
1988.000000;3.038363
1987.000000;3.111015
1986.000000;3.413930
1985.000000;4.098043
1984.000000;3.565053
1983.000000;3.338079
1982.000000;3.180204
1981.000000;3.150024
1980.000000;3.302691
1979.000000;3.858053
1978.000000;3.737664
1977.000000;3.281542
1976.000000;3.108625
1975.000000;3.000399
1974.000000;2.997594
1973.000000;3.096289
1972.000000;3.128048
1971.000000;2.937780
1970.000000;2.834376
1969.000000;2.923231
1968.000000;3.133901
1967.000000;3.070894
1966.000000;3.051660
1965.000000;3.236798
1964.000000;3.446470
1963.000000;3.242564
1962.000000;3.006046
1961.000000;2.899971
1960.000000;2.882700
1959.000000;2.886278
1958.000000;2.877708
1957.000000;2.901231
1956.000000;2.948231
1955.000000;2.943635
1954.000000;2.931727
1953.000000;3.013213
1952.000000;3.088661
1951.000000;3.007756
1950.000000;2.951567
1949.000000;2.932419
1948.000000;2.875531
1947.000000;2.871300
1946.000000;3.014868
1945.000000;3.333975
1944.000000;3.379734
1943.000000;3.248937
1942.000000;3.198314
1941.000000;3.138448
1940.000000;3.087946
1939.000000;3.063483
1938.000000;3.139634
1937.000000;3.374646
1936.000000;3.233346
1935.000000;3.030518
1934.000000;2.950058
1933.000000;2.889058
1932.000000;2.847150
1931.000000;2.849261
1930.000000;2.901341
1929.000000;3.015037
1928.000000;3.283335
1927.000000;3.463654
1926.000000;3.220710
1925.000000;3.115304
1924.000000;3.082389
1923.000000;3.170943
1922.000000;3.366959
1921.000000;3.140256
1920.000000;2.930703
1919.000000;2.924821
1918.000000;3.184460
1917.000000;3.270803
1916.000000;2.907110
1915.000000;2.772022
1914.000000;2.795678
1913.000000;2.930068
1912.000000;3.128353
1911.000000;3.371859
1910.000000;3.573564
1909.000000;3.103954
1908.000000;2.891252
1907.000000;2.859600
1906.000000;2.977891
1905.000000;3.082441
1904.000000;2.917057
1903.000000;2.829864
1902.000000;2.880955
1901.000000;3.052882
1900.000000;3.297360
1899.000000;3.224391
1898.000000;2.961302
1897.000000;2.792161
1896.000000;2.702089
1895.000000;2.699219
1894.000000;2.791676
1893.000000;2.983109
1892.000000;3.428470
1891.000000;3.586830
1890.000000;3.189908
1889.000000;3.062890
1888.000000;3.068671
1887.000000;3.109791
1886.000000;3.121695
1885.000000;3.136940
1884.000000;3.166914
1883.000000;3.146683
1882.000000;3.099734
1881.000000;3.063692
1880.000000;3.009549
1879.000000;2.946484
1878.000000;2.943861
1877.000000;3.033002
1876.000000;3.199447
1875.000000;3.392970
1874.000000;3.469270
1873.000000;3.313291
1872.000000;3.098807
1871.000000;2.966886
1870.000000;2.959318
1869.000000;3.092469
1868.000000;3.385036
1867.000000;3.694935
1866.000000;3.541746
1865.000000;3.312953
1864.000000;3.193880
1863.000000;3.168685
1862.000000;3.209809
1861.000000;3.260864
1860.000000;3.228086
1859.000000;3.039511
1858.000000;2.863530
1857.000000;2.809658
1856.000000;2.891883
1855.000000;3.059277
1854.000000;3.086664
1853.000000;2.876346
1852.000000;2.701029
1851.000000;2.663817
1850.000000;2.765081
1849.000000;2.907589
1848.000000;2.915221
1847.000000;2.919085
1846.000000;3.069831
1845.000000;3.285201
1844.000000;3.340870
1843.000000;3.315754
1842.000000;3.014262
1841.000000;2.776135
1840.000000;2.743253
1839.000000;2.858286
1838.000000;3.117697
1837.000000;3.641904
1836.000000;3.720099
1835.000000;3.345713
1834.000000;3.225822
1833.000000;3.211456
1832.000000;3.150557
1831.000000;3.018337
1830.000000;2.926179
1829.000000;2.904124
1828.000000;2.945089
1827.000000;3.027749
1826.000000;3.100957
1825.000000;3.083229
1824.000000;2.971721
1823.000000;2.896561
1822.000000;2.940020
1821.000000;3.079278
1820.000000;3.160104
1819.000000;3.117645
1818.000000;2.987407
1817.000000;2.851679
1816.000000;2.826826
1815.000000;2.909020
1814.000000;3.006410
1813.000000;3.057408
1812.000000;3.215941
1811.000000;3.422330
1810.000000;3.186150
1809.000000;2.992860
1808.000000;2.921462
1807.000000;2.907579
1806.000000;2.961499
1805.000000;3.005684
1804.000000;2.931542
1803.000000;2.816994
1802.000000;2.778282
1801.000000;2.830712
1800.000000;3.074289
1799.000000;3.665225
1798.000000;3.326768
1797.000000;3.122545
1796.000000;3.159646
1795.000000;3.386032
1794.000000;3.803704
1793.000000;3.399466
1792.000000;3.111464
1791.000000;3.034733
1790.000000;3.090939
1789.000000;3.105339
1788.000000;2.961186
1787.000000;2.839955
1786.000000;2.793252
1785.000000;2.796565
1784.000000;2.834074
1783.000000;2.846718
1782.000000;2.837457
1781.000000;2.863458
1780.000000;3.007675
1779.000000;3.402268
1778.000000;3.239962
1777.000000;2.969953
1776.000000;2.953641
1775.000000;3.051005
1774.000000;3.161466
1773.000000;3.374317
1772.000000;3.653976
1771.000000;3.317616
1770.000000;3.167655
1769.000000;3.220625
1768.000000;3.617074
1767.000000;3.688206
1766.000000;3.173269
1765.000000;3.041597
1764.000000;3.005379
1763.000000;3.051052
1762.000000;3.188469
1761.000000;3.387778
1760.000000;3.408847
1759.000000;3.285635
1758.000000;3.232322
1757.000000;3.280578
1756.000000;3.384089
1755.000000;3.572157
1754.000000;3.881651
1753.000000;3.486714
1752.000000;3.263177
1751.000000;3.289887
1750.000000;3.608334
1749.000000;3.508135
1748.000000;3.090846
1747.000000;2.955236
1746.000000;2.989621
1745.000000;3.164511
1744.000000;3.277176
1743.000000;3.269151
1742.000000;3.314370
1741.000000;3.447895
1740.000000;3.543163
1739.000000;3.181182
1738.000000;2.997437
1737.000000;3.006407
1736.000000;3.051951
1735.000000;3.062819
1734.000000;3.019324
1733.000000;2.971958
1732.000000;3.010230
1731.000000;3.098322
1730.000000;2.994748
1729.000000;2.846461
1728.000000;2.806361
1727.000000;2.848941
1726.000000;2.959600
1725.000000;3.121166
1724.000000;3.481296
1723.000000;3.723952
1722.000000;3.182895
1721.000000;3.047095
1720.000000;3.090122
1719.000000;3.405645
1718.000000;3.843437
1717.000000;3.105448
1716.000000;2.912252
1715.000000;2.886840
1714.000000;2.943963
1713.000000;3.020894
1712.000000;3.038358
1711.000000;3.042677
1710.000000;3.033114
1709.000000;3.077750
1708.000000;3.146497
1707.000000;3.354818
1706.000000;3.674525
1705.000000;3.529712
1704.000000;3.432029
1703.000000;3.554537
1702.000000;3.883011
1701.000000;3.941820
1700.000000;3.348165
1699.000000;3.111240
1698.000000;3.092465
1697.000000;3.294176
1696.000000;3.596323
1695.000000;3.135433
1694.000000;2.956864
1693.000000;2.995202
1692.000000;3.022733
1691.000000;3.079673
1690.000000;3.269502
1689.000000;3.344100
1688.000000;3.196779
1687.000000;3.166040
1686.000000;3.232354
1685.000000;3.486316
1684.000000;3.702032
1683.000000;3.342193
1682.000000;3.199597
1681.000000;3.289611
1680.000000;3.293931
1679.000000;3.169906
1678.000000;3.245646
1677.000000;3.543898
1676.000000;3.669198
1675.000000;3.524966
1674.000000;3.544630
1673.000000;3.773372
1672.000000;3.504241
1671.000000;3.161841
1670.000000;3.037612
1669.000000;3.029289
1668.000000;3.220783
1667.000000;3.348438
1666.000000;2.962134
1665.000000;2.765418
1664.000000;2.743507
1663.000000;2.837427
1662.000000;3.225374
1661.000000;3.580751
1660.000000;3.134205
1659.000000;3.190479
1658.000000;3.308156
1657.000000;3.186733
1656.000000;3.184710
1655.000000;3.198154
1654.000000;3.231407
1653.000000;3.212640
1652.000000;3.186965
1651.000000;3.270874
1650.000000;3.359362
1649.000000;3.233320
1648.000000;3.202199
1647.000000;3.258466
1646.000000;3.387912
1645.000000;4.093067
1644.000000;3.512814
1643.000000;3.253162
1642.000000;3.388114
1641.000000;3.178583
1640.000000;2.977071
1639.000000;2.949016
1638.000000;2.984737
1637.000000;2.980640
1636.000000;2.947219
1635.000000;2.953504
1634.000000;3.014396
1633.000000;2.970335
1632.000000;2.869752
1631.000000;2.856580
1630.000000;2.907278
1629.000000;2.982091
1628.000000;3.105457
1627.000000;3.362724
1626.000000;3.362704
1625.000000;3.041864
1624.000000;2.865572
1623.000000;2.820087
1622.000000;2.929658
1621.000000;3.265224
1620.000000;3.513768
1619.000000;3.271034
1618.000000;3.111288
1617.000000;3.046609
1616.000000;3.079960
1615.000000;3.245332
1614.000000;3.191596
1613.000000;2.975475
1612.000000;2.906728
1611.000000;2.968478
1610.000000;3.100287
1609.000000;3.322229
1608.000000;3.441850
1607.000000;3.240541
1606.000000;3.103822
1605.000000;3.233824
1604.000000;3.606971
1603.000000;3.385848
1602.000000;3.632094
1601.000000;3.455785
1600.000000;2.884897
1599.000000;2.743328
1598.000000;2.719117
1597.000000;2.736109
1596.000000;2.802289
1595.000000;2.927385
1594.000000;3.089582
1593.000000;3.235428
1592.000000;3.520889
1591.000000;3.683088
1590.000000;3.715012
1589.000000;4.149526
1588.000000;3.522223
1587.000000;3.166392
1586.000000;3.033580
1585.000000;2.998993
1584.000000;3.082504
1583.000000;3.237510
1582.000000;3.372825
1581.000000;3.434107
1580.000000;3.633816
1579.000000;4.020018
1578.000000;3.623674
1577.000000;3.325217
1576.000000;3.385904
1575.000000;3.607345
1574.000000;3.382562
1573.000000;3.392789
1572.000000;3.832090
1571.000000;3.399407
1570.000000;3.143494
1569.000000;3.059956
1568.000000;2.930006
1567.000000;2.815992
1566.000000;2.751144
1565.000000;2.775711
1564.000000;2.954997
1563.000000;3.312220
1562.000000;3.781384
1561.000000;4.233926
1560.000000;3.757711
1559.000000;3.556523
1558.000000;3.819623
1557.000000;3.539037
1556.000000;3.123286
1555.000000;2.994834
1554.000000;2.970791
1553.000000;3.015561
1552.000000;3.118833
1551.000000;3.271737
1550.000000;3.520174
1549.000000;3.666560
1548.000000;3.484959
1547.000000;3.267214
1546.000000;3.094916
1545.000000;3.004695
1544.000000;3.018023
1543.000000;3.170862
1542.000000;3.616230
1541.000000;3.795129
1540.000000;3.518691
1539.000000;3.749661
1538.000000;3.648837
1537.000000;3.217022
1536.000000;3.015160
1535.000000;2.992990
1534.000000;3.001425
1533.000000;3.226930
1532.000000;3.940297
1531.000000;3.149231
1530.000000;2.964771
1529.000000;3.120954
1528.000000;3.320985
1527.000000;3.378971
1526.000000;3.569914
1525.000000;3.478593
1524.000000;3.130597
1523.000000;3.085356
1522.000000;3.077550
1521.000000;2.994679
1520.000000;2.896804
1519.000000;2.857772
1518.000000;2.896850
1517.000000;2.976163
1516.000000;2.984489
1515.000000;2.948217
1514.000000;2.964897
1513.000000;3.008442
1512.000000;3.099859
1511.000000;3.269932
1510.000000;3.306491
1509.000000;3.169075
1508.000000;3.099901
1507.000000;3.136079
1506.000000;3.248875
1505.000000;3.243251
1504.000000;3.064628
1503.000000;2.991096
1502.000000;3.034153
1501.000000;3.013626
1500.000000;2.953253
1499.000000;3.017509
1498.000000;3.280063
1497.000000;3.628873
1496.000000;3.581959
1495.000000;3.568278
1494.000000;3.518316
1493.000000;3.400024
1492.000000;3.346012
1491.000000;3.277905
1490.000000;3.253657
1489.000000;3.298149
1488.000000;3.412385
1487.000000;3.115147
1486.000000;2.903014
1485.000000;2.886461
1484.000000;3.105436
1483.000000;3.789515
1482.000000;3.238475
1481.000000;2.952167
1480.000000;2.879872
1479.000000;2.868512
1478.000000;2.957822
1477.000000;3.113830
1476.000000;3.360509
1475.000000;3.666023
1474.000000;3.616665
1473.000000;3.255339
1472.000000;3.000121
1471.000000;2.828348
1470.000000;2.756315
1469.000000;2.807530
1468.000000;2.950868
1467.000000;3.256617
1466.000000;3.617451
1465.000000;3.239677
1464.000000;2.994396
1463.000000;3.037380
1462.000000;3.354393
1461.000000;3.327638
1460.000000;3.144946
1459.000000;3.177781
1458.000000;3.251853
1457.000000;3.344459
1456.000000;3.479683
1455.000000;3.659734
1454.000000;3.599066
1453.000000;3.364778
1452.000000;3.129392
1451.000000;2.956473
1450.000000;2.899079
1449.000000;2.933182
1448.000000;2.980740
1447.000000;2.995120
1446.000000;2.968214
1445.000000;2.911211
1444.000000;2.892329
1443.000000;2.938687
1442.000000;3.037671
1441.000000;3.178851
1440.000000;3.372826
1439.000000;3.642369
1438.000000;3.607913
1437.000000;3.387051
1436.000000;3.173880
1435.000000;3.147807
1434.000000;3.390365
1433.000000;3.295938
1432.000000;3.053000
1431.000000;3.120367
1430.000000;3.612083
1429.000000;3.434516
1428.000000;3.103071
1427.000000;3.075392
1426.000000;3.157127
1425.000000;3.414049
1424.000000;3.735379
1423.000000;3.506600
1422.000000;3.330914
1421.000000;3.254320
1420.000000;3.266211
1419.000000;3.405967
1418.000000;3.738136
1417.000000;3.818074
1416.000000;3.285163
1415.000000;3.154104
1414.000000;3.257853
1413.000000;3.123688
1412.000000;2.930697
1411.000000;2.976713
1410.000000;3.275104
1409.000000;3.399775
1408.000000;3.171228
1407.000000;3.224420
1406.000000;4.081952
1405.000000;3.377893
1404.000000;2.961450
1403.000000;2.846094
1402.000000;2.809979
1401.000000;2.852489
1400.000000;2.947453
1399.000000;3.101438
1398.000000;3.477989
1397.000000;3.720949
1396.000000;3.148089
1395.000000;2.955238
1394.000000;2.906003
1393.000000;2.969288
1392.000000;3.199564
1391.000000;3.516319
1390.000000;3.469133
1389.000000;3.258670
1388.000000;3.113483
1387.000000;3.023162
1386.000000;3.022385
1385.000000;3.114940
1384.000000;3.471896
1383.000000;3.692105
1382.000000;3.164702
1381.000000;2.930831
1380.000000;2.853569
1379.000000;2.856341
1378.000000;2.909347
1377.000000;3.008338
1376.000000;3.195777
1375.000000;3.347276
1374.000000;3.222209
1373.000000;3.060923
1372.000000;2.990946
1371.000000;3.020985
1370.000000;3.272934
1369.000000;3.575675
1368.000000;3.206426
1367.000000;3.211976
1366.000000;3.456795
1365.000000;3.262983
1364.000000;3.009843
1363.000000;2.905833
1362.000000;2.904981
1361.000000;3.085408
1360.000000;3.577718
1359.000000;3.393978
1358.000000;3.225278
1357.000000;3.518570
1356.000000;3.303819
1355.000000;2.979309
1354.000000;2.799032
1353.000000;2.690742
1352.000000;2.695571
1351.000000;2.857858
1350.000000;3.315657
1349.000000;3.467025
1348.000000;3.135688
1347.000000;3.004239
1346.000000;3.020932
1345.000000;3.225543
1344.000000;3.176261
1343.000000;2.920203
1342.000000;2.838044
1341.000000;2.852140
1340.000000;2.906683
1339.000000;2.983152
1338.000000;3.171904
1337.000000;3.303044
1336.000000;3.019212
1335.000000;2.848144
1334.000000;2.803050
1333.000000;2.831873
1332.000000;2.930510
1331.000000;3.186258
1330.000000;3.587587
1329.000000;3.366200
1328.000000;3.221413
1327.000000;3.325217
1326.000000;3.471460
1325.000000;3.539188
1324.000000;3.519115
1323.000000;3.365589
1322.000000;3.297000
1321.000000;3.285090
1320.000000;3.147697
1319.000000;2.979873
1318.000000;2.843570
1317.000000;2.736632
1316.000000;2.657494
1315.000000;2.618992
1314.000000;2.641138
1313.000000;2.730040
1312.000000;2.851219
1311.000000;2.970420
1310.000000;3.117390
1309.000000;3.300881
1308.000000;3.374468
1307.000000;3.355951
1306.000000;3.720494
1305.000000;3.811297
1304.000000;3.424668
1303.000000;3.377344
1302.000000;3.279437
1301.000000;3.234506
1300.000000;3.171185
1299.000000;3.038384
1298.000000;2.936129
1297.000000;2.900402
1296.000000;2.957723
1295.000000;3.132470
1294.000000;3.325349
1293.000000;3.224764
1292.000000;3.164430
1291.000000;3.112299
1290.000000;2.913480
1289.000000;2.805260
1288.000000;2.847401
1287.000000;3.019436
1286.000000;3.202282
1285.000000;3.151166
1284.000000;2.959909
1283.000000;2.894868
1282.000000;3.011799
1281.000000;3.071261
1280.000000;2.915505
1279.000000;2.818520
1278.000000;2.817147
1277.000000;2.931201
1276.000000;3.141440
1275.000000;3.189110
1274.000000;3.129250
1273.000000;3.141682
1272.000000;3.143062
1271.000000;3.155258
1270.000000;3.243973
1269.000000;3.302126
1268.000000;3.133604
1267.000000;2.985295
1266.000000;2.928530
1265.000000;2.894420
1264.000000;2.875766
1263.000000;2.943797
1262.000000;3.035058
1261.000000;2.942774
1260.000000;2.873746
1259.000000;3.099188
1258.000000;3.457472
1257.000000;2.965496
1256.000000;2.882094
1255.000000;3.159169
1254.000000;3.424654
1253.000000;3.029143
1252.000000;2.896409
1251.000000;2.779142
1250.000000;2.694838
1249.000000;2.674077
1248.000000;2.704835
1247.000000;2.807365
1246.000000;3.045419
1245.000000;3.044407
1244.000000;2.905681
1243.000000;3.002638
1242.000000;3.554281
1241.000000;3.236182
1240.000000;2.996707
1239.000000;2.913681
1238.000000;2.804021
1237.000000;2.752904
1236.000000;2.799364
1235.000000;2.945612
1234.000000;3.148246
1233.000000;3.508735
1232.000000;3.892077
1231.000000;3.258358
1230.000000;3.162388
1229.000000;3.368223
1228.000000;3.387029
1227.000000;3.011812
1226.000000;2.872749
1225.000000;2.843151
1224.000000;2.856531
1223.000000;2.818577
1222.000000;2.785154
1221.000000;2.821885
1220.000000;2.932467
1219.000000;3.155659
1218.000000;3.153171
1217.000000;3.064015
1216.000000;3.215345
1215.000000;3.264097
1214.000000;3.226177
1213.000000;3.932548
1212.000000;3.201783
1211.000000;2.909767
1210.000000;2.857157
1209.000000;2.905220
1208.000000;3.025136
1207.000000;3.219017
1206.000000;3.384483
1205.000000;3.348530
1204.000000;3.291088
1203.000000;3.229006
1202.000000;3.151207
1201.000000;3.076968
1200.000000;3.014019
