Criado como novo conjunto de dados;"e0108.spp","-4259863.7 Secs"
cm-1;Abs
10000.000000;1.032381
9999.000000;1.033557
9998.000000;1.034743
9997.000000;1.035920
9996.000000;1.037122
9995.000000;1.038287
9994.000000;1.039542
9993.000000;1.040644
9992.000000;1.040977
9991.000000;1.041146
9990.000000;1.041525
9989.000000;1.041690
9988.000000;1.040997
9987.000000;1.039646
9986.000000;1.038496
9985.000000;1.038034
9984.000000;1.037928
9983.000000;1.037641
9982.000000;1.037089
9981.000000;1.036474
9980.000000;1.035776
9979.000000;1.034793
9978.000000;1.033650
9977.000000;1.032920
9976.000000;1.033068
9975.000000;1.033925
9974.000000;1.034812
9973.000000;1.035037
9972.000000;1.034151
9971.000000;1.031986
9970.000000;1.028940
9969.000000;1.026235
9968.000000;1.025303
9967.000000;1.026461
9966.000000;1.028365
9965.000000;1.029232
9964.000000;1.028657
9963.000000;1.027852
9962.000000;1.028072
9961.000000;1.029286
9960.000000;1.030514
9959.000000;1.031010
9958.000000;1.030773
9957.000000;1.030160
9956.000000;1.029499
9955.000000;1.028996
9954.000000;1.028663
9953.000000;1.028248
9952.000000;1.027468
9951.000000;1.026334
9950.000000;1.025126
9949.000000;1.024151
9948.000000;1.023651
9947.000000;1.023821
9946.000000;1.024612
9945.000000;1.025540
9944.000000;1.025950
9943.000000;1.025509
9942.000000;1.024267
9941.000000;1.022379
9940.000000;1.020145
9939.000000;1.018253
9938.000000;1.017494
9937.000000;1.018011
9936.000000;1.019114
9935.000000;1.019983
9934.000000;1.020264
9933.000000;1.019868
9932.000000;1.018693
9931.000000;1.016946
9930.000000;1.015433
9929.000000;1.015014
9928.000000;1.015829
9927.000000;1.017314
9926.000000;1.018845
9925.000000;1.020014
9924.000000;1.020392
9923.000000;1.019547
9922.000000;1.017488
9921.000000;1.014851
9920.000000;1.012521
9919.000000;1.011200
9918.000000;1.011268
9917.000000;1.012685
9916.000000;1.014774
9915.000000;1.016329
9914.000000;1.016347
9913.000000;1.014842
9912.000000;1.012888
9911.000000;1.011734
9910.000000;1.011753
9909.000000;1.012199
9908.000000;1.011992
9907.000000;1.010771
9906.000000;1.009135
9905.000000;1.007938
9904.000000;1.007521
9903.000000;1.007648
9902.000000;1.007940
9901.000000;1.008125
9900.000000;1.008043
9899.000000;1.007741
9898.000000;1.007526
9897.000000;1.007713
9896.000000;1.008260
9895.000000;1.008803
9894.000000;1.008998
9893.000000;1.008741
9892.000000;1.008129
9891.000000;1.007388
9890.000000;1.006730
9889.000000;1.006117
9888.000000;1.005310
9887.000000;1.004346
9886.000000;1.003731
9885.000000;1.003787
9884.000000;1.004034
9883.000000;1.003699
9882.000000;1.002784
9881.000000;1.002012
9880.000000;1.001666
9879.000000;1.001159
9878.000000;1.000102
9877.000000;0.999159
9876.000000;0.999242
9875.000000;1.000186
9874.000000;1.000884
9873.000000;1.000639
9872.000000;0.999812
9871.000000;0.999050
9870.000000;0.998463
9869.000000;0.997844
9868.000000;0.997271
9867.000000;0.997079
9866.000000;0.997334
9865.000000;0.997664
9864.000000;0.997680
9863.000000;0.997371
9862.000000;0.996983
9861.000000;0.996631
9860.000000;0.996240
9859.000000;0.995812
9858.000000;0.995544
9857.000000;0.995565
9856.000000;0.995725
9855.000000;0.995810
9854.000000;0.995861
9853.000000;0.996032
9852.000000;0.996200
9851.000000;0.996062
9850.000000;0.995639
9849.000000;0.995346
9848.000000;0.995367
9847.000000;0.995238
9846.000000;0.994369
9845.000000;0.992838
9844.000000;0.991429
9843.000000;0.990942
9842.000000;0.991575
9841.000000;0.992783
9840.000000;0.993525
9839.000000;0.992876
9838.000000;0.990847
9837.000000;0.988638
9836.000000;0.987683
9835.000000;0.988292
9834.000000;0.989397
9833.000000;0.989678
9832.000000;0.988771
9831.000000;0.987392
9830.000000;0.986579
9829.000000;0.986938
9828.000000;0.988285
9827.000000;0.989716
9826.000000;0.990156
9825.000000;0.989179
9824.000000;0.987332
9823.000000;0.985503
9822.000000;0.984043
9821.000000;0.982694
9820.000000;0.981353
9819.000000;0.980513
9818.000000;0.980711
9817.000000;0.981716
9816.000000;0.982564
9815.000000;0.982444
9814.000000;0.981435
9813.000000;0.980322
9812.000000;0.979833
9811.000000;0.980134
9810.000000;0.980918
9809.000000;0.981756
9808.000000;0.982357
9807.000000;0.982597
9806.000000;0.982414
9805.000000;0.981729
9804.000000;0.980531
9803.000000;0.979008
9802.000000;0.977519
9801.000000;0.976344
9800.000000;0.975489
9799.000000;0.974794
9798.000000;0.974180
9797.000000;0.973712
9796.000000;0.973470
9795.000000;0.973450
9794.000000;0.973578
9793.000000;0.973764
9792.000000;0.973951
9791.000000;0.974151
9790.000000;0.974417
9789.000000;0.974766
9788.000000;0.975176
9787.000000;0.975681
9786.000000;0.976302
9785.000000;0.976770
9784.000000;0.976464
9783.000000;0.974938
9782.000000;0.972519
9781.000000;0.970153
9780.000000;0.968611
9779.000000;0.968039
9778.000000;0.968284
9777.000000;0.969322
9776.000000;0.971070
9775.000000;0.972903
9774.000000;0.973749
9773.000000;0.972922
9772.000000;0.970810
9771.000000;0.968549
9770.000000;0.966978
9769.000000;0.965995
9768.000000;0.965002
9767.000000;0.963808
9766.000000;0.962806
9765.000000;0.962289
9764.000000;0.962064
9763.000000;0.961972
9762.000000;0.962381
9761.000000;0.963633
9760.000000;0.965158
9759.000000;0.965801
9758.000000;0.965135
9757.000000;0.963927
9756.000000;0.963137
9755.000000;0.962934
9754.000000;0.962892
9753.000000;0.962681
9752.000000;0.962264
9751.000000;0.961730
9750.000000;0.961305
9749.000000;0.961306
9748.000000;0.961770
9747.000000;0.962264
9746.000000;0.962322
9745.000000;0.961914
9744.000000;0.961193
9743.000000;0.960015
9742.000000;0.958175
9741.000000;0.956068
9740.000000;0.954647
9739.000000;0.954522
9738.000000;0.955362
9737.000000;0.956300
9736.000000;0.956762
9735.000000;0.956857
9734.000000;0.957079
9733.000000;0.957740
9732.000000;0.958706
9731.000000;0.959575
9730.000000;0.959997
9729.000000;0.959789
9728.000000;0.958892
9727.000000;0.957473
9726.000000;0.956066
9725.000000;0.955300
9724.000000;0.955258
9723.000000;0.955268
9722.000000;0.954490
9721.000000;0.952669
9720.000000;0.950298
9719.000000;0.948318
9718.000000;0.947723
9717.000000;0.948965
9716.000000;0.951336
9715.000000;0.953212
9714.000000;0.953422
9713.000000;0.952369
9712.000000;0.951448
9711.000000;0.951423
9710.000000;0.951742
9709.000000;0.951410
9708.000000;0.950132
9707.000000;0.948502
9706.000000;0.947383
9705.000000;0.947231
9704.000000;0.947794
9703.000000;0.948334
9702.000000;0.948293
9701.000000;0.947809
9700.000000;0.947464
9699.000000;0.947537
9698.000000;0.947712
9697.000000;0.947519
9696.000000;0.946861
9695.000000;0.946087
9694.000000;0.945681
9693.000000;0.945890
9692.000000;0.946481
9691.000000;0.946858
9690.000000;0.946542
9689.000000;0.945522
9688.000000;0.944080
9687.000000;0.942467
9686.000000;0.940975
9685.000000;0.940164
9684.000000;0.940573
9683.000000;0.942131
9682.000000;0.944096
9681.000000;0.945630
9680.000000;0.946219
9679.000000;0.945706
9678.000000;0.944364
9677.000000;0.942935
9676.000000;0.942138
9675.000000;0.941991
9674.000000;0.941866
9673.000000;0.941307
9672.000000;0.940498
9671.000000;0.939808
9670.000000;0.939286
9669.000000;0.938815
9668.000000;0.938438
9667.000000;0.938254
9666.000000;0.938222
9665.000000;0.938329
9664.000000;0.938713
9663.000000;0.939320
9662.000000;0.939638
9661.000000;0.939111
9660.000000;0.937778
9659.000000;0.936259
9658.000000;0.935129
9657.000000;0.934548
9656.000000;0.934384
9655.000000;0.934413
9654.000000;0.934413
9653.000000;0.934321
9652.000000;0.934319
9651.000000;0.934602
9650.000000;0.935037
9649.000000;0.935230
9648.000000;0.934950
9647.000000;0.934356
9646.000000;0.933752
9645.000000;0.933251
9644.000000;0.932770
9643.000000;0.932274
9642.000000;0.931877
9641.000000;0.931639
9640.000000;0.931324
9639.000000;0.930545
9638.000000;0.929265
9637.000000;0.928061
9636.000000;0.927664
9635.000000;0.928211
9634.000000;0.929107
9633.000000;0.929644
9632.000000;0.929555
9631.000000;0.928931
9630.000000;0.927912
9629.000000;0.926747
9628.000000;0.925929
9627.000000;0.925904
9626.000000;0.926540
9625.000000;0.927096
9624.000000;0.926828
9623.000000;0.925646
9622.000000;0.924165
9621.000000;0.923173
9620.000000;0.923041
9619.000000;0.923558
9618.000000;0.924287
9617.000000;0.924978
9616.000000;0.925555
9615.000000;0.925846
9614.000000;0.925612
9613.000000;0.924917
9612.000000;0.924195
9611.000000;0.923763
9610.000000;0.923488
9609.000000;0.923138
9608.000000;0.922853
9607.000000;0.922944
9606.000000;0.923307
9605.000000;0.923369
9604.000000;0.922683
9603.000000;0.921358
9602.000000;0.919868
9601.000000;0.918635
9600.000000;0.917842
9599.000000;0.917481
9598.000000;0.917458
9597.000000;0.917674
9596.000000;0.917983
9595.000000;0.918105
9594.000000;0.917748
9593.000000;0.917002
9592.000000;0.916466
9591.000000;0.916711
9590.000000;0.917570
9589.000000;0.918206
9588.000000;0.917990
9587.000000;0.917176
9586.000000;0.916558
9585.000000;0.916580
9584.000000;0.916925
9583.000000;0.916916
9582.000000;0.916231
9581.000000;0.915213
9580.000000;0.914482
9579.000000;0.914295
9578.000000;0.914356
9577.000000;0.914255
9576.000000;0.913982
9575.000000;0.913834
9574.000000;0.913884
9573.000000;0.913800
9572.000000;0.913258
9571.000000;0.912349
9570.000000;0.911447
9569.000000;0.910826
9568.000000;0.910533
9567.000000;0.910504
9566.000000;0.910616
9565.000000;0.910698
9564.000000;0.910644
9563.000000;0.910530
9562.000000;0.910444
9561.000000;0.910202
9560.000000;0.909410
9559.000000;0.907922
9558.000000;0.906172
9557.000000;0.904949
9556.000000;0.904797
9555.000000;0.905598
9554.000000;0.906646
9553.000000;0.907130
9552.000000;0.906706
9551.000000;0.905754
9550.000000;0.905066
9549.000000;0.905160
9548.000000;0.905789
9547.000000;0.906175
9546.000000;0.905759
9545.000000;0.904697
9544.000000;0.903623
9543.000000;0.903037
9542.000000;0.902991
9541.000000;0.903248
9540.000000;0.903588
9539.000000;0.903939
9538.000000;0.904295
9537.000000;0.904617
9536.000000;0.904817
9535.000000;0.904816
9534.000000;0.904564
9533.000000;0.903989
9532.000000;0.903017
9531.000000;0.901781
9530.000000;0.900749
9529.000000;0.900432
9528.000000;0.900891
9527.000000;0.901724
9526.000000;0.902633
9525.000000;0.903655
9524.000000;0.904631
9523.000000;0.904801
9522.000000;0.903488
9521.000000;0.901103
9520.000000;0.898987
9519.000000;0.898148
9518.000000;0.898488
9517.000000;0.899277
9516.000000;0.899965
9515.000000;0.900337
9514.000000;0.900287
9513.000000;0.899789
9512.000000;0.898940
9511.000000;0.897812
9510.000000;0.896459
9509.000000;0.895216
9508.000000;0.894654
9507.000000;0.894911
9506.000000;0.895360
9505.000000;0.895286
9504.000000;0.894708
9503.000000;0.894164
9502.000000;0.893900
9501.000000;0.893729
9500.000000;0.893560
9499.000000;0.893559
9498.000000;0.893755
9497.000000;0.893934
9496.000000;0.894033
9495.000000;0.894251
9494.000000;0.894644
9493.000000;0.894929
9492.000000;0.894825
9491.000000;0.894320
9490.000000;0.893491
9489.000000;0.892421
9488.000000;0.891362
9487.000000;0.890640
9486.000000;0.890217
9485.000000;0.889708
9484.000000;0.889069
9483.000000;0.888908
9482.000000;0.889758
9481.000000;0.891261
9480.000000;0.892397
9479.000000;0.892420
9478.000000;0.891337
9477.000000;0.889672
9476.000000;0.888088
9475.000000;0.887143
9474.000000;0.887008
9473.000000;0.887335
9472.000000;0.887618
9471.000000;0.887697
9470.000000;0.887779
9469.000000;0.888036
9468.000000;0.888395
9467.000000;0.888681
9466.000000;0.888723
9465.000000;0.888326
9464.000000;0.887358
9463.000000;0.885994
9462.000000;0.884718
9461.000000;0.884025
9460.000000;0.884143
9459.000000;0.884931
9458.000000;0.885923
9457.000000;0.886530
9456.000000;0.886426
9455.000000;0.885773
9454.000000;0.884985
9453.000000;0.884305
9452.000000;0.883760
9451.000000;0.883414
9450.000000;0.883420
9449.000000;0.883759
9448.000000;0.884113
9447.000000;0.884087
9446.000000;0.883464
9445.000000;0.882298
9444.000000;0.880934
9443.000000;0.879923
9442.000000;0.879609
9441.000000;0.879715
9440.000000;0.879609
9439.000000;0.879135
9438.000000;0.878933
9437.000000;0.879643
9436.000000;0.880939
9435.000000;0.881681
9434.000000;0.881093
9433.000000;0.879552
9432.000000;0.878092
9431.000000;0.877292
9430.000000;0.876878
9429.000000;0.876376
9428.000000;0.875895
9427.000000;0.876035
9426.000000;0.877080
9425.000000;0.878540
9424.000000;0.879612
9423.000000;0.879926
9422.000000;0.879672
9421.000000;0.879175
9420.000000;0.878610
9419.000000;0.878104
9418.000000;0.877788
9417.000000;0.877623
9416.000000;0.877358
9415.000000;0.876781
9414.000000;0.875943
9413.000000;0.875093
9412.000000;0.874469
9411.000000;0.874118
9410.000000;0.873809
9409.000000;0.873175
9408.000000;0.872131
9407.000000;0.871169
9406.000000;0.871000
9405.000000;0.871811
9404.000000;0.873014
9403.000000;0.873785
9402.000000;0.873733
9401.000000;0.873041
9400.000000;0.872171
9399.000000;0.871535
9398.000000;0.871241
9397.000000;0.871029
9396.000000;0.870604
9395.000000;0.870125
9394.000000;0.870129
9393.000000;0.870852
9392.000000;0.871838
9391.000000;0.872431
9390.000000;0.872469
9389.000000;0.872244
9388.000000;0.871959
9387.000000;0.871557
9386.000000;0.871012
9385.000000;0.870481
9384.000000;0.870122
9383.000000;0.869966
9382.000000;0.869967
9381.000000;0.870017
9380.000000;0.869910
9379.000000;0.869476
9378.000000;0.868756
9377.000000;0.867966
9376.000000;0.867319
9375.000000;0.866974
9374.000000;0.867013
9373.000000;0.867305
9372.000000;0.867496
9371.000000;0.867368
9370.000000;0.867172
9369.000000;0.867351
9368.000000;0.867913
9367.000000;0.868327
9366.000000;0.868101
9365.000000;0.867295
9364.000000;0.866353
9363.000000;0.865615
9362.000000;0.865120
9361.000000;0.864801
9360.000000;0.864749
9359.000000;0.865182
9358.000000;0.866040
9357.000000;0.866678
9356.000000;0.866273
9355.000000;0.864776
9354.000000;0.863185
9353.000000;0.862549
9352.000000;0.862851
9351.000000;0.863202
9350.000000;0.862963
9349.000000;0.862237
9348.000000;0.861320
9347.000000;0.860281
9346.000000;0.859273
9345.000000;0.858741
9344.000000;0.858926
9343.000000;0.859454
9342.000000;0.859776
9341.000000;0.859845
9340.000000;0.860068
9339.000000;0.860697
9338.000000;0.861503
9337.000000;0.861969
9336.000000;0.861657
9335.000000;0.860547
9334.000000;0.859228
9333.000000;0.858576
9332.000000;0.858955
9331.000000;0.859809
9330.000000;0.860258
9329.000000;0.860049
9328.000000;0.859690
9327.000000;0.859726
9326.000000;0.860171
9325.000000;0.860670
9324.000000;0.860915
9323.000000;0.860801
9322.000000;0.860346
9321.000000;0.859646
9320.000000;0.858854
9319.000000;0.858115
9318.000000;0.857493
9317.000000;0.856961
9316.000000;0.856457
9315.000000;0.855953
9314.000000;0.855481
9313.000000;0.855062
9312.000000;0.854630
9311.000000;0.854150
9310.000000;0.853803
9309.000000;0.853860
9308.000000;0.854305
9307.000000;0.854748
9306.000000;0.854870
9305.000000;0.854837
9304.000000;0.855086
9303.000000;0.855766
9302.000000;0.856544
9301.000000;0.856890
9300.000000;0.856439
9299.000000;0.855230
9298.000000;0.853817
9297.000000;0.853007
9296.000000;0.853227
9295.000000;0.854040
9294.000000;0.854457
9293.000000;0.853839
9292.000000;0.852419
9291.000000;0.850991
9290.000000;0.850223
9289.000000;0.850247
9288.000000;0.850712
9287.000000;0.851159
9286.000000;0.851394
9285.000000;0.851531
9284.000000;0.851701
9283.000000;0.851839
9282.000000;0.851828
9281.000000;0.851700
9280.000000;0.851522
9279.000000;0.851204
9278.000000;0.850667
9277.000000;0.850146
9276.000000;0.850037
9275.000000;0.850406
9274.000000;0.850849
9273.000000;0.850922
9272.000000;0.850523
9271.000000;0.849807
9270.000000;0.848951
9269.000000;0.848154
9268.000000;0.847734
9267.000000;0.848006
9266.000000;0.848957
9265.000000;0.850094
9264.000000;0.850683
9263.000000;0.850312
9262.000000;0.849294
9261.000000;0.848406
9260.000000;0.848089
9259.000000;0.848021
9258.000000;0.847603
9257.000000;0.846724
9256.000000;0.845820
9255.000000;0.845266
9254.000000;0.845025
9253.000000;0.844927
9252.000000;0.844980
9251.000000;0.845258
9250.000000;0.845703
9249.000000;0.846152
9248.000000;0.846403
9247.000000;0.846192
9246.000000;0.845393
9245.000000;0.844397
9244.000000;0.843997
9243.000000;0.844573
9242.000000;0.845583
9241.000000;0.846167
9240.000000;0.846132
9239.000000;0.846015
9238.000000;0.846231
9237.000000;0.846552
9236.000000;0.846509
9235.000000;0.845971
9234.000000;0.845126
9233.000000;0.844124
9232.000000;0.843035
9231.000000;0.842031
9230.000000;0.841342
9229.000000;0.840955
9228.000000;0.840579
9227.000000;0.840012
9226.000000;0.839437
9225.000000;0.839218
9224.000000;0.839486
9223.000000;0.840067
9222.000000;0.840762
9221.000000;0.841482
9220.000000;0.842063
9219.000000;0.842175
9218.000000;0.841655
9217.000000;0.840862
9216.000000;0.840462
9215.000000;0.840777
9214.000000;0.841469
9213.000000;0.841921
9212.000000;0.841817
9211.000000;0.841282
9210.000000;0.840601
9209.000000;0.839951
9208.000000;0.839396
9207.000000;0.839008
9206.000000;0.838904
9205.000000;0.839150
9204.000000;0.839630
9203.000000;0.840042
9202.000000;0.840106
9201.000000;0.839793
9200.000000;0.839358
9199.000000;0.839138
9198.000000;0.839332
9197.000000;0.839884
9196.000000;0.840444
9195.000000;0.840522
9194.000000;0.839874
9193.000000;0.838757
9192.000000;0.837687
9191.000000;0.836953
9190.000000;0.836534
9189.000000;0.836448
9188.000000;0.836876
9187.000000;0.837792
9186.000000;0.838713
9185.000000;0.839052
9184.000000;0.838657
9183.000000;0.837826
9182.000000;0.836882
9181.000000;0.835964
9180.000000;0.835190
9179.000000;0.834768
9178.000000;0.834829
9177.000000;0.835224
9176.000000;0.835557
9175.000000;0.835468
9174.000000;0.834983
9173.000000;0.834612
9172.000000;0.834929
9171.000000;0.835883
9170.000000;0.836643
9169.000000;0.836400
9168.000000;0.835288
9167.000000;0.834293
9166.000000;0.834210
9165.000000;0.834924
9164.000000;0.835741
9163.000000;0.836148
9162.000000;0.836082
9161.000000;0.835672
9160.000000;0.835041
9159.000000;0.834364
9158.000000;0.833880
9157.000000;0.833736
9156.000000;0.833848
9155.000000;0.834008
9154.000000;0.834097
9153.000000;0.834191
9152.000000;0.834415
9151.000000;0.834684
9150.000000;0.834686
9149.000000;0.834218
9148.000000;0.833484
9147.000000;0.832920
9146.000000;0.832717
9145.000000;0.832679
9144.000000;0.832587
9143.000000;0.832489
9142.000000;0.832501
9141.000000;0.832479
9140.000000;0.832167
9139.000000;0.831635
9138.000000;0.831335
9137.000000;0.831613
9136.000000;0.832284
9135.000000;0.832829
9134.000000;0.832971
9133.000000;0.832918
9132.000000;0.833013
9131.000000;0.833196
9130.000000;0.832977
9129.000000;0.831996
9128.000000;0.830554
9127.000000;0.829409
9126.000000;0.829055
9125.000000;0.829315
9124.000000;0.829687
9123.000000;0.829925
9122.000000;0.830131
9121.000000;0.830370
9120.000000;0.830428
9119.000000;0.829991
9118.000000;0.828964
9117.000000;0.827571
9116.000000;0.826242
9115.000000;0.825422
9114.000000;0.825354
9113.000000;0.825958
9112.000000;0.826897
9111.000000;0.827777
9110.000000;0.828335
9109.000000;0.828511
9108.000000;0.828451
9107.000000;0.828370
9106.000000;0.828301
9105.000000;0.828020
9104.000000;0.827346
9103.000000;0.826507
9102.000000;0.826028
9101.000000;0.826179
9100.000000;0.826662
9099.000000;0.826931
9098.000000;0.826725
9097.000000;0.826217
9096.000000;0.825720
9095.000000;0.825401
9094.000000;0.825225
9093.000000;0.825052
9092.000000;0.824734
9091.000000;0.824179
9090.000000;0.823400
9089.000000;0.822526
9088.000000;0.821838
9087.000000;0.821726
9086.000000;0.822463
9085.000000;0.823883
9084.000000;0.825334
9083.000000;0.826086
9082.000000;0.825853
9081.000000;0.824933
9080.000000;0.823876
9079.000000;0.823084
9078.000000;0.822651
9077.000000;0.822484
9076.000000;0.822497
9075.000000;0.822678
9074.000000;0.822963
9073.000000;0.823111
9072.000000;0.822864
9071.000000;0.822279
9070.000000;0.821781
9069.000000;0.821791
9068.000000;0.822324
9067.000000;0.823032
9066.000000;0.823570
9065.000000;0.823820
9064.000000;0.823852
9063.000000;0.823785
9062.000000;0.823691
9061.000000;0.823552
9060.000000;0.823329
9059.000000;0.823112
9058.000000;0.823123
9057.000000;0.823452
9056.000000;0.823869
9055.000000;0.824018
9054.000000;0.823772
9053.000000;0.823242
9052.000000;0.822527
9051.000000;0.821640
9050.000000;0.820677
9049.000000;0.819828
9048.000000;0.819167
9047.000000;0.818629
9046.000000;0.818267
9045.000000;0.818324
9044.000000;0.818933
9043.000000;0.819903
9042.000000;0.820901
9041.000000;0.821708
9040.000000;0.822194
9039.000000;0.822226
9038.000000;0.821860
9037.000000;0.821524
9036.000000;0.821696
9035.000000;0.822327
9034.000000;0.822794
9033.000000;0.822557
9032.000000;0.821756
9031.000000;0.821013
9030.000000;0.820736
9029.000000;0.820752
9028.000000;0.820596
9027.000000;0.820009
9026.000000;0.819114
9025.000000;0.818236
9024.000000;0.817711
9023.000000;0.817803
9022.000000;0.818550
9021.000000;0.819551
9020.000000;0.820068
9019.000000;0.819584
9018.000000;0.818328
9017.000000;0.817117
9016.000000;0.816659
9015.000000;0.817049
9014.000000;0.817890
9013.000000;0.818707
9012.000000;0.819205
9011.000000;0.819324
9010.000000;0.819213
9009.000000;0.819076
9008.000000;0.818957
9007.000000;0.818759
9006.000000;0.818526
9005.000000;0.818548
9004.000000;0.819006
9003.000000;0.819619
9002.000000;0.819826
9001.000000;0.819305
9000.000000;0.818186
8999.000000;0.816819
8998.000000;0.815541
8997.000000;0.814647
8996.000000;0.814310
8995.000000;0.814418
8994.000000;0.814635
8993.000000;0.814780
8992.000000;0.815045
8991.000000;0.815715
8990.000000;0.816739
8989.000000;0.817725
8988.000000;0.818327
8987.000000;0.818481
8986.000000;0.818234
8985.000000;0.817542
8984.000000;0.816400
8983.000000;0.815115
8982.000000;0.814270
8981.000000;0.814280
8980.000000;0.815024
8979.000000;0.815969
8978.000000;0.816619
8977.000000;0.816832
8976.000000;0.816769
8975.000000;0.816682
8974.000000;0.816759
8973.000000;0.817036
8972.000000;0.817386
8971.000000;0.817643
8970.000000;0.817818
8969.000000;0.818088
8968.000000;0.818476
8967.000000;0.818626
8966.000000;0.818115
8965.000000;0.817039
8964.000000;0.816076
8963.000000;0.815826
8962.000000;0.816172
8961.000000;0.816452
8960.000000;0.816198
8959.000000;0.815548
8958.000000;0.814944
8957.000000;0.814624
8956.000000;0.814513
8955.000000;0.814456
8954.000000;0.814354
8953.000000;0.814143
8952.000000;0.813831
8951.000000;0.813589
8950.000000;0.813663
8949.000000;0.814137
8948.000000;0.814878
8947.000000;0.815699
8946.000000;0.816410
8945.000000;0.816712
8944.000000;0.816302
8943.000000;0.815291
8942.000000;0.814313
8941.000000;0.813965
8940.000000;0.814184
8939.000000;0.814413
8938.000000;0.814320
8937.000000;0.814097
8936.000000;0.814055
8935.000000;0.814249
8934.000000;0.814598
8933.000000;0.815070
8932.000000;0.815560
8931.000000;0.815770
8930.000000;0.815452
8929.000000;0.814691
8928.000000;0.813751
8927.000000;0.812786
8926.000000;0.811883
8925.000000;0.811284
8924.000000;0.811277
8923.000000;0.811848
8922.000000;0.812630
8921.000000;0.813235
8920.000000;0.813508
8919.000000;0.813461
8918.000000;0.813155
8917.000000;0.812698
8916.000000;0.812251
8915.000000;0.811922
8914.000000;0.811707
8913.000000;0.811565
8912.000000;0.811493
8911.000000;0.811524
8910.000000;0.811714
8909.000000;0.812153
8908.000000;0.812882
8907.000000;0.813728
8906.000000;0.814310
8905.000000;0.814294
8904.000000;0.813649
8903.000000;0.812658
8902.000000;0.811761
8901.000000;0.811369
8900.000000;0.811671
8899.000000;0.812478
8898.000000;0.813279
8897.000000;0.813589
8896.000000;0.813283
8895.000000;0.812600
8894.000000;0.811888
8893.000000;0.811386
8892.000000;0.811208
8891.000000;0.811393
8890.000000;0.811906
8889.000000;0.812605
8888.000000;0.813241
8887.000000;0.813511
8886.000000;0.813224
8885.000000;0.812520
8884.000000;0.811901
8883.000000;0.811897
8882.000000;0.812579
8881.000000;0.813464
8880.000000;0.813959
8879.000000;0.813867
8878.000000;0.813374
8877.000000;0.812696
8876.000000;0.811950
8875.000000;0.811362
8874.000000;0.811268
8873.000000;0.811701
8872.000000;0.812158
8871.000000;0.812059
8870.000000;0.811395
8869.000000;0.810703
8868.000000;0.810449
8867.000000;0.810662
8866.000000;0.811147
8865.000000;0.811743
8864.000000;0.812248
8863.000000;0.812398
8862.000000;0.812125
8861.000000;0.811712
8860.000000;0.811490
8859.000000;0.811496
8858.000000;0.811593
8857.000000;0.811812
8856.000000;0.812327
8855.000000;0.813119
8854.000000;0.813859
8853.000000;0.814153
8852.000000;0.813803
8851.000000;0.812914
8850.000000;0.811896
8849.000000;0.811314
8848.000000;0.811477
8847.000000;0.812113
8846.000000;0.812617
8845.000000;0.812694
8844.000000;0.812619
8843.000000;0.812824
8842.000000;0.813388
8841.000000;0.814018
8840.000000;0.814374
8839.000000;0.814299
8838.000000;0.813851
8837.000000;0.813255
8836.000000;0.812799
8835.000000;0.812684
8834.000000;0.812910
8833.000000;0.813322
8832.000000;0.813700
8831.000000;0.813846
8830.000000;0.813676
8829.000000;0.813283
8828.000000;0.812858
8827.000000;0.812541
8826.000000;0.812382
8825.000000;0.812400
8824.000000;0.812537
8823.000000;0.812580
8822.000000;0.812347
8821.000000;0.812028
8820.000000;0.812114
8819.000000;0.812806
8818.000000;0.813640
8817.000000;0.813934
8816.000000;0.813561
8815.000000;0.813038
8814.000000;0.812858
8813.000000;0.812972
8812.000000;0.813042
8811.000000;0.812960
8810.000000;0.812949
8809.000000;0.813206
8808.000000;0.813694
8807.000000;0.814276
8806.000000;0.814907
8805.000000;0.815554
8804.000000;0.816038
8803.000000;0.816109
8802.000000;0.815726
8801.000000;0.815176
8800.000000;0.814839
8799.000000;0.814877
8798.000000;0.815212
8797.000000;0.815728
8796.000000;0.816362
8795.000000;0.817021
8794.000000;0.817555
8793.000000;0.817864
8792.000000;0.817982
8791.000000;0.817971
8790.000000;0.817807
8789.000000;0.817433
8788.000000;0.816911
8787.000000;0.816438
8786.000000;0.816222
8785.000000;0.816404
8784.000000;0.817029
8783.000000;0.817969
8782.000000;0.818844
8781.000000;0.819200
8780.000000;0.818940
8779.000000;0.818540
8778.000000;0.818631
8777.000000;0.819269
8776.000000;0.819799
8775.000000;0.819584
8774.000000;0.818804
8773.000000;0.818283
8772.000000;0.818530
8771.000000;0.819210
8770.000000;0.819674
8769.000000;0.819760
8768.000000;0.819812
8767.000000;0.820047
8766.000000;0.820243
8765.000000;0.820115
8764.000000;0.819738
8763.000000;0.819467
8762.000000;0.819543
8761.000000;0.819881
8760.000000;0.820164
8759.000000;0.820122
8758.000000;0.819827
8757.000000;0.819729
8756.000000;0.820259
8755.000000;0.821353
8754.000000;0.822488
8753.000000;0.823236
8752.000000;0.823625
8751.000000;0.823907
8750.000000;0.824189
8749.000000;0.824438
8748.000000;0.824653
8747.000000;0.824832
8746.000000;0.824894
8745.000000;0.824786
8744.000000;0.824597
8743.000000;0.824415
8742.000000;0.824215
8741.000000;0.824055
8740.000000;0.824224
8739.000000;0.824897
8738.000000;0.825749
8737.000000;0.826228
8736.000000;0.826211
8735.000000;0.826078
8734.000000;0.826091
8733.000000;0.826080
8732.000000;0.825837
8731.000000;0.825525
8730.000000;0.825462
8729.000000;0.825746
8728.000000;0.826294
8727.000000;0.827070
8726.000000;0.828011
8725.000000;0.828869
8724.000000;0.829404
8723.000000;0.829696
8722.000000;0.830000
8721.000000;0.830320
8720.000000;0.830365
8719.000000;0.829975
8718.000000;0.829386
8717.000000;0.828993
8716.000000;0.828999
8715.000000;0.829368
8714.000000;0.829970
8713.000000;0.830658
8712.000000;0.831263
8711.000000;0.831636
8710.000000;0.831732
8709.000000;0.831652
8708.000000;0.831625
8707.000000;0.831913
8706.000000;0.832591
8705.000000;0.833405
8704.000000;0.833911
8703.000000;0.833873
8702.000000;0.833472
8701.000000;0.833060
8700.000000;0.832764
8699.000000;0.832428
8698.000000;0.831924
8697.000000;0.831414
8696.000000;0.831220
8695.000000;0.831482
8694.000000;0.832017
8693.000000;0.832514
8692.000000;0.832781
8691.000000;0.832808
8690.000000;0.832706
8689.000000;0.832676
8688.000000;0.832968
8687.000000;0.833641
8686.000000;0.834365
8685.000000;0.834650
8684.000000;0.834432
8683.000000;0.834287
8682.000000;0.834852
8681.000000;0.836080
8680.000000;0.837213
8679.000000;0.837549
8678.000000;0.837092
8677.000000;0.836402
8676.000000;0.835991
8675.000000;0.836000
8674.000000;0.836344
8673.000000;0.836914
8672.000000;0.837529
8671.000000;0.837819
8670.000000;0.837440
8669.000000;0.836534
8668.000000;0.835810
8667.000000;0.835939
8666.000000;0.836820
8665.000000;0.837661
8664.000000;0.837879
8663.000000;0.837691
8662.000000;0.837614
8661.000000;0.837638
8660.000000;0.837303
8659.000000;0.836570
8658.000000;0.836137
8657.000000;0.836641
8656.000000;0.837826
8655.000000;0.838779
8654.000000;0.838894
8653.000000;0.838380
8652.000000;0.837879
8651.000000;0.837823
8650.000000;0.838185
8649.000000;0.838642
8648.000000;0.838887
8647.000000;0.838854
8646.000000;0.838706
8645.000000;0.838576
8644.000000;0.838406
8643.000000;0.838144
8642.000000;0.837981
8641.000000;0.838202
8640.000000;0.838801
8639.000000;0.839451
8638.000000;0.839912
8637.000000;0.840239
8636.000000;0.840500
8635.000000;0.840533
8634.000000;0.840223
8633.000000;0.839870
8632.000000;0.839952
8631.000000;0.840521
8630.000000;0.841059
8629.000000;0.841074
8628.000000;0.840654
8627.000000;0.840315
8626.000000;0.840373
8625.000000;0.840592
8624.000000;0.840445
8623.000000;0.839684
8622.000000;0.838649
8621.000000;0.838011
8620.000000;0.838156
8619.000000;0.838839
8618.000000;0.839495
8617.000000;0.839858
8616.000000;0.840128
8615.000000;0.840531
8614.000000;0.840963
8613.000000;0.841183
8612.000000;0.841169
8611.000000;0.841048
8610.000000;0.840821
8609.000000;0.840415
8608.000000;0.839981
8607.000000;0.839839
8606.000000;0.840092
8605.000000;0.840507
8604.000000;0.840836
8603.000000;0.841055
8602.000000;0.841218
8601.000000;0.841287
8600.000000;0.841252
8599.000000;0.841216
8598.000000;0.841236
8597.000000;0.841203
8596.000000;0.841018
8595.000000;0.840732
8594.000000;0.840386
8593.000000;0.839927
8592.000000;0.839490
8591.000000;0.839541
8590.000000;0.840417
8589.000000;0.841792
8588.000000;0.842912
8587.000000;0.843401
8586.000000;0.843553
8585.000000;0.843797
8584.000000;0.844142
8583.000000;0.844265
8582.000000;0.843977
8581.000000;0.843434
8580.000000;0.842992
8579.000000;0.842905
8578.000000;0.843092
8577.000000;0.843164
8576.000000;0.842812
8575.000000;0.842182
8574.000000;0.841727
8573.000000;0.841681
8572.000000;0.841856
8571.000000;0.841995
8570.000000;0.842122
8569.000000;0.842418
8568.000000;0.842905
8567.000000;0.843396
8566.000000;0.843649
8565.000000;0.843487
8564.000000;0.842890
8563.000000;0.842103
8562.000000;0.841543
8561.000000;0.841458
8560.000000;0.841717
8559.000000;0.842025
8558.000000;0.842230
8557.000000;0.842351
8556.000000;0.842425
8555.000000;0.842499
8554.000000;0.842645
8553.000000;0.842808
8552.000000;0.842720
8551.000000;0.842191
8550.000000;0.841472
8549.000000;0.841087
8548.000000;0.841266
8547.000000;0.841718
8546.000000;0.842034
8545.000000;0.842171
8544.000000;0.842392
8543.000000;0.842836
8542.000000;0.843308
8541.000000;0.843509
8540.000000;0.843369
8539.000000;0.843098
8538.000000;0.842971
8537.000000;0.843119
8536.000000;0.843506
8535.000000;0.843988
8534.000000;0.844341
8533.000000;0.844347
8532.000000;0.843974
8531.000000;0.843439
8530.000000;0.842977
8529.000000;0.842589
8528.000000;0.842174
8527.000000;0.841855
8526.000000;0.841928
8525.000000;0.842389
8524.000000;0.842812
8523.000000;0.842843
8522.000000;0.842627
8521.000000;0.842534
8520.000000;0.842649
8519.000000;0.842800
8518.000000;0.842936
8517.000000;0.843128
8516.000000;0.843246
8515.000000;0.843009
8514.000000;0.842472
8513.000000;0.842143
8512.000000;0.842425
8511.000000;0.843115
8510.000000;0.843655
8509.000000;0.843758
8508.000000;0.843601
8507.000000;0.843490
8506.000000;0.843553
8505.000000;0.843732
8504.000000;0.843914
8503.000000;0.844000
8502.000000;0.843938
8501.000000;0.843753
8500.000000;0.843520
8499.000000;0.843339
8498.000000;0.843352
8497.000000;0.843694
8496.000000;0.844302
8495.000000;0.844796
8494.000000;0.844719
8493.000000;0.843998
8492.000000;0.843089
8491.000000;0.842577
8490.000000;0.842650
8489.000000;0.843022
8488.000000;0.843308
8487.000000;0.843346
8486.000000;0.843176
8485.000000;0.842890
8484.000000;0.842616
8483.000000;0.842538
8482.000000;0.842733
8481.000000;0.843001
8480.000000;0.842987
8479.000000;0.842565
8478.000000;0.841991
8477.000000;0.841653
8476.000000;0.841737
8475.000000;0.842177
8474.000000;0.842798
8473.000000;0.843380
8472.000000;0.843667
8471.000000;0.843514
8470.000000;0.843096
8469.000000;0.842862
8468.000000;0.843174
8467.000000;0.843965
8466.000000;0.844794
8465.000000;0.845235
8464.000000;0.845228
8463.000000;0.845026
8462.000000;0.844854
8461.000000;0.844709
8460.000000;0.844491
8459.000000;0.844205
8458.000000;0.843914
8457.000000;0.843590
8456.000000;0.843191
8455.000000;0.842846
8454.000000;0.842797
8453.000000;0.843128
8452.000000;0.843699
8451.000000;0.844388
8450.000000;0.845192
8449.000000;0.846010
8448.000000;0.846508
8447.000000;0.846362
8446.000000;0.845577
8445.000000;0.844454
8444.000000;0.843376
8443.000000;0.842681
8442.000000;0.842592
8441.000000;0.843057
8440.000000;0.843742
8439.000000;0.844329
8438.000000;0.844766
8437.000000;0.845105
8436.000000;0.845245
8435.000000;0.845050
8434.000000;0.844644
8433.000000;0.844318
8432.000000;0.844162
8431.000000;0.844021
8430.000000;0.843836
8429.000000;0.843788
8428.000000;0.844008
8427.000000;0.844356
8426.000000;0.844614
8425.000000;0.844762
8424.000000;0.844908
8423.000000;0.845050
8422.000000;0.845043
8421.000000;0.844772
8420.000000;0.844258
8419.000000;0.843680
8418.000000;0.843315
8417.000000;0.843385
8416.000000;0.843855
8415.000000;0.844423
8414.000000;0.844794
8413.000000;0.844937
8412.000000;0.845056
8411.000000;0.845346
8410.000000;0.845798
8409.000000;0.846187
8408.000000;0.846219
8407.000000;0.845768
8406.000000;0.845037
8405.000000;0.844439
8404.000000;0.844260
8403.000000;0.844472
8402.000000;0.844889
8401.000000;0.845402
8400.000000;0.845965
8399.000000;0.846436
8398.000000;0.846617
8397.000000;0.846458
8396.000000;0.846128
8395.000000;0.845837
8394.000000;0.845681
8393.000000;0.845666
8392.000000;0.845783
8391.000000;0.846015
8390.000000;0.846317
8389.000000;0.846675
8388.000000;0.847123
8387.000000;0.847631
8386.000000;0.847991
8385.000000;0.847915
8384.000000;0.847292
8383.000000;0.846313
8382.000000;0.845331
8381.000000;0.844639
8380.000000;0.844373
8379.000000;0.844510
8378.000000;0.844872
8377.000000;0.845191
8376.000000;0.845298
8375.000000;0.845252
8374.000000;0.845220
8373.000000;0.845276
8372.000000;0.845393
8371.000000;0.845601
8370.000000;0.845996
8369.000000;0.846558
8368.000000;0.847066
8367.000000;0.847291
8366.000000;0.847225
8365.000000;0.847062
8364.000000;0.847022
8363.000000;0.847218
8362.000000;0.847630
8361.000000;0.848123
8360.000000;0.848504
8359.000000;0.848617
8358.000000;0.848412
8357.000000;0.847935
8356.000000;0.847330
8355.000000;0.846811
8354.000000;0.846544
8353.000000;0.846503
8352.000000;0.846560
8351.000000;0.846728
8350.000000;0.847190
8349.000000;0.847990
8348.000000;0.848844
8347.000000;0.849384
8346.000000;0.849521
8345.000000;0.849418
8344.000000;0.849194
8343.000000;0.848828
8342.000000;0.848343
8341.000000;0.847903
8340.000000;0.847643
8339.000000;0.847507
8338.000000;0.847332
8337.000000;0.847074
8336.000000;0.846897
8335.000000;0.847000
8334.000000;0.847349
8333.000000;0.847616
8332.000000;0.847484
8331.000000;0.847042
8330.000000;0.846753
8329.000000;0.846947
8328.000000;0.847472
8327.000000;0.847921
8326.000000;0.848101
8325.000000;0.848104
8324.000000;0.847996
8323.000000;0.847685
8322.000000;0.847151
8321.000000;0.846628
8320.000000;0.846420
8319.000000;0.846590
8318.000000;0.846887
8317.000000;0.846994
8316.000000;0.846836
8315.000000;0.846649
8314.000000;0.846746
8313.000000;0.847188
8312.000000;0.847715
8311.000000;0.848025
8310.000000;0.848053
8309.000000;0.847963
8308.000000;0.847904
8307.000000;0.847887
8306.000000;0.847875
8305.000000;0.847900
8304.000000;0.848053
8303.000000;0.848354
8302.000000;0.848640
8301.000000;0.848625
8300.000000;0.848163
8299.000000;0.847444
8298.000000;0.846851
8297.000000;0.846611
8296.000000;0.846719
8295.000000;0.847167
8294.000000;0.847993
8293.000000;0.848997
8292.000000;0.849676
8291.000000;0.849717
8290.000000;0.849426
8289.000000;0.849385
8288.000000;0.849736
8287.000000;0.850081
8286.000000;0.850075
8285.000000;0.849810
8284.000000;0.849570
8283.000000;0.849456
8282.000000;0.849417
8281.000000;0.849459
8280.000000;0.849616
8279.000000;0.849785
8278.000000;0.849745
8277.000000;0.849376
8276.000000;0.848793
8275.000000;0.848277
8274.000000;0.848064
8273.000000;0.848206
8272.000000;0.848599
8271.000000;0.849120
8270.000000;0.849663
8269.000000;0.850048
8268.000000;0.850048
8267.000000;0.849654
8266.000000;0.849187
8265.000000;0.849011
8264.000000;0.849171
8263.000000;0.849444
8262.000000;0.849674
8261.000000;0.849856
8260.000000;0.849960
8259.000000;0.849891
8258.000000;0.849683
8257.000000;0.849514
8256.000000;0.849495
8255.000000;0.849576
8254.000000;0.849681
8253.000000;0.849782
8252.000000;0.849818
8251.000000;0.849720
8250.000000;0.849580
8249.000000;0.849581
8248.000000;0.849713
8247.000000;0.849727
8246.000000;0.849489
8245.000000;0.849214
8244.000000;0.849208
8243.000000;0.849513
8242.000000;0.849937
8241.000000;0.850339
8240.000000;0.850722
8239.000000;0.851102
8238.000000;0.851413
8237.000000;0.851548
8236.000000;0.851404
8235.000000;0.850931
8234.000000;0.850215
8233.000000;0.849502
8232.000000;0.849076
8231.000000;0.849106
8230.000000;0.849584
8229.000000;0.850309
8228.000000;0.850942
8227.000000;0.851195
8226.000000;0.851058
8225.000000;0.850790
8224.000000;0.850621
8223.000000;0.850525
8222.000000;0.850338
8221.000000;0.850015
8220.000000;0.849701
8219.000000;0.849574
8218.000000;0.849678
8217.000000;0.849889
8216.000000;0.850039
8215.000000;0.850097
8214.000000;0.850204
8213.000000;0.850489
8212.000000;0.850889
8211.000000;0.851235
8210.000000;0.851455
8209.000000;0.851554
8208.000000;0.851426
8207.000000;0.850951
8206.000000;0.850313
8205.000000;0.850030
8204.000000;0.850486
8203.000000;0.851529
8202.000000;0.852604
8201.000000;0.853187
8200.000000;0.853048
8199.000000;0.852288
8198.000000;0.851319
8197.000000;0.850681
8196.000000;0.850674
8195.000000;0.851128
8194.000000;0.851636
8193.000000;0.851964
8192.000000;0.852113
8191.000000;0.852094
8190.000000;0.851842
8189.000000;0.851401
8188.000000;0.851009
8187.000000;0.850911
8186.000000;0.851151
8185.000000;0.851592
8184.000000;0.852066
8183.000000;0.852465
8182.000000;0.852737
8181.000000;0.852864
8180.000000;0.852860
8179.000000;0.852777
8178.000000;0.852692
8177.000000;0.852654
8176.000000;0.852629
8175.000000;0.852525
8174.000000;0.852303
8173.000000;0.852036
8172.000000;0.851830
8171.000000;0.851735
8170.000000;0.851749
8169.000000;0.851879
8168.000000;0.852124
8167.000000;0.852436
8166.000000;0.852737
8165.000000;0.852978
8164.000000;0.853150
8163.000000;0.853241
8162.000000;0.853250
8161.000000;0.853248
8160.000000;0.853358
8159.000000;0.853639
8158.000000;0.853976
8157.000000;0.854141
8156.000000;0.853992
8155.000000;0.853609
8154.000000;0.853235
8153.000000;0.853084
8152.000000;0.853219
8151.000000;0.853578
8150.000000;0.854026
8149.000000;0.854371
8148.000000;0.854419
8147.000000;0.854096
8146.000000;0.853527
8145.000000;0.852942
8144.000000;0.852536
8143.000000;0.852423
8142.000000;0.852624
8141.000000;0.853025
8140.000000;0.853381
8139.000000;0.853506
8138.000000;0.853454
8137.000000;0.853464
8136.000000;0.853715
8135.000000;0.854181
8134.000000;0.854688
8133.000000;0.855014
8132.000000;0.854990
8131.000000;0.854628
8130.000000;0.854171
8129.000000;0.853942
8128.000000;0.854101
8127.000000;0.854559
8126.000000;0.855088
8125.000000;0.855424
8124.000000;0.855350
8123.000000;0.854838
8122.000000;0.854136
8121.000000;0.853601
8120.000000;0.853415
8119.000000;0.853532
8118.000000;0.853850
8117.000000;0.854288
8116.000000;0.854708
8115.000000;0.854946
8114.000000;0.854977
8113.000000;0.854930
8112.000000;0.854899
8111.000000;0.854874
8110.000000;0.854909
8109.000000;0.855130
8108.000000;0.855494
8107.000000;0.855697
8106.000000;0.855524
8105.000000;0.855174
8104.000000;0.855057
8103.000000;0.855286
8102.000000;0.855551
8101.000000;0.855511
8100.000000;0.855199
8099.000000;0.854942
8098.000000;0.854977
8097.000000;0.855215
8096.000000;0.855387
8095.000000;0.855372
8094.000000;0.855318
8093.000000;0.855426
8092.000000;0.855674
8091.000000;0.855822
8090.000000;0.855691
8089.000000;0.855345
8088.000000;0.855016
8087.000000;0.854908
8086.000000;0.855091
8085.000000;0.855482
8084.000000;0.855880
8083.000000;0.856083
8082.000000;0.856009
8081.000000;0.855724
8080.000000;0.855388
8079.000000;0.855215
8078.000000;0.855422
8077.000000;0.856063
8076.000000;0.856885
8075.000000;0.857455
8074.000000;0.857507
8073.000000;0.857122
8072.000000;0.856606
8071.000000;0.856255
8070.000000;0.856240
8069.000000;0.856562
8068.000000;0.857055
8067.000000;0.857500
8066.000000;0.857771
8065.000000;0.857831
8064.000000;0.857637
8063.000000;0.857184
8062.000000;0.856647
8061.000000;0.856315
8060.000000;0.856317
8059.000000;0.856511
8058.000000;0.856676
8057.000000;0.856710
8056.000000;0.856626
8055.000000;0.856520
8054.000000;0.856578
8053.000000;0.856964
8052.000000;0.857603
8051.000000;0.858182
8050.000000;0.858456
8049.000000;0.858450
8048.000000;0.858314
8047.000000;0.858129
8046.000000;0.857931
8045.000000;0.857790
8044.000000;0.857720
8043.000000;0.857631
8042.000000;0.857479
8041.000000;0.857385
8040.000000;0.857470
8039.000000;0.857680
8038.000000;0.857871
8037.000000;0.858013
8036.000000;0.858172
8035.000000;0.858382
8034.000000;0.858613
8033.000000;0.858808
8032.000000;0.858858
8031.000000;0.858653
8030.000000;0.858265
8029.000000;0.857990
8028.000000;0.858037
8027.000000;0.858259
8026.000000;0.858343
8025.000000;0.858232
8024.000000;0.858204
8023.000000;0.858544
8022.000000;0.859232
8021.000000;0.859946
8020.000000;0.860291
8019.000000;0.860075
8018.000000;0.859472
8017.000000;0.858918
8016.000000;0.858763
8015.000000;0.859017
8014.000000;0.859424
8013.000000;0.859700
8012.000000;0.859680
8011.000000;0.859373
8010.000000;0.859012
8009.000000;0.858920
8008.000000;0.859198
8007.000000;0.859600
8006.000000;0.859866
8005.000000;0.860058
8004.000000;0.860406
8003.000000;0.860873
8002.000000;0.861097
8001.000000;0.860793
8000.000000;0.860064
7999.000000;0.859296
7998.000000;0.858867
7997.000000;0.858953
7996.000000;0.859470
7995.000000;0.860132
7994.000000;0.860663
7993.000000;0.860974
7992.000000;0.861112
7991.000000;0.861108
7990.000000;0.860969
7989.000000;0.860763
7988.000000;0.860583
7987.000000;0.860452
7986.000000;0.860377
7985.000000;0.860442
7984.000000;0.860731
7983.000000;0.861171
7982.000000;0.861607
7981.000000;0.861971
7980.000000;0.862248
7979.000000;0.862325
7978.000000;0.862106
7977.000000;0.861767
7976.000000;0.861675
7975.000000;0.861974
7974.000000;0.862414
7973.000000;0.862661
7972.000000;0.862626
7971.000000;0.862411
7970.000000;0.862110
7969.000000;0.861786
7968.000000;0.861508
7967.000000;0.861313
7966.000000;0.861182
7965.000000;0.861143
7964.000000;0.861293
7963.000000;0.861640
7962.000000;0.862028
7961.000000;0.862284
7960.000000;0.862339
7959.000000;0.862163
7958.000000;0.861732
7957.000000;0.861187
7956.000000;0.860875
7955.000000;0.861054
7954.000000;0.861588
7953.000000;0.862079
7952.000000;0.862259
7951.000000;0.862166
7950.000000;0.861996
7949.000000;0.861937
7948.000000;0.862107
7947.000000;0.862478
7946.000000;0.862841
7945.000000;0.862969
7944.000000;0.862840
7943.000000;0.862628
7942.000000;0.862483
7941.000000;0.862448
7940.000000;0.862568
7939.000000;0.862920
7938.000000;0.863461
7937.000000;0.863947
7936.000000;0.864143
7935.000000;0.864071
7934.000000;0.863961
7933.000000;0.863985
7932.000000;0.864109
7931.000000;0.864185
7930.000000;0.864124
7929.000000;0.863950
7928.000000;0.863762
7927.000000;0.863653
7926.000000;0.863679
7925.000000;0.863835
7924.000000;0.864084
7923.000000;0.864383
7922.000000;0.864696
7921.000000;0.864985
7920.000000;0.865196
7919.000000;0.865295
7918.000000;0.865315
7917.000000;0.865365
7916.000000;0.865535
7915.000000;0.865784
7914.000000;0.865943
7913.000000;0.865879
7912.000000;0.865638
7911.000000;0.865391
7910.000000;0.865261
7909.000000;0.865225
7908.000000;0.865203
7907.000000;0.865168
7906.000000;0.865127
7905.000000;0.865051
7904.000000;0.864899
7903.000000;0.864721
7902.000000;0.864677
7901.000000;0.864900
7900.000000;0.865362
7899.000000;0.865897
7898.000000;0.866337
7897.000000;0.866611
7896.000000;0.866740
7895.000000;0.866773
7894.000000;0.866751
7893.000000;0.866692
7892.000000;0.866598
7891.000000;0.866464
7890.000000;0.866320
7889.000000;0.866243
7888.000000;0.866283
7887.000000;0.866375
7886.000000;0.866361
7885.000000;0.866159
7884.000000;0.865883
7883.000000;0.865738
7882.000000;0.865797
7881.000000;0.865963
7880.000000;0.866179
7879.000000;0.866546
7878.000000;0.867130
7877.000000;0.867734
7876.000000;0.868040
7875.000000;0.867987
7874.000000;0.867853
7873.000000;0.867898
7872.000000;0.868064
7871.000000;0.868136
7870.000000;0.868060
7869.000000;0.867965
7868.000000;0.867947
7867.000000;0.867981
7866.000000;0.868032
7865.000000;0.868100
7864.000000;0.868151
7863.000000;0.868135
7862.000000;0.868094
7861.000000;0.868141
7860.000000;0.868301
7859.000000;0.868488
7858.000000;0.868665
7857.000000;0.868900
7856.000000;0.869192
7855.000000;0.869364
7854.000000;0.869260
7853.000000;0.868998
7852.000000;0.868903
7851.000000;0.869191
7850.000000;0.869793
7849.000000;0.870442
7848.000000;0.870848
7847.000000;0.870823
7846.000000;0.870371
7845.000000;0.869734
7844.000000;0.869273
7843.000000;0.869240
7842.000000;0.869611
7841.000000;0.870149
7840.000000;0.870609
7839.000000;0.870890
7838.000000;0.871051
7837.000000;0.871241
7836.000000;0.871569
7835.000000;0.872007
7834.000000;0.872359
7833.000000;0.872399
7832.000000;0.872085
7831.000000;0.871632
7830.000000;0.871327
7829.000000;0.871247
7828.000000;0.871222
7827.000000;0.871082
7826.000000;0.870892
7825.000000;0.870883
7824.000000;0.871193
7823.000000;0.871717
7822.000000;0.872202
7821.000000;0.872447
7820.000000;0.872452
7819.000000;0.872413
7818.000000;0.872540
7817.000000;0.872830
7816.000000;0.873062
7815.000000;0.873083
7814.000000;0.873026
7813.000000;0.873150
7812.000000;0.873501
7811.000000;0.873877
7810.000000;0.874101
7809.000000;0.874180
7808.000000;0.874154
7807.000000;0.873978
7806.000000;0.873643
7805.000000;0.873301
7804.000000;0.873157
7803.000000;0.873283
7802.000000;0.873634
7801.000000;0.874147
7800.000000;0.874701
7799.000000;0.875056
7798.000000;0.875003
7797.000000;0.874602
7796.000000;0.874187
7795.000000;0.874065
7794.000000;0.874264
7793.000000;0.874577
7792.000000;0.874772
7791.000000;0.874747
7790.000000;0.874567
7789.000000;0.874418
7788.000000;0.874511
7787.000000;0.874931
7786.000000;0.875534
7785.000000;0.876034
7784.000000;0.876230
7783.000000;0.876176
7782.000000;0.876092
7781.000000;0.876150
7780.000000;0.876376
7779.000000;0.876715
7778.000000;0.877079
7777.000000;0.877310
7776.000000;0.877250
7775.000000;0.876931
7774.000000;0.876630
7773.000000;0.876604
7772.000000;0.876841
7771.000000;0.877176
7770.000000;0.877545
7769.000000;0.877950
7768.000000;0.878261
7767.000000;0.878305
7766.000000;0.878169
7765.000000;0.878172
7764.000000;0.878460
7763.000000;0.878822
7762.000000;0.879012
7761.000000;0.879062
7760.000000;0.879113
7759.000000;0.879127
7758.000000;0.878962
7757.000000;0.878649
7756.000000;0.878386
7755.000000;0.878305
7754.000000;0.878381
7753.000000;0.878562
7752.000000;0.878850
7751.000000;0.879256
7750.000000;0.879784
7749.000000;0.880399
7748.000000;0.880947
7747.000000;0.881173
7746.000000;0.880985
7745.000000;0.880631
7744.000000;0.880477
7743.000000;0.880621
7742.000000;0.880868
7741.000000;0.881056
7740.000000;0.881230
7739.000000;0.881457
7738.000000;0.881642
7737.000000;0.881652
7736.000000;0.881538
7735.000000;0.881533
7734.000000;0.881838
7733.000000;0.882435
7732.000000;0.883074
7731.000000;0.883450
7730.000000;0.883464
7729.000000;0.883297
7728.000000;0.883221
7727.000000;0.883329
7726.000000;0.883512
7725.000000;0.883631
7724.000000;0.883647
7723.000000;0.883608
7722.000000;0.883597
7721.000000;0.883701
7720.000000;0.883932
7719.000000;0.884187
7718.000000;0.884345
7717.000000;0.884420
7716.000000;0.884507
7715.000000;0.884611
7714.000000;0.884639
7713.000000;0.884588
7712.000000;0.884611
7711.000000;0.884845
7710.000000;0.885261
7709.000000;0.885719
7708.000000;0.886098
7707.000000;0.886338
7706.000000;0.886438
7705.000000;0.886471
7704.000000;0.886530
7703.000000;0.886618
7702.000000;0.886648
7701.000000;0.886610
7700.000000;0.886652
7699.000000;0.886913
7698.000000;0.887334
7697.000000;0.887708
7696.000000;0.887895
7695.000000;0.887925
7694.000000;0.887908
7693.000000;0.887927
7692.000000;0.888039
7691.000000;0.888311
7690.000000;0.888785
7689.000000;0.889382
7688.000000;0.889883
7687.000000;0.890057
7686.000000;0.889884
7685.000000;0.889616
7684.000000;0.889568
7683.000000;0.889821
7682.000000;0.890183
7681.000000;0.890425
7680.000000;0.890500
7679.000000;0.890516
7678.000000;0.890586
7677.000000;0.890746
7676.000000;0.890978
7675.000000;0.891248
7674.000000;0.891527
7673.000000;0.891809
7672.000000;0.892070
7671.000000;0.892237
7670.000000;0.892237
7669.000000;0.892099
7668.000000;0.891941
7667.000000;0.891849
7666.000000;0.891829
7665.000000;0.891910
7664.000000;0.892154
7663.000000;0.892509
7662.000000;0.892767
7661.000000;0.892809
7660.000000;0.892839
7659.000000;0.893188
7658.000000;0.893892
7657.000000;0.894602
7656.000000;0.894980
7655.000000;0.895069
7654.000000;0.895167
7653.000000;0.895429
7652.000000;0.895715
7651.000000;0.895823
7650.000000;0.895747
7649.000000;0.895657
7648.000000;0.895681
7647.000000;0.895773
7646.000000;0.895803
7645.000000;0.895737
7644.000000;0.895710
7643.000000;0.895905
7642.000000;0.896385
7641.000000;0.897033
7640.000000;0.897658
7639.000000;0.898147
7638.000000;0.898508
7637.000000;0.898800
7636.000000;0.899050
7635.000000;0.899253
7634.000000;0.899424
7633.000000;0.899625
7632.000000;0.899928
7631.000000;0.900330
7630.000000;0.900730
7629.000000;0.901004
7628.000000;0.901127
7627.000000;0.901219
7626.000000;0.901441
7625.000000;0.901836
7624.000000;0.902281
7623.000000;0.902615
7622.000000;0.902798
7621.000000;0.902934
7620.000000;0.903147
7619.000000;0.903450
7618.000000;0.903744
7617.000000;0.903929
7616.000000;0.904014
7615.000000;0.904117
7614.000000;0.904363
7613.000000;0.904755
7612.000000;0.905156
7611.000000;0.905408
7610.000000;0.905477
7609.000000;0.905475
7608.000000;0.905555
7607.000000;0.905805
7606.000000;0.906214
7605.000000;0.906670
7604.000000;0.906991
7603.000000;0.907058
7602.000000;0.906966
7601.000000;0.906990
7600.000000;0.907310
7599.000000;0.907829
7598.000000;0.908304
7597.000000;0.908625
7596.000000;0.908864
7595.000000;0.909093
7594.000000;0.909283
7593.000000;0.909424
7592.000000;0.909606
7591.000000;0.909920
7590.000000;0.910350
7589.000000;0.910841
7588.000000;0.911364
7587.000000;0.911867
7586.000000;0.912232
7585.000000;0.912401
7584.000000;0.912493
7583.000000;0.912681
7582.000000;0.912975
7581.000000;0.913253
7580.000000;0.913488
7579.000000;0.913781
7578.000000;0.914162
7577.000000;0.914498
7576.000000;0.914692
7575.000000;0.914841
7574.000000;0.915096
7573.000000;0.915472
7572.000000;0.915886
7571.000000;0.916325
7570.000000;0.916805
7569.000000;0.917225
7568.000000;0.917412
7567.000000;0.917324
7566.000000;0.917116
7565.000000;0.916981
7564.000000;0.917026
7563.000000;0.917309
7562.000000;0.917849
7561.000000;0.918542
7560.000000;0.919181
7559.000000;0.919642
7558.000000;0.919999
7557.000000;0.920391
7556.000000;0.920828
7555.000000;0.921196
7554.000000;0.921396
7553.000000;0.921430
7552.000000;0.921388
7551.000000;0.921421
7550.000000;0.921659
7549.000000;0.922093
7548.000000;0.922583
7547.000000;0.923044
7546.000000;0.923557
7545.000000;0.924227
7544.000000;0.924967
7543.000000;0.925547
7542.000000;0.925844
7541.000000;0.925953
7540.000000;0.926046
7539.000000;0.926241
7538.000000;0.926586
7537.000000;0.927066
7536.000000;0.927591
7535.000000;0.928040
7534.000000;0.928388
7533.000000;0.928745
7532.000000;0.929244
7531.000000;0.929907
7530.000000;0.930637
7529.000000;0.931304
7528.000000;0.931819
7527.000000;0.932179
7526.000000;0.932443
7525.000000;0.932646
7524.000000;0.932750
7523.000000;0.932753
7522.000000;0.932803
7521.000000;0.933114
7520.000000;0.933732
7519.000000;0.934444
7518.000000;0.934965
7517.000000;0.935193
7516.000000;0.935248
7515.000000;0.935331
7514.000000;0.935553
7513.000000;0.935884
7512.000000;0.936226
7511.000000;0.936550
7510.000000;0.936929
7509.000000;0.937420
7508.000000;0.937940
7507.000000;0.938356
7506.000000;0.938678
7505.000000;0.939060
7504.000000;0.939593
7503.000000;0.940189
7502.000000;0.940700
7501.000000;0.941045
7500.000000;0.941195
7499.000000;0.941156
7498.000000;0.941064
7497.000000;0.941181
7496.000000;0.941688
7495.000000;0.942477
7494.000000;0.943294
7493.000000;0.943963
7492.000000;0.944494
7491.000000;0.944968
7490.000000;0.945378
7489.000000;0.945737
7488.000000;0.946128
7487.000000;0.946626
7486.000000;0.947154
7485.000000;0.947539
7484.000000;0.947710
7483.000000;0.947828
7482.000000;0.948150
7481.000000;0.948744
7480.000000;0.949395
7479.000000;0.949841
7478.000000;0.950075
7477.000000;0.950310
7476.000000;0.950677
7475.000000;0.951069
7474.000000;0.951328
7473.000000;0.951476
7472.000000;0.951660
7471.000000;0.951942
7470.000000;0.952262
7469.000000;0.952584
7468.000000;0.952965
7467.000000;0.953461
7466.000000;0.954045
7465.000000;0.954642
7464.000000;0.955198
7463.000000;0.955697
7462.000000;0.956165
7461.000000;0.956660
7460.000000;0.957219
7459.000000;0.957794
7458.000000;0.958272
7457.000000;0.958590
7456.000000;0.958822
7455.000000;0.959114
7454.000000;0.959538
7453.000000;0.960010
7452.000000;0.960378
7451.000000;0.960601
7450.000000;0.960829
7449.000000;0.961266
7448.000000;0.961941
7447.000000;0.962668
7446.000000;0.963222
7445.000000;0.963526
7444.000000;0.963669
7443.000000;0.963801
7442.000000;0.964041
7441.000000;0.964432
7440.000000;0.964910
7439.000000;0.965335
7438.000000;0.965634
7437.000000;0.965870
7436.000000;0.966156
7435.000000;0.966515
7434.000000;0.966893
7433.000000;0.967284
7432.000000;0.967751
7431.000000;0.968306
7430.000000;0.968819
7429.000000;0.969120
7428.000000;0.969184
7427.000000;0.969200
7426.000000;0.969414
7425.000000;0.969911
7424.000000;0.970545
7423.000000;0.971099
7422.000000;0.971495
7421.000000;0.971816
7420.000000;0.972153
7419.000000;0.972514
7418.000000;0.972888
7417.000000;0.973313
7416.000000;0.973833
7415.000000;0.974426
7414.000000;0.975041
7413.000000;0.975661
7412.000000;0.976291
7411.000000;0.976900
7410.000000;0.977435
7409.000000;0.977882
7408.000000;0.978267
7407.000000;0.978597
7406.000000;0.978856
7405.000000;0.979031
7404.000000;0.979138
7403.000000;0.979214
7402.000000;0.979317
7401.000000;0.979484
7400.000000;0.979680
7399.000000;0.979810
7398.000000;0.979833
7397.000000;0.979864
7396.000000;0.980094
7395.000000;0.980602
7394.000000;0.981288
7393.000000;0.981978
7392.000000;0.982574
7391.000000;0.983111
7390.000000;0.983661
7389.000000;0.984199
7388.000000;0.984582
7387.000000;0.984715
7386.000000;0.984728
7385.000000;0.984902
7384.000000;0.985377
7383.000000;0.986027
7382.000000;0.986654
7381.000000;0.987206
7380.000000;0.987747
7379.000000;0.988268
7378.000000;0.988658
7377.000000;0.988837
7376.000000;0.988825
7375.000000;0.988723
7374.000000;0.988690
7373.000000;0.988899
7372.000000;0.989392
7371.000000;0.989992
7370.000000;0.990455
7369.000000;0.990731
7368.000000;0.990982
7367.000000;0.991361
7366.000000;0.991851
7365.000000;0.992345
7364.000000;0.992795
7363.000000;0.993231
7362.000000;0.993720
7361.000000;0.994282
7360.000000;0.994836
7359.000000;0.995238
7358.000000;0.995437
7357.000000;0.995574
7356.000000;0.995869
7355.000000;0.996415
7354.000000;0.997089
7353.000000;0.997684
7352.000000;0.998052
7351.000000;0.998169
7350.000000;0.998144
7349.000000;0.998200
7348.000000;0.998544
7347.000000;0.999197
7346.000000;0.999979
7345.000000;1.000667
7344.000000;1.001116
7343.000000;1.001271
7342.000000;1.001179
7341.000000;1.000996
7340.000000;1.000930
7339.000000;1.001102
7338.000000;1.001479
7337.000000;1.001969
7336.000000;1.002517
7335.000000;1.003125
7334.000000;1.003822
7333.000000;1.004611
7332.000000;1.005404
7331.000000;1.006054
7330.000000;1.006499
7329.000000;1.006868
7328.000000;1.007360
7327.000000;1.008009
7326.000000;1.008653
7325.000000;1.009163
7324.000000;1.009613
7323.000000;1.010140
7322.000000;1.010753
7321.000000;1.011356
7320.000000;1.011921
7319.000000;1.012507
7318.000000;1.013153
7317.000000;1.013850
7316.000000;1.014584
7315.000000;1.015318
7314.000000;1.015934
7313.000000;1.016303
7312.000000;1.016470
7311.000000;1.016662
7310.000000;1.017078
7309.000000;1.017721
7308.000000;1.018483
7307.000000;1.019277
7306.000000;1.020016
7305.000000;1.020584
7304.000000;1.020959
7303.000000;1.021306
7302.000000;1.021855
7301.000000;1.022692
7300.000000;1.023707
7299.000000;1.024723
7298.000000;1.025614
7297.000000;1.026331
7296.000000;1.026883
7295.000000;1.027356
7294.000000;1.027922
7293.000000;1.028740
7292.000000;1.029835
7291.000000;1.031070
7290.000000;1.032235
7289.000000;1.033178
7288.000000;1.033917
7287.000000;1.034627
7286.000000;1.035480
7285.000000;1.036502
7284.000000;1.037610
7283.000000;1.038762
7282.000000;1.039995
7281.000000;1.041294
7280.000000;1.042538
7279.000000;1.043616
7278.000000;1.044555
7277.000000;1.045440
7276.000000;1.046278
7275.000000;1.047029
7274.000000;1.047737
7273.000000;1.048530
7272.000000;1.049511
7271.000000;1.050709
7270.000000;1.052102
7269.000000;1.053593
7268.000000;1.054972
7267.000000;1.056035
7266.000000;1.056799
7265.000000;1.057534
7264.000000;1.058522
7263.000000;1.059827
7262.000000;1.061315
7261.000000;1.062831
7260.000000;1.064317
7259.000000;1.065801
7258.000000;1.067332
7257.000000;1.068910
7256.000000;1.070454
7255.000000;1.071850
7254.000000;1.073039
7253.000000;1.074099
7252.000000;1.075219
7251.000000;1.076583
7250.000000;1.078276
7249.000000;1.080243
7248.000000;1.082291
7247.000000;1.084153
7246.000000;1.085632
7245.000000;1.086734
7244.000000;1.087692
7243.000000;1.088856
7242.000000;1.090483
7241.000000;1.092546
7240.000000;1.094756
7239.000000;1.096846
7238.000000;1.098785
7237.000000;1.100703
7236.000000;1.102675
7235.000000;1.104649
7234.000000;1.106563
7233.000000;1.108491
7232.000000;1.110618
7231.000000;1.113095
7230.000000;1.115896
7229.000000;1.118802
7228.000000;1.121515
7227.000000;1.123847
7226.000000;1.125843
7225.000000;1.127712
7224.000000;1.129670
7223.000000;1.131836
7222.000000;1.134259
7221.000000;1.136942
7220.000000;1.139809
7219.000000;1.142738
7218.000000;1.145651
7217.000000;1.148534
7216.000000;1.151385
7215.000000;1.154192
7214.000000;1.156963
7213.000000;1.159708
7212.000000;1.162434
7211.000000;1.165204
7210.000000;1.168162
7209.000000;1.171368
7208.000000;1.174651
7207.000000;1.177745
7206.000000;1.180604
7205.000000;1.183448
7204.000000;1.186497
7203.000000;1.189777
7202.000000;1.193207
7201.000000;1.196727
7200.000000;1.200264
7199.000000;1.203690
7198.000000;1.206897
7197.000000;1.209908
7196.000000;1.212862
7195.000000;1.215975
7194.000000;1.219484
7193.000000;1.223466
7192.000000;1.227702
7191.000000;1.231869
7190.000000;1.235901
7189.000000;1.239971
7188.000000;1.244117
7187.000000;1.248100
7186.000000;1.251756
7185.000000;1.255301
7184.000000;1.259134
7183.000000;1.263446
7182.000000;1.268155
7181.000000;1.273037
7180.000000;1.277794
7179.000000;1.282134
7178.000000;1.285969
7177.000000;1.289486
7176.000000;1.292967
7175.000000;1.296686
7174.000000;1.300961
7173.000000;1.306030
7172.000000;1.311645
7171.000000;1.317017
7170.000000;1.321507
7169.000000;1.325317
7168.000000;1.329222
7167.000000;1.333668
7166.000000;1.338436
7165.000000;1.343173
7164.000000;1.347847
7163.000000;1.352598
7162.000000;1.357484
7161.000000;1.362465
7160.000000;1.367457
7159.000000;1.372304
7158.000000;1.376922
7157.000000;1.381547
7156.000000;1.386612
7155.000000;1.392261
7154.000000;1.398100
7153.000000;1.403557
7152.000000;1.408396
7151.000000;1.412826
7150.000000;1.417228
7149.000000;1.421865
7148.000000;1.426726
7147.000000;1.431605
7146.000000;1.436379
7145.000000;1.441191
7144.000000;1.446239
7143.000000;1.451481
7142.000000;1.456767
7141.000000;1.462174
7140.000000;1.467881
7139.000000;1.473709
7138.000000;1.479154
7137.000000;1.484026
7136.000000;1.488703
7135.000000;1.493604
7134.000000;1.498696
7133.000000;1.503688
7132.000000;1.508474
7131.000000;1.513186
7130.000000;1.518012
7129.000000;1.523112
7128.000000;1.528487
7127.000000;1.533817
7126.000000;1.538662
7125.000000;1.542979
7124.000000;1.547185
7123.000000;1.551576
7122.000000;1.556005
7121.000000;1.560309
7120.000000;1.564715
7119.000000;1.569519
7118.000000;1.574591
7117.000000;1.579517
7116.000000;1.584118
7115.000000;1.588541
7114.000000;1.592959
7113.000000;1.597494
7112.000000;1.602310
7111.000000;1.607494
7110.000000;1.612838
7109.000000;1.617988
7108.000000;1.622807
7107.000000;1.627401
7106.000000;1.631818
7105.000000;1.635991
7104.000000;1.640014
7103.000000;1.644233
7102.000000;1.648942
7101.000000;1.654066
7100.000000;1.659202
7099.000000;1.663957
7098.000000;1.668216
7097.000000;1.672140
7096.000000;1.675947
7095.000000;1.679784
7094.000000;1.683730
7093.000000;1.687768
7092.000000;1.691722
7091.000000;1.695417
7090.000000;1.698994
7089.000000;1.702828
7088.000000;1.706896
7087.000000;1.710475
7086.000000;1.712951
7085.000000;1.714802
7084.000000;1.717203
7083.000000;1.720707
7082.000000;1.724912
7081.000000;1.729441
7080.000000;1.734481
7079.000000;1.739978
7078.000000;1.744913
7077.000000;1.748064
7076.000000;1.749342
7075.000000;1.749928
7074.000000;1.751198
7073.000000;1.753800
7072.000000;1.757515
7071.000000;1.761559
7070.000000;1.765064
7069.000000;1.767641
7068.000000;1.769627
7067.000000;1.771826
7066.000000;1.774983
7065.000000;1.779313
7064.000000;1.784169
7063.000000;1.788260
7062.000000;1.790734
7061.000000;1.792168
7060.000000;1.793968
7059.000000;1.796666
7058.000000;1.799372
7057.000000;1.801151
7056.000000;1.802316
7055.000000;1.803860
7054.000000;1.806097
7053.000000;1.808487
7052.000000;1.810574
7051.000000;1.812525
7050.000000;1.814749
7049.000000;1.817459
7048.000000;1.820557
7047.000000;1.823591
7046.000000;1.825936
7045.000000;1.827438
7044.000000;1.828777
7043.000000;1.830821
7042.000000;1.833683
7041.000000;1.836704
7040.000000;1.839285
7039.000000;1.841380
7038.000000;1.843242
7037.000000;1.845098
7036.000000;1.847150
7035.000000;1.849531
7034.000000;1.852102
7033.000000;1.854466
7032.000000;1.856307
7031.000000;1.857642
7030.000000;1.858757
7029.000000;1.860001
7028.000000;1.861579
7027.000000;1.863360
7026.000000;1.864945
7025.000000;1.866058
7024.000000;1.866882
7023.000000;1.867925
7022.000000;1.869564
7021.000000;1.871775
7020.000000;1.874162
7019.000000;1.876151
7018.000000;1.877294
7017.000000;1.877593
7016.000000;1.877536
7015.000000;1.877698
7014.000000;1.878285
7013.000000;1.879116
7012.000000;1.879962
7011.000000;1.880818
7010.000000;1.881834
7009.000000;1.883104
7008.000000;1.884608
7007.000000;1.886384
7006.000000;1.888639
7005.000000;1.891510
7004.000000;1.894672
7003.000000;1.897351
7002.000000;1.898856
7001.000000;1.899003
7000.000000;1.898073
6999.000000;1.896668
6998.000000;1.895672
6997.000000;1.895841
6996.000000;1.897056
6995.000000;1.898319
6994.000000;1.898904
6993.000000;1.899166
6992.000000;1.899740
6991.000000;1.900400
6990.000000;1.900483
6989.000000;1.900092
6988.000000;1.900023
6987.000000;1.900622
6986.000000;1.901598
6985.000000;1.902904
6984.000000;1.904781
6983.000000;1.906769
6982.000000;1.907764
6981.000000;1.907553
6980.000000;1.907381
6979.000000;1.908447
6978.000000;1.910575
6977.000000;1.912789
6976.000000;1.914418
6975.000000;1.915093
6974.000000;1.914455
6973.000000;1.912674
6972.000000;1.910835
6971.000000;1.910078
6970.000000;1.910573
6969.000000;1.911814
6968.000000;1.913481
6967.000000;1.915400
6966.000000;1.917057
6965.000000;1.917926
6964.000000;1.917999
6963.000000;1.917486
6962.000000;1.916396
6961.000000;1.914965
6960.000000;1.913987
6959.000000;1.913960
6958.000000;1.914266
6957.000000;1.913964
6956.000000;1.913213
6955.000000;1.913071
6954.000000;1.914030
6953.000000;1.915466
6952.000000;1.916455
6951.000000;1.916467
6950.000000;1.915339
6949.000000;1.913359
6948.000000;1.911476
6947.000000;1.910797
6946.000000;1.911678
6945.000000;1.913655
6944.000000;1.916073
6943.000000;1.918257
6942.000000;1.919302
6941.000000;1.918686
6940.000000;1.917199
6939.000000;1.916457
6938.000000;1.917163
6937.000000;1.918442
6936.000000;1.919087
6935.000000;1.918898
6934.000000;1.918458
6933.000000;1.918148
6932.000000;1.917876
6931.000000;1.917448
6930.000000;1.916732
6929.000000;1.915679
6928.000000;1.914510
6927.000000;1.913701
6926.000000;1.913557
6925.000000;1.913943
6924.000000;1.914527
6923.000000;1.915078
6922.000000;1.915422
6921.000000;1.915422
6920.000000;1.915245
6919.000000;1.915412
6918.000000;1.916213
6917.000000;1.917108
6916.000000;1.916992
6915.000000;1.915251
6914.000000;1.912492
6913.000000;1.910131
6912.000000;1.909126
6911.000000;1.909105
6910.000000;1.908961
6909.000000;1.908441
6908.000000;1.908691
6907.000000;1.910755
6906.000000;1.913868
6905.000000;1.915904
6904.000000;1.915619
6903.000000;1.913783
6902.000000;1.911942
6901.000000;1.910911
6900.000000;1.910796
6899.000000;1.911611
6898.000000;1.913221
6897.000000;1.915034
6896.000000;1.916333
6895.000000;1.916779
6894.000000;1.916271
6893.000000;1.914647
6892.000000;1.912036
6891.000000;1.909309
6890.000000;1.907619
6889.000000;1.907453
6888.000000;1.908394
6887.000000;1.909630
6886.000000;1.910384
6885.000000;1.910095
6884.000000;1.908776
6883.000000;1.907236
6882.000000;1.906499
6881.000000;1.906878
6880.000000;1.907772
6879.000000;1.908360
6878.000000;1.908187
6877.000000;1.907285
6876.000000;1.906258
6875.000000;1.906096
6874.000000;1.907303
6873.000000;1.908985
6872.000000;1.909442
6871.000000;1.908038
6870.000000;1.905908
6869.000000;1.904435
6868.000000;1.903650
6867.000000;1.902684
6866.000000;1.901353
6865.000000;1.900519
6864.000000;1.900888
6863.000000;1.902066
6862.000000;1.903005
6861.000000;1.903009
6860.000000;1.902127
6859.000000;1.900840
6858.000000;1.899594
6857.000000;1.898502
6856.000000;1.897383
6855.000000;1.896280
6854.000000;1.895742
6853.000000;1.896257
6852.000000;1.897440
6851.000000;1.898084
6850.000000;1.897247
6849.000000;1.895140
6848.000000;1.892771
6847.000000;1.890969
6846.000000;1.890028
6845.000000;1.889905
6844.000000;1.890327
6843.000000;1.890808
6842.000000;1.890884
6841.000000;1.890380
6840.000000;1.889346
6839.000000;1.887848
6838.000000;1.886019
6837.000000;1.884218
6836.000000;1.882840
6835.000000;1.881938
6834.000000;1.881244
6833.000000;1.880555
6832.000000;1.879900
6831.000000;1.879294
6830.000000;1.878519
6829.000000;1.877309
6828.000000;1.875708
6827.000000;1.874156
6826.000000;1.873226
6825.000000;1.873292
6824.000000;1.874316
6823.000000;1.875731
6822.000000;1.876566
6821.000000;1.875992
6820.000000;1.873998
6819.000000;1.871432
6818.000000;1.869143
6817.000000;1.867149
6816.000000;1.864868
6815.000000;1.862118
6814.000000;1.859485
6813.000000;1.857559
6812.000000;1.856223
6811.000000;1.854986
6810.000000;1.853681
6809.000000;1.852461
6808.000000;1.851298
6807.000000;1.849981
6806.000000;1.848566
6805.000000;1.847310
6804.000000;1.846119
6803.000000;1.844499
6802.000000;1.842205
6801.000000;1.839516
6800.000000;1.836804
6799.000000;1.834202
6798.000000;1.831824
6797.000000;1.829913
6796.000000;1.828584
6795.000000;1.827753
6794.000000;1.827401
6793.000000;1.827450
6792.000000;1.827252
6791.000000;1.825832
6790.000000;1.823107
6789.000000;1.820317
6788.000000;1.818673
6787.000000;1.817909
6786.000000;1.816716
6785.000000;1.814413
6784.000000;1.811581
6783.000000;1.809078
6782.000000;1.807057
6781.000000;1.805095
6780.000000;1.802879
6779.000000;1.800575
6778.000000;1.798667
6777.000000;1.797455
6776.000000;1.796603
6775.000000;1.795276
6774.000000;1.792953
6773.000000;1.790016
6772.000000;1.787311
6771.000000;1.785261
6770.000000;1.783638
6769.000000;1.782055
6768.000000;1.780364
6767.000000;1.778623
6766.000000;1.776958
6765.000000;1.775436
6764.000000;1.773914
6763.000000;1.772109
6762.000000;1.769950
6761.000000;1.767701
6760.000000;1.765514
6759.000000;1.763123
6758.000000;1.760317
6757.000000;1.757463
6756.000000;1.755118
6755.000000;1.753291
6754.000000;1.751534
6753.000000;1.749689
6752.000000;1.748075
6751.000000;1.746928
6750.000000;1.746041
6749.000000;1.744981
6748.000000;1.743323
6747.000000;1.740772
6746.000000;1.737471
6745.000000;1.734166
6744.000000;1.731628
6743.000000;1.729868
6742.000000;1.728284
6741.000000;1.726574
6740.000000;1.725016
6739.000000;1.723770
6738.000000;1.722447
6737.000000;1.720594
6736.000000;1.718236
6735.000000;1.715714
6734.000000;1.713347
6733.000000;1.711422
6732.000000;1.710077
6731.000000;1.708942
6730.000000;1.707241
6729.000000;1.704593
6728.000000;1.701501
6727.000000;1.698795
6726.000000;1.696774
6725.000000;1.695097
6724.000000;1.693274
6723.000000;1.691111
6722.000000;1.688802
6721.000000;1.686732
6720.000000;1.685036
6719.000000;1.683318
6718.000000;1.681094
6717.000000;1.678528
6716.000000;1.676354
6715.000000;1.674881
6714.000000;1.673498
6713.000000;1.671457
6712.000000;1.668818
6711.000000;1.666285
6710.000000;1.664320
6709.000000;1.662763
6708.000000;1.661169
6707.000000;1.659230
6706.000000;1.656951
6705.000000;1.654690
6704.000000;1.652913
6703.000000;1.651680
6702.000000;1.650462
6701.000000;1.648700
6700.000000;1.646342
6699.000000;1.643907
6698.000000;1.641754
6697.000000;1.639973
6696.000000;1.638532
6695.000000;1.637266
6694.000000;1.635816
6693.000000;1.633865
6692.000000;1.631482
6691.000000;1.629055
6690.000000;1.626896
6689.000000;1.625056
6688.000000;1.623427
6687.000000;1.621850
6686.000000;1.620186
6685.000000;1.618444
6684.000000;1.616779
6683.000000;1.615227
6682.000000;1.613543
6681.000000;1.611474
6680.000000;1.609106
6679.000000;1.606788
6678.000000;1.604809
6677.000000;1.603284
6676.000000;1.602163
6675.000000;1.601114
6674.000000;1.599580
6673.000000;1.597317
6672.000000;1.594813
6671.000000;1.592840
6670.000000;1.591601
6669.000000;1.590564
6668.000000;1.589132
6667.000000;1.587177
6666.000000;1.584917
6665.000000;1.582610
6664.000000;1.580494
6663.000000;1.578752
6662.000000;1.577314
6661.000000;1.575815
6660.000000;1.573908
6659.000000;1.571551
6658.000000;1.568967
6657.000000;1.566451
6656.000000;1.564266
6655.000000;1.562572
6654.000000;1.561331
6653.000000;1.560322
6652.000000;1.559275
6651.000000;1.557960
6650.000000;1.556223
6649.000000;1.554107
6648.000000;1.551937
6647.000000;1.550099
6646.000000;1.548669
6645.000000;1.547386
6644.000000;1.545986
6643.000000;1.544426
6642.000000;1.542773
6641.000000;1.541082
6640.000000;1.539475
6639.000000;1.538137
6638.000000;1.537093
6637.000000;1.536097
6636.000000;1.534853
6635.000000;1.533277
6634.000000;1.531480
6633.000000;1.529634
6632.000000;1.527914
6631.000000;1.526393
6630.000000;1.524884
6629.000000;1.523031
6628.000000;1.520742
6627.000000;1.518389
6626.000000;1.516414
6625.000000;1.514825
6624.000000;1.513278
6623.000000;1.511580
6622.000000;1.509890
6621.000000;1.508415
6620.000000;1.507113
6619.000000;1.505771
6618.000000;1.504240
6617.000000;1.502534
6616.000000;1.500794
6615.000000;1.499193
6614.000000;1.497773
6613.000000;1.496341
6612.000000;1.494645
6611.000000;1.492700
6610.000000;1.490843
6609.000000;1.489357
6608.000000;1.488155
6607.000000;1.486911
6606.000000;1.485463
6605.000000;1.483957
6604.000000;1.482634
6603.000000;1.481567
6602.000000;1.480636
6601.000000;1.479646
6600.000000;1.478423
6599.000000;1.476884
6598.000000;1.475099
6597.000000;1.473281
6596.000000;1.471653
6595.000000;1.470295
6594.000000;1.469108
6593.000000;1.467946
6592.000000;1.466743
6591.000000;1.465517
6590.000000;1.464285
6589.000000;1.463010
6588.000000;1.461658
6587.000000;1.460240
6586.000000;1.458778
6585.000000;1.457262
6584.000000;1.455689
6583.000000;1.454125
6582.000000;1.452669
6581.000000;1.451339
6580.000000;1.450034
6579.000000;1.448657
6578.000000;1.447237
6577.000000;1.445883
6576.000000;1.444630
6575.000000;1.443397
6574.000000;1.442107
6573.000000;1.440792
6572.000000;1.439546
6571.000000;1.438402
6570.000000;1.437277
6569.000000;1.436042
6568.000000;1.434619
6567.000000;1.433042
6566.000000;1.431447
6565.000000;1.429986
6564.000000;1.428722
6563.000000;1.427594
6562.000000;1.426503
6561.000000;1.425407
6560.000000;1.424317
6559.000000;1.423195
6558.000000;1.421959
6557.000000;1.420610
6556.000000;1.419307
6555.000000;1.418205
6554.000000;1.417222
6553.000000;1.416055
6552.000000;1.414492
6551.000000;1.412663
6550.000000;1.410934
6549.000000;1.409554
6548.000000;1.408461
6547.000000;1.407413
6546.000000;1.406241
6545.000000;1.404963
6544.000000;1.403699
6543.000000;1.402528
6542.000000;1.401404
6541.000000;1.400197
6540.000000;1.398838
6539.000000;1.397427
6538.000000;1.396157
6537.000000;1.395095
6536.000000;1.394101
6535.000000;1.393018
6534.000000;1.391889
6533.000000;1.390911
6532.000000;1.390171
6531.000000;1.389525
6530.000000;1.388755
6529.000000;1.387781
6528.000000;1.386680
6527.000000;1.385563
6526.000000;1.384476
6525.000000;1.383390
6524.000000;1.382236
6523.000000;1.380984
6522.000000;1.379703
6521.000000;1.378517
6520.000000;1.377456
6519.000000;1.376405
6518.000000;1.375240
6517.000000;1.373992
6516.000000;1.372804
6515.000000;1.371723
6514.000000;1.370621
6513.000000;1.369361
6512.000000;1.368015
6511.000000;1.366831
6510.000000;1.365985
6509.000000;1.365381
6508.000000;1.364733
6507.000000;1.363836
6506.000000;1.362718
6505.000000;1.361524
6504.000000;1.360333
6503.000000;1.359153
6502.000000;1.358048
6501.000000;1.357125
6500.000000;1.356376
6499.000000;1.355619
6498.000000;1.354683
6497.000000;1.353586
6496.000000;1.352467
6495.000000;1.351389
6494.000000;1.350311
6493.000000;1.349216
6492.000000;1.348160
6491.000000;1.347173
6490.000000;1.346210
6489.000000;1.345245
6488.000000;1.344355
6487.000000;1.343632
6486.000000;1.343033
6485.000000;1.342377
6484.000000;1.341516
6483.000000;1.340467
6482.000000;1.339372
6481.000000;1.338345
6480.000000;1.337408
6479.000000;1.336531
6478.000000;1.335695
6477.000000;1.334862
6476.000000;1.333970
6475.000000;1.333005
6474.000000;1.332064
6473.000000;1.331260
6472.000000;1.330577
6471.000000;1.329874
6470.000000;1.329058
6469.000000;1.328174
6468.000000;1.327293
6467.000000;1.326405
6466.000000;1.325476
6465.000000;1.324535
6464.000000;1.323624
6463.000000;1.322716
6462.000000;1.321762
6461.000000;1.320791
6460.000000;1.319895
6459.000000;1.319128
6458.000000;1.318463
6457.000000;1.317831
6456.000000;1.317137
6455.000000;1.316296
6454.000000;1.315320
6453.000000;1.314351
6452.000000;1.313516
6451.000000;1.312763
6450.000000;1.311938
6449.000000;1.311012
6448.000000;1.310122
6447.000000;1.309361
6446.000000;1.308640
6445.000000;1.307812
6444.000000;1.306855
6443.000000;1.305884
6442.000000;1.305001
6441.000000;1.304218
6440.000000;1.303482
6439.000000;1.302728
6438.000000;1.301921
6437.000000;1.301081
6436.000000;1.300259
6435.000000;1.299487
6434.000000;1.298762
6433.000000;1.298075
6432.000000;1.297407
6431.000000;1.296709
6430.000000;1.295934
6429.000000;1.295114
6428.000000;1.294346
6427.000000;1.293653
6426.000000;1.292932
6425.000000;1.292091
6424.000000;1.291194
6423.000000;1.290378
6422.000000;1.289662
6421.000000;1.288923
6420.000000;1.288072
6419.000000;1.287187
6418.000000;1.286402
6417.000000;1.285749
6416.000000;1.285165
6415.000000;1.284620
6414.000000;1.284147
6413.000000;1.283713
6412.000000;1.283145
6411.000000;1.282261
6410.000000;1.281086
6409.000000;1.279880
6408.000000;1.278928
6407.000000;1.278339
6406.000000;1.278018
6405.000000;1.277781
6404.000000;1.277452
6403.000000;1.276894
6402.000000;1.276044
6401.000000;1.274963
6400.000000;1.273849
6399.000000;1.272942
6398.000000;1.272357
6397.000000;1.271976
6396.000000;1.271534
6395.000000;1.270850
6394.000000;1.269995
6393.000000;1.269183
6392.000000;1.268519
6391.000000;1.267931
6390.000000;1.267330
6389.000000;1.266735
6388.000000;1.266165
6387.000000;1.265518
6386.000000;1.264697
6385.000000;1.263797
6384.000000;1.263052
6383.000000;1.262577
6382.000000;1.262263
6381.000000;1.261943
6380.000000;1.261551
6379.000000;1.261104
6378.000000;1.260608
6377.000000;1.260055
6376.000000;1.259452
6375.000000;1.258799
6374.000000;1.258075
6373.000000;1.257293
6372.000000;1.256523
6371.000000;1.255831
6370.000000;1.255214
6369.000000;1.254636
6368.000000;1.254079
6367.000000;1.253515
6366.000000;1.252879
6365.000000;1.252124
6364.000000;1.251301
6363.000000;1.250540
6362.000000;1.249947
6361.000000;1.249544
6360.000000;1.249280
6359.000000;1.249068
6358.000000;1.248790
6357.000000;1.248320
6356.000000;1.247584
6355.000000;1.246633
6354.000000;1.245650
6353.000000;1.244856
6352.000000;1.244336
6351.000000;1.243978
6350.000000;1.243595
6349.000000;1.243119
6348.000000;1.242626
6347.000000;1.242179
6346.000000;1.241720
6345.000000;1.241166
6344.000000;1.240549
6343.000000;1.239998
6342.000000;1.239585
6341.000000;1.239233
6340.000000;1.238788
6339.000000;1.238157
6338.000000;1.237406
6337.000000;1.236723
6336.000000;1.236281
6335.000000;1.236066
6334.000000;1.235861
6333.000000;1.235430
6332.000000;1.234728
6331.000000;1.233935
6330.000000;1.233280
6329.000000;1.232850
6328.000000;1.232545
6327.000000;1.232178
6326.000000;1.231616
6325.000000;1.230881
6324.000000;1.230133
6323.000000;1.229538
6322.000000;1.229132
6321.000000;1.228811
6320.000000;1.228444
6319.000000;1.227978
6318.000000;1.227442
6317.000000;1.226894
6316.000000;1.226380
6315.000000;1.225929
6314.000000;1.225540
6313.000000;1.225158
6312.000000;1.224717
6311.000000;1.224237
6310.000000;1.223834
6309.000000;1.223588
6308.000000;1.223406
6307.000000;1.223091
6306.000000;1.222572
6305.000000;1.222002
6304.000000;1.221550
6303.000000;1.221183
6302.000000;1.220714
6301.000000;1.220061
6300.000000;1.219352
6299.000000;1.218766
6298.000000;1.218352
6297.000000;1.218032
6296.000000;1.217703
6295.000000;1.217292
6294.000000;1.216785
6293.000000;1.216265
6292.000000;1.215863
6291.000000;1.215618
6290.000000;1.215414
6289.000000;1.215119
6288.000000;1.214737
6287.000000;1.214348
6286.000000;1.213954
6285.000000;1.213479
6284.000000;1.212921
6283.000000;1.212390
6282.000000;1.211964
6281.000000;1.211605
6280.000000;1.211248
6279.000000;1.210918
6278.000000;1.210651
6277.000000;1.210383
6276.000000;1.209988
6275.000000;1.209455
6274.000000;1.208927
6273.000000;1.208556
6272.000000;1.208344
6271.000000;1.208171
6270.000000;1.207925
6269.000000;1.207579
6268.000000;1.207150
6267.000000;1.206650
6266.000000;1.206105
6265.000000;1.205598
6264.000000;1.205236
6263.000000;1.205056
6262.000000;1.204961
6261.000000;1.204774
6260.000000;1.204381
6259.000000;1.203823
6258.000000;1.203255
6257.000000;1.202795
6256.000000;1.202429
6255.000000;1.202052
6254.000000;1.201604
6253.000000;1.201137
6252.000000;1.200747
6251.000000;1.200476
6250.000000;1.200295
6249.000000;1.200154
6248.000000;1.200016
6247.000000;1.199842
6246.000000;1.199591
6245.000000;1.199258
6244.000000;1.198869
6243.000000;1.198450
6242.000000;1.198018
6241.000000;1.197614
6240.000000;1.197303
6239.000000;1.197101
6238.000000;1.196934
6237.000000;1.196706
6236.000000;1.196389
6235.000000;1.196029
6234.000000;1.195657
6233.000000;1.195268
6232.000000;1.194871
6231.000000;1.194521
6230.000000;1.194267
6229.000000;1.194085
6228.000000;1.193901
6227.000000;1.193656
6226.000000;1.193349
6225.000000;1.193006
6224.000000;1.192647
6223.000000;1.192282
6222.000000;1.191941
6221.000000;1.191669
6220.000000;1.191493
6219.000000;1.191389
6218.000000;1.191293
6217.000000;1.191151
6216.000000;1.190939
6215.000000;1.190642
6214.000000;1.190252
6213.000000;1.189803
6212.000000;1.189383
6211.000000;1.189071
6210.000000;1.188866
6209.000000;1.188690
6208.000000;1.188457
6207.000000;1.188128
6206.000000;1.187707
6205.000000;1.187235
6204.000000;1.186795
6203.000000;1.186484
6202.000000;1.186334
6201.000000;1.186274
6200.000000;1.186191
6199.000000;1.186015
6198.000000;1.185767
6197.000000;1.185515
6196.000000;1.185321
6195.000000;1.185203
6194.000000;1.185114
6193.000000;1.184969
6192.000000;1.184710
6191.000000;1.184365
6190.000000;1.184031
6189.000000;1.183792
6188.000000;1.183659
6187.000000;1.183569
6186.000000;1.183426
6185.000000;1.183158
6184.000000;1.182759
6183.000000;1.182302
6182.000000;1.181896
6181.000000;1.181608
6180.000000;1.181430
6179.000000;1.181329
6178.000000;1.181279
6177.000000;1.181228
6176.000000;1.181063
6175.000000;1.180689
6174.000000;1.180147
6173.000000;1.179634
6172.000000;1.179341
6171.000000;1.179302
6170.000000;1.179393
6169.000000;1.179454
6168.000000;1.179400
6167.000000;1.179230
6166.000000;1.178994
6165.000000;1.178744
6164.000000;1.178505
6163.000000;1.178265
6162.000000;1.178016
6161.000000;1.177783
6160.000000;1.177600
6159.000000;1.177466
6158.000000;1.177348
6157.000000;1.177218
6156.000000;1.177064
6155.000000;1.176847
6154.000000;1.176495
6153.000000;1.175981
6152.000000;1.175381
6151.000000;1.174852
6150.000000;1.174539
6149.000000;1.174486
6148.000000;1.174616
6147.000000;1.174770
6146.000000;1.174798
6145.000000;1.174658
6144.000000;1.174423
6143.000000;1.174182
6142.000000;1.173962
6141.000000;1.173744
6140.000000;1.173532
6139.000000;1.173361
6138.000000;1.173253
6137.000000;1.173189
6136.000000;1.173140
6135.000000;1.173084
6134.000000;1.173009
6133.000000;1.172912
6132.000000;1.172801
6131.000000;1.172673
6130.000000;1.172507
6129.000000;1.172307
6128.000000;1.172131
6127.000000;1.172028
6126.000000;1.171946
6125.000000;1.171757
6124.000000;1.171416
6123.000000;1.171023
6122.000000;1.170720
6121.000000;1.170529
6120.000000;1.170367
6119.000000;1.170178
6118.000000;1.170000
6117.000000;1.169870
6116.000000;1.169737
6115.000000;1.169502
6114.000000;1.169150
6113.000000;1.168789
6112.000000;1.168559
6111.000000;1.168499
6110.000000;1.168525
6109.000000;1.168529
6108.000000;1.168468
6107.000000;1.168375
6106.000000;1.168296
6105.000000;1.168231
6104.000000;1.168139
6103.000000;1.167987
6102.000000;1.167778
6101.000000;1.167550
6100.000000;1.167354
6099.000000;1.167229
6098.000000;1.167198
6097.000000;1.167239
6096.000000;1.167282
6095.000000;1.167232
6094.000000;1.167055
6093.000000;1.166819
6092.000000;1.166638
6091.000000;1.166547
6090.000000;1.166472
6089.000000;1.166342
6088.000000;1.166177
6087.000000;1.166051
6086.000000;1.165987
6085.000000;1.165938
6084.000000;1.165868
6083.000000;1.165786
6082.000000;1.165697
6081.000000;1.165584
6080.000000;1.165438
6079.000000;1.165288
6078.000000;1.165166
6077.000000;1.165092
6076.000000;1.165094
6075.000000;1.165184
6074.000000;1.165296
6073.000000;1.165295
6072.000000;1.165116
6071.000000;1.164838
6070.000000;1.164588
6069.000000;1.164410
6068.000000;1.164278
6067.000000;1.164198
6066.000000;1.164207
6065.000000;1.164277
6064.000000;1.164307
6063.000000;1.164249
6062.000000;1.164178
6061.000000;1.164198
6060.000000;1.164290
6059.000000;1.164336
6058.000000;1.164254
6057.000000;1.164086
6056.000000;1.163938
6055.000000;1.163859
6054.000000;1.163817
6053.000000;1.163768
6052.000000;1.163730
6051.000000;1.163745
6050.000000;1.163796
6049.000000;1.163810
6048.000000;1.163768
6047.000000;1.163737
6046.000000;1.163755
6045.000000;1.163731
6044.000000;1.163546
6043.000000;1.163231
6042.000000;1.162955
6041.000000;1.162836
6040.000000;1.162833
6039.000000;1.162867
6038.000000;1.162953
6037.000000;1.163141
6036.000000;1.163381
6035.000000;1.163520
6034.000000;1.163453
6033.000000;1.163230
6032.000000;1.163012
6031.000000;1.162951
6030.000000;1.163070
6029.000000;1.163257
6028.000000;1.163355
6027.000000;1.163304
6026.000000;1.163171
6025.000000;1.163053
6024.000000;1.162988
6023.000000;1.162966
6022.000000;1.162983
6021.000000;1.163039
6020.000000;1.163107
6019.000000;1.163162
6018.000000;1.163210
6017.000000;1.163251
6016.000000;1.163238
6015.000000;1.163114
6014.000000;1.162895
6013.000000;1.162665
6012.000000;1.162498
6011.000000;1.162405
6010.000000;1.162373
6009.000000;1.162416
6008.000000;1.162567
6007.000000;1.162820
6006.000000;1.163097
6005.000000;1.163270
6004.000000;1.163266
6003.000000;1.163159
6002.000000;1.163109
6001.000000;1.163179
6000.000000;1.163252
5999.000000;1.163189
5998.000000;1.163041
5997.000000;1.163009
5996.000000;1.163203
5995.000000;1.163536
5994.000000;1.163863
5993.000000;1.164137
5992.000000;1.164367
5991.000000;1.164521
5990.000000;1.164545
5989.000000;1.164458
5988.000000;1.164340
5987.000000;1.164258
5986.000000;1.164233
5985.000000;1.164287
5984.000000;1.164442
5983.000000;1.164684
5982.000000;1.164966
5981.000000;1.165260
5980.000000;1.165568
5979.000000;1.165877
5978.000000;1.166137
5977.000000;1.166314
5976.000000;1.166434
5975.000000;1.166537
5974.000000;1.166624
5973.000000;1.166673
5972.000000;1.166711
5971.000000;1.166820
5970.000000;1.167054
5969.000000;1.167381
5968.000000;1.167715
5967.000000;1.167996
5966.000000;1.168223
5965.000000;1.168399
5964.000000;1.168515
5963.000000;1.168572
5962.000000;1.168619
5961.000000;1.168726
5960.000000;1.168939
5959.000000;1.169259
5958.000000;1.169645
5957.000000;1.170018
5956.000000;1.170299
5955.000000;1.170494
5954.000000;1.170697
5953.000000;1.170987
5952.000000;1.171315
5951.000000;1.171566
5950.000000;1.171717
5949.000000;1.171881
5948.000000;1.172178
5947.000000;1.172607
5946.000000;1.173062
5945.000000;1.173434
5944.000000;1.173663
5943.000000;1.173758
5942.000000;1.173795
5941.000000;1.173880
5940.000000;1.174060
5939.000000;1.174306
5938.000000;1.174584
5937.000000;1.174926
5936.000000;1.175365
5935.000000;1.175848
5934.000000;1.176261
5933.000000;1.176540
5932.000000;1.176718
5931.000000;1.176860
5930.000000;1.177009
5929.000000;1.177179
5928.000000;1.177366
5927.000000;1.177528
5926.000000;1.177611
5925.000000;1.177611
5924.000000;1.177594
5923.000000;1.177648
5922.000000;1.177830
5921.000000;1.178147
5920.000000;1.178553
5919.000000;1.178945
5918.000000;1.179217
5917.000000;1.179343
5916.000000;1.179387
5915.000000;1.179428
5914.000000;1.179486
5913.000000;1.179549
5912.000000;1.179617
5911.000000;1.179710
5910.000000;1.179827
5909.000000;1.179946
5908.000000;1.180055
5907.000000;1.180169
5906.000000;1.180314
5905.000000;1.180506
5904.000000;1.180716
5903.000000;1.180866
5902.000000;1.180898
5901.000000;1.180854
5900.000000;1.180853
5899.000000;1.180964
5898.000000;1.181134
5897.000000;1.181270
5896.000000;1.181357
5895.000000;1.181456
5894.000000;1.181598
5893.000000;1.181739
5892.000000;1.181824
5891.000000;1.181851
5890.000000;1.181855
5889.000000;1.181873
5888.000000;1.181924
5887.000000;1.181999
5886.000000;1.182074
5885.000000;1.182137
5884.000000;1.182215
5883.000000;1.182341
5882.000000;1.182505
5881.000000;1.182668
5880.000000;1.182820
5879.000000;1.182972
5878.000000;1.183113
5877.000000;1.183228
5876.000000;1.183358
5875.000000;1.183590
5874.000000;1.183929
5873.000000;1.184251
5872.000000;1.184437
5871.000000;1.184521
5870.000000;1.184646
5869.000000;1.184894
5868.000000;1.185209
5867.000000;1.185507
5866.000000;1.185783
5865.000000;1.186081
5864.000000;1.186399
5863.000000;1.186673
5862.000000;1.186864
5861.000000;1.187028
5860.000000;1.187284
5859.000000;1.187693
5858.000000;1.188186
5857.000000;1.188622
5856.000000;1.188929
5855.000000;1.189159
5854.000000;1.189395
5853.000000;1.189654
5852.000000;1.189931
5851.000000;1.190282
5850.000000;1.190794
5849.000000;1.191444
5848.000000;1.192065
5847.000000;1.192504
5846.000000;1.192781
5845.000000;1.193059
5844.000000;1.193458
5843.000000;1.193950
5842.000000;1.194438
5841.000000;1.194890
5840.000000;1.195365
5839.000000;1.195896
5838.000000;1.196411
5837.000000;1.196797
5836.000000;1.197061
5835.000000;1.197356
5834.000000;1.197832
5833.000000;1.198462
5832.000000;1.199056
5831.000000;1.199453
5830.000000;1.199667
5829.000000;1.199839
5828.000000;1.200085
5827.000000;1.200422
5826.000000;1.200823
5825.000000;1.201277
5824.000000;1.201794
5823.000000;1.202376
5822.000000;1.203006
5821.000000;1.203664
5820.000000;1.204326
5819.000000;1.204948
5818.000000;1.205466
5817.000000;1.205849
5816.000000;1.206150
5815.000000;1.206466
5814.000000;1.206849
5813.000000;1.207274
5812.000000;1.207692
5811.000000;1.208099
5810.000000;1.208514
5809.000000;1.208940
5808.000000;1.209378
5807.000000;1.209857
5806.000000;1.210426
5805.000000;1.211084
5804.000000;1.211777
5803.000000;1.212439
5802.000000;1.213050
5801.000000;1.213638
5800.000000;1.214257
5799.000000;1.214928
5798.000000;1.215602
5797.000000;1.216194
5796.000000;1.216691
5795.000000;1.217199
5794.000000;1.217825
5793.000000;1.218519
5792.000000;1.219116
5791.000000;1.219531
5790.000000;1.219863
5789.000000;1.220286
5788.000000;1.220876
5787.000000;1.221575
5786.000000;1.222253
5785.000000;1.222808
5784.000000;1.223231
5783.000000;1.223621
5782.000000;1.224096
5781.000000;1.224667
5780.000000;1.225221
5779.000000;1.225673
5778.000000;1.226087
5777.000000;1.226606
5776.000000;1.227286
5775.000000;1.228036
5774.000000;1.228718
5773.000000;1.229281
5772.000000;1.229799
5771.000000;1.230387
5770.000000;1.231072
5769.000000;1.231759
5768.000000;1.232338
5767.000000;1.232825
5766.000000;1.233330
5765.000000;1.233897
5764.000000;1.234446
5763.000000;1.234919
5762.000000;1.235384
5761.000000;1.235926
5760.000000;1.236489
5759.000000;1.236926
5758.000000;1.237195
5757.000000;1.237425
5756.000000;1.237780
5755.000000;1.238315
5754.000000;1.238996
5753.000000;1.239773
5752.000000;1.240603
5751.000000;1.241430
5750.000000;1.242187
5749.000000;1.242824
5748.000000;1.243343
5747.000000;1.243807
5746.000000;1.244311
5745.000000;1.244895
5744.000000;1.245508
5743.000000;1.246083
5742.000000;1.246635
5741.000000;1.247241
5740.000000;1.247915
5739.000000;1.248571
5738.000000;1.249125
5737.000000;1.249587
5736.000000;1.250020
5735.000000;1.250441
5734.000000;1.250810
5733.000000;1.251116
5732.000000;1.251431
5731.000000;1.251867
5730.000000;1.252487
5729.000000;1.253249
5728.000000;1.254035
5727.000000;1.254753
5726.000000;1.255400
5725.000000;1.256035
5724.000000;1.256699
5723.000000;1.257374
5722.000000;1.258016
5721.000000;1.258598
5720.000000;1.259107
5719.000000;1.259553
5718.000000;1.259992
5717.000000;1.260529
5716.000000;1.261241
5715.000000;1.262094
5714.000000;1.262956
5713.000000;1.263709
5712.000000;1.264351
5711.000000;1.264969
5710.000000;1.265639
5709.000000;1.266363
5708.000000;1.267098
5707.000000;1.267802
5706.000000;1.268446
5705.000000;1.269007
5704.000000;1.269509
5703.000000;1.270047
5702.000000;1.270716
5701.000000;1.271507
5700.000000;1.272302
5699.000000;1.272990
5698.000000;1.273563
5697.000000;1.274077
5696.000000;1.274593
5695.000000;1.275128
5694.000000;1.275667
5693.000000;1.276222
5692.000000;1.276775
5691.000000;1.277348
5690.000000;1.278001
5689.000000;1.278768
5688.000000;1.279583
5687.000000;1.280328
5686.000000;1.280945
5685.000000;1.281486
5684.000000;1.282046
5683.000000;1.282667
5682.000000;1.283316
5681.000000;1.283931
5680.000000;1.284486
5679.000000;1.285032
5678.000000;1.285646
5677.000000;1.286334
5676.000000;1.286993
5675.000000;1.287511
5674.000000;1.287904
5673.000000;1.288316
5672.000000;1.288883
5671.000000;1.289613
5670.000000;1.290397
5669.000000;1.291099
5668.000000;1.291659
5667.000000;1.292143
5666.000000;1.292702
5665.000000;1.293425
5664.000000;1.294221
5663.000000;1.294895
5662.000000;1.295360
5661.000000;1.295750
5660.000000;1.296274
5659.000000;1.296997
5658.000000;1.297804
5657.000000;1.298554
5656.000000;1.299207
5655.000000;1.299794
5654.000000;1.300319
5653.000000;1.300720
5652.000000;1.300952
5651.000000;1.301077
5650.000000;1.301248
5649.000000;1.301580
5648.000000;1.302045
5647.000000;1.302526
5646.000000;1.302971
5645.000000;1.303447
5644.000000;1.304030
5643.000000;1.304695
5642.000000;1.305361
5641.000000;1.306023
5640.000000;1.306738
5639.000000;1.307496
5638.000000;1.308171
5637.000000;1.308649
5636.000000;1.308957
5635.000000;1.309236
5634.000000;1.309595
5633.000000;1.310047
5632.000000;1.310538
5631.000000;1.311009
5630.000000;1.311428
5629.000000;1.311812
5628.000000;1.312229
5627.000000;1.312748
5626.000000;1.313366
5625.000000;1.314006
5624.000000;1.314579
5623.000000;1.315029
5622.000000;1.315354
5621.000000;1.315600
5620.000000;1.315857
5619.000000;1.316195
5618.000000;1.316589
5617.000000;1.316951
5616.000000;1.317243
5615.000000;1.317520
5614.000000;1.317839
5613.000000;1.318176
5612.000000;1.318491
5611.000000;1.318822
5610.000000;1.319238
5609.000000;1.319732
5608.000000;1.320220
5607.000000;1.320671
5606.000000;1.321133
5605.000000;1.321632
5604.000000;1.322087
5603.000000;1.322410
5602.000000;1.322624
5601.000000;1.322837
5600.000000;1.323100
5599.000000;1.323370
5598.000000;1.323595
5597.000000;1.323810
5596.000000;1.324092
5595.000000;1.324466
5594.000000;1.324865
5593.000000;1.325191
5592.000000;1.325385
5591.000000;1.325439
5590.000000;1.325384
5589.000000;1.325287
5588.000000;1.325237
5587.000000;1.325300
5586.000000;1.325475
5585.000000;1.325706
5584.000000;1.325947
5583.000000;1.326170
5582.000000;1.326346
5581.000000;1.326449
5580.000000;1.326520
5579.000000;1.326652
5578.000000;1.326879
5577.000000;1.327123
5576.000000;1.327297
5575.000000;1.327412
5574.000000;1.327535
5573.000000;1.327680
5572.000000;1.327821
5571.000000;1.327972
5570.000000;1.328157
5569.000000;1.328325
5568.000000;1.328396
5567.000000;1.328401
5566.000000;1.328463
5565.000000;1.328635
5564.000000;1.328835
5563.000000;1.328984
5562.000000;1.329081
5561.000000;1.329123
5560.000000;1.329043
5559.000000;1.328833
5558.000000;1.328627
5557.000000;1.328587
5556.000000;1.328732
5555.000000;1.328961
5554.000000;1.329191
5553.000000;1.329385
5552.000000;1.329510
5551.000000;1.329537
5550.000000;1.329492
5549.000000;1.329422
5548.000000;1.329358
5547.000000;1.329329
5546.000000;1.329381
5545.000000;1.329501
5544.000000;1.329579
5543.000000;1.329527
5542.000000;1.329400
5541.000000;1.329328
5540.000000;1.329363
5539.000000;1.329478
5538.000000;1.329657
5537.000000;1.329898
5536.000000;1.330152
5535.000000;1.330360
5534.000000;1.330550
5533.000000;1.330779
5532.000000;1.330984
5531.000000;1.331002
5530.000000;1.330774
5529.000000;1.330438
5528.000000;1.330202
5527.000000;1.330169
5526.000000;1.330298
5525.000000;1.330463
5524.000000;1.330538
5523.000000;1.330487
5522.000000;1.330401
5521.000000;1.330414
5520.000000;1.330565
5519.000000;1.330797
5518.000000;1.331037
5517.000000;1.331243
5516.000000;1.331363
5515.000000;1.331354
5514.000000;1.331247
5513.000000;1.331114
5512.000000;1.330985
5511.000000;1.330854
5510.000000;1.330774
5509.000000;1.330846
5508.000000;1.331090
5507.000000;1.331390
5506.000000;1.331609
5505.000000;1.331712
5504.000000;1.331747
5503.000000;1.331764
5502.000000;1.331780
5501.000000;1.331797
5500.000000;1.331833
5499.000000;1.331942
5498.000000;1.332196
5497.000000;1.332595
5496.000000;1.333023
5495.000000;1.333332
5494.000000;1.333481
5493.000000;1.333528
5492.000000;1.333527
5491.000000;1.333497
5490.000000;1.333506
5489.000000;1.333675
5488.000000;1.334046
5487.000000;1.334491
5486.000000;1.334820
5485.000000;1.334938
5484.000000;1.334896
5483.000000;1.334846
5482.000000;1.334970
5481.000000;1.335360
5480.000000;1.335909
5479.000000;1.336369
5478.000000;1.336564
5477.000000;1.336543
5476.000000;1.336504
5475.000000;1.336609
5474.000000;1.336868
5473.000000;1.337189
5472.000000;1.337517
5471.000000;1.337906
5470.000000;1.338448
5469.000000;1.339145
5468.000000;1.339881
5467.000000;1.340530
5466.000000;1.341050
5465.000000;1.341485
5464.000000;1.341882
5463.000000;1.342241
5462.000000;1.342524
5461.000000;1.342711
5460.000000;1.342857
5459.000000;1.343091
5458.000000;1.343518
5457.000000;1.344133
5456.000000;1.344859
5455.000000;1.345642
5454.000000;1.346467
5453.000000;1.347290
5452.000000;1.348046
5451.000000;1.348708
5450.000000;1.349288
5449.000000;1.349775
5448.000000;1.350145
5447.000000;1.350474
5446.000000;1.350957
5445.000000;1.351732
5444.000000;1.352715
5443.000000;1.353666
5442.000000;1.354450
5441.000000;1.355164
5440.000000;1.355967
5439.000000;1.356877
5438.000000;1.357810
5437.000000;1.358729
5436.000000;1.359686
5435.000000;1.360731
5434.000000;1.361834
5433.000000;1.362941
5432.000000;1.364062
5431.000000;1.365240
5430.000000;1.366487
5429.000000;1.367785
5428.000000;1.369102
5427.000000;1.370375
5426.000000;1.371555
5425.000000;1.372683
5424.000000;1.373860
5423.000000;1.375134
5422.000000;1.376466
5421.000000;1.377835
5420.000000;1.379280
5419.000000;1.380835
5418.000000;1.382469
5417.000000;1.384106
5416.000000;1.385712
5415.000000;1.387328
5414.000000;1.388998
5413.000000;1.390686
5412.000000;1.392336
5411.000000;1.393982
5410.000000;1.395757
5409.000000;1.397747
5408.000000;1.399896
5407.000000;1.402102
5406.000000;1.404335
5405.000000;1.406605
5404.000000;1.408887
5403.000000;1.411155
5402.000000;1.413434
5401.000000;1.415792
5400.000000;1.418271
5399.000000;1.420835
5398.000000;1.423424
5397.000000;1.426041
5396.000000;1.428769
5395.000000;1.431667
5394.000000;1.434680
5393.000000;1.437699
5392.000000;1.440719
5391.000000;1.443885
5390.000000;1.447347
5389.000000;1.451043
5388.000000;1.454707
5387.000000;1.458211
5386.000000;1.461750
5385.000000;1.465546
5384.000000;1.469557
5383.000000;1.473582
5382.000000;1.477535
5381.000000;1.481531
5380.000000;1.485712
5379.000000;1.490134
5378.000000;1.494848
5377.000000;1.499920
5376.000000;1.505302
5375.000000;1.510786
5374.000000;1.516158
5373.000000;1.521366
5372.000000;1.526539
5371.000000;1.531863
5370.000000;1.537483
5369.000000;1.543441
5368.000000;1.549655
5367.000000;1.556025
5366.000000;1.562584
5365.000000;1.569439
5364.000000;1.576569
5363.000000;1.583768
5362.000000;1.590870
5361.000000;1.597958
5360.000000;1.605293
5359.000000;1.613032
5358.000000;1.621064
5357.000000;1.629124
5356.000000;1.637112
5355.000000;1.645313
5354.000000;1.654219
5353.000000;1.663986
5352.000000;1.674161
5351.000000;1.684118
5350.000000;1.693719
5349.000000;1.703346
5348.000000;1.713409
5347.000000;1.724068
5346.000000;1.735390
5345.000000;1.747383
5344.000000;1.759773
5343.000000;1.772071
5342.000000;1.784034
5341.000000;1.795896
5340.000000;1.808095
5339.000000;1.820995
5338.000000;1.834845
5337.000000;1.849649
5336.000000;1.864989
5335.000000;1.880248
5334.000000;1.895127
5333.000000;1.909856
5332.000000;1.924907
5331.000000;1.940658
5330.000000;1.957288
5329.000000;1.974730
5328.000000;1.992676
5327.000000;2.010848
5326.000000;2.029384
5325.000000;2.048676
5324.000000;2.068727
5323.000000;2.089019
5322.000000;2.109092
5321.000000;2.128909
5320.000000;2.148649
5319.000000;2.168616
5318.000000;2.189447
5317.000000;2.211782
5316.000000;2.235370
5315.000000;2.258995
5314.000000;2.281785
5313.000000;2.304191
5312.000000;2.327204
5311.000000;2.350910
5310.000000;2.374284
5309.000000;2.396456
5308.000000;2.417936
5307.000000;2.440332
5306.000000;2.464771
5305.000000;2.490584
5304.000000;2.515797
5303.000000;2.539152
5302.000000;2.561304
5301.000000;2.583598
5300.000000;2.606238
5299.000000;2.628614
5298.000000;2.651138
5297.000000;2.675400
5296.000000;2.702018
5295.000000;2.729011
5294.000000;2.752796
5293.000000;2.770969
5292.000000;2.784093
5291.000000;2.794905
5290.000000;2.806089
5289.000000;2.818564
5288.000000;2.831473
5287.000000;2.843738
5286.000000;2.855294
5285.000000;2.866644
5284.000000;2.878286
5283.000000;2.890609
5282.000000;2.902619
5281.000000;2.910860
5280.000000;2.911976
5279.000000;2.907426
5278.000000;2.903314
5277.000000;2.904470
5276.000000;2.910607
5275.000000;2.918436
5274.000000;2.926060
5273.000000;2.934078
5272.000000;2.943052
5271.000000;2.951993
5270.000000;2.959315
5269.000000;2.964294
5268.000000;2.967636
5267.000000;2.970753
5266.000000;2.973891
5265.000000;2.975308
5264.000000;2.973357
5263.000000;2.968440
5262.000000;2.962192
5261.000000;2.956037
5260.000000;2.950856
5259.000000;2.948072
5258.000000;2.949824
5257.000000;2.956317
5256.000000;2.964866
5255.000000;2.972378
5254.000000;2.976778
5253.000000;2.976489
5252.000000;2.971274
5251.000000;2.963732
5250.000000;2.957315
5249.000000;2.952758
5248.000000;2.949005
5247.000000;2.947656
5246.000000;2.952555
5245.000000;2.963495
5244.000000;2.974136
5243.000000;2.978531
5242.000000;2.977420
5241.000000;2.975727
5240.000000;2.975973
5239.000000;2.976838
5238.000000;2.976406
5237.000000;2.974038
5236.000000;2.970361
5235.000000;2.966993
5234.000000;2.964774
5233.000000;2.962114
5232.000000;2.956890
5231.000000;2.950472
5230.000000;2.948150
5229.000000;2.953995
5228.000000;2.966364
5227.000000;2.978647
5226.000000;2.983320
5225.000000;2.977641
5224.000000;2.967074
5223.000000;2.960633
5222.000000;2.961906
5221.000000;2.965498
5220.000000;2.964067
5219.000000;2.958761
5218.000000;2.957217
5217.000000;2.961438
5216.000000;2.964418
5215.000000;2.960842
5214.000000;2.955226
5213.000000;2.954600
5212.000000;2.958994
5211.000000;2.963636
5210.000000;2.966613
5209.000000;2.969109
5208.000000;2.970226
5207.000000;2.967537
5206.000000;2.962180
5205.000000;2.958293
5204.000000;2.957510
5203.000000;2.957754
5202.000000;2.957129
5201.000000;2.956177
5200.000000;2.956399
5199.000000;2.958795
5198.000000;2.963613
5197.000000;2.969778
5196.000000;2.974802
5195.000000;2.976205
5194.000000;2.973138
5193.000000;2.966266
5192.000000;2.957091
5191.000000;2.948970
5190.000000;2.946406
5189.000000;2.950736
5188.000000;2.957677
5187.000000;2.960980
5186.000000;2.958481
5185.000000;2.953191
5184.000000;2.949583
5183.000000;2.950550
5182.000000;2.956153
5181.000000;2.963390
5180.000000;2.968576
5179.000000;2.971837
5178.000000;2.976844
5177.000000;2.983897
5176.000000;2.986847
5175.000000;2.981024
5174.000000;2.971036
5173.000000;2.964864
5172.000000;2.964143
5171.000000;2.965502
5170.000000;2.968476
5169.000000;2.975414
5168.000000;2.983562
5167.000000;2.985071
5166.000000;2.977645
5165.000000;2.967694
5164.000000;2.960822
5163.000000;2.956485
5162.000000;2.952818
5161.000000;2.951283
5160.000000;2.953967
5159.000000;2.959432
5158.000000;2.964286
5157.000000;2.966955
5156.000000;2.967121
5155.000000;2.964146
5154.000000;2.959371
5153.000000;2.957148
5152.000000;2.960402
5151.000000;2.966405
5150.000000;2.968631
5149.000000;2.962939
5148.000000;2.951735
5147.000000;2.942064
5146.000000;2.940170
5145.000000;2.947195
5144.000000;2.958195
5143.000000;2.965877
5142.000000;2.967199
5141.000000;2.964658
5140.000000;2.961272
5139.000000;2.957775
5138.000000;2.954673
5137.000000;2.953999
5136.000000;2.957239
5135.000000;2.963150
5134.000000;2.968790
5133.000000;2.971595
5132.000000;2.970098
5131.000000;2.964586
5130.000000;2.958677
5129.000000;2.957801
5128.000000;2.964085
5127.000000;2.973658
5126.000000;2.979762
5125.000000;2.978594
5124.000000;2.971769
5123.000000;2.963287
5122.000000;2.956019
5121.000000;2.951524
5120.000000;2.950659
5119.000000;2.952756
5118.000000;2.955395
5117.000000;2.956580
5116.000000;2.957085
5115.000000;2.959469
5114.000000;2.964729
5113.000000;2.970211
5112.000000;2.971057
5111.000000;2.964924
5110.000000;2.955230
5109.000000;2.948260
5108.000000;2.947389
5107.000000;2.951026
5106.000000;2.955290
5105.000000;2.956871
5104.000000;2.953725
5103.000000;2.946229
5102.000000;2.938995
5101.000000;2.938428
5100.000000;2.946481
5099.000000;2.957367
5098.000000;2.961597
5097.000000;2.955521
5096.000000;2.945740
5095.000000;2.941662
5094.000000;2.946479
5093.000000;2.955927
5092.000000;2.963253
5091.000000;2.965029
5090.000000;2.962860
5089.000000;2.960358
5088.000000;2.959457
5087.000000;2.959422
5086.000000;2.958350
5085.000000;2.955511
5084.000000;2.952818
5083.000000;2.953166
5082.000000;2.956846
5081.000000;2.960547
5080.000000;2.960565
5079.000000;2.957017
5078.000000;2.953844
5077.000000;2.954204
5076.000000;2.956758
5075.000000;2.957196
5074.000000;2.953089
5073.000000;2.946223
5072.000000;2.940742
5071.000000;2.940290
5070.000000;2.945842
5069.000000;2.954361
5068.000000;2.959650
5067.000000;2.956986
5066.000000;2.948082
5065.000000;2.939174
5064.000000;2.934223
5063.000000;2.932251
5062.000000;2.931088
5061.000000;2.931188
5060.000000;2.933687
5059.000000;2.936619
5058.000000;2.936037
5057.000000;2.931033
5056.000000;2.925789
5055.000000;2.925528
5054.000000;2.931457
5053.000000;2.939931
5052.000000;2.945577
5051.000000;2.944838
5050.000000;2.937857
5049.000000;2.928430
5048.000000;2.921804
5047.000000;2.921487
5046.000000;2.927117
5045.000000;2.934941
5044.000000;2.940721
5043.000000;2.942529
5042.000000;2.941007
5041.000000;2.937880
5040.000000;2.934887
5039.000000;2.933283
5038.000000;2.932851
5037.000000;2.931299
5036.000000;2.926324
5035.000000;2.918736
5034.000000;2.912334
5033.000000;2.910548
5032.000000;2.913666
5031.000000;2.919054
5030.000000;2.923606
5029.000000;2.925932
5028.000000;2.926704
5027.000000;2.927520
5026.000000;2.929546
5025.000000;2.932692
5024.000000;2.935505
5023.000000;2.935745
5022.000000;2.931758
5021.000000;2.924328
5020.000000;2.916946
5019.000000;2.912806
5018.000000;2.911108
5017.000000;2.907519
5016.000000;2.899485
5015.000000;2.890071
5014.000000;2.884631
5013.000000;2.884600
5012.000000;2.886360
5011.000000;2.885881
5010.000000;2.882931
5009.000000;2.880098
5008.000000;2.879224
5007.000000;2.880225
5006.000000;2.881826
5005.000000;2.881775
5004.000000;2.877906
5003.000000;2.870468
5002.000000;2.862255
5001.000000;2.855355
5000.000000;2.849228
4999.000000;2.843632
4998.000000;2.841227
4997.000000;2.844580
4996.000000;2.851493
4995.000000;2.855700
4994.000000;2.853122
4993.000000;2.845663
4992.000000;2.837720
4991.000000;2.831540
4990.000000;2.827133
4989.000000;2.824214
4988.000000;2.822699
4987.000000;2.822380
4986.000000;2.822975
4985.000000;2.824261
4984.000000;2.825679
4983.000000;2.826311
4982.000000;2.825664
4981.000000;2.823321
4980.000000;2.818544
4979.000000;2.812155
4978.000000;2.807742
4977.000000;2.808293
4976.000000;2.811442
4975.000000;2.810682
4974.000000;2.802931
4973.000000;2.792558
4972.000000;2.786098
4971.000000;2.785496
4970.000000;2.787743
4969.000000;2.789388
4968.000000;2.789329
4967.000000;2.787525
4966.000000;2.783794
4965.000000;2.778665
4964.000000;2.773643
4963.000000;2.769589
4962.000000;2.765581
4961.000000;2.760194
4960.000000;2.753597
4959.000000;2.747723
4958.000000;2.744563
4957.000000;2.744639
4956.000000;2.746732
4955.000000;2.748545
4954.000000;2.747791
4953.000000;2.743331
4952.000000;2.735829
4951.000000;2.727488
4950.000000;2.720843
4949.000000;2.717316
4948.000000;2.716612
4947.000000;2.717198
4946.000000;2.717242
4945.000000;2.715404
4944.000000;2.711286
4943.000000;2.705642
4942.000000;2.700103
4941.000000;2.696079
4940.000000;2.693660
4939.000000;2.691925
4938.000000;2.690372
4937.000000;2.689455
4936.000000;2.689411
4935.000000;2.689014
4934.000000;2.686495
4933.000000;2.682075
4932.000000;2.678323
4931.000000;2.677208
4930.000000;2.677687
4929.000000;2.676736
4928.000000;2.672646
4927.000000;2.666566
4926.000000;2.660523
4925.000000;2.655094
4924.000000;2.649627
4923.000000;2.643921
4922.000000;2.638745
4921.000000;2.634722
4920.000000;2.631424
4919.000000;2.627903
4918.000000;2.623818
4917.000000;2.619893
4916.000000;2.617418
4915.000000;2.617182
4914.000000;2.618396
4913.000000;2.618690
4912.000000;2.615882
4911.000000;2.609853
4910.000000;2.602253
4909.000000;2.594715
4908.000000;2.588071
4907.000000;2.583066
4906.000000;2.580644
4905.000000;2.580638
4904.000000;2.580963
4903.000000;2.579419
4902.000000;2.576189
4901.000000;2.573498
4900.000000;2.572862
4899.000000;2.573383
4898.000000;2.572820
4897.000000;2.569907
4896.000000;2.565389
4895.000000;2.561040
4894.000000;2.557865
4893.000000;2.555187
4892.000000;2.551445
4891.000000;2.545943
4890.000000;2.539732
4889.000000;2.534552
4888.000000;2.531067
4887.000000;2.528520
4886.000000;2.525999
4885.000000;2.523474
4884.000000;2.521356
4883.000000;2.519489
4882.000000;2.517039
4881.000000;2.513289
4880.000000;2.508392
4879.000000;2.503367
4878.000000;2.499389
4877.000000;2.496877
4876.000000;2.495117
4875.000000;2.492825
4874.000000;2.489164
4873.000000;2.484185
4872.000000;2.478494
4871.000000;2.472942
4870.000000;2.468544
4869.000000;2.466060
4868.000000;2.465256
4867.000000;2.464864
4866.000000;2.463658
4865.000000;2.461357
4864.000000;2.458219
4863.000000;2.454151
4862.000000;2.448852
4861.000000;2.442800
4860.000000;2.437476
4859.000000;2.434093
4858.000000;2.432251
4857.000000;2.430292
4856.000000;2.427074
4855.000000;2.423169
4854.000000;2.420170
4853.000000;2.418972
4852.000000;2.418878
4851.000000;2.418226
4850.000000;2.415743
4849.000000;2.411463
4848.000000;2.406538
4847.000000;2.402192
4846.000000;2.398762
4845.000000;2.395679
4844.000000;2.392355
4843.000000;2.388939
4842.000000;2.385977
4841.000000;2.383414
4840.000000;2.380367
4839.000000;2.376116
4838.000000;2.371095
4837.000000;2.366621
4836.000000;2.363783
4835.000000;2.362728
4834.000000;2.362762
4833.000000;2.362772
4832.000000;2.361749
4831.000000;2.359312
4830.000000;2.355812
4829.000000;2.351774
4828.000000;2.347332
4827.000000;2.342412
4826.000000;2.337345
4825.000000;2.332929
4824.000000;2.329747
4823.000000;2.327610
4822.000000;2.325771
4821.000000;2.323597
4820.000000;2.320979
4819.000000;2.318129
4818.000000;2.315068
4817.000000;2.311507
4816.000000;2.307384
4815.000000;2.303410
4814.000000;2.300604
4813.000000;2.299041
4812.000000;2.297360
4811.000000;2.294077
4810.000000;2.289360
4809.000000;2.284924
4808.000000;2.282087
4807.000000;2.280485
4806.000000;2.278878
4805.000000;2.276708
4804.000000;2.274366
4803.000000;2.272159
4802.000000;2.269659
4801.000000;2.266361
4800.000000;2.262589
4799.000000;2.259318
4798.000000;2.257122
4797.000000;2.255558
4796.000000;2.253749
4795.000000;2.251410
4794.000000;2.248946
4793.000000;2.246527
4792.000000;2.243570
4791.000000;2.239554
4790.000000;2.235059
4789.000000;2.231355
4788.000000;2.228887
4787.000000;2.226664
4786.000000;2.223439
4785.000000;2.219178
4784.000000;2.215024
4783.000000;2.212050
4782.000000;2.210480
4781.000000;2.209860
4780.000000;2.209459
4779.000000;2.208430
4778.000000;2.205987
4777.000000;2.201909
4776.000000;2.196888
4775.000000;2.192188
4774.000000;2.188813
4773.000000;2.186891
4772.000000;2.185685
4771.000000;2.184237
4770.000000;2.182110
4769.000000;2.179538
4768.000000;2.176936
4767.000000;2.174433
4766.000000;2.171891
4765.000000;2.169128
4764.000000;2.165960
4763.000000;2.162264
4762.000000;2.158270
4761.000000;2.154654
4760.000000;2.152086
4759.000000;2.150642
4758.000000;2.149762
4757.000000;2.148693
4756.000000;2.146817
4755.000000;2.143814
4754.000000;2.139959
4753.000000;2.136184
4752.000000;2.133367
4751.000000;2.131453
4750.000000;2.129619
4749.000000;2.127300
4748.000000;2.124653
4747.000000;2.121931
4746.000000;2.118911
4745.000000;2.115287
4744.000000;2.111288
4743.000000;2.107506
4742.000000;2.104336
4741.000000;2.101911
4740.000000;2.100352
4739.000000;2.099613
4738.000000;2.099134
4737.000000;2.098077
4736.000000;2.095952
4735.000000;2.092743
4734.000000;2.088593
4733.000000;2.083874
4732.000000;2.079525
4731.000000;2.076625
4730.000000;2.075276
4729.000000;2.074334
4728.000000;2.072649
4727.000000;2.070284
4726.000000;2.068079
4725.000000;2.066320
4724.000000;2.064437
4723.000000;2.061952
4722.000000;2.059166
4721.000000;2.056720
4720.000000;2.054821
4719.000000;2.053122
4718.000000;2.051113
4717.000000;2.048486
4716.000000;2.045309
4715.000000;2.042064
4714.000000;2.039338
4713.000000;2.037265
4712.000000;2.035370
4711.000000;2.033134
4710.000000;2.030606
4709.000000;2.028308
4708.000000;2.026602
4707.000000;2.025367
4706.000000;2.024210
4705.000000;2.022765
4704.000000;2.020773
4703.000000;2.018143
4702.000000;2.015085
4701.000000;2.012028
4700.000000;2.009267
4699.000000;2.006772
4698.000000;2.004454
4697.000000;2.002443
4696.000000;2.000881
4695.000000;1.999552
4694.000000;1.998024
4693.000000;1.996183
4692.000000;1.994364
4691.000000;1.992865
4690.000000;1.991566
4689.000000;1.990227
4688.000000;1.988905
4687.000000;1.987767
4686.000000;1.986632
4685.000000;1.985044
4684.000000;1.982821
4683.000000;1.980229
4682.000000;1.977584
4681.000000;1.974995
4680.000000;1.972553
4679.000000;1.970421
4678.000000;1.968541
4677.000000;1.966585
4676.000000;1.964475
4675.000000;1.962680
4674.000000;1.961628
4673.000000;1.960988
4672.000000;1.959979
4671.000000;1.958330
4670.000000;1.956465
4669.000000;1.954677
4668.000000;1.952629
4667.000000;1.949986
4666.000000;1.947152
4665.000000;1.944916
4664.000000;1.943481
4663.000000;1.942224
4662.000000;1.940490
4661.000000;1.938367
4660.000000;1.936533
4659.000000;1.935471
4658.000000;1.934969
4657.000000;1.934391
4656.000000;1.933314
4655.000000;1.931859
4654.000000;1.930385
4653.000000;1.928973
4652.000000;1.927327
4651.000000;1.925165
4650.000000;1.922616
4649.000000;1.920192
4648.000000;1.918467
4647.000000;1.917705
4646.000000;1.917666
4645.000000;1.917704
4644.000000;1.917186
4643.000000;1.915921
4642.000000;1.914153
4641.000000;1.912183
4640.000000;1.910156
4639.000000;1.908205
4638.000000;1.906533
4637.000000;1.905186
4636.000000;1.903891
4635.000000;1.902322
4634.000000;1.900460
4633.000000;1.898559
4632.000000;1.896857
4631.000000;1.895447
4630.000000;1.894309
4629.000000;1.893274
4628.000000;1.892008
4627.000000;1.890300
4626.000000;1.888430
4625.000000;1.887028
4624.000000;1.886421
4623.000000;1.886190
4622.000000;1.885499
4621.000000;1.883905
4620.000000;1.881807
4619.000000;1.880044
4618.000000;1.879073
4617.000000;1.878549
4616.000000;1.877697
4615.000000;1.876090
4614.000000;1.874045
4613.000000;1.872263
4612.000000;1.871168
4611.000000;1.870552
4610.000000;1.869737
4609.000000;1.868101
4608.000000;1.865671
4607.000000;1.863303
4606.000000;1.862090
4605.000000;1.862405
4604.000000;1.863514
4603.000000;1.864210
4602.000000;1.863778
4601.000000;1.862289
4600.000000;1.860187
4599.000000;1.857875
4598.000000;1.855615
4597.000000;1.853573
4596.000000;1.851898
4595.000000;1.850843
4594.000000;1.850641
4593.000000;1.851071
4592.000000;1.851330
4591.000000;1.850742
4590.000000;1.849556
4589.000000;1.848621
4588.000000;1.848228
4587.000000;1.847732
4586.000000;1.846504
4585.000000;1.844849
4584.000000;1.843635
4583.000000;1.843207
4582.000000;1.843029
4581.000000;1.842356
4580.000000;1.840986
4579.000000;1.839315
4578.000000;1.837842
4577.000000;1.836718
4576.000000;1.835745
4575.000000;1.834745
4574.000000;1.833834
4573.000000;1.833226
4572.000000;1.832886
4571.000000;1.832586
4570.000000;1.832267
4569.000000;1.832056
4568.000000;1.831892
4567.000000;1.831463
4566.000000;1.830641
4565.000000;1.829666
4564.000000;1.828739
4563.000000;1.827765
4562.000000;1.826710
4561.000000;1.825838
4560.000000;1.825241
4559.000000;1.824481
4558.000000;1.823156
4557.000000;1.821661
4556.000000;1.820838
4555.000000;1.820885
4554.000000;1.821067
4553.000000;1.820585
4552.000000;1.819352
4551.000000;1.817883
4550.000000;1.816763
4549.000000;1.816353
4548.000000;1.816620
4547.000000;1.817060
4546.000000;1.817034
4545.000000;1.816379
4544.000000;1.815538
4543.000000;1.814966
4542.000000;1.814636
4541.000000;1.814240
4540.000000;1.813630
4539.000000;1.812849
4538.000000;1.811930
4537.000000;1.810890
4536.000000;1.809844
4535.000000;1.808992
4534.000000;1.808480
4533.000000;1.808299
4532.000000;1.808228
4531.000000;1.807917
4530.000000;1.807260
4529.000000;1.806705
4528.000000;1.806885
4527.000000;1.807790
4526.000000;1.808544
4525.000000;1.808257
4524.000000;1.806966
4523.000000;1.805508
4522.000000;1.804606
4521.000000;1.804309
4520.000000;1.804224
4519.000000;1.803991
4518.000000;1.803511
4517.000000;1.802903
4516.000000;1.802304
4515.000000;1.801711
4514.000000;1.801036
4513.000000;1.800338
4512.000000;1.799889
4511.000000;1.799887
4510.000000;1.800203
4509.000000;1.800528
4508.000000;1.800696
4507.000000;1.800766
4506.000000;1.800865
4505.000000;1.801071
4504.000000;1.801358
4503.000000;1.801580
4502.000000;1.801599
4501.000000;1.801515
4500.000000;1.801628
4499.000000;1.802055
4498.000000;1.802472
4497.000000;1.802399
4496.000000;1.801680
4495.000000;1.800637
4494.000000;1.799835
4493.000000;1.799727
4492.000000;1.800314
4491.000000;1.801012
4490.000000;1.801075
4489.000000;1.800376
4488.000000;1.799603
4487.000000;1.799473
4486.000000;1.799967
4485.000000;1.800572
4484.000000;1.801042
4483.000000;1.801521
4482.000000;1.802027
4481.000000;1.802245
4480.000000;1.801948
4479.000000;1.801331
4478.000000;1.800858
4477.000000;1.800940
4476.000000;1.801700
4475.000000;1.802827
4474.000000;1.803705
4473.000000;1.803958
4472.000000;1.803823
4471.000000;1.803750
4470.000000;1.803764
4469.000000;1.803628
4468.000000;1.803530
4467.000000;1.804051
4466.000000;1.805303
4465.000000;1.806612
4464.000000;1.807358
4463.000000;1.807771
4462.000000;1.808521
4461.000000;1.809810
4460.000000;1.811225
4459.000000;1.812318
4458.000000;1.812992
4457.000000;1.813401
4456.000000;1.813761
4455.000000;1.814243
4454.000000;1.814844
4453.000000;1.815374
4452.000000;1.815738
4451.000000;1.816165
4450.000000;1.817047
4449.000000;1.818612
4448.000000;1.820804
4447.000000;1.823345
4446.000000;1.825792
4445.000000;1.827753
4444.000000;1.829170
4443.000000;1.830275
4442.000000;1.831147
4441.000000;1.831565
4440.000000;1.831552
4439.000000;1.831823
4438.000000;1.833288
4437.000000;1.836130
4436.000000;1.839581
4435.000000;1.842550
4434.000000;1.844322
4433.000000;1.844848
4432.000000;1.844729
4431.000000;1.844926
4430.000000;1.846158
4429.000000;1.848488
4428.000000;1.851566
4427.000000;1.855095
4426.000000;1.858785
4425.000000;1.862007
4424.000000;1.864065
4423.000000;1.865005
4422.000000;1.865791
4421.000000;1.867436
4420.000000;1.870117
4419.000000;1.873232
4418.000000;1.876097
4417.000000;1.878422
4416.000000;1.880338
4415.000000;1.882200
4414.000000;1.884364
4413.000000;1.886962
4412.000000;1.889795
4411.000000;1.892411
4410.000000;1.894366
4409.000000;1.895565
4408.000000;1.896442
4407.000000;1.897649
4406.000000;1.899470
4405.000000;1.901679
4404.000000;1.904039
4403.000000;1.906596
4402.000000;1.909237
4401.000000;1.911353
4400.000000;1.912547
4399.000000;1.913536
4398.000000;1.915666
4397.000000;1.919377
4396.000000;1.923658
4395.000000;1.927226
4394.000000;1.929827
4393.000000;1.932094
4392.000000;1.934617
4391.000000;1.937580
4390.000000;1.940910
4389.000000;1.944260
4388.000000;1.947041
4387.000000;1.949003
4386.000000;1.950669
4385.000000;1.952808
4384.000000;1.955486
4383.000000;1.958023
4382.000000;1.959928
4381.000000;1.961556
4380.000000;1.963731
4379.000000;1.966885
4378.000000;1.970671
4377.000000;1.974352
4376.000000;1.977439
4375.000000;1.979936
4374.000000;1.982051
4373.000000;1.983797
4372.000000;1.985076
4371.000000;1.986054
4370.000000;1.987117
4369.000000;1.988546
4368.000000;1.990568
4367.000000;1.993584
4366.000000;1.997717
4365.000000;2.002025
4364.000000;2.004944
4363.000000;2.006000
4362.000000;2.006476
4361.000000;2.007772
4360.000000;2.009787
4359.000000;2.011692
4358.000000;2.013629
4357.000000;2.016396
4356.000000;2.019735
4355.000000;2.022336
4354.000000;2.023851
4353.000000;2.025529
4352.000000;2.028185
4351.000000;2.030664
4350.000000;2.031317
4349.000000;2.030461
4348.000000;2.030320
4347.000000;2.032579
4346.000000;2.036781
4345.000000;2.041066
4344.000000;2.043775
4343.000000;2.044290
4342.000000;2.043198
4341.000000;2.042008
4340.000000;2.042238
4339.000000;2.044380
4338.000000;2.047676
4337.000000;2.050852
4336.000000;2.052897
4335.000000;2.053385
4334.000000;2.052726
4333.000000;2.052391
4332.000000;2.054334
4331.000000;2.059554
4330.000000;2.066828
4329.000000;2.073057
4328.000000;2.075700
4327.000000;2.075151
4326.000000;2.074316
4325.000000;2.075783
4324.000000;2.079705
4323.000000;2.084324
4322.000000;2.088116
4321.000000;2.090918
4320.000000;2.093088
4319.000000;2.094599
4318.000000;2.095433
4317.000000;2.096014
4316.000000;2.096586
4315.000000;2.096799
4314.000000;2.096720
4313.000000;2.097591
4312.000000;2.100413
4311.000000;2.104063
4310.000000;2.106087
4309.000000;2.105621
4308.000000;2.104448
4307.000000;2.104722
4306.000000;2.106774
4305.000000;2.109606
4304.000000;2.112401
4303.000000;2.114663
4302.000000;2.115715
4301.000000;2.115391
4300.000000;2.114931
4299.000000;2.115990
4298.000000;2.118763
4297.000000;2.121951
4296.000000;2.124653
4295.000000;2.127546
4294.000000;2.131848
4293.000000;2.137598
4292.000000;2.143295
4291.000000;2.147168
4290.000000;2.149016
4289.000000;2.150946
4288.000000;2.155659
4287.000000;2.163402
4286.000000;2.170960
4285.000000;2.174667
4284.000000;2.174521
4283.000000;2.174167
4282.000000;2.176783
4281.000000;2.182215
4280.000000;2.187897
4279.000000;2.191367
4278.000000;2.191812
4277.000000;2.190514
4276.000000;2.190541
4275.000000;2.194849
4274.000000;2.203528
4273.000000;2.213630
4272.000000;2.222117
4271.000000;2.227638
4270.000000;2.229465
4269.000000;2.227437
4268.000000;2.223880
4267.000000;2.222860
4266.000000;2.225699
4265.000000;2.228984
4264.000000;2.228983
4263.000000;2.226813
4262.000000;2.226741
4261.000000;2.230695
4260.000000;2.237441
4259.000000;2.246174
4258.000000;2.257017
4257.000000;2.267762
4256.000000;2.274100
4255.000000;2.274598
4254.000000;2.272550
4253.000000;2.271627
4252.000000;2.272731
4251.000000;2.275797
4250.000000;2.281388
4249.000000;2.288445
4248.000000;2.293152
4247.000000;2.293751
4246.000000;2.294125
4245.000000;2.298853
4244.000000;2.307109
4243.000000;2.313457
4242.000000;2.314813
4241.000000;2.314285
4240.000000;2.317017
4239.000000;2.324153
4238.000000;2.331401
4237.000000;2.333008
4236.000000;2.328046
4235.000000;2.322830
4234.000000;2.325577
4233.000000;2.337883
4232.000000;2.351656
4231.000000;2.356186
4230.000000;2.349082
4229.000000;2.337597
4228.000000;2.330669
4227.000000;2.333534
4226.000000;2.347752
4225.000000;2.371443
4224.000000;2.397658
4223.000000;2.415623
4222.000000;2.418502
4221.000000;2.410260
4220.000000;2.402471
4219.000000;2.403678
4218.000000;2.413622
4217.000000;2.425920
4216.000000;2.431512
4215.000000;2.426091
4214.000000;2.417885
4213.000000;2.419781
4212.000000;2.435602
4211.000000;2.456517
4210.000000;2.470433
4209.000000;2.474441
4208.000000;2.473422
4207.000000;2.470216
4206.000000;2.463379
4205.000000;2.451784
4204.000000;2.437857
4203.000000;2.424862
4202.000000;2.414610
4201.000000;2.409048
4200.000000;2.410980
4199.000000;2.422139
4198.000000;2.440648
4197.000000;2.461023
4196.000000;2.476687
4195.000000;2.483022
4194.000000;2.480006
4193.000000;2.472438
4192.000000;2.465965
4191.000000;2.462479
4190.000000;2.460030
4189.000000;2.456131
4188.000000;2.452243
4187.000000;2.454155
4186.000000;2.462646
4185.000000;2.470435
4184.000000;2.474798
4183.000000;2.483592
4182.000000;2.503513
4181.000000;2.529932
4180.000000;2.546822
4179.000000;2.541449
4178.000000;2.526715
4177.000000;2.522828
4176.000000;2.537022
4175.000000;2.571307
4174.000000;2.620144
4173.000000;2.663827
4172.000000;2.679543
4171.000000;2.658941
4170.000000;2.612410
4169.000000;2.562090
4168.000000;2.531117
4167.000000;2.531157
4166.000000;2.551719
4165.000000;2.562277
4164.000000;2.543600
4163.000000;2.513949
4162.000000;2.500169
4161.000000;2.508299
4160.000000;2.528813
4159.000000;2.551183
4158.000000;2.566193
4157.000000;2.564149
4156.000000;2.547328
4155.000000;2.536311
4154.000000;2.547636
4153.000000;2.568915
4152.000000;2.568549
4151.000000;2.548852
4150.000000;2.541561
4149.000000;2.555645
4148.000000;2.573552
4147.000000;2.583331
4146.000000;2.596608
4145.000000;2.621316
4144.000000;2.634849
4143.000000;2.610420
4142.000000;2.568684
4141.000000;2.548494
4140.000000;2.559354
4139.000000;2.588658
4138.000000;2.628963
4137.000000;2.683689
4136.000000;2.740926
4135.000000;2.760701
4134.000000;2.721945
4133.000000;2.654571
4132.000000;2.592002
4131.000000;2.547762
4130.000000;2.526328
4129.000000;2.528764
4128.000000;2.548949
4127.000000;2.574406
4126.000000;2.597154
4125.000000;2.615893
4124.000000;2.624132
4123.000000;2.612569
4122.000000;2.590341
4121.000000;2.583608
4120.000000;2.604303
4119.000000;2.633549
4118.000000;2.641099
4117.000000;2.622997
4116.000000;2.599090
4115.000000;2.578350
4114.000000;2.561273
4113.000000;2.552469
4112.000000;2.547156
4111.000000;2.545748
4110.000000;2.570215
4109.000000;2.617421
4108.000000;2.646317
4107.000000;2.630333
4106.000000;2.577630
4105.000000;2.524480
4104.000000;2.496788
4103.000000;2.489898
4102.000000;2.490404
4101.000000;2.496812
4100.000000;2.518796
4099.000000;2.554361
4098.000000;2.591638
4097.000000;2.627482
4096.000000;2.655825
4095.000000;2.663806
4094.000000;2.623261
4093.000000;2.522544
4092.000000;2.420745
4091.000000;2.378972
4090.000000;2.412527
4089.000000;2.500548
4088.000000;2.598400
4087.000000;2.651503
4086.000000;2.656512
4085.000000;2.659323
4084.000000;2.673413
4083.000000;2.703194
4082.000000;2.761040
4081.000000;2.858623
4080.000000;2.938153
4079.000000;2.829294
4078.000000;2.651013
4077.000000;2.539988
4076.000000;2.496375
4075.000000;2.510254
4074.000000;2.561547
4073.000000;2.606807
4072.000000;2.592348
4071.000000;2.521029
4070.000000;2.445553
4069.000000;2.407662
4068.000000;2.424706
4067.000000;2.500614
4066.000000;2.628329
4065.000000;2.758278
4064.000000;2.794827
4063.000000;2.739213
4062.000000;2.656865
4061.000000;2.602944
4060.000000;2.573531
4059.000000;2.533275
4058.000000;2.488721
4057.000000;2.480296
4056.000000;2.513387
4055.000000;2.537358
4054.000000;2.530099
4053.000000;2.538422
4052.000000;2.599890
4051.000000;2.727554
4050.000000;2.902640
4049.000000;3.001393
4048.000000;2.879279
4047.000000;2.704914
4046.000000;2.616607
4045.000000;2.637326
4044.000000;2.738438
4043.000000;2.809985
4042.000000;2.719362
4041.000000;2.553756
4040.000000;2.425354
4039.000000;2.345288
4038.000000;2.300333
4037.000000;2.292098
4036.000000;2.332088
4035.000000;2.421149
4034.000000;2.541334
4033.000000;2.657972
4032.000000;2.723183
4031.000000;2.723860
4030.000000;2.666094
4029.000000;2.551627
4028.000000;2.444844
4027.000000;2.397168
4026.000000;2.416130
4025.000000;2.485781
4024.000000;2.570918
4023.000000;2.581050
4022.000000;2.483656
4021.000000;2.389029
4020.000000;2.348134
4019.000000;2.340383
4018.000000;2.322244
4017.000000;2.281191
4016.000000;2.253581
4015.000000;2.277758
4014.000000;2.366087
4013.000000;2.492012
4012.000000;2.582978
4011.000000;2.567480
4010.000000;2.501979
4009.000000;2.472869
4008.000000;2.506448
4007.000000;2.597219
4006.000000;2.661297
4005.000000;2.568246
4004.000000;2.419331
4003.000000;2.322549
4002.000000;2.286151
4001.000000;2.284260
4000.000000;2.302094
3999.000000;2.354123
3998.000000;2.476243
3997.000000;2.788815
3996.000000;3.332044
3995.000000;3.613903
3994.000000;3.081916
3993.000000;2.675517
3992.000000;2.506119
3991.000000;2.436628
3990.000000;2.451532
3989.000000;2.556703
3988.000000;2.708935
3987.000000;2.678705
3986.000000;2.591085
3985.000000;2.630256
3984.000000;2.820081
3983.000000;3.196833
3982.000000;3.380549
3981.000000;3.098652
3980.000000;2.927112
3979.000000;2.785613
3978.000000;2.668353
3977.000000;2.603691
3976.000000;2.593860
3975.000000;2.619650
3974.000000;2.639117
3973.000000;2.637158
3972.000000;2.672639
3971.000000;2.810467
3970.000000;2.873847
3969.000000;2.726787
3968.000000;2.627841
3967.000000;2.584023
3966.000000;2.540871
3965.000000;2.511560
3964.000000;2.546237
3963.000000;2.613223
3962.000000;2.678367
3961.000000;2.831378
3960.000000;3.001226
3959.000000;2.847338
3958.000000;2.704578
3957.000000;2.696888
3956.000000;2.810858
3955.000000;3.012992
3954.000000;3.258784
3953.000000;3.296187
3952.000000;3.322007
3951.000000;3.598367
3950.000000;3.120509
3949.000000;2.948282
3948.000000;2.930146
3947.000000;2.937213
3946.000000;2.934303
3945.000000;3.029319
3944.000000;3.312979
3943.000000;3.239789
3942.000000;3.004690
3941.000000;2.895581
3940.000000;2.787698
3939.000000;2.722780
3938.000000;2.746368
3937.000000;2.866218
3936.000000;2.978874
3935.000000;2.986086
3934.000000;3.002176
3933.000000;3.188855
3932.000000;3.413638
3931.000000;3.359284
3930.000000;3.456226
3929.000000;3.975407
3928.000000;3.635233
3927.000000;3.282931
3926.000000;3.077382
3925.000000;2.935154
3924.000000;2.891931
3923.000000;2.910863
3922.000000;2.951796
3921.000000;3.035522
3920.000000;3.232212
3919.000000;3.496697
3918.000000;3.458597
3917.000000;3.300214
3916.000000;3.264140
3915.000000;3.489296
3914.000000;3.483706
3913.000000;3.190916
3912.000000;3.327629
3911.000000;3.483356
3910.000000;3.170989
3909.000000;3.075749
3908.000000;3.092503
3907.000000;3.060293
3906.000000;2.977156
3905.000000;2.948305
3904.000000;3.012248
3903.000000;3.127326
3902.000000;3.219907
3901.000000;3.242156
3900.000000;3.217437
3899.000000;3.203438
3898.000000;3.220855
3897.000000;3.308431
3896.000000;3.499031
3895.000000;3.312773
3894.000000;3.097802
3893.000000;3.157830
3892.000000;3.237142
3891.000000;3.154970
3890.000000;3.040218
3889.000000;2.913369
3888.000000;2.832006
3887.000000;2.881531
3886.000000;3.091437
3885.000000;3.298376
3884.000000;3.312612
3883.000000;3.238691
3882.000000;3.242726
3881.000000;3.482481
3880.000000;3.872447
3879.000000;3.610705
3878.000000;3.388538
3877.000000;3.248522
3876.000000;3.246051
3875.000000;3.392751
3874.000000;3.384006
3873.000000;3.346252
3872.000000;3.510669
3871.000000;3.910186
3870.000000;3.660635
3869.000000;3.814688
3868.000000;3.809554
3867.000000;3.197176
3866.000000;2.960391
3865.000000;2.906271
3864.000000;3.019176
3863.000000;3.241151
3862.000000;3.505087
3861.000000;3.722533
3860.000000;3.788144
3859.000000;3.898061
3858.000000;3.984676
3857.000000;3.591042
3856.000000;3.294169
3855.000000;3.107336
3854.000000;3.003193
3853.000000;3.007507
3852.000000;2.978976
3851.000000;2.848388
3850.000000;2.760701
3849.000000;2.857176
3848.000000;3.181464
3847.000000;3.196867
3846.000000;3.050420
3845.000000;3.166964
3844.000000;3.725277
3843.000000;3.490095
3842.000000;3.509344
3841.000000;3.689021
3840.000000;3.301097
3839.000000;3.227738
3838.000000;3.369401
3837.000000;3.813962
3836.000000;4.039936
3835.000000;3.388239
3834.000000;3.110141
3833.000000;3.017831
3832.000000;3.033790
3831.000000;3.113067
3830.000000;3.369870
3829.000000;3.492455
3828.000000;3.159536
3827.000000;3.020022
3826.000000;3.005966
3825.000000;3.006505
3824.000000;3.008277
3823.000000;3.037658
3822.000000;3.136293
3821.000000;3.305813
3820.000000;3.444516
3819.000000;3.504277
3818.000000;3.609317
3817.000000;3.611298
3816.000000;3.449857
3815.000000;3.684175
3814.000000;3.488475
3813.000000;2.973617
3812.000000;2.829569
3811.000000;2.905572
3810.000000;3.188682
3809.000000;3.362586
3808.000000;3.191998
3807.000000;3.042035
3806.000000;2.903568
3805.000000;2.815051
3804.000000;2.778722
3803.000000;2.823465
3802.000000;2.916586
3801.000000;2.955635
3800.000000;2.986006
3799.000000;3.099142
3798.000000;3.511047
3797.000000;3.416891
3796.000000;3.223564
3795.000000;3.361518
3794.000000;3.673999
3793.000000;3.162638
3792.000000;2.876321
3791.000000;2.846612
3790.000000;3.053249
3789.000000;3.347295
3788.000000;3.256874
3787.000000;3.391885
3786.000000;3.532414
3785.000000;3.765936
3784.000000;3.798785
3783.000000;3.230318
3782.000000;3.051642
3781.000000;3.016951
3780.000000;3.125356
3779.000000;3.463599
3778.000000;3.784124
3777.000000;3.398064
3776.000000;3.157340
3775.000000;3.130309
3774.000000;3.303607
3773.000000;3.441105
3772.000000;3.225273
3771.000000;3.034525
3770.000000;2.992511
3769.000000;3.110531
3768.000000;3.308402
3767.000000;3.204594
3766.000000;3.065742
3765.000000;3.110943
3764.000000;3.393313
3763.000000;3.666548
3762.000000;3.693850
3761.000000;3.667250
3760.000000;3.138378
3759.000000;3.041903
3758.000000;3.182451
3757.000000;3.344833
3756.000000;3.166688
3755.000000;2.978180
3754.000000;2.928087
3753.000000;3.050475
3752.000000;3.231195
3751.000000;3.083215
3750.000000;2.923738
3749.000000;2.829779
3748.000000;2.772841
3747.000000;2.824577
3746.000000;3.036124
3745.000000;3.044320
3744.000000;2.886520
3743.000000;2.866296
3742.000000;2.902671
3741.000000;3.002178
3740.000000;3.168541
3739.000000;3.230826
3738.000000;3.215531
3737.000000;3.201267
3736.000000;3.252550
3735.000000;3.408463
3734.000000;3.586644
3733.000000;3.689234
3732.000000;3.693213
3731.000000;4.019550
3730.000000;3.946428
3729.000000;3.547821
3728.000000;3.430075
3727.000000;3.111235
3726.000000;3.032290
3725.000000;3.093466
3724.000000;3.196386
3723.000000;3.316140
3722.000000;3.503361
3721.000000;4.036730
3720.000000;3.779014
3719.000000;3.554566
3718.000000;3.676621
3717.000000;3.617505
3716.000000;3.553158
3715.000000;3.682164
3714.000000;3.775187
3713.000000;3.485935
3712.000000;3.341948
3711.000000;3.411416
3710.000000;3.665196
3709.000000;3.718261
3708.000000;3.415717
3707.000000;3.249423
3706.000000;3.301134
3705.000000;3.681191
3704.000000;3.382737
3703.000000;3.030165
3702.000000;2.982418
3701.000000;3.043037
3700.000000;3.137046
3699.000000;3.171685
3698.000000;3.108406
3697.000000;3.071842
3696.000000;3.349821
3695.000000;3.523177
3694.000000;3.111098
3693.000000;3.050182
3692.000000;3.362288
3691.000000;3.344752
3690.000000;3.015080
3689.000000;2.868268
3688.000000;2.808289
3687.000000;2.803922
3686.000000;2.892979
3685.000000;2.972143
3684.000000;2.913984
3683.000000;2.969924
3682.000000;3.062126
3681.000000;2.999535
3680.000000;2.922773
3679.000000;2.907503
3678.000000;2.933652
3677.000000;2.972033
3676.000000;3.044424
3675.000000;3.241259
3674.000000;3.573726
3673.000000;3.391658
3672.000000;3.068189
3671.000000;2.999336
3670.000000;3.198156
3669.000000;3.470594
3668.000000;3.362374
3667.000000;3.220071
3666.000000;3.112025
3665.000000;3.046347
3664.000000;3.039116
3663.000000;2.987298
3662.000000;3.075815
3661.000000;3.622712
3660.000000;3.304560
3659.000000;3.312760
3658.000000;4.227965
3657.000000;3.201666
3656.000000;3.015771
3655.000000;3.043518
3654.000000;3.177256
3653.000000;3.547386
3652.000000;3.705417
3651.000000;3.422995
3650.000000;3.388845
3649.000000;3.452870
3648.000000;3.591059
3647.000000;3.743395
3646.000000;3.752228
3645.000000;3.581467
3644.000000;3.356148
3643.000000;3.073537
3642.000000;2.846513
3641.000000;2.748423
3640.000000;2.719012
3639.000000;2.748243
3638.000000;2.840574
3637.000000;3.090257
3636.000000;3.844524
3635.000000;3.354513
3634.000000;3.179101
3633.000000;3.337050
3632.000000;3.351801
3631.000000;3.177497
3630.000000;3.087157
3629.000000;3.149484
3628.000000;3.303093
3627.000000;3.466747
3626.000000;3.524318
3625.000000;3.322966
3624.000000;3.147548
3623.000000;3.166209
3622.000000;3.218853
3621.000000;3.423367
3620.000000;3.790645
3619.000000;3.369423
3618.000000;3.156789
3617.000000;3.067717
3616.000000;2.991005
3615.000000;2.968531
3614.000000;3.052603
3613.000000;3.256572
3612.000000;3.542249
3611.000000;3.936410
3610.000000;3.811203
3609.000000;3.378291
3608.000000;3.169466
3607.000000;3.113523
3606.000000;3.168774
3605.000000;3.231412
3604.000000;3.049950
3603.000000;2.905025
3602.000000;2.941798
3601.000000;3.273099
3600.000000;3.831876
3599.000000;3.335561
3598.000000;3.234309
3597.000000;3.285979
3596.000000;3.508316
3595.000000;3.479649
3594.000000;3.212973
3593.000000;3.162649
3592.000000;3.215110
3591.000000;3.326680
3590.000000;3.348282
3589.000000;3.321355
3588.000000;3.474835
3587.000000;3.869374
3586.000000;4.124887
3585.000000;4.416453
3584.000000;4.119946
3583.000000;3.908173
3582.000000;3.650050
3581.000000;3.152375
3580.000000;2.907578
3579.000000;2.820636
3578.000000;2.808226
3577.000000;2.869250
3576.000000;3.012252
3575.000000;3.396864
3574.000000;3.634768
3573.000000;3.329737
3572.000000;3.637691
3571.000000;3.697232
3570.000000;3.340559
3569.000000;3.470793
3568.000000;4.023889
3567.000000;4.444503
3566.000000;3.925373
3565.000000;3.904651
3564.000000;3.853843
3563.000000;3.717497
3562.000000;3.553384
3561.000000;3.479795
3560.000000;3.555537
3559.000000;3.542659
3558.000000;3.341750
3557.000000;3.280866
3556.000000;3.418571
3555.000000;3.436291
3554.000000;3.290291
3553.000000;3.268168
3552.000000;3.313976
3551.000000;3.295532
3550.000000;3.238499
3549.000000;3.250160
3548.000000;3.566345
3547.000000;3.643107
3546.000000;3.195376
3545.000000;3.102680
3544.000000;3.123052
3543.000000;3.134749
3542.000000;3.414968
3541.000000;3.683337
3540.000000;3.061754
3539.000000;2.892208
3538.000000;2.963280
3537.000000;3.348998
3536.000000;3.718996
3535.000000;3.262872
3534.000000;3.152166
3533.000000;3.073829
3532.000000;2.945213
3531.000000;2.850959
3530.000000;2.865865
3529.000000;3.012214
3528.000000;3.261574
3527.000000;3.335888
3526.000000;3.288913
3525.000000;3.313524
3524.000000;3.591301
3523.000000;4.151079
3522.000000;3.387127
3521.000000;3.149924
3520.000000;3.047967
3519.000000;2.977320
3518.000000;2.949724
3517.000000;2.952999
3516.000000;3.011718
3515.000000;3.043497
3514.000000;2.969861
3513.000000;2.903043
3512.000000;2.954428
3511.000000;3.095013
3510.000000;3.184524
3509.000000;3.152241
3508.000000;3.088873
3507.000000;3.038848
3506.000000;2.985616
3505.000000;2.914654
3504.000000;2.902399
3503.000000;3.006385
3502.000000;3.198616
3501.000000;3.396037
3500.000000;3.599374
3499.000000;3.632779
3498.000000;3.770786
3497.000000;3.879229
3496.000000;3.258298
3495.000000;2.982461
3494.000000;2.882789
3493.000000;2.891148
3492.000000;2.978495
3491.000000;3.114402
3490.000000;3.236216
3489.000000;3.154231
3488.000000;3.065841
3487.000000;3.088519
3486.000000;3.101080
3485.000000;3.027336
3484.000000;2.989629
3483.000000;2.966257
3482.000000;2.884397
3481.000000;2.840476
3480.000000;2.886549
3479.000000;2.996476
3478.000000;3.141912
3477.000000;3.333295
3476.000000;3.372151
3475.000000;3.178283
3474.000000;3.151573
3473.000000;3.375357
3472.000000;3.508968
3471.000000;3.290743
3470.000000;3.106273
3469.000000;3.067958
3468.000000;3.268541
3467.000000;3.490553
3466.000000;3.733871
3465.000000;3.691019
3464.000000;3.137244
3463.000000;3.012955
3462.000000;3.032735
3461.000000;3.086096
3460.000000;3.091415
3459.000000;3.028032
3458.000000;3.041231
3457.000000;3.192627
3456.000000;3.368495
3455.000000;3.150512
3454.000000;2.950661
3453.000000;2.916200
3452.000000;3.017656
3451.000000;3.167884
3450.000000;3.139797
3449.000000;3.061823
3448.000000;3.074271
3447.000000;3.114009
3446.000000;3.128546
3445.000000;3.145188
3444.000000;3.084947
3443.000000;2.959841
3442.000000;2.901473
3441.000000;2.954532
3440.000000;3.093345
3439.000000;3.181146
3438.000000;3.246231
3437.000000;3.493141
3436.000000;3.716401
3435.000000;3.777899
3434.000000;3.839070
3433.000000;3.672763
3432.000000;3.437208
3431.000000;3.269826
3430.000000;3.221179
3429.000000;3.332693
3428.000000;3.866711
3427.000000;3.461195
3426.000000;3.029189
3425.000000;2.911042
3424.000000;2.930548
3423.000000;3.106429
3422.000000;3.307315
3421.000000;3.289863
3420.000000;3.214762
3419.000000;3.351855
3418.000000;3.395072
3417.000000;3.047087
3416.000000;2.879429
3415.000000;2.859093
3414.000000;2.897340
3413.000000;2.858083
3412.000000;2.768587
3411.000000;2.771160
3410.000000;2.895122
3409.000000;2.981225
3408.000000;2.882725
3407.000000;2.836500
3406.000000;2.900545
3405.000000;3.098746
3404.000000;3.144592
3403.000000;2.878721
3402.000000;2.734238
3401.000000;2.712770
3400.000000;2.760748
3399.000000;2.839914
3398.000000;2.932917
3397.000000;3.081551
3396.000000;3.247418
3395.000000;3.424663
3394.000000;3.679827
3393.000000;3.684272
3392.000000;3.674904
3391.000000;3.424982
3390.000000;3.136826
3389.000000;3.032829
3388.000000;3.014653
3387.000000;3.016188
3386.000000;2.999732
3385.000000;2.913242
3384.000000;2.808954
3383.000000;2.760370
3382.000000;2.813841
3381.000000;2.941145
3380.000000;2.895556
3379.000000;2.784291
3378.000000;2.806581
3377.000000;2.917925
3376.000000;3.008371
3375.000000;2.963760
3374.000000;2.874440
3373.000000;2.860632
3372.000000;2.955679
3371.000000;3.047252
3370.000000;2.940097
3369.000000;2.825574
3368.000000;2.817361
3367.000000;2.863458
3366.000000;2.872705
3365.000000;2.827143
3364.000000;2.797833
3363.000000;2.817851
3362.000000;2.871741
3361.000000;2.966496
3360.000000;3.102315
3359.000000;3.232927
3358.000000;3.313695
3357.000000;3.203636
3356.000000;3.036001
3355.000000;2.959717
3354.000000;2.978596
3353.000000;3.108814
3352.000000;3.105964
3351.000000;2.973434
3350.000000;2.945517
3349.000000;3.109273
3348.000000;3.216600
3347.000000;3.100287
3346.000000;3.481702
3345.000000;3.349955
3344.000000;2.838189
3343.000000;2.708363
3342.000000;2.729056
3341.000000;2.868548
3340.000000;3.058045
3339.000000;3.145020
3338.000000;3.058170
3337.000000;3.002353
3336.000000;3.022270
3335.000000;3.306151
3334.000000;3.672815
3333.000000;3.149008
3332.000000;3.059347
3331.000000;3.090211
3330.000000;3.087323
3329.000000;3.052657
3328.000000;2.974423
3327.000000;2.951776
3326.000000;2.950623
3325.000000;3.000168
3324.000000;3.153746
3323.000000;3.358564
3322.000000;3.396250
3321.000000;3.569232
3320.000000;3.788303
3319.000000;3.642004
3318.000000;3.988623
3317.000000;4.024467
3316.000000;4.103715
3315.000000;3.746418
3314.000000;3.490065
3313.000000;4.133009
3312.000000;3.365928
3311.000000;2.970284
3310.000000;2.872060
3309.000000;2.905102
3308.000000;3.066547
3307.000000;3.089941
3306.000000;2.998446
3305.000000;2.904597
3304.000000;2.767785
3303.000000;2.701443
3302.000000;2.738082
3301.000000;2.792992
3300.000000;2.852489
3299.000000;2.963377
3298.000000;3.062307
3297.000000;3.098517
3296.000000;3.068526
3295.000000;3.006857
3294.000000;2.956326
3293.000000;2.897803
3292.000000;2.880893
3291.000000;2.929190
3290.000000;3.053789
3289.000000;3.235538
3288.000000;3.396753
3287.000000;3.804272
3286.000000;3.854323
3285.000000;3.621231
3284.000000;3.589638
3283.000000;3.204596
3282.000000;3.007117
3281.000000;2.969959
3280.000000;2.997179
3279.000000;3.046518
3278.000000;3.090256
3277.000000;3.217865
3276.000000;3.410416
3275.000000;3.700214
3274.000000;3.927415
3273.000000;3.645473
3272.000000;3.501640
3271.000000;3.364685
3270.000000;3.245458
3269.000000;3.217861
3268.000000;3.141540
3267.000000;3.032354
3266.000000;2.960758
3265.000000;2.966252
3264.000000;3.100964
3263.000000;3.084495
3262.000000;2.912891
3261.000000;2.896611
3260.000000;3.088865
3259.000000;3.275503
3258.000000;3.236404
3257.000000;3.183080
3256.000000;3.313481
3255.000000;3.853947
3254.000000;3.282523
3253.000000;2.933285
3252.000000;2.839272
3251.000000;2.843589
3250.000000;2.888591
3249.000000;2.861397
3248.000000;2.802398
3247.000000;2.760304
3246.000000;2.766130
3245.000000;2.847674
3244.000000;3.000120
3243.000000;3.209461
3242.000000;3.304529
3241.000000;3.177825
3240.000000;3.107911
3239.000000;3.284183
3238.000000;3.711148
3237.000000;3.418483
3236.000000;3.239347
3235.000000;3.305880
3234.000000;3.294324
3233.000000;3.175253
3232.000000;3.036430
3231.000000;2.931403
3230.000000;2.889228
3229.000000;2.925033
3228.000000;3.078942
3227.000000;3.228323
3226.000000;3.139645
3225.000000;3.127088
3224.000000;3.179327
3223.000000;3.278551
3222.000000;3.351503
3221.000000;3.090875
3220.000000;2.916610
3219.000000;2.867207
3218.000000;2.887034
3217.000000;2.981518
3216.000000;3.128824
3215.000000;3.117403
3214.000000;3.053653
3213.000000;3.287225
3212.000000;3.476490
3211.000000;3.267468
3210.000000;3.447897
3209.000000;4.000111
3208.000000;3.876760
3207.000000;3.434001
3206.000000;3.076471
3205.000000;2.914148
3204.000000;2.874748
3203.000000;2.905952
3202.000000;2.971744
3201.000000;3.016561
3200.000000;3.019847
3199.000000;2.925934
3198.000000;2.834432
3197.000000;2.847552
3196.000000;3.012038
3195.000000;3.285289
3194.000000;3.204843
3193.000000;3.021322
3192.000000;2.938641
3191.000000;2.877754
3190.000000;2.886650
3189.000000;2.910440
3188.000000;2.910694
3187.000000;2.926044
3186.000000;3.087100
3185.000000;3.468683
3184.000000;3.131483
3183.000000;2.839276
3182.000000;2.781048
3181.000000;2.832908
3180.000000;2.909360
3179.000000;2.857082
3178.000000;2.794663
3177.000000;2.827637
3176.000000;2.949104
3175.000000;3.178820
3174.000000;3.428969
3173.000000;3.310073
3172.000000;3.238586
3171.000000;3.376694
3170.000000;3.274953
3169.000000;3.073098
3168.000000;3.035518
3167.000000;3.160778
3166.000000;3.342363
3165.000000;3.238267
3164.000000;3.287466
3163.000000;3.536026
3162.000000;3.210455
3161.000000;3.008325
3160.000000;2.994207
3159.000000;3.039731
3158.000000;3.092626
3157.000000;3.032595
3156.000000;2.892878
3155.000000;2.823626
3154.000000;2.880878
3153.000000;3.104238
3152.000000;3.426516
3151.000000;3.674362
3150.000000;3.859914
3149.000000;3.461561
3148.000000;3.380780
3147.000000;3.602526
3146.000000;3.561938
3145.000000;3.228781
3144.000000;2.970476
3143.000000;2.920631
3142.000000;3.081966
3141.000000;3.399502
3140.000000;3.540130
3139.000000;3.265430
3138.000000;3.048217
3137.000000;2.948537
3136.000000;2.960998
3135.000000;3.180725
3134.000000;3.315768
3133.000000;3.125736
3132.000000;3.245496
3131.000000;3.485269
3130.000000;3.079453
3129.000000;2.859173
3128.000000;2.818312
3127.000000;2.838660
3126.000000;2.905936
3125.000000;3.136314
3124.000000;3.482851
3123.000000;3.278519
3122.000000;3.178153
3121.000000;3.126070
3120.000000;3.044751
3119.000000;3.078948
3118.000000;3.201419
3117.000000;3.315198
3116.000000;3.360656
3115.000000;3.281624
3114.000000;3.018732
3113.000000;2.807720
3112.000000;2.696292
3111.000000;2.668044
3110.000000;2.708381
3109.000000;2.763508
3108.000000;2.769963
3107.000000;2.761442
3106.000000;2.807270
3105.000000;2.871713
3104.000000;2.848454
3103.000000;2.790704
3102.000000;2.778801
3101.000000;2.801063
3100.000000;2.830711
3099.000000;2.877953
3098.000000;2.970680
3097.000000;3.131634
3096.000000;3.232985
3095.000000;3.034091
3094.000000;2.811059
3093.000000;2.693818
3092.000000;2.673591
3091.000000;2.753274
3090.000000;2.974170
3089.000000;3.045115
3088.000000;3.207997
3087.000000;3.431900
3086.000000;2.852152
3085.000000;2.689735
3084.000000;2.744094
3083.000000;2.902470
3082.000000;3.062305
3081.000000;3.039761
3080.000000;2.988931
3079.000000;2.973056
3078.000000;3.113335
3077.000000;3.409809
3076.000000;3.429998
3075.000000;3.364599
3074.000000;3.544886
3073.000000;3.681258
3072.000000;3.405126
3071.000000;3.208523
3070.000000;3.109288
3069.000000;3.184824
3068.000000;3.557637
3067.000000;3.262083
3066.000000;2.931248
3065.000000;2.821712
3064.000000;2.825060
3063.000000;2.885633
3062.000000;2.900685
3061.000000;2.934357
3060.000000;3.039598
3059.000000;3.285150
3058.000000;3.516620
3057.000000;3.142401
3056.000000;2.888918
3055.000000;2.815438
3054.000000;2.873841
3053.000000;3.119427
3052.000000;3.380657
3051.000000;3.177507
3050.000000;3.033904
3049.000000;3.038243
3048.000000;3.229088
3047.000000;3.537841
3046.000000;3.214116
3045.000000;3.002778
3044.000000;3.033430
3043.000000;3.380989
3042.000000;3.634570
3041.000000;3.188000
3040.000000;3.036405
3039.000000;2.972169
3038.000000;2.972718
3037.000000;3.075366
3036.000000;3.273412
3035.000000;3.732921
3034.000000;4.027610
3033.000000;3.573009
3032.000000;3.155702
3031.000000;2.838688
3030.000000;2.686854
3029.000000;2.640086
3028.000000;2.671903
3027.000000;2.794495
3026.000000;2.940983
3025.000000;2.939862
3024.000000;2.855287
3023.000000;2.838330
3022.000000;2.940868
3021.000000;3.054170
3020.000000;3.217811
3019.000000;3.381651
3018.000000;3.066320
3017.000000;2.889996
3016.000000;2.910737
3015.000000;2.976207
3014.000000;3.222146
3013.000000;3.880291
3012.000000;3.323352
3011.000000;3.105522
3010.000000;3.116202
3009.000000;3.156374
3008.000000;3.292685
3007.000000;3.224333
3006.000000;2.922787
3005.000000;2.711143
3004.000000;2.622259
3003.000000;2.640508
3002.000000;2.773010
3001.000000;3.020786
3000.000000;3.223671
2999.000000;3.141611
2998.000000;2.961666
2997.000000;2.856768
2996.000000;2.850973
2995.000000;3.001443
2994.000000;3.423808
2993.000000;3.350262
2992.000000;3.142934
2991.000000;3.144304
2990.000000;3.113538
2989.000000;3.081593
2988.000000;3.051519
2987.000000;3.061723
2986.000000;3.076377
2985.000000;3.020967
2984.000000;2.981844
2983.000000;3.046707
2982.000000;3.296608
2981.000000;3.658400
2980.000000;3.653240
2979.000000;3.542449
2978.000000;3.431245
2977.000000;3.475719
2976.000000;3.338896
2975.000000;3.052375
2974.000000;2.940417
2973.000000;2.964393
2972.000000;3.088487
2971.000000;3.206493
2970.000000;3.187706
2969.000000;3.123579
2968.000000;3.081136
2967.000000;2.992073
2966.000000;2.899902
2965.000000;2.916863
2964.000000;3.078817
2963.000000;3.283789
2962.000000;3.224785
2961.000000;3.051763
2960.000000;2.989411
2959.000000;3.075911
2958.000000;3.375803
2957.000000;3.688608
2956.000000;3.329803
2955.000000;3.049044
2954.000000;2.872619
2953.000000;2.784755
2952.000000;2.766353
2951.000000;2.801983
2950.000000;2.798731
2949.000000;2.750795
2948.000000;2.745096
2947.000000;2.801195
2946.000000;3.277768
2945.000000;3.273613
2944.000000;2.795742
2943.000000;2.756886
2942.000000;2.899814
2941.000000;3.492212
2940.000000;3.448785
2939.000000;3.008347
2938.000000;2.919328
2937.000000;2.877766
2936.000000;2.883593
2935.000000;2.837415
2934.000000;2.783030
2933.000000;2.785502
2932.000000;2.926659
2931.000000;3.325799
2930.000000;3.181826
2929.000000;2.804354
2928.000000;2.662877
2927.000000;2.641641
2926.000000;2.701751
2925.000000;2.772451
2924.000000;2.815352
2923.000000;2.865490
2922.000000;2.963698
2921.000000;3.196877
2920.000000;3.435665
2919.000000;3.502297
2918.000000;3.416151
2917.000000;3.198096
2916.000000;3.102393
2915.000000;2.961324
2914.000000;2.774804
2913.000000;2.677872
2912.000000;2.668990
2911.000000;2.693652
2910.000000;2.707487
2909.000000;2.748241
2908.000000;2.871744
2907.000000;3.115798
2906.000000;3.521239
2905.000000;3.864357
2904.000000;3.628053
2903.000000;3.342198
2902.000000;3.096684
2901.000000;2.912057
2900.000000;2.854631
2899.000000;2.916495
2898.000000;2.999434
2897.000000;3.060658
2896.000000;3.127813
2895.000000;3.101752
2894.000000;3.038868
2893.000000;3.043642
2892.000000;3.050764
2891.000000;2.973208
2890.000000;2.871015
2889.000000;2.830266
2888.000000;2.860091
2887.000000;2.890956
2886.000000;2.879614
2885.000000;2.889177
2884.000000;2.959391
2883.000000;3.075890
2882.000000;3.248740
2881.000000;3.414443
2880.000000;3.323360
2879.000000;3.111739
2878.000000;3.045387
2877.000000;3.063170
2876.000000;3.352747
2875.000000;3.698790
2874.000000;2.952039
2873.000000;2.705028
2872.000000;2.635353
2871.000000;2.646446
2870.000000;2.672382
2869.000000;2.649396
2868.000000;2.633762
2867.000000;2.664861
2866.000000;2.758538
2865.000000;2.863347
2864.000000;2.930786
2863.000000;2.914471
2862.000000;2.844465
2861.000000;2.802335
2860.000000;2.861982
2859.000000;3.068726
2858.000000;3.063786
2857.000000;2.865479
2856.000000;2.804866
2855.000000;2.830834
2854.000000;2.842343
2853.000000;2.788521
2852.000000;2.737372
2851.000000;2.767120
2850.000000;2.910682
2849.000000;3.172428
2848.000000;3.522899
2847.000000;3.700405
2846.000000;3.712249
2845.000000;3.762754
2844.000000;3.419252
2843.000000;3.145652
2842.000000;3.013970
2841.000000;3.000895
2840.000000;3.153078
2839.000000;3.123229
2838.000000;2.930324
2837.000000;2.909461
2836.000000;3.059417
2835.000000;3.314025
2834.000000;3.554088
2833.000000;4.204801
2832.000000;3.524789
2831.000000;3.039877
2830.000000;2.844353
2829.000000;2.798295
2828.000000;2.927666
2827.000000;3.049360
2826.000000;3.001050
2825.000000;3.020687
2824.000000;3.134396
2823.000000;3.246401
2822.000000;3.126936
2821.000000;2.978801
2820.000000;2.943675
2819.000000;2.977599
2818.000000;3.099981
2817.000000;3.307409
2816.000000;3.459794
2815.000000;3.335400
2814.000000;3.212898
2813.000000;3.258354
2812.000000;3.300868
2811.000000;3.404388
2810.000000;3.409193
2809.000000;3.126848
2808.000000;3.009747
2807.000000;3.062533
2806.000000;3.301392
2805.000000;3.420705
2804.000000;3.103669
2803.000000;2.919341
2802.000000;2.840639
2801.000000;2.821950
2800.000000;2.880265
2799.000000;3.009291
2798.000000;3.117258
2797.000000;3.294658
2796.000000;3.756376
2795.000000;3.539597
2794.000000;3.273242
2793.000000;3.219205
2792.000000;3.225935
2791.000000;3.156228
2790.000000;2.963584
2789.000000;2.812256
2788.000000;2.737417
2787.000000;2.761508
2786.000000;2.925431
2785.000000;2.870013
2784.000000;2.633712
2783.000000;2.557353
2782.000000;2.605454
2781.000000;2.725793
2780.000000;2.844732
2779.000000;2.881965
2778.000000;2.871089
2777.000000;2.894533
2776.000000;3.067826
2775.000000;3.412069
2774.000000;3.334898
2773.000000;3.246804
2772.000000;3.284421
2771.000000;3.260643
2770.000000;3.212964
2769.000000;3.144591
2768.000000;3.123412
2767.000000;3.190234
2766.000000;3.327533
2765.000000;3.757034
2764.000000;3.910029
2763.000000;3.265236
2762.000000;3.115609
2761.000000;3.134464
2760.000000;3.271714
2759.000000;3.354936
2758.000000;3.261535
2757.000000;3.230923
2756.000000;3.164281
2755.000000;3.090889
2754.000000;3.211647
2753.000000;3.314648
2752.000000;3.138688
2751.000000;3.045316
2750.000000;3.055142
2749.000000;3.096040
2748.000000;3.189016
2747.000000;3.392229
2746.000000;3.316557
2745.000000;3.080456
2744.000000;2.981065
2743.000000;2.970249
2742.000000;2.967617
2741.000000;2.980072
2740.000000;3.054980
2739.000000;3.089298
2738.000000;3.049436
2737.000000;3.066785
2736.000000;3.472334
2735.000000;3.794677
2734.000000;3.141781
2733.000000;3.016768
2732.000000;2.931468
2731.000000;2.872211
2730.000000;2.866220
2729.000000;2.893657
2728.000000;2.987905
2727.000000;3.140351
2726.000000;3.387270
2725.000000;4.059192
2724.000000;3.621800
2723.000000;3.160016
2722.000000;2.973404
2721.000000;2.935590
2720.000000;3.053583
2719.000000;3.218914
2718.000000;3.257020
2717.000000;3.117051
2716.000000;2.903795
2715.000000;2.805939
2714.000000;2.877254
2713.000000;3.104020
2712.000000;3.222204
2711.000000;3.269863
2710.000000;3.413754
2709.000000;3.203609
2708.000000;3.040458
2707.000000;2.964358
2706.000000;2.904021
2705.000000;2.888922
2704.000000;2.959446
2703.000000;3.096706
2702.000000;3.178919
2701.000000;3.040036
2700.000000;2.860420
2699.000000;2.802620
2698.000000;2.934544
2697.000000;3.684338
2696.000000;3.449831
2695.000000;3.255652
2694.000000;3.678919
2693.000000;3.197710
2692.000000;2.961117
2691.000000;2.900432
2690.000000;2.873933
2689.000000;2.870766
2688.000000;2.907013
2687.000000;2.986817
2686.000000;3.068917
2685.000000;3.143926
2684.000000;3.160704
2683.000000;3.117246
2682.000000;3.082050
2681.000000;3.077550
2680.000000;3.089253
2679.000000;3.123767
2678.000000;3.447402
2677.000000;3.587339
2676.000000;3.144401
2675.000000;3.015549
2674.000000;2.998265
2673.000000;3.012029
2672.000000;3.067713
2671.000000;3.142970
2670.000000;2.987629
2669.000000;2.813223
2668.000000;2.778964
2667.000000;2.850074
2666.000000;2.983681
2665.000000;3.138599
2664.000000;3.357691
2663.000000;3.698062
2662.000000;3.817371
2661.000000;3.427473
2660.000000;3.149201
2659.000000;3.023294
2658.000000;3.084109
2657.000000;3.481992
2656.000000;3.335370
2655.000000;2.979247
2654.000000;3.001819
2653.000000;3.229511
2652.000000;3.400247
2651.000000;3.198158
2650.000000;3.038030
2649.000000;2.982189
2648.000000;3.049875
2647.000000;3.253961
2646.000000;3.518865
2645.000000;3.664508
2644.000000;3.399279
2643.000000;3.126971
2642.000000;3.009506
2641.000000;3.032266
2640.000000;3.069013
2639.000000;2.975257
2638.000000;2.914001
2637.000000;2.963058
2636.000000;3.046123
2635.000000;3.006153
2634.000000;2.874165
2633.000000;2.806304
2632.000000;2.859022
2631.000000;2.951880
2630.000000;2.917220
2629.000000;2.833274
2628.000000;2.776894
2627.000000;2.770802
2626.000000;2.845582
2625.000000;3.016941
2624.000000;3.257991
2623.000000;3.219313
2622.000000;3.024068
2621.000000;2.963387
2620.000000;3.034876
2619.000000;3.131420
2618.000000;3.035592
2617.000000;2.946907
2616.000000;2.983258
2615.000000;3.069803
2614.000000;3.101402
2613.000000;3.071858
2612.000000;3.043748
2611.000000;3.051283
2610.000000;3.160899
2609.000000;3.240273
2608.000000;3.005746
2607.000000;2.855703
2606.000000;2.849258
2605.000000;2.935184
2604.000000;3.017253
2603.000000;3.023525
2602.000000;3.045940
2601.000000;3.141656
2600.000000;3.337844
2599.000000;3.619496
2598.000000;3.415627
2597.000000;3.047140
2596.000000;2.847314
2595.000000;2.778020
2594.000000;2.837451
2593.000000;3.004600
2592.000000;3.186189
2591.000000;3.411364
2590.000000;3.226284
2589.000000;2.873656
2588.000000;2.695249
2587.000000;2.653129
2586.000000;2.734280
2585.000000;2.975250
2584.000000;3.397663
2583.000000;3.278160
2582.000000;3.152176
2581.000000;3.173938
2580.000000;3.259219
2579.000000;3.321711
2578.000000;3.255797
2577.000000;3.179424
2576.000000;3.386479
2575.000000;3.568922
2574.000000;3.055660
2573.000000;2.873509
2572.000000;2.832304
2571.000000;2.867506
2570.000000;2.879665
2569.000000;2.828322
2568.000000;2.766213
2567.000000;2.752239
2566.000000;2.851395
2565.000000;3.126281
2564.000000;3.308616
2563.000000;3.114458
2562.000000;3.026802
2561.000000;3.034639
2560.000000;2.945431
2559.000000;2.819684
2558.000000;2.790927
2557.000000;2.869026
2556.000000;3.056459
2555.000000;3.333063
2554.000000;3.268171
2553.000000;3.129360
2552.000000;3.196498
2551.000000;3.298455
2550.000000;3.209973
2549.000000;3.339949
2548.000000;3.597971
2547.000000;3.262819
2546.000000;3.120447
2545.000000;3.141456
2544.000000;3.278767
2543.000000;3.590903
2542.000000;3.595932
2541.000000;3.264145
2540.000000;3.081550
2539.000000;2.933943
2538.000000;2.820093
2537.000000;2.789508
2536.000000;2.886567
2535.000000;3.314119
2534.000000;3.205766
2533.000000;2.879946
2532.000000;2.817950
2531.000000;2.890940
2530.000000;3.055886
2529.000000;3.312205
2528.000000;3.729326
2527.000000;3.707513
2526.000000;3.382225
2525.000000;3.212547
2524.000000;3.156993
2523.000000;3.299300
2522.000000;3.440944
2521.000000;3.127130
2520.000000;2.913479
2519.000000;2.800326
2518.000000;2.752486
2517.000000;2.760516
2516.000000;2.811024
2515.000000;2.876807
2514.000000;2.916279
2513.000000;2.928085
2512.000000;2.956868
2511.000000;2.965484
2510.000000;2.923679
2509.000000;2.967691
2508.000000;3.184548
2507.000000;3.368071
2506.000000;3.554856
2505.000000;3.343662
2504.000000;3.048887
2503.000000;2.991275
2502.000000;3.096342
2501.000000;3.292820
2500.000000;3.339538
2499.000000;3.372368
2498.000000;3.551999
2497.000000;3.258932
2496.000000;3.033263
2495.000000;2.999955
2494.000000;3.107536
2493.000000;3.368269
2492.000000;3.764874
2491.000000;3.583873
2490.000000;3.210171
2489.000000;3.026116
2488.000000;2.920675
2487.000000;2.796556
2486.000000;2.682707
2485.000000;2.663873
2484.000000;2.769624
2483.000000;3.201258
2482.000000;3.425178
2481.000000;3.065398
2480.000000;3.071834
2479.000000;3.191681
2478.000000;3.042679
2477.000000;2.915216
2476.000000;2.930004
2475.000000;3.128570
2474.000000;3.696500
2473.000000;3.324046
2472.000000;3.147225
2471.000000;3.173953
2470.000000;3.173962
2469.000000;3.051248
2468.000000;2.904436
2467.000000;2.799175
2466.000000;2.746316
2465.000000;2.732428
2464.000000;2.756382
2463.000000;2.842268
2462.000000;3.040672
2461.000000;3.346400
2460.000000;3.424215
2459.000000;3.422076
2458.000000;3.213519
2457.000000;2.951643
2456.000000;2.850611
2455.000000;2.880635
2454.000000;3.010823
2453.000000;3.002666
2452.000000;2.886204
2451.000000;2.877270
2450.000000;3.006838
2449.000000;3.282695
2448.000000;3.617453
2447.000000;3.577757
2446.000000;3.254869
2445.000000;2.970781
2444.000000;2.831369
2443.000000;2.823381
2442.000000;3.127909
2441.000000;3.610989
2440.000000;2.892112
2439.000000;2.738590
2438.000000;2.723651
2437.000000;2.836440
2436.000000;3.032965
2435.000000;3.188068
2434.000000;3.268606
2433.000000;3.354951
2432.000000;3.320992
2431.000000;3.158955
2430.000000;3.018687
2429.000000;2.951697
2428.000000;2.959329
2427.000000;3.032307
2426.000000;3.182718
2425.000000;3.371077
2424.000000;3.101482
2423.000000;2.843406
2422.000000;2.732579
2421.000000;2.739309
2420.000000;2.827759
2419.000000;2.901031
2418.000000;3.008381
2417.000000;3.414306
2416.000000;3.434597
2415.000000;3.075455
2414.000000;3.086549
2413.000000;3.151855
2412.000000;3.204169
2411.000000;3.180617
2410.000000;3.099704
2409.000000;3.022607
2408.000000;2.967518
2407.000000;2.928491
2406.000000;2.908456
2405.000000;2.948978
2404.000000;3.087814
2403.000000;3.375790
2402.000000;3.618825
2401.000000;3.454432
2400.000000;3.236528
2399.000000;3.043125
2398.000000;2.938634
2397.000000;2.931907
2396.000000;2.969953
2395.000000;2.992870
2394.000000;2.964787
2393.000000;2.884079
2392.000000;2.772144
2391.000000;2.661696
2390.000000;2.606927
2389.000000;2.641854
2388.000000;2.798697
2387.000000;2.981731
2386.000000;2.883419
2385.000000;2.782173
2384.000000;2.799952
2383.000000;2.881890
2382.000000;2.923060
2381.000000;2.866670
2380.000000;2.810292
2379.000000;2.815173
2378.000000;2.873007
2377.000000;2.965575
2376.000000;3.071648
2375.000000;3.145140
2374.000000;3.073161
2373.000000;2.877291
2372.000000;2.757471
2371.000000;2.731156
2370.000000;2.760122
2369.000000;2.829324
2368.000000;2.957820
2367.000000;3.062092
2366.000000;2.932741
2365.000000;2.802495
2364.000000;2.764984
2363.000000;2.838535
2362.000000;3.118238
2361.000000;3.595396
2360.000000;3.214973
2359.000000;2.961460
2358.000000;2.801477
2357.000000;2.789074
2356.000000;2.922173
2355.000000;3.323809
2354.000000;3.373123
2353.000000;2.970343
2352.000000;2.879910
2351.000000;3.016560
2350.000000;3.364525
2349.000000;3.106223
2348.000000;2.923714
2347.000000;2.867303
2346.000000;2.861402
2345.000000;2.933783
2344.000000;2.969395
2343.000000;2.865276
2342.000000;2.788737
2341.000000;2.822428
2340.000000;2.996287
2339.000000;3.257254
2338.000000;3.101655
2337.000000;2.910844
2336.000000;2.830728
2335.000000;2.836552
2334.000000;2.918692
2333.000000;3.057305
2332.000000;3.230605
2331.000000;3.289934
2330.000000;3.092545
2329.000000;2.908992
2328.000000;2.852150
2327.000000;2.926846
2326.000000;3.172023
2325.000000;3.637918
2324.000000;3.753949
2323.000000;3.378116
2322.000000;3.058221
2321.000000;2.962429
2320.000000;3.079667
2319.000000;4.078122
2318.000000;3.447487
2317.000000;3.292068
2316.000000;3.083680
2315.000000;2.893436
2314.000000;2.908088
2313.000000;2.837911
2312.000000;2.615739
2311.000000;2.523304
2310.000000;2.563586
2309.000000;2.643281
2308.000000;2.618912
2307.000000;2.598302
2306.000000;2.705616
2305.000000;2.897316
2304.000000;3.191553
2303.000000;3.301638
2302.000000;2.935284
2301.000000;2.855591
2300.000000;3.004340
2299.000000;2.910186
2298.000000;2.697104
2297.000000;2.671288
2296.000000;2.764183
2295.000000;2.896381
2294.000000;2.932415
2293.000000;2.937572
2292.000000;3.075472
2291.000000;3.435475
2290.000000;3.522633
2289.000000;3.469301
2288.000000;3.081706
2287.000000;2.908041
2286.000000;2.948284
2285.000000;3.111362
2284.000000;2.967651
2283.000000;2.829813
2282.000000;2.875337
2281.000000;2.992258
2280.000000;2.883622
2279.000000;2.749781
2278.000000;2.728298
2277.000000;2.805473
2276.000000;2.992594
2275.000000;3.267413
2274.000000;3.885517
2273.000000;3.820350
2272.000000;3.340122
2271.000000;3.300731
2270.000000;3.342082
2269.000000;3.418484
2268.000000;3.358821
2267.000000;3.579590
2266.000000;3.374716
2265.000000;2.911337
2264.000000;2.724399
2263.000000;2.699340
2262.000000;2.748287
2261.000000;2.769312
2260.000000;2.782545
2259.000000;2.854492
2258.000000;3.012349
2257.000000;3.324344
2256.000000;3.694991
2255.000000;3.575843
2254.000000;3.731938
2253.000000;3.426616
2252.000000;3.202362
2251.000000;3.193240
2250.000000;3.220762
2249.000000;3.125975
2248.000000;2.942921
2247.000000;2.793356
2246.000000;2.722382
2245.000000;2.732891
2244.000000;2.797089
2243.000000;2.835067
2242.000000;2.812931
2241.000000;2.800881
2240.000000;2.835252
2239.000000;2.888699
2238.000000;2.969030
2237.000000;3.120393
2236.000000;3.254624
2235.000000;3.456950
2234.000000;3.699397
2233.000000;3.155145
2232.000000;3.014549
2231.000000;3.099283
2230.000000;3.349335
2229.000000;3.085697
2228.000000;2.865888
2227.000000;2.822728
2226.000000;2.917527
2225.000000;3.125425
2224.000000;3.360564
2223.000000;3.385647
2222.000000;3.216470
2221.000000;3.076038
2220.000000;3.022646
2219.000000;3.011356
2218.000000;2.960705
2217.000000;2.938279
2216.000000;3.040586
2215.000000;3.300218
2214.000000;3.285671
2213.000000;3.350831
2212.000000;3.571085
2211.000000;3.000062
2210.000000;2.799012
2209.000000;2.813407
2208.000000;2.965294
2207.000000;3.226434
2206.000000;3.431409
2205.000000;3.368035
2204.000000;3.128175
2203.000000;2.906659
2202.000000;2.773318
2201.000000;2.716996
2200.000000;2.744854
2199.000000;2.865766
2198.000000;3.237985
2197.000000;3.599525
2196.000000;3.016768
2195.000000;2.801496
2194.000000;2.690775
2193.000000;2.705390
2192.000000;2.831316
2191.000000;3.058191
2190.000000;3.287921
2189.000000;3.335333
2188.000000;3.219745
2187.000000;3.077834
2186.000000;2.915016
2185.000000;2.776642
2184.000000;2.702161
2183.000000;2.736037
2182.000000;2.925103
2181.000000;3.524645
2180.000000;3.107815
2179.000000;3.033443
2178.000000;3.281768
2177.000000;3.546150
2176.000000;3.144100
2175.000000;2.779570
2174.000000;2.623441
2173.000000;2.655342
2172.000000;2.893027
2171.000000;3.283035
2170.000000;3.424003
2169.000000;3.763185
2168.000000;3.732586
2167.000000;3.223390
2166.000000;3.009336
2165.000000;2.987143
2164.000000;3.058906
2163.000000;3.036613
2162.000000;2.950652
2161.000000;2.930922
2160.000000;3.036352
2159.000000;3.280518
2158.000000;4.116378
2157.000000;3.599269
2156.000000;3.265557
2155.000000;3.097516
2154.000000;2.990892
2153.000000;2.937937
2152.000000;2.894475
2151.000000;2.891613
2150.000000;3.070397
2149.000000;3.548581
2148.000000;2.879797
2147.000000;2.676898
2146.000000;2.620715
2145.000000;2.666098
2144.000000;2.767023
2143.000000;3.022051
2142.000000;3.534369
2141.000000;3.190393
2140.000000;2.988950
2139.000000;3.051675
2138.000000;3.359591
2137.000000;3.662650
2136.000000;3.181674
2135.000000;2.990230
2134.000000;2.993901
2133.000000;3.117851
2132.000000;3.269939
2131.000000;3.257644
2130.000000;3.132872
2129.000000;3.018495
2128.000000;3.000068
2127.000000;3.133303
2126.000000;3.749998
2125.000000;3.484851
2124.000000;3.344903
2123.000000;3.440718
2122.000000;3.378788
2121.000000;3.666272
2120.000000;3.356073
2119.000000;3.008112
2118.000000;3.002362
2117.000000;3.155623
2116.000000;3.258571
2115.000000;3.081099
2114.000000;2.913617
2113.000000;2.835199
2112.000000;2.839139
2111.000000;2.895155
2110.000000;2.939541
2109.000000;2.907087
2108.000000;2.832099
2107.000000;2.788571
2106.000000;2.801999
2105.000000;2.899172
2104.000000;3.101828
2103.000000;3.698043
2102.000000;3.511475
2101.000000;3.264418
2100.000000;3.158018
2099.000000;3.076154
2098.000000;3.002119
2097.000000;2.865842
2096.000000;2.798046
2095.000000;2.860271
2094.000000;2.970930
2093.000000;2.949078
2092.000000;2.899949
2091.000000;2.905148
2090.000000;2.927211
2089.000000;2.922409
2088.000000;2.909401
2087.000000;2.935123
2086.000000;3.009109
2085.000000;3.123831
2084.000000;3.299331
2083.000000;3.396324
2082.000000;3.207449
2081.000000;2.966951
2080.000000;2.796746
2079.000000;2.721467
2078.000000;2.741024
2077.000000;2.845277
2076.000000;3.039246
2075.000000;3.157234
2074.000000;3.012669
2073.000000;2.951364
2072.000000;3.047344
2071.000000;3.245949
2070.000000;3.166407
2069.000000;3.075022
2068.000000;3.201743
2067.000000;3.244627
2066.000000;2.880863
2065.000000;2.739224
2064.000000;2.766936
2063.000000;2.963580
2062.000000;3.025336
2061.000000;2.860420
2060.000000;2.817626
2059.000000;2.868880
2058.000000;3.032854
2057.000000;3.323582
2056.000000;3.350324
2055.000000;3.297811
2054.000000;3.508526
2053.000000;3.423424
2052.000000;3.308064
2051.000000;3.309112
2050.000000;3.168748
2049.000000;3.098258
2048.000000;3.237384
2047.000000;3.265650
2046.000000;3.028966
2045.000000;2.864721
2044.000000;2.794794
2043.000000;2.819250
2042.000000;2.891672
2041.000000;2.951801
2040.000000;3.013046
2039.000000;3.183717
2038.000000;3.297647
2037.000000;3.090507
2036.000000;3.145855
2035.000000;3.371240
2034.000000;3.197235
2033.000000;3.015091
2032.000000;2.976092
2031.000000;2.971709
2030.000000;3.007314
2029.000000;3.100352
2028.000000;3.273272
2027.000000;3.451125
2026.000000;3.365420
2025.000000;3.181557
2024.000000;3.066540
2023.000000;3.089113
2022.000000;3.297362
2021.000000;4.106204
2020.000000;3.557223
2019.000000;3.522706
2018.000000;3.665712
2017.000000;3.638842
2016.000000;3.794608
2015.000000;3.193265
2014.000000;2.919564
2013.000000;2.805829
2012.000000;2.778546
2011.000000;2.774660
2010.000000;2.773409
2009.000000;2.809444
2008.000000;2.906615
2007.000000;3.030629
2006.000000;3.133455
2005.000000;3.290897
2004.000000;3.618519
2003.000000;3.209540
2002.000000;2.918771
2001.000000;2.891773
2000.000000;2.828590
1999.000000;2.718923
1998.000000;2.708543
1997.000000;2.814719
1996.000000;3.006556
1995.000000;3.285245
1994.000000;3.134384
1993.000000;2.883042
1992.000000;2.735072
1991.000000;2.687416
1990.000000;2.718419
1989.000000;2.780195
1988.000000;2.853726
1987.000000;2.949385
1986.000000;3.075579
1985.000000;3.206790
1984.000000;3.284206
1983.000000;3.310622
1982.000000;3.261207
1981.000000;3.182314
1980.000000;3.140235
1979.000000;3.295605
1978.000000;3.321356
1977.000000;3.035827
1976.000000;2.948864
1975.000000;2.941167
1974.000000;2.976442
1973.000000;3.128222
1972.000000;3.760010
1971.000000;3.615185
1970.000000;3.249054
1969.000000;3.108155
1968.000000;2.986738
1967.000000;2.854642
1966.000000;2.746500
1965.000000;2.728173
1964.000000;2.818162
1963.000000;2.998762
1962.000000;3.271311
1961.000000;3.663857
1960.000000;3.136261
1959.000000;2.975716
1958.000000;3.085946
1957.000000;3.315217
1956.000000;2.967526
1955.000000;2.739198
1954.000000;2.673192
1953.000000;2.719862
1952.000000;2.856338
1951.000000;3.075118
1950.000000;3.375515
1949.000000;3.567561
1948.000000;3.331884
1947.000000;3.094401
1946.000000;3.043389
1945.000000;3.181235
1944.000000;3.512886
1943.000000;3.546626
1942.000000;3.391366
1941.000000;3.346632
1940.000000;3.339482
1939.000000;3.229812
1938.000000;3.136976
1937.000000;3.164961
1936.000000;3.120347
1935.000000;3.012733
1934.000000;3.009583
1933.000000;3.031273
1932.000000;2.968991
1931.000000;2.868626
1930.000000;2.785040
1929.000000;2.727848
1928.000000;2.713942
1927.000000;2.778384
1926.000000;2.962537
1925.000000;3.089628
1924.000000;3.007425
1923.000000;2.935705
1922.000000;2.867393
1921.000000;2.853572
1920.000000;2.919568
1919.000000;2.991776
1918.000000;2.944156
1917.000000;2.822459
1916.000000;2.736443
1915.000000;2.720567
1914.000000;2.787012
1913.000000;2.957425
1912.000000;3.189732
1911.000000;3.236074
1910.000000;3.212742
1909.000000;3.133957
1908.000000;3.032125
1907.000000;2.961917
1906.000000;2.923389
1905.000000;2.904525
1904.000000;2.925202
1903.000000;3.114779
1902.000000;3.603242
1901.000000;3.405111
1900.000000;3.193313
1899.000000;3.598633
1898.000000;3.425081
1897.000000;3.001901
1896.000000;2.989768
1895.000000;3.283583
1894.000000;3.373607
1893.000000;3.044218
1892.000000;2.977158
1891.000000;3.038479
1890.000000;3.214732
1889.000000;3.342252
1888.000000;3.132225
1887.000000;2.952875
1886.000000;2.897570
1885.000000;2.973267
1884.000000;3.214203
1883.000000;3.339767
1882.000000;3.120222
1881.000000;3.009131
1880.000000;3.005660
1879.000000;2.998854
1878.000000;2.873763
1877.000000;2.763019
1876.000000;2.716451
1875.000000;2.717838
1874.000000;2.763978
1873.000000;2.844468
1872.000000;2.950125
1871.000000;3.122328
1870.000000;3.253485
1869.000000;3.209506
1868.000000;3.085848
1867.000000;2.966788
1866.000000;2.914536
1865.000000;2.885694
1864.000000;2.864881
1863.000000;2.874858
1862.000000;2.870593
1861.000000;2.881451
1860.000000;2.992975
1859.000000;3.197055
1858.000000;3.485657
1857.000000;3.311705
1856.000000;3.036966
1855.000000;2.983824
1854.000000;3.078541
1853.000000;3.239490
1852.000000;3.564628
1851.000000;4.139596
1850.000000;3.395458
1849.000000;3.154349
1848.000000;3.096423
1847.000000;3.202828
1846.000000;3.336369
1845.000000;3.295269
1844.000000;3.191545
1843.000000;3.275864
1842.000000;3.446574
1841.000000;3.150905
1840.000000;2.993225
1839.000000;3.108232
1838.000000;3.347018
1837.000000;3.053326
1836.000000;2.872413
1835.000000;2.925839
1834.000000;3.156550
1833.000000;3.499174
1832.000000;3.763245
1831.000000;3.568841
1830.000000;3.371063
1829.000000;3.317279
1828.000000;3.460293
1827.000000;4.013542
1826.000000;3.762382
1825.000000;3.536109
1824.000000;3.419408
1823.000000;3.232629
1822.000000;3.148157
1821.000000;3.138798
1820.000000;3.142035
1819.000000;3.159793
1818.000000;3.169791
1817.000000;3.385143
1816.000000;3.384663
1815.000000;2.942006
1814.000000;2.748799
1813.000000;2.689670
1812.000000;2.699356
1811.000000;2.776118
1810.000000;2.965106
1809.000000;3.287712
1808.000000;3.485295
1807.000000;3.160371
1806.000000;2.902254
1805.000000;2.817500
1804.000000;2.801272
1803.000000;2.733766
1802.000000;2.684490
1801.000000;2.739922
1800.000000;2.896984
1799.000000;3.069317
1798.000000;3.177852
1797.000000;3.261171
1796.000000;3.354133
1795.000000;3.344595
1794.000000;3.242204
1793.000000;3.611380
1792.000000;3.855657
1791.000000;3.120093
1790.000000;2.999034
1789.000000;3.056328
1788.000000;3.187300
1787.000000;3.174259
1786.000000;3.202286
1785.000000;3.261537
1784.000000;3.244227
1783.000000;3.265186
1782.000000;3.390434
1781.000000;3.630246
1780.000000;3.369478
1779.000000;3.168200
1778.000000;3.088150
1777.000000;3.028255
1776.000000;2.983666
1775.000000;2.984028
1774.000000;3.046627
1773.000000;3.163078
1772.000000;3.342109
1771.000000;3.596263
1770.000000;3.924865
1769.000000;3.469801
1768.000000;2.994523
1767.000000;2.810858
1766.000000;2.821975
1765.000000;2.967952
1764.000000;3.111577
1763.000000;3.151774
1762.000000;3.123914
1761.000000;3.101613
1760.000000;3.096311
1759.000000;3.136785
1758.000000;3.232197
1757.000000;3.227127
1756.000000;3.187877
1755.000000;3.238464
1754.000000;3.220382
1753.000000;3.074475
1752.000000;2.947026
1751.000000;2.929666
1750.000000;3.071533
1749.000000;3.265516
1748.000000;3.269989
1747.000000;3.327534
1746.000000;3.586076
1745.000000;3.588466
1744.000000;3.271159
1743.000000;3.111993
1742.000000;3.015227
1741.000000;2.954127
1740.000000;2.921814
1739.000000;2.947439
1738.000000;3.096742
1737.000000;3.399358
1736.000000;3.514381
1735.000000;3.334110
1734.000000;3.206584
1733.000000;3.172864
1732.000000;3.282763
1731.000000;3.536662
1730.000000;3.420462
1729.000000;3.205301
1728.000000;3.164073
1727.000000;3.170226
1726.000000;3.278466
1725.000000;3.667521
1724.000000;3.125777
1723.000000;2.904696
1722.000000;2.933197
1721.000000;3.114632
1720.000000;3.222365
1719.000000;3.147748
1718.000000;3.143495
1717.000000;3.166145
1716.000000;3.146661
1715.000000;3.145553
1714.000000;3.246934
1713.000000;3.306533
1712.000000;3.157810
1711.000000;3.054190
1710.000000;3.077809
1709.000000;3.284215
1708.000000;3.716691
1707.000000;3.850669
1706.000000;3.205593
1705.000000;2.858301
1704.000000;2.722495
1703.000000;2.732206
1702.000000;2.860692
1701.000000;3.094843
1700.000000;3.431655
1699.000000;3.608643
1698.000000;3.530447
1697.000000;3.447655
1696.000000;3.414429
1695.000000;3.451903
1694.000000;3.653806
1693.000000;3.949212
1692.000000;3.848641
1691.000000;3.721138
1690.000000;3.567309
1689.000000;3.366893
1688.000000;3.167718
1687.000000;3.068871
1686.000000;3.059572
1685.000000;3.093957
1684.000000;3.134693
1683.000000;3.147633
1682.000000;3.139065
1681.000000;3.171867
1680.000000;3.278854
1679.000000;3.411784
1678.000000;3.456949
1677.000000;3.482849
1676.000000;3.638383
1675.000000;3.644012
1674.000000;3.578133
1673.000000;3.640555
1672.000000;3.647514
1671.000000;4.029861
1670.000000;3.818298
1669.000000;3.443099
1668.000000;3.326621
1667.000000;3.410672
1666.000000;3.870943
1665.000000;3.752997
1664.000000;3.741737
1663.000000;4.189231
1662.000000;3.566512
1661.000000;3.432282
1660.000000;3.220268
1659.000000;2.970477
1658.000000;2.894876
1657.000000;2.994561
1656.000000;3.321470
1655.000000;3.634104
1654.000000;3.307017
1653.000000;3.126689
1652.000000;3.101218
1651.000000;3.303035
1650.000000;3.757073
1649.000000;3.384305
1648.000000;3.228205
1647.000000;3.262246
1646.000000;3.308096
1645.000000;3.243728
1644.000000;3.076471
1643.000000;2.919080
1642.000000;2.842460
1641.000000;2.872210
1640.000000;3.073083
1639.000000;3.398012
1638.000000;3.277870
1637.000000;3.178966
1636.000000;3.141765
1635.000000;3.114087
1634.000000;3.136309
1633.000000;3.291612
1632.000000;3.456763
1631.000000;3.358821
1630.000000;3.259577
1629.000000;3.274823
1628.000000;3.432223
1627.000000;3.378004
1626.000000;3.141663
1625.000000;3.052999
1624.000000;3.116561
1623.000000;3.327807
1622.000000;3.507376
1621.000000;3.318510
1620.000000;3.090623
1619.000000;2.985200
1618.000000;2.990605
1617.000000;3.077105
1616.000000;3.174948
1615.000000;3.229567
1614.000000;3.330616
1613.000000;3.545207
1612.000000;3.576476
1611.000000;3.294842
1610.000000;3.105315
1609.000000;3.022044
1608.000000;2.982579
1607.000000;2.976294
1606.000000;3.035630
1605.000000;3.303502
1604.000000;3.437434
1603.000000;3.123884
1602.000000;3.218860
1601.000000;3.344023
1600.000000;2.957829
1599.000000;2.782028
1598.000000;2.829682
1597.000000;3.015642
1596.000000;3.118207
1595.000000;3.212313
1594.000000;3.895330
1593.000000;3.408677
1592.000000;3.012756
1591.000000;2.887252
1590.000000;2.875716
1589.000000;2.978701
1588.000000;3.022973
1587.000000;2.912244
1586.000000;2.792385
1585.000000;2.738815
1584.000000;2.781537
1583.000000;2.941804
1582.000000;3.276274
1581.000000;3.284918
1580.000000;2.964884
1579.000000;2.873455
1578.000000;2.879503
1577.000000;2.951777
1576.000000;3.039376
1575.000000;3.076201
1574.000000;3.120960
1573.000000;3.311744
1572.000000;3.972488
1571.000000;3.842160
1570.000000;3.436457
1569.000000;3.439400
1568.000000;3.934763
1567.000000;3.651936
1566.000000;3.289099
1565.000000;3.508310
1564.000000;3.486424
1563.000000;3.055216
1562.000000;2.931177
1561.000000;2.976031
1560.000000;3.143048
1559.000000;3.553829
1558.000000;4.592069
1557.000000;3.672636
1556.000000;3.678712
1555.000000;3.585863
1554.000000;3.168856
1553.000000;3.044663
1552.000000;3.145796
1551.000000;3.500403
1550.000000;3.624331
1549.000000;3.417443
1548.000000;3.367634
1547.000000;3.290361
1546.000000;3.191801
1545.000000;3.120702
1544.000000;3.108938
1543.000000;3.128288
1542.000000;3.131112
1541.000000;3.126160
1540.000000;3.138604
1539.000000;3.139214
1538.000000;3.190626
1537.000000;3.328675
1536.000000;3.289031
1535.000000;3.202218
1534.000000;3.250455
1533.000000;3.488779
1532.000000;3.478203
1531.000000;3.310091
1530.000000;3.364081
1529.000000;3.279585
1528.000000;3.137772
1527.000000;3.128288
1526.000000;3.236467
1525.000000;3.543732
1524.000000;3.819368
1523.000000;3.627200
1522.000000;3.613549
1521.000000;4.065653
1520.000000;3.712407
1519.000000;3.275159
1518.000000;3.225399
1517.000000;3.304859
1516.000000;3.448458
1515.000000;3.418290
1514.000000;3.200482
1513.000000;3.058212
1512.000000;3.056393
1511.000000;3.225016
1510.000000;3.453648
1509.000000;3.618128
1508.000000;3.936472
1507.000000;4.005292
1506.000000;3.769559
1505.000000;3.661431
1504.000000;3.588005
1503.000000;3.583161
1502.000000;3.557034
1501.000000;3.238840
1500.000000;2.997178
1499.000000;2.886789
1498.000000;2.856548
1497.000000;2.880752
1496.000000;2.949657
1495.000000;3.051506
1494.000000;3.107155
1493.000000;3.066510
1492.000000;3.006003
1491.000000;2.996855
1490.000000;3.080713
1489.000000;3.265324
1488.000000;3.506779
1487.000000;3.455205
1486.000000;3.205089
1485.000000;3.045132
1484.000000;3.060711
1483.000000;3.315936
1482.000000;3.297508
1481.000000;3.077366
1480.000000;3.061178
1479.000000;3.048298
1478.000000;2.953464
1477.000000;2.961805
1476.000000;3.088592
1475.000000;3.111645
1474.000000;3.036541
1473.000000;3.011675
1472.000000;3.005882
1471.000000;2.974171
1470.000000;2.951677
1469.000000;2.959705
1468.000000;2.978315
1467.000000;3.005251
1466.000000;3.114014
1465.000000;3.509955
1464.000000;3.459326
1463.000000;3.132489
1462.000000;3.112642
1461.000000;3.177203
1460.000000;3.200392
1459.000000;3.170037
1458.000000;3.147023
1457.000000;3.143981
1456.000000;3.146574
1455.000000;3.181131
1454.000000;3.215084
1453.000000;3.170803
1452.000000;3.072465
1451.000000;3.016862
1450.000000;3.040227
1449.000000;3.035655
1448.000000;2.972606
1447.000000;3.020813
1446.000000;3.218904
1445.000000;3.139828
1444.000000;2.923669
1443.000000;2.880648
1442.000000;2.970324
1441.000000;3.144180
1440.000000;3.249737
1439.000000;3.447688
1438.000000;3.554264
1437.000000;3.105694
1436.000000;2.858107
1435.000000;2.795367
1434.000000;2.846397
1433.000000;2.916109
1432.000000;2.945073
1431.000000;2.993975
1430.000000;3.056787
1429.000000;3.103641
1428.000000;3.343962
1427.000000;3.527761
1426.000000;3.081743
1425.000000;2.907202
1424.000000;2.878207
1423.000000;2.910135
1422.000000;2.958523
1421.000000;2.977629
1420.000000;2.992565
1419.000000;3.127005
1418.000000;3.450147
1417.000000;3.169721
1416.000000;2.848998
1415.000000;2.743965
1414.000000;2.753078
1413.000000;2.904487
1412.000000;3.159275
1411.000000;3.127133
1410.000000;3.028907
1409.000000;3.094334
1408.000000;3.260269
1407.000000;3.499098
1406.000000;3.830302
1405.000000;4.094301
1404.000000;3.376741
1403.000000;3.059639
1402.000000;2.999993
1401.000000;3.136774
1400.000000;3.431966
1399.000000;3.332395
1398.000000;3.110984
1397.000000;3.002859
1396.000000;2.970439
1395.000000;3.038125
1394.000000;3.232566
1393.000000;3.266651
1392.000000;3.079472
1391.000000;3.031435
1390.000000;3.093928
1389.000000;3.165114
1388.000000;3.109677
1387.000000;3.004954
1386.000000;2.980869
1385.000000;3.029179
1384.000000;3.121968
1383.000000;3.184153
1382.000000;3.349246
1381.000000;3.621593
1380.000000;3.201738
1379.000000;2.974641
1378.000000;2.959525
1377.000000;2.981439
1376.000000;3.030999
1375.000000;3.094522
1374.000000;3.151407
1373.000000;3.263768
1372.000000;3.449669
1371.000000;3.536579
1370.000000;3.478177
1369.000000;3.455307
1368.000000;3.452045
1367.000000;3.329827
1366.000000;3.140532
1365.000000;2.969211
1364.000000;2.853920
1363.000000;2.812313
1362.000000;2.829357
1361.000000;2.895797
1360.000000;2.994201
1359.000000;3.001675
1358.000000;2.910258
1357.000000;2.815548
1356.000000;2.742935
1355.000000;2.728195
1354.000000;2.775501
1353.000000;2.868201
1352.000000;2.940041
1351.000000;2.920458
1350.000000;2.883875
1349.000000;2.906301
1348.000000;3.006617
1347.000000;3.246412
1346.000000;3.582444
1345.000000;3.476152
1344.000000;3.303637
1343.000000;3.163196
1342.000000;3.044330
1341.000000;3.013576
1340.000000;3.094616
1339.000000;3.287615
1338.000000;3.319398
1337.000000;3.128743
1336.000000;2.983041
1335.000000;2.899964
1334.000000;2.892481
1333.000000;3.003161
1332.000000;3.171856
1331.000000;3.143775
1330.000000;2.997753
1329.000000;2.862120
1328.000000;2.758175
1327.000000;2.726860
1326.000000;2.767065
1325.000000;2.895093
1324.000000;3.036290
1323.000000;3.167520
1322.000000;3.377129
1321.000000;3.289560
1320.000000;3.204656
1319.000000;3.502968
1318.000000;4.145623
1317.000000;3.444035
1316.000000;3.097069
1315.000000;2.954954
1314.000000;2.963014
1313.000000;3.069516
1312.000000;3.107130
1311.000000;3.055126
1310.000000;3.001166
1309.000000;2.922815
1308.000000;2.826744
1307.000000;2.761139
1306.000000;2.743365
1305.000000;2.786115
1304.000000;2.880599
1303.000000;2.905496
1302.000000;2.793147
1301.000000;2.711745
1300.000000;2.831601
1299.000000;3.087744
1298.000000;2.903336
1297.000000;2.727321
1296.000000;2.714281
1295.000000;2.773282
1294.000000;2.968672
1293.000000;3.242273
1292.000000;3.149872
1291.000000;3.052662
1290.000000;3.104379
1289.000000;3.099244
1288.000000;3.049123
1287.000000;3.129825
1286.000000;3.356869
1285.000000;3.831522
1284.000000;3.730622
1283.000000;3.213739
1282.000000;3.105792
1281.000000;3.300911
1280.000000;3.519888
1279.000000;3.118268
1278.000000;2.910984
1277.000000;2.926663
1276.000000;3.157202
1275.000000;3.490051
1274.000000;3.563407
1273.000000;3.983117
1272.000000;3.986917
1271.000000;3.653357
1270.000000;3.797485
1269.000000;4.136613
1268.000000;3.868502
1267.000000;3.565368
1266.000000;3.574641
1265.000000;3.797955
1264.000000;3.339396
1263.000000;3.013197
1262.000000;2.926950
1261.000000;3.044738
1260.000000;3.119889
1259.000000;2.914516
1258.000000;2.820647
1257.000000;2.835994
1256.000000;2.893577
1255.000000;2.974458
1254.000000;3.066722
1253.000000;3.209374
1252.000000;3.480837
1251.000000;3.493401
1250.000000;3.140000
1249.000000;2.975422
1248.000000;2.968223
1247.000000;3.126646
1246.000000;3.621063
1245.000000;3.409243
1244.000000;3.252103
1243.000000;3.527251
1242.000000;3.288092
1241.000000;3.037703
1240.000000;3.212506
1239.000000;3.837144
1238.000000;3.218546
1237.000000;3.156447
1236.000000;3.326720
1235.000000;3.167838
1234.000000;3.162620
1233.000000;3.181539
1232.000000;3.174946
1231.000000;3.278739
1230.000000;3.268231
1229.000000;3.153313
1228.000000;3.185028
1227.000000;3.187169
1226.000000;3.145364
1225.000000;3.202640
1224.000000;3.387946
1223.000000;3.802042
1222.000000;4.072332
1221.000000;4.090448
1220.000000;4.177916
1219.000000;3.634651
1218.000000;3.262610
1217.000000;3.033384
1216.000000;2.873320
1215.000000;2.765249
1214.000000;2.698161
1213.000000;2.678897
1212.000000;2.722268
1211.000000;2.866619
1210.000000;3.079824
1209.000000;3.054528
1208.000000;2.880371
1207.000000;2.778310
1206.000000;2.746316
1205.000000;2.755626
1204.000000;2.770295
1203.000000;2.792934
1202.000000;2.839722
1201.000000;2.960700
1200.000000;3.266853
