Criado como novo conjunto de dados;"e0108.spp","-4236102.2 Secs"
cm-1;Abs
10000.000000;0.987909
9999.000000;0.987168
9998.000000;0.986429
9997.000000;0.985691
9996.000000;0.984953
9995.000000;0.984218
9994.000000;0.983483
9993.000000;0.982752
9992.000000;0.982015
9991.000000;0.981292
9990.000000;0.980547
9989.000000;0.979881
9988.000000;0.979207
9987.000000;0.978358
9986.000000;0.977374
9985.000000;0.976449
9984.000000;0.976002
9983.000000;0.976293
9982.000000;0.977031
9981.000000;0.977563
9980.000000;0.977546
9979.000000;0.977226
9978.000000;0.976997
9977.000000;0.976924
9976.000000;0.976812
9975.000000;0.976535
9974.000000;0.976128
9973.000000;0.975624
9972.000000;0.974940
9971.000000;0.973919
9970.000000;0.972462
9969.000000;0.970831
9968.000000;0.969783
9967.000000;0.970089
9966.000000;0.971680
9965.000000;0.973479
9964.000000;0.974335
9963.000000;0.974063
9962.000000;0.973357
9961.000000;0.972862
9960.000000;0.972650
9959.000000;0.972531
9958.000000;0.972482
9957.000000;0.972640
9956.000000;0.973040
9955.000000;0.973392
9954.000000;0.973059
9953.000000;0.971399
9952.000000;0.968452
9951.000000;0.965302
9950.000000;0.963431
9949.000000;0.963479
9948.000000;0.964700
9947.000000;0.965699
9946.000000;0.965666
9945.000000;0.964841
9944.000000;0.963944
9943.000000;0.963451
9942.000000;0.963392
9941.000000;0.963534
9940.000000;0.963545
9939.000000;0.963135
9938.000000;0.962327
9937.000000;0.961636
9936.000000;0.961656
9935.000000;0.962313
9934.000000;0.962730
9933.000000;0.962123
9932.000000;0.960735
9931.000000;0.959627
9930.000000;0.959505
9929.000000;0.960066
9928.000000;0.960575
9927.000000;0.960736
9926.000000;0.960697
9925.000000;0.960465
9924.000000;0.959720
9923.000000;0.958252
9922.000000;0.956355
9921.000000;0.954708
9920.000000;0.953923
9919.000000;0.954113
9918.000000;0.954801
9917.000000;0.955330
9916.000000;0.955485
9915.000000;0.955603
9914.000000;0.955976
9913.000000;0.956345
9912.000000;0.956229
9911.000000;0.955606
9910.000000;0.954929
9909.000000;0.954499
9908.000000;0.954164
9907.000000;0.953661
9906.000000;0.952923
9905.000000;0.951973
9904.000000;0.950896
9903.000000;0.950022
9902.000000;0.949830
9901.000000;0.950402
9900.000000;0.951172
9899.000000;0.951474
9898.000000;0.951240
9897.000000;0.950927
9896.000000;0.950851
9895.000000;0.950871
9894.000000;0.950703
9893.000000;0.950247
9892.000000;0.949551
9891.000000;0.948673
9890.000000;0.947698
9889.000000;0.946809
9888.000000;0.946269
9887.000000;0.946306
9886.000000;0.946956
9885.000000;0.947854
9884.000000;0.948270
9883.000000;0.947635
9882.000000;0.946203
9881.000000;0.944958
9880.000000;0.944631
9879.000000;0.944921
9878.000000;0.944895
9877.000000;0.944086
9876.000000;0.942844
9875.000000;0.941649
9874.000000;0.940523
9873.000000;0.939371
9872.000000;0.938472
9871.000000;0.938189
9870.000000;0.938328
9869.000000;0.938267
9868.000000;0.937699
9867.000000;0.936891
9866.000000;0.936211
9865.000000;0.935833
9864.000000;0.935959
9863.000000;0.936798
9862.000000;0.938016
9861.000000;0.938636
9860.000000;0.937944
9859.000000;0.936337
9858.000000;0.934910
9857.000000;0.934348
9856.000000;0.934565
9855.000000;0.935181
9854.000000;0.935884
9853.000000;0.936353
9852.000000;0.936284
9851.000000;0.935692
9850.000000;0.934955
9849.000000;0.934452
9848.000000;0.934265
9847.000000;0.934236
9846.000000;0.934084
9845.000000;0.933528
9844.000000;0.932597
9843.000000;0.931811
9842.000000;0.931664
9841.000000;0.931891
9840.000000;0.931643
9839.000000;0.930567
9838.000000;0.929356
9837.000000;0.928942
9836.000000;0.929434
9835.000000;0.930164
9834.000000;0.930556
9833.000000;0.930563
9832.000000;0.930381
9831.000000;0.930168
9830.000000;0.930052
9829.000000;0.929991
9828.000000;0.929573
9827.000000;0.928345
9826.000000;0.926574
9825.000000;0.925304
9824.000000;0.925281
9823.000000;0.925994
9822.000000;0.926141
9821.000000;0.925068
9820.000000;0.923384
9819.000000;0.922142
9818.000000;0.921846
9817.000000;0.922404
9816.000000;0.923560
9815.000000;0.924919
9814.000000;0.925789
9813.000000;0.925580
9812.000000;0.924411
9811.000000;0.922983
9810.000000;0.921825
9809.000000;0.921004
9808.000000;0.920565
9807.000000;0.920762
9806.000000;0.921597
9805.000000;0.922500
9804.000000;0.922793
9803.000000;0.922298
9802.000000;0.921285
9801.000000;0.920103
9800.000000;0.919066
9799.000000;0.918424
9798.000000;0.918076
9797.000000;0.917549
9796.000000;0.916592
9795.000000;0.915603
9794.000000;0.915106
9793.000000;0.914957
9792.000000;0.914519
9791.000000;0.913577
9790.000000;0.912624
9789.000000;0.912244
9788.000000;0.912565
9787.000000;0.913328
9786.000000;0.914086
9785.000000;0.914305
9784.000000;0.913693
9783.000000;0.912606
9782.000000;0.911807
9781.000000;0.911698
9780.000000;0.911985
9779.000000;0.912170
9778.000000;0.912069
9777.000000;0.911728
9776.000000;0.911169
9775.000000;0.910423
9774.000000;0.909642
9773.000000;0.908981
9772.000000;0.908536
9771.000000;0.908458
9770.000000;0.908899
9769.000000;0.909739
9768.000000;0.910544
9767.000000;0.910896
9766.000000;0.910579
9765.000000;0.909521
9764.000000;0.907879
9763.000000;0.906221
9762.000000;0.905180
9761.000000;0.904777
9760.000000;0.904454
9759.000000;0.903961
9758.000000;0.903774
9757.000000;0.904335
9756.000000;0.905267
9755.000000;0.905776
9754.000000;0.905593
9753.000000;0.905078
9752.000000;0.904604
9751.000000;0.904285
9750.000000;0.904160
9749.000000;0.904190
9748.000000;0.904107
9747.000000;0.903680
9746.000000;0.903109
9745.000000;0.902778
9744.000000;0.902630
9743.000000;0.902217
9742.000000;0.901417
9741.000000;0.900678
9740.000000;0.900369
9739.000000;0.900226
9738.000000;0.899669
9737.000000;0.898486
9736.000000;0.897077
9735.000000;0.896172
9734.000000;0.896371
9733.000000;0.897675
9732.000000;0.899322
9731.000000;0.900288
9730.000000;0.900230
9729.000000;0.899789
9728.000000;0.899724
9727.000000;0.899902
9726.000000;0.899468
9725.000000;0.898033
9724.000000;0.896362
9723.000000;0.895618
9722.000000;0.896037
9721.000000;0.896612
9720.000000;0.896162
9719.000000;0.894523
9718.000000;0.892530
9717.000000;0.891051
9716.000000;0.890318
9715.000000;0.890090
9714.000000;0.890087
9713.000000;0.890148
9712.000000;0.890275
9711.000000;0.890698
9710.000000;0.891592
9709.000000;0.892559
9708.000000;0.892718
9707.000000;0.891747
9706.000000;0.890568
9705.000000;0.890500
9704.000000;0.891744
9703.000000;0.893079
9702.000000;0.893148
9701.000000;0.891742
9700.000000;0.889768
9699.000000;0.888283
9698.000000;0.887763
9697.000000;0.888009
9696.000000;0.888472
9695.000000;0.888760
9694.000000;0.888925
9693.000000;0.889118
9692.000000;0.889050
9691.000000;0.888156
9690.000000;0.886443
9689.000000;0.884779
9688.000000;0.883989
9687.000000;0.883892
9686.000000;0.883586
9685.000000;0.882611
9684.000000;0.881441
9683.000000;0.880776
9682.000000;0.880681
9681.000000;0.880606
9680.000000;0.880087
9679.000000;0.879261
9678.000000;0.878715
9677.000000;0.878895
9676.000000;0.879644
9675.000000;0.880308
9674.000000;0.880358
9673.000000;0.879888
9672.000000;0.879424
9671.000000;0.879324
9670.000000;0.879497
9669.000000;0.879685
9668.000000;0.879816
9667.000000;0.879999
9666.000000;0.880286
9665.000000;0.880593
9664.000000;0.880741
9663.000000;0.880527
9662.000000;0.879885
9661.000000;0.879109
9660.000000;0.878754
9659.000000;0.878996
9658.000000;0.879148
9657.000000;0.878165
9656.000000;0.875890
9655.000000;0.873552
9654.000000;0.872693
9653.000000;0.873627
9652.000000;0.875158
9651.000000;0.875826
9650.000000;0.875276
9649.000000;0.874324
9648.000000;0.873871
9647.000000;0.874007
9646.000000;0.874136
9645.000000;0.873772
9644.000000;0.873104
9643.000000;0.872778
9642.000000;0.873171
9641.000000;0.873898
9640.000000;0.874118
9639.000000;0.873376
9638.000000;0.872053
9637.000000;0.870915
9636.000000;0.870325
9635.000000;0.870019
9634.000000;0.869558
9633.000000;0.868800
9632.000000;0.867915
9631.000000;0.867191
9630.000000;0.866952
9629.000000;0.867453
9628.000000;0.868550
9627.000000;0.869576
9626.000000;0.869797
9625.000000;0.869115
9624.000000;0.868175
9623.000000;0.867712
9622.000000;0.867880
9621.000000;0.868276
9620.000000;0.868480
9619.000000;0.868413
9618.000000;0.868215
9617.000000;0.867977
9616.000000;0.867654
9615.000000;0.867129
9614.000000;0.866294
9613.000000;0.865161
9612.000000;0.863940
9611.000000;0.862932
9610.000000;0.862319
9609.000000;0.862144
9608.000000;0.862500
9607.000000;0.863524
9606.000000;0.865016
9605.000000;0.866236
9604.000000;0.866391
9603.000000;0.865385
9602.000000;0.863891
9601.000000;0.862677
9600.000000;0.862013
9599.000000;0.861731
9598.000000;0.861600
9597.000000;0.861514
9596.000000;0.861458
9595.000000;0.861440
9594.000000;0.861415
9593.000000;0.861221
9592.000000;0.860672
9591.000000;0.859799
9590.000000;0.858836
9589.000000;0.857917
9588.000000;0.856941
9587.000000;0.855880
9586.000000;0.855063
9585.000000;0.854934
9584.000000;0.855543
9583.000000;0.856444
9582.000000;0.857079
9581.000000;0.857161
9580.000000;0.856744
9579.000000;0.856104
9578.000000;0.855585
9577.000000;0.855385
9576.000000;0.855403
9575.000000;0.855362
9574.000000;0.855123
9573.000000;0.854792
9572.000000;0.854521
9571.000000;0.854301
9570.000000;0.853999
9569.000000;0.853541
9568.000000;0.852991
9567.000000;0.852485
9566.000000;0.852073
9565.000000;0.851608
9564.000000;0.850866
9563.000000;0.849853
9562.000000;0.848941
9561.000000;0.848558
9560.000000;0.848722
9559.000000;0.848993
9558.000000;0.848936
9557.000000;0.848567
9556.000000;0.848329
9555.000000;0.848704
9554.000000;0.849789
9553.000000;0.851093
9552.000000;0.851700
9551.000000;0.850834
9550.000000;0.848556
9549.000000;0.845922
9548.000000;0.844281
9547.000000;0.844271
9546.000000;0.845407
9545.000000;0.846583
9544.000000;0.846954
9543.000000;0.846427
9542.000000;0.845451
9541.000000;0.844494
9540.000000;0.843810
9539.000000;0.843535
9538.000000;0.843778
9537.000000;0.844495
9536.000000;0.845399
9535.000000;0.846086
9534.000000;0.846239
9533.000000;0.845695
9532.000000;0.844500
9531.000000;0.843032
9530.000000;0.841921
9529.000000;0.841571
9528.000000;0.841732
9527.000000;0.841719
9526.000000;0.841159
9525.000000;0.840381
9524.000000;0.839979
9523.000000;0.840112
9522.000000;0.840376
9521.000000;0.840304
9520.000000;0.839868
9519.000000;0.839429
9518.000000;0.839275
9517.000000;0.839331
9516.000000;0.839347
9515.000000;0.839247
9514.000000;0.839143
9513.000000;0.839032
9512.000000;0.838688
9511.000000;0.837984
9510.000000;0.837159
9509.000000;0.836618
9508.000000;0.836530
9507.000000;0.836732
9506.000000;0.836949
9505.000000;0.836966
9504.000000;0.836696
9503.000000;0.836279
9502.000000;0.836067
9501.000000;0.836255
9500.000000;0.836532
9499.000000;0.836333
9498.000000;0.835503
9497.000000;0.834533
9496.000000;0.834057
9495.000000;0.834299
9494.000000;0.835045
9493.000000;0.835876
9492.000000;0.836315
9491.000000;0.835995
9490.000000;0.834987
9489.000000;0.833866
9488.000000;0.833238
9487.000000;0.833213
9486.000000;0.833423
9485.000000;0.833458
9484.000000;0.833163
9483.000000;0.832634
9482.000000;0.832128
9481.000000;0.831920
9480.000000;0.832036
9479.000000;0.832116
9478.000000;0.831697
9477.000000;0.830698
9476.000000;0.829585
9475.000000;0.829023
9474.000000;0.829365
9473.000000;0.830337
9472.000000;0.831122
9471.000000;0.830921
9470.000000;0.829639
9469.000000;0.828014
9468.000000;0.826978
9467.000000;0.826909
9466.000000;0.827541
9465.000000;0.828372
9464.000000;0.828905
9463.000000;0.828686
9462.000000;0.827557
9461.000000;0.826002
9460.000000;0.824918
9459.000000;0.824846
9458.000000;0.825551
9457.000000;0.826456
9456.000000;0.827247
9455.000000;0.827911
9454.000000;0.828390
9453.000000;0.828525
9452.000000;0.828305
9451.000000;0.827937
9450.000000;0.827585
9449.000000;0.827203
9448.000000;0.826648
9447.000000;0.825898
9446.000000;0.825104
9445.000000;0.824529
9444.000000;0.824428
9443.000000;0.824888
9442.000000;0.825689
9441.000000;0.826365
9440.000000;0.826482
9439.000000;0.825939
9438.000000;0.825013
9437.000000;0.824115
9436.000000;0.823447
9435.000000;0.822876
9434.000000;0.822138
9433.000000;0.821148
9432.000000;0.820134
9431.000000;0.819456
9430.000000;0.819301
9429.000000;0.819524
9428.000000;0.819817
9427.000000;0.820004
9426.000000;0.820182
9425.000000;0.820526
9424.000000;0.820984
9423.000000;0.821247
9422.000000;0.821007
9421.000000;0.820154
9420.000000;0.818751
9419.000000;0.817030
9418.000000;0.815543
9417.000000;0.815073
9416.000000;0.816020
9415.000000;0.817784
9414.000000;0.819063
9413.000000;0.819019
9412.000000;0.818049
9411.000000;0.817192
9410.000000;0.816928
9409.000000;0.816830
9408.000000;0.816374
9407.000000;0.815729
9406.000000;0.815520
9405.000000;0.815981
9404.000000;0.816622
9403.000000;0.816780
9402.000000;0.816275
9401.000000;0.815415
9400.000000;0.814534
9399.000000;0.813765
9398.000000;0.813175
9397.000000;0.812812
9396.000000;0.812516
9395.000000;0.811948
9394.000000;0.811040
9393.000000;0.810309
9392.000000;0.810438
9391.000000;0.811518
9390.000000;0.812888
9389.000000;0.813758
9388.000000;0.813824
9387.000000;0.813293
9386.000000;0.812584
9385.000000;0.812087
9384.000000;0.811981
9383.000000;0.812078
9382.000000;0.811951
9381.000000;0.811377
9380.000000;0.810547
9379.000000;0.809744
9378.000000;0.809030
9377.000000;0.808416
9376.000000;0.808167
9375.000000;0.808554
9374.000000;0.809357
9373.000000;0.809930
9372.000000;0.809846
9371.000000;0.809260
9370.000000;0.808568
9369.000000;0.807961
9368.000000;0.807411
9367.000000;0.806875
9366.000000;0.806365
9365.000000;0.805948
9364.000000;0.805798
9363.000000;0.806094
9362.000000;0.806709
9361.000000;0.807171
9360.000000;0.807134
9359.000000;0.806771
9358.000000;0.806480
9357.000000;0.806325
9356.000000;0.806089
9355.000000;0.805804
9354.000000;0.805870
9353.000000;0.806481
9352.000000;0.807235
9351.000000;0.807512
9350.000000;0.807076
9349.000000;0.806090
9348.000000;0.804708
9347.000000;0.802998
9346.000000;0.801248
9345.000000;0.800020
9344.000000;0.799721
9343.000000;0.800264
9342.000000;0.801266
9341.000000;0.802479
9340.000000;0.803844
9339.000000;0.805247
9338.000000;0.806380
9337.000000;0.806909
9336.000000;0.806685
9335.000000;0.805784
9334.000000;0.804458
9333.000000;0.803083
9332.000000;0.802027
9331.000000;0.801433
9330.000000;0.801138
9329.000000;0.800847
9328.000000;0.800418
9327.000000;0.799947
9326.000000;0.799614
9325.000000;0.799499
9324.000000;0.799522
9323.000000;0.799500
9322.000000;0.799294
9321.000000;0.798951
9320.000000;0.798700
9319.000000;0.798703
9318.000000;0.798831
9317.000000;0.798785
9316.000000;0.798463
9315.000000;0.798113
9314.000000;0.798034
9313.000000;0.798192
9312.000000;0.798245
9311.000000;0.797938
9310.000000;0.797384
9309.000000;0.796885
9308.000000;0.796603
9307.000000;0.796473
9306.000000;0.796384
9305.000000;0.796327
9304.000000;0.796354
9303.000000;0.796527
9302.000000;0.796943
9301.000000;0.797679
9300.000000;0.798576
9299.000000;0.799155
9298.000000;0.798927
9297.000000;0.797881
9296.000000;0.796547
9295.000000;0.795533
9294.000000;0.795083
9293.000000;0.795119
9292.000000;0.795531
9291.000000;0.796227
9290.000000;0.796949
9289.000000;0.797261
9288.000000;0.796854
9287.000000;0.795847
9286.000000;0.794735
9285.000000;0.794043
9284.000000;0.793947
9283.000000;0.794147
9282.000000;0.794139
9281.000000;0.793697
9280.000000;0.793044
9279.000000;0.792481
9278.000000;0.791963
9277.000000;0.791232
9276.000000;0.790347
9275.000000;0.789793
9274.000000;0.789945
9273.000000;0.790624
9272.000000;0.791316
9271.000000;0.791704
9270.000000;0.791844
9269.000000;0.791922
9268.000000;0.792032
9267.000000;0.792147
9266.000000;0.792137
9265.000000;0.791837
9264.000000;0.791250
9263.000000;0.790683
9262.000000;0.790492
9261.000000;0.790664
9260.000000;0.790791
9259.000000;0.790508
9258.000000;0.789851
9257.000000;0.789127
9256.000000;0.788563
9255.000000;0.788179
9254.000000;0.787921
9253.000000;0.787808
9252.000000;0.787913
9251.000000;0.788227
9250.000000;0.788535
9249.000000;0.788480
9248.000000;0.787833
9247.000000;0.786711
9246.000000;0.785515
9245.000000;0.784658
9244.000000;0.784373
9243.000000;0.784653
9242.000000;0.785258
9241.000000;0.785814
9240.000000;0.786103
9239.000000;0.786272
9238.000000;0.786635
9237.000000;0.787245
9236.000000;0.787825
9235.000000;0.788155
9234.000000;0.788302
9233.000000;0.788339
9232.000000;0.788073
9231.000000;0.787332
9230.000000;0.786418
9229.000000;0.785953
9228.000000;0.786181
9227.000000;0.786618
9226.000000;0.786522
9225.000000;0.785666
9224.000000;0.784569
9223.000000;0.783954
9222.000000;0.784016
9221.000000;0.784239
9220.000000;0.783951
9219.000000;0.783060
9218.000000;0.782114
9217.000000;0.781644
9216.000000;0.781573
9215.000000;0.781415
9214.000000;0.780935
9213.000000;0.780429
9212.000000;0.780356
9211.000000;0.780848
9210.000000;0.781616
9209.000000;0.782238
9208.000000;0.782529
9207.000000;0.782707
9206.000000;0.783158
9205.000000;0.783921
9204.000000;0.784494
9203.000000;0.784318
9202.000000;0.783420
9201.000000;0.782368
9200.000000;0.781612
9199.000000;0.781148
9198.000000;0.780886
9197.000000;0.780959
9196.000000;0.781444
9195.000000;0.782035
9194.000000;0.782288
9193.000000;0.782091
9192.000000;0.781604
9191.000000;0.780903
9190.000000;0.780042
9189.000000;0.779373
9188.000000;0.779357
9187.000000;0.779926
9186.000000;0.780365
9185.000000;0.780070
9184.000000;0.779193
9183.000000;0.778343
9182.000000;0.777859
9181.000000;0.777645
9180.000000;0.777558
9179.000000;0.777586
9178.000000;0.777657
9177.000000;0.777569
9176.000000;0.777290
9175.000000;0.777148
9174.000000;0.777512
9173.000000;0.778326
9172.000000;0.779076
9171.000000;0.779241
9170.000000;0.778726
9169.000000;0.777864
9168.000000;0.777045
9167.000000;0.776431
9166.000000;0.776013
9165.000000;0.775806
9164.000000;0.775855
9163.000000;0.776077
9162.000000;0.776241
9161.000000;0.776180
9160.000000;0.775942
9159.000000;0.775700
9158.000000;0.775586
9157.000000;0.775653
9156.000000;0.775868
9155.000000;0.776011
9154.000000;0.775747
9153.000000;0.775028
9152.000000;0.774334
9151.000000;0.774262
9150.000000;0.774864
9149.000000;0.775618
9148.000000;0.776080
9147.000000;0.776272
9146.000000;0.776366
9145.000000;0.776305
9144.000000;0.776007
9143.000000;0.775704
9142.000000;0.775671
9141.000000;0.775695
9140.000000;0.775224
9139.000000;0.774130
9138.000000;0.773009
9137.000000;0.772512
9136.000000;0.772628
9135.000000;0.772822
9134.000000;0.772721
9133.000000;0.772396
9132.000000;0.772065
9131.000000;0.771801
9130.000000;0.771587
9129.000000;0.771458
9128.000000;0.771444
9127.000000;0.771513
9126.000000;0.771639
9125.000000;0.771817
9124.000000;0.771938
9123.000000;0.771776
9122.000000;0.771257
9121.000000;0.770682
9120.000000;0.770506
9119.000000;0.770866
9118.000000;0.771431
9117.000000;0.771745
9116.000000;0.771643
9115.000000;0.771310
9114.000000;0.771037
9113.000000;0.770993
9112.000000;0.771138
9111.000000;0.771225
9110.000000;0.770950
9109.000000;0.770223
9108.000000;0.769324
9107.000000;0.768676
9106.000000;0.768469
9105.000000;0.768561
9104.000000;0.768750
9103.000000;0.769028
9102.000000;0.769465
9101.000000;0.769941
9100.000000;0.770125
9099.000000;0.769806
9098.000000;0.769178
9097.000000;0.768711
9096.000000;0.768717
9095.000000;0.769071
9094.000000;0.769382
9093.000000;0.769405
9092.000000;0.769198
9091.000000;0.768864
9090.000000;0.768291
9089.000000;0.767298
9088.000000;0.766025
9087.000000;0.765008
9086.000000;0.764732
9085.000000;0.765165
9084.000000;0.765789
9083.000000;0.766084
9082.000000;0.765945
9081.000000;0.765680
9080.000000;0.765673
9079.000000;0.766067
9078.000000;0.766707
9077.000000;0.767336
9076.000000;0.767790
9075.000000;0.768032
9074.000000;0.768042
9073.000000;0.767734
9072.000000;0.767044
9071.000000;0.766093
9070.000000;0.765260
9069.000000;0.764967
9068.000000;0.765261
9067.000000;0.765634
9066.000000;0.765455
9065.000000;0.764709
9064.000000;0.764136
9063.000000;0.764451
9062.000000;0.765460
9061.000000;0.766186
9060.000000;0.765902
9059.000000;0.764840
9058.000000;0.763815
9057.000000;0.763392
9056.000000;0.763566
9055.000000;0.763998
9054.000000;0.764310
9053.000000;0.764252
9052.000000;0.763860
9051.000000;0.763427
9050.000000;0.763161
9049.000000;0.762913
9048.000000;0.762415
9047.000000;0.761766
9046.000000;0.761435
9045.000000;0.761729
9044.000000;0.762452
9043.000000;0.763139
9042.000000;0.763474
9041.000000;0.763419
9040.000000;0.763113
9039.000000;0.762766
9038.000000;0.762570
9037.000000;0.762587
9036.000000;0.762773
9035.000000;0.763117
9034.000000;0.763610
9033.000000;0.764076
9032.000000;0.764222
9031.000000;0.764005
9030.000000;0.763750
9029.000000;0.763712
9028.000000;0.763632
9027.000000;0.763023
9026.000000;0.761850
9025.000000;0.760674
9024.000000;0.760054
9023.000000;0.760043
9022.000000;0.760334
9021.000000;0.760689
9020.000000;0.761021
9019.000000;0.761213
9018.000000;0.761134
9017.000000;0.760870
9016.000000;0.760717
9015.000000;0.760867
9014.000000;0.761175
9013.000000;0.761311
9012.000000;0.761071
9011.000000;0.760520
9010.000000;0.759936
9009.000000;0.759670
9008.000000;0.759929
9007.000000;0.760549
9006.000000;0.761031
9005.000000;0.760948
9004.000000;0.760349
9003.000000;0.759701
9002.000000;0.759442
9001.000000;0.759641
9000.000000;0.760057
8999.000000;0.760369
8998.000000;0.760355
8997.000000;0.760002
8996.000000;0.759486
8995.000000;0.758991
8994.000000;0.758543
8993.000000;0.758132
8992.000000;0.757916
8991.000000;0.758106
8990.000000;0.758604
8989.000000;0.758984
8988.000000;0.758963
8987.000000;0.758686
8986.000000;0.758385
8985.000000;0.757983
8984.000000;0.757286
8983.000000;0.756443
8982.000000;0.755893
8981.000000;0.755868
8980.000000;0.756227
8979.000000;0.756770
8978.000000;0.757430
8977.000000;0.758079
8976.000000;0.758425
8975.000000;0.758322
8974.000000;0.758045
8973.000000;0.758079
8972.000000;0.758689
8971.000000;0.759722
8970.000000;0.760734
8969.000000;0.761203
8968.000000;0.760774
8967.000000;0.759517
8966.000000;0.757973
8965.000000;0.756855
8964.000000;0.756573
8963.000000;0.757002
8962.000000;0.757638
8961.000000;0.758016
8960.000000;0.758049
8959.000000;0.757992
8958.000000;0.758089
8957.000000;0.758321
8956.000000;0.758482
8955.000000;0.758418
8954.000000;0.758065
8953.000000;0.757393
8952.000000;0.756494
8951.000000;0.755683
8950.000000;0.755312
8949.000000;0.755468
8948.000000;0.756021
8947.000000;0.756870
8946.000000;0.757858
8945.000000;0.758506
8944.000000;0.758278
8943.000000;0.757282
8942.000000;0.756352
8941.000000;0.756174
8940.000000;0.756569
8939.000000;0.756886
8938.000000;0.756868
8937.000000;0.756793
8936.000000;0.756934
8935.000000;0.757255
8934.000000;0.757598
8933.000000;0.757822
8932.000000;0.757759
8931.000000;0.757324
8930.000000;0.756706
8929.000000;0.756183
8928.000000;0.755763
8927.000000;0.755284
8926.000000;0.754869
8925.000000;0.754890
8924.000000;0.755364
8923.000000;0.755754
8922.000000;0.755643
8921.000000;0.755293
8920.000000;0.755237
8919.000000;0.755534
8918.000000;0.755785
8917.000000;0.755767
8916.000000;0.755632
8915.000000;0.755475
8914.000000;0.755111
8913.000000;0.754448
8912.000000;0.753794
8911.000000;0.753558
8910.000000;0.753816
8909.000000;0.754322
8908.000000;0.754809
8907.000000;0.755104
8906.000000;0.755072
8905.000000;0.754705
8904.000000;0.754257
8903.000000;0.754089
8902.000000;0.754338
8901.000000;0.754850
8900.000000;0.755405
8899.000000;0.755864
8898.000000;0.756100
8897.000000;0.756002
8896.000000;0.755628
8895.000000;0.755203
8894.000000;0.754882
8893.000000;0.754641
8892.000000;0.754440
8891.000000;0.754336
8890.000000;0.754333
8889.000000;0.754299
8888.000000;0.754194
8887.000000;0.754220
8886.000000;0.754574
8885.000000;0.755116
8884.000000;0.755503
8883.000000;0.755580
8882.000000;0.755461
8881.000000;0.755273
8880.000000;0.755023
8879.000000;0.754727
8878.000000;0.754441
8877.000000;0.754162
8876.000000;0.753850
8875.000000;0.753557
8874.000000;0.753372
8873.000000;0.753247
8872.000000;0.753096
8871.000000;0.753059
8870.000000;0.753415
8869.000000;0.754179
8868.000000;0.754980
8867.000000;0.755426
8866.000000;0.755428
8865.000000;0.755096
8864.000000;0.754578
8863.000000;0.754079
8862.000000;0.753841
8861.000000;0.753919
8860.000000;0.754108
8859.000000;0.754242
8858.000000;0.754378
8857.000000;0.754574
8856.000000;0.754674
8855.000000;0.754535
8854.000000;0.754328
8853.000000;0.754386
8852.000000;0.754787
8851.000000;0.755277
8850.000000;0.755508
8849.000000;0.755258
8848.000000;0.754512
8847.000000;0.753558
8846.000000;0.752906
8845.000000;0.752939
8844.000000;0.753597
8843.000000;0.754505
8842.000000;0.755356
8841.000000;0.756057
8840.000000;0.756617
8839.000000;0.757050
8838.000000;0.757352
8837.000000;0.757422
8836.000000;0.757090
8835.000000;0.756389
8834.000000;0.755705
8833.000000;0.755458
8832.000000;0.755641
8831.000000;0.755875
8830.000000;0.755888
8829.000000;0.755745
8828.000000;0.755602
8827.000000;0.755468
8826.000000;0.755292
8825.000000;0.755112
8824.000000;0.755017
8823.000000;0.755031
8822.000000;0.755129
8821.000000;0.755316
8820.000000;0.755632
8819.000000;0.756084
8818.000000;0.756588
8817.000000;0.756954
8816.000000;0.757024
8815.000000;0.756851
8814.000000;0.756683
8813.000000;0.756689
8812.000000;0.756790
8811.000000;0.756828
8810.000000;0.756813
8809.000000;0.756879
8808.000000;0.757098
8807.000000;0.757461
8806.000000;0.757936
8805.000000;0.758376
8804.000000;0.758477
8803.000000;0.758046
8802.000000;0.757312
8801.000000;0.756766
8800.000000;0.756692
8799.000000;0.757003
8798.000000;0.757502
8797.000000;0.758110
8796.000000;0.758799
8795.000000;0.759484
8794.000000;0.760064
8793.000000;0.760473
8792.000000;0.760668
8791.000000;0.760655
8790.000000;0.760518
8789.000000;0.760303
8788.000000;0.759898
8787.000000;0.759182
8786.000000;0.758300
8785.000000;0.757640
8784.000000;0.757512
8783.000000;0.757933
8782.000000;0.758693
8781.000000;0.759509
8780.000000;0.760178
8779.000000;0.760697
8778.000000;0.761196
8777.000000;0.761647
8776.000000;0.761762
8775.000000;0.761394
8774.000000;0.760939
8773.000000;0.761046
8772.000000;0.761893
8771.000000;0.762992
8770.000000;0.763706
8769.000000;0.763757
8768.000000;0.763238
8767.000000;0.762461
8766.000000;0.761877
8765.000000;0.761859
8764.000000;0.762381
8763.000000;0.763055
8762.000000;0.763564
8761.000000;0.763884
8760.000000;0.764062
8759.000000;0.764084
8758.000000;0.764062
8757.000000;0.764273
8756.000000;0.764794
8755.000000;0.765312
8754.000000;0.765471
8753.000000;0.765280
8752.000000;0.765015
8751.000000;0.764888
8750.000000;0.764993
8749.000000;0.765395
8748.000000;0.766059
8747.000000;0.766761
8746.000000;0.767232
8745.000000;0.767334
8744.000000;0.767026
8743.000000;0.766373
8742.000000;0.765696
8741.000000;0.765488
8740.000000;0.765942
8739.000000;0.766679
8738.000000;0.767202
8737.000000;0.767487
8736.000000;0.767892
8735.000000;0.768607
8734.000000;0.769463
8733.000000;0.770220
8732.000000;0.770715
8731.000000;0.770761
8730.000000;0.770212
8729.000000;0.769264
8728.000000;0.768448
8727.000000;0.768186
8726.000000;0.768456
8725.000000;0.768961
8724.000000;0.769545
8723.000000;0.770326
8722.000000;0.771448
8721.000000;0.772722
8720.000000;0.773575
8719.000000;0.773473
8718.000000;0.772511
8717.000000;0.771491
8716.000000;0.771260
8715.000000;0.771972
8714.000000;0.773073
8713.000000;0.773932
8712.000000;0.774323
8711.000000;0.774315
8710.000000;0.774001
8709.000000;0.773480
8708.000000;0.772997
8707.000000;0.772869
8706.000000;0.773215
8705.000000;0.773800
8704.000000;0.774218
8703.000000;0.774274
8702.000000;0.774180
8701.000000;0.774305
8700.000000;0.774765
8699.000000;0.775317
8698.000000;0.775678
8697.000000;0.775800
8696.000000;0.775789
8695.000000;0.775738
8694.000000;0.775757
8693.000000;0.776013
8692.000000;0.776513
8691.000000;0.776938
8690.000000;0.776927
8689.000000;0.776537
8688.000000;0.776189
8687.000000;0.776158
8686.000000;0.776279
8685.000000;0.776244
8684.000000;0.776042
8683.000000;0.776018
8682.000000;0.776569
8681.000000;0.777774
8680.000000;0.779206
8679.000000;0.780125
8678.000000;0.780043
8677.000000;0.779211
8676.000000;0.778430
8675.000000;0.778310
8674.000000;0.778814
8673.000000;0.779519
8672.000000;0.780140
8671.000000;0.780648
8670.000000;0.781071
8669.000000;0.781413
8668.000000;0.781751
8667.000000;0.782148
8666.000000;0.782436
8665.000000;0.782267
8664.000000;0.781534
8663.000000;0.780641
8662.000000;0.780173
8661.000000;0.780328
8660.000000;0.780801
8659.000000;0.781229
8658.000000;0.781578
8657.000000;0.781999
8656.000000;0.782438
8655.000000;0.782644
8654.000000;0.782553
8653.000000;0.782422
8652.000000;0.782491
8651.000000;0.782652
8650.000000;0.782649
8649.000000;0.782476
8648.000000;0.782371
8647.000000;0.782446
8646.000000;0.782536
8645.000000;0.782461
8644.000000;0.782266
8643.000000;0.782126
8642.000000;0.782121
8641.000000;0.782210
8640.000000;0.782352
8639.000000;0.782528
8638.000000;0.782688
8637.000000;0.782767
8636.000000;0.782766
8635.000000;0.782771
8634.000000;0.782842
8633.000000;0.782927
8632.000000;0.782897
8631.000000;0.782695
8630.000000;0.782428
8629.000000;0.782275
8628.000000;0.782295
8627.000000;0.782363
8626.000000;0.782337
8625.000000;0.782250
8624.000000;0.782232
8623.000000;0.782279
8622.000000;0.782230
8621.000000;0.782001
8620.000000;0.781747
8619.000000;0.781708
8618.000000;0.781965
8617.000000;0.782387
8616.000000;0.782760
8615.000000;0.782904
8614.000000;0.782752
8613.000000;0.782436
8612.000000;0.782221
8611.000000;0.782261
8610.000000;0.782420
8609.000000;0.782442
8608.000000;0.782300
8607.000000;0.782262
8606.000000;0.782582
8605.000000;0.783224
8604.000000;0.783955
8603.000000;0.784615
8602.000000;0.785180
8601.000000;0.785632
8600.000000;0.785891
8599.000000;0.785922
8598.000000;0.785814
8597.000000;0.785669
8596.000000;0.785447
8595.000000;0.784980
8594.000000;0.784196
8593.000000;0.783327
8592.000000;0.782845
8591.000000;0.783087
8590.000000;0.783907
8589.000000;0.784732
8588.000000;0.785045
8587.000000;0.784822
8586.000000;0.784467
8585.000000;0.784349
8584.000000;0.784468
8583.000000;0.784560
8582.000000;0.784463
8581.000000;0.784313
8580.000000;0.784402
8579.000000;0.784847
8578.000000;0.785369
8577.000000;0.785477
8576.000000;0.784961
8575.000000;0.784188
8574.000000;0.783785
8573.000000;0.784007
8572.000000;0.784534
8571.000000;0.784906
8570.000000;0.785009
8569.000000;0.785033
8568.000000;0.785133
8567.000000;0.785280
8566.000000;0.785361
8565.000000;0.785276
8564.000000;0.785021
8563.000000;0.784812
8562.000000;0.785013
8561.000000;0.785704
8560.000000;0.786396
8559.000000;0.786452
8558.000000;0.785828
8557.000000;0.785120
8556.000000;0.784829
8555.000000;0.784864
8554.000000;0.784898
8553.000000;0.784921
8552.000000;0.785150
8551.000000;0.785535
8550.000000;0.785680
8549.000000;0.785319
8548.000000;0.784655
8547.000000;0.784159
8546.000000;0.784149
8545.000000;0.784595
8544.000000;0.785217
8543.000000;0.785701
8542.000000;0.785887
8541.000000;0.785836
8540.000000;0.785738
8539.000000;0.785728
8538.000000;0.785782
8537.000000;0.785765
8536.000000;0.785570
8535.000000;0.785255
8534.000000;0.785011
8533.000000;0.784981
8532.000000;0.785100
8531.000000;0.785204
8530.000000;0.785252
8529.000000;0.785350
8528.000000;0.785528
8527.000000;0.785638
8526.000000;0.785534
8525.000000;0.785266
8524.000000;0.785036
8523.000000;0.785053
8522.000000;0.785453
8521.000000;0.786220
8520.000000;0.787086
8519.000000;0.787659
8518.000000;0.787784
8517.000000;0.787666
8516.000000;0.787506
8515.000000;0.787159
8514.000000;0.786387
8513.000000;0.785365
8512.000000;0.784621
8511.000000;0.784436
8510.000000;0.784549
8509.000000;0.784545
8508.000000;0.784343
8507.000000;0.784193
8506.000000;0.784332
8505.000000;0.784765
8504.000000;0.785306
8503.000000;0.785701
8502.000000;0.785794
8501.000000;0.785682
8500.000000;0.785649
8499.000000;0.785897
8498.000000;0.786343
8497.000000;0.786725
8496.000000;0.786844
8495.000000;0.786661
8494.000000;0.786284
8493.000000;0.785928
8492.000000;0.785822
8491.000000;0.786014
8490.000000;0.786279
8489.000000;0.786335
8488.000000;0.786148
8487.000000;0.785945
8486.000000;0.785939
8485.000000;0.786116
8484.000000;0.786303
8483.000000;0.786364
8482.000000;0.786271
8481.000000;0.786016
8480.000000;0.785568
8479.000000;0.784953
8478.000000;0.784361
8477.000000;0.784069
8476.000000;0.784211
8475.000000;0.784678
8474.000000;0.785291
8473.000000;0.786001
8472.000000;0.786830
8471.000000;0.787657
8470.000000;0.788236
8469.000000;0.788432
8468.000000;0.788292
8467.000000;0.787852
8466.000000;0.787095
8465.000000;0.786207
8464.000000;0.785674
8463.000000;0.785830
8462.000000;0.786400
8461.000000;0.786771
8460.000000;0.786743
8459.000000;0.786735
8458.000000;0.787172
8457.000000;0.787912
8456.000000;0.788429
8455.000000;0.788407
8454.000000;0.787950
8453.000000;0.787378
8452.000000;0.787019
8451.000000;0.787114
8450.000000;0.787651
8449.000000;0.788260
8448.000000;0.788464
8447.000000;0.788130
8446.000000;0.787546
8445.000000;0.787050
8444.000000;0.786722
8443.000000;0.786495
8442.000000;0.786375
8441.000000;0.786401
8440.000000;0.786505
8439.000000;0.786590
8438.000000;0.786711
8437.000000;0.787037
8436.000000;0.787607
8435.000000;0.788212
8434.000000;0.788550
8433.000000;0.788474
8432.000000;0.788096
8431.000000;0.787694
8430.000000;0.787489
8429.000000;0.787483
8428.000000;0.787496
8427.000000;0.787397
8426.000000;0.787268
8425.000000;0.787288
8424.000000;0.787524
8423.000000;0.787891
8422.000000;0.788275
8421.000000;0.788576
8420.000000;0.788662
8419.000000;0.788427
8418.000000;0.787939
8417.000000;0.787431
8416.000000;0.787097
8415.000000;0.786978
8414.000000;0.787063
8413.000000;0.787378
8412.000000;0.787889
8411.000000;0.788373
8410.000000;0.788546
8409.000000;0.788304
8408.000000;0.787802
8407.000000;0.787321
8406.000000;0.787108
8405.000000;0.787287
8404.000000;0.787808
8403.000000;0.788465
8402.000000;0.789045
8401.000000;0.789481
8400.000000;0.789817
8399.000000;0.790033
8398.000000;0.790009
8397.000000;0.789701
8396.000000;0.789262
8395.000000;0.788930
8394.000000;0.788827
8393.000000;0.788937
8392.000000;0.789221
8391.000000;0.789660
8390.000000;0.790179
8389.000000;0.790608
8388.000000;0.790761
8387.000000;0.790554
8386.000000;0.790057
8385.000000;0.789480
8384.000000;0.789091
8383.000000;0.789043
8382.000000;0.789225
8381.000000;0.789330
8380.000000;0.789171
8379.000000;0.788913
8378.000000;0.788900
8377.000000;0.789267
8376.000000;0.789796
8375.000000;0.790173
8374.000000;0.790285
8373.000000;0.790218
8372.000000;0.790061
8371.000000;0.789846
8370.000000;0.789645
8369.000000;0.789611
8368.000000;0.789852
8367.000000;0.790290
8366.000000;0.790682
8365.000000;0.790808
8364.000000;0.790643
8363.000000;0.790376
8362.000000;0.790224
8361.000000;0.790239
8360.000000;0.790293
8359.000000;0.790233
8358.000000;0.789994
8357.000000;0.789588
8356.000000;0.789091
8355.000000;0.788683
8354.000000;0.788583
8353.000000;0.788833
8352.000000;0.789225
8351.000000;0.789536
8350.000000;0.789794
8349.000000;0.790161
8348.000000;0.790624
8347.000000;0.790974
8346.000000;0.791125
8345.000000;0.791232
8344.000000;0.791415
8343.000000;0.791536
8342.000000;0.791390
8341.000000;0.791052
8340.000000;0.790859
8339.000000;0.791077
8338.000000;0.791665
8337.000000;0.792328
8336.000000;0.792704
8335.000000;0.792541
8334.000000;0.791826
8333.000000;0.790820
8332.000000;0.789906
8331.000000;0.789346
8330.000000;0.789171
8329.000000;0.789265
8328.000000;0.789521
8327.000000;0.789896
8326.000000;0.790361
8325.000000;0.790823
8324.000000;0.791111
8323.000000;0.791092
8322.000000;0.790824
8321.000000;0.790571
8320.000000;0.790595
8319.000000;0.790910
8318.000000;0.791262
8317.000000;0.791360
8316.000000;0.791152
8315.000000;0.790892
8314.000000;0.790928
8313.000000;0.791387
8312.000000;0.792018
8311.000000;0.792400
8310.000000;0.792324
8309.000000;0.791962
8308.000000;0.791642
8307.000000;0.791529
8306.000000;0.791576
8305.000000;0.791698
8304.000000;0.791840
8303.000000;0.791902
8302.000000;0.791752
8301.000000;0.791401
8300.000000;0.791070
8299.000000;0.790988
8298.000000;0.791160
8297.000000;0.791416
8296.000000;0.791656
8295.000000;0.791930
8294.000000;0.792253
8293.000000;0.792463
8292.000000;0.792368
8291.000000;0.791997
8290.000000;0.791607
8289.000000;0.791418
8288.000000;0.791426
8287.000000;0.791496
8286.000000;0.791550
8285.000000;0.791591
8284.000000;0.791597
8283.000000;0.791512
8282.000000;0.791358
8281.000000;0.791254
8280.000000;0.791310
8279.000000;0.791504
8278.000000;0.791689
8277.000000;0.791683
8276.000000;0.791413
8275.000000;0.791018
8274.000000;0.790822
8273.000000;0.791060
8272.000000;0.791617
8271.000000;0.792107
8270.000000;0.792270
8269.000000;0.792202
8268.000000;0.792162
8267.000000;0.792257
8266.000000;0.792425
8265.000000;0.792610
8264.000000;0.792823
8263.000000;0.793063
8262.000000;0.793297
8261.000000;0.793480
8260.000000;0.793515
8259.000000;0.793251
8258.000000;0.792677
8257.000000;0.792076
8256.000000;0.791813
8255.000000;0.791908
8254.000000;0.791997
8253.000000;0.791782
8252.000000;0.791389
8251.000000;0.791176
8250.000000;0.791306
8249.000000;0.791646
8248.000000;0.791989
8247.000000;0.792215
8246.000000;0.792280
8245.000000;0.792216
8244.000000;0.792157
8243.000000;0.792248
8242.000000;0.792467
8241.000000;0.792629
8240.000000;0.792600
8239.000000;0.792480
8238.000000;0.792489
8237.000000;0.792702
8236.000000;0.792941
8235.000000;0.792943
8234.000000;0.792649
8233.000000;0.792288
8232.000000;0.792146
8231.000000;0.792259
8230.000000;0.792409
8229.000000;0.792447
8228.000000;0.792504
8227.000000;0.792790
8226.000000;0.793244
8225.000000;0.793559
8224.000000;0.793538
8223.000000;0.793292
8222.000000;0.793058
8221.000000;0.792990
8220.000000;0.793169
8219.000000;0.793646
8218.000000;0.794320
8217.000000;0.794870
8216.000000;0.794972
8215.000000;0.794616
8214.000000;0.794094
8213.000000;0.793688
8212.000000;0.793459
8211.000000;0.793340
8210.000000;0.793326
8209.000000;0.793488
8208.000000;0.793851
8207.000000;0.794286
8206.000000;0.794564
8205.000000;0.794540
8204.000000;0.794321
8203.000000;0.794216
8202.000000;0.794443
8201.000000;0.794882
8200.000000;0.795172
8199.000000;0.795060
8198.000000;0.794623
8197.000000;0.794153
8196.000000;0.793864
8195.000000;0.793765
8194.000000;0.793766
8193.000000;0.793850
8192.000000;0.794076
8191.000000;0.794409
8190.000000;0.794637
8189.000000;0.794551
8188.000000;0.794219
8187.000000;0.793941
8186.000000;0.793889
8185.000000;0.793942
8184.000000;0.793964
8183.000000;0.794078
8182.000000;0.794446
8181.000000;0.794877
8180.000000;0.794950
8179.000000;0.794601
8178.000000;0.794293
8177.000000;0.794462
8176.000000;0.794973
8175.000000;0.795314
8174.000000;0.795219
8173.000000;0.794907
8172.000000;0.794726
8171.000000;0.794779
8170.000000;0.794925
8169.000000;0.795001
8168.000000;0.794941
8167.000000;0.794753
8166.000000;0.794490
8165.000000;0.794242
8164.000000;0.794102
8163.000000;0.794105
8162.000000;0.794216
8161.000000;0.794409
8160.000000;0.794758
8159.000000;0.795380
8158.000000;0.796196
8157.000000;0.796831
8156.000000;0.796904
8155.000000;0.796474
8154.000000;0.796051
8153.000000;0.796074
8152.000000;0.796488
8151.000000;0.796907
8150.000000;0.797066
8149.000000;0.796968
8148.000000;0.796690
8147.000000;0.796281
8146.000000;0.795855
8145.000000;0.795595
8144.000000;0.795577
8143.000000;0.795711
8142.000000;0.795893
8141.000000;0.796140
8140.000000;0.796488
8139.000000;0.796850
8138.000000;0.797085
8137.000000;0.797170
8136.000000;0.797221
8135.000000;0.797337
8134.000000;0.797463
8133.000000;0.797437
8132.000000;0.797174
8131.000000;0.796783
8130.000000;0.796506
8129.000000;0.796509
8128.000000;0.796759
8127.000000;0.797076
8126.000000;0.797275
8125.000000;0.797237
8124.000000;0.796936
8123.000000;0.796483
8122.000000;0.796136
8121.000000;0.796158
8120.000000;0.796598
8119.000000;0.797230
8118.000000;0.797735
8117.000000;0.797958
8116.000000;0.798014
8115.000000;0.798139
8114.000000;0.798432
8113.000000;0.798708
8112.000000;0.798673
8111.000000;0.798279
8110.000000;0.797841
8109.000000;0.797746
8108.000000;0.798057
8107.000000;0.798471
8106.000000;0.798671
8105.000000;0.798624
8104.000000;0.798548
8103.000000;0.798644
8102.000000;0.798902
8101.000000;0.799144
8100.000000;0.799225
8099.000000;0.799145
8098.000000;0.798990
8097.000000;0.798805
8096.000000;0.798600
8095.000000;0.798462
8094.000000;0.798525
8093.000000;0.798797
8092.000000;0.799101
8091.000000;0.799258
8090.000000;0.799252
8089.000000;0.799134
8088.000000;0.798895
8087.000000;0.798551
8086.000000;0.798279
8085.000000;0.798291
8084.000000;0.798586
8083.000000;0.798950
8082.000000;0.799202
8081.000000;0.799336
8080.000000;0.799424
8079.000000;0.799516
8078.000000;0.799630
8077.000000;0.799756
8076.000000;0.799827
8075.000000;0.799778
8074.000000;0.799635
8073.000000;0.799481
8072.000000;0.799373
8071.000000;0.799370
8070.000000;0.799579
8069.000000;0.800030
8068.000000;0.800482
8067.000000;0.800587
8066.000000;0.800277
8065.000000;0.799877
8064.000000;0.799735
8063.000000;0.799882
8062.000000;0.800104
8061.000000;0.800232
8060.000000;0.800250
8059.000000;0.800215
8058.000000;0.800183
8057.000000;0.800170
8056.000000;0.800138
8055.000000;0.800043
8054.000000;0.799942
8053.000000;0.799955
8052.000000;0.800102
8051.000000;0.800254
8050.000000;0.800299
8049.000000;0.800258
8048.000000;0.800183
8047.000000;0.800052
8046.000000;0.799862
8045.000000;0.799738
8044.000000;0.799861
8043.000000;0.800294
8042.000000;0.800938
8041.000000;0.801589
8040.000000;0.802020
8039.000000;0.802111
8038.000000;0.801968
8037.000000;0.801845
8036.000000;0.801879
8035.000000;0.801995
8034.000000;0.802106
8033.000000;0.802271
8032.000000;0.802522
8031.000000;0.802668
8030.000000;0.802460
8029.000000;0.801922
8028.000000;0.801364
8027.000000;0.801071
8026.000000;0.801094
8025.000000;0.801305
8024.000000;0.801528
8023.000000;0.801613
8022.000000;0.801512
8021.000000;0.801320
8020.000000;0.801185
8019.000000;0.801188
8018.000000;0.801358
8017.000000;0.801731
8016.000000;0.802261
8015.000000;0.802705
8014.000000;0.802765
8013.000000;0.802398
8012.000000;0.801882
8011.000000;0.801551
8010.000000;0.801546
8009.000000;0.801803
8008.000000;0.802167
8007.000000;0.802465
8006.000000;0.802590
8005.000000;0.802588
8004.000000;0.802613
8003.000000;0.802743
8002.000000;0.802891
8001.000000;0.802920
8000.000000;0.802759
7999.000000;0.802416
7998.000000;0.801986
7997.000000;0.801695
7996.000000;0.801835
7995.000000;0.802491
7994.000000;0.803376
7993.000000;0.804040
7992.000000;0.804264
7991.000000;0.804184
7990.000000;0.804054
7989.000000;0.803981
7988.000000;0.803933
7987.000000;0.803905
7986.000000;0.803963
7985.000000;0.804141
7984.000000;0.804353
7983.000000;0.804466
7982.000000;0.804442
7981.000000;0.804390
7980.000000;0.804473
7979.000000;0.804752
7978.000000;0.805120
7977.000000;0.805380
7976.000000;0.805422
7975.000000;0.805309
7974.000000;0.805169
7973.000000;0.805019
7972.000000;0.804757
7971.000000;0.804382
7970.000000;0.804107
7969.000000;0.804142
7968.000000;0.804392
7967.000000;0.804532
7966.000000;0.804396
7965.000000;0.804178
7964.000000;0.804165
7963.000000;0.804404
7962.000000;0.804724
7961.000000;0.804973
7960.000000;0.805109
7959.000000;0.805113
7958.000000;0.804970
7957.000000;0.804727
7956.000000;0.804487
7955.000000;0.804348
7954.000000;0.804422
7953.000000;0.804810
7952.000000;0.805441
7951.000000;0.806002
7950.000000;0.806215
7949.000000;0.806192
7948.000000;0.806324
7947.000000;0.806776
7946.000000;0.807284
7945.000000;0.807506
7944.000000;0.807406
7943.000000;0.807173
7942.000000;0.806921
7941.000000;0.806666
7940.000000;0.806470
7939.000000;0.806432
7938.000000;0.806526
7937.000000;0.806623
7936.000000;0.806681
7935.000000;0.806779
7934.000000;0.806968
7933.000000;0.807194
7932.000000;0.807401
7931.000000;0.807573
7930.000000;0.807659
7929.000000;0.807556
7928.000000;0.807264
7927.000000;0.806966
7926.000000;0.806872
7925.000000;0.807032
7924.000000;0.807356
7923.000000;0.807757
7922.000000;0.808184
7921.000000;0.808544
7920.000000;0.808723
7919.000000;0.808744
7918.000000;0.808801
7917.000000;0.809067
7916.000000;0.809487
7915.000000;0.809813
7914.000000;0.809848
7913.000000;0.809599
7912.000000;0.809216
7911.000000;0.808848
7910.000000;0.808588
7909.000000;0.808473
7908.000000;0.808465
7907.000000;0.808448
7906.000000;0.808320
7905.000000;0.808087
7904.000000;0.807841
7903.000000;0.807638
7902.000000;0.807462
7901.000000;0.807324
7900.000000;0.807319
7899.000000;0.807533
7898.000000;0.807930
7897.000000;0.808397
7896.000000;0.808866
7895.000000;0.809323
7894.000000;0.809708
7893.000000;0.809883
7892.000000;0.809767
7891.000000;0.809481
7890.000000;0.809273
7889.000000;0.809304
7888.000000;0.809512
7887.000000;0.809715
7886.000000;0.809819
7885.000000;0.809907
7884.000000;0.810108
7883.000000;0.810423
7882.000000;0.810725
7881.000000;0.810895
7880.000000;0.810948
7879.000000;0.810983
7878.000000;0.811066
7877.000000;0.811173
7876.000000;0.811233
7875.000000;0.811182
7874.000000;0.811022
7873.000000;0.810858
7872.000000;0.810838
7871.000000;0.811021
7870.000000;0.811283
7869.000000;0.811444
7868.000000;0.811452
7867.000000;0.811412
7866.000000;0.811425
7865.000000;0.811488
7864.000000;0.811590
7863.000000;0.811797
7862.000000;0.812149
7861.000000;0.812521
7860.000000;0.812694
7859.000000;0.812593
7858.000000;0.812382
7857.000000;0.812291
7856.000000;0.812386
7855.000000;0.812550
7854.000000;0.812631
7853.000000;0.812589
7852.000000;0.812517
7851.000000;0.812568
7850.000000;0.812831
7849.000000;0.813252
7848.000000;0.813647
7847.000000;0.813823
7846.000000;0.813698
7845.000000;0.813338
7844.000000;0.812930
7843.000000;0.812724
7842.000000;0.812904
7841.000000;0.813440
7840.000000;0.814056
7839.000000;0.814424
7838.000000;0.814436
7837.000000;0.814267
7836.000000;0.814161
7835.000000;0.814201
7834.000000;0.814293
7833.000000;0.814333
7832.000000;0.814317
7831.000000;0.814300
7830.000000;0.814308
7829.000000;0.814316
7828.000000;0.814302
7827.000000;0.814282
7826.000000;0.814307
7825.000000;0.814431
7824.000000;0.814673
7823.000000;0.814988
7822.000000;0.815295
7821.000000;0.815550
7820.000000;0.815775
7819.000000;0.815994
7818.000000;0.816158
7817.000000;0.816191
7816.000000;0.816102
7815.000000;0.816028
7814.000000;0.816109
7813.000000;0.816354
7812.000000;0.816649
7811.000000;0.816876
7810.000000;0.816998
7809.000000;0.817047
7808.000000;0.817075
7807.000000;0.817114
7806.000000;0.817143
7805.000000;0.817103
7804.000000;0.816959
7803.000000;0.816765
7802.000000;0.816632
7801.000000;0.816652
7800.000000;0.816848
7799.000000;0.817183
7798.000000;0.817557
7797.000000;0.817836
7796.000000;0.817949
7795.000000;0.817964
7794.000000;0.818013
7793.000000;0.818133
7792.000000;0.818235
7791.000000;0.818254
7790.000000;0.818251
7789.000000;0.818330
7788.000000;0.818492
7787.000000;0.818650
7786.000000;0.818724
7785.000000;0.818694
7784.000000;0.818591
7783.000000;0.818508
7782.000000;0.818594
7781.000000;0.818941
7780.000000;0.819460
7779.000000;0.819926
7778.000000;0.820182
7777.000000;0.820266
7776.000000;0.820308
7775.000000;0.820360
7774.000000;0.820358
7773.000000;0.820246
7772.000000;0.820093
7771.000000;0.820069
7770.000000;0.820291
7769.000000;0.820691
7768.000000;0.821058
7767.000000;0.821210
7766.000000;0.821146
7765.000000;0.821023
7764.000000;0.820994
7763.000000;0.821080
7762.000000;0.821195
7761.000000;0.821256
7760.000000;0.821260
7759.000000;0.821257
7758.000000;0.821296
7757.000000;0.821417
7756.000000;0.821680
7755.000000;0.822123
7754.000000;0.822642
7753.000000;0.822978
7752.000000;0.822931
7751.000000;0.822601
7750.000000;0.822346
7749.000000;0.822466
7748.000000;0.822959
7747.000000;0.823591
7746.000000;0.824107
7745.000000;0.824375
7744.000000;0.824420
7743.000000;0.824406
7742.000000;0.824505
7741.000000;0.824729
7740.000000;0.824936
7739.000000;0.825039
7738.000000;0.825120
7737.000000;0.825248
7736.000000;0.825305
7735.000000;0.825144
7734.000000;0.824861
7733.000000;0.824737
7732.000000;0.824920
7731.000000;0.825295
7730.000000;0.825698
7729.000000;0.826087
7728.000000;0.826463
7727.000000;0.826796
7726.000000;0.827081
7725.000000;0.827367
7724.000000;0.827631
7723.000000;0.827743
7722.000000;0.827646
7721.000000;0.827486
7720.000000;0.827452
7719.000000;0.827571
7718.000000;0.827745
7717.000000;0.827919
7716.000000;0.828094
7715.000000;0.828216
7714.000000;0.828219
7713.000000;0.828161
7712.000000;0.828213
7711.000000;0.828459
7710.000000;0.828803
7709.000000;0.829070
7708.000000;0.829175
7707.000000;0.829164
7706.000000;0.829167
7705.000000;0.829314
7704.000000;0.829621
7703.000000;0.829955
7702.000000;0.830150
7701.000000;0.830169
7700.000000;0.830143
7699.000000;0.830249
7698.000000;0.830588
7697.000000;0.831128
7696.000000;0.831694
7695.000000;0.832030
7694.000000;0.831973
7693.000000;0.831617
7692.000000;0.831239
7691.000000;0.831067
7690.000000;0.831144
7689.000000;0.831402
7688.000000;0.831752
7687.000000;0.832069
7686.000000;0.832201
7685.000000;0.832104
7684.000000;0.831944
7683.000000;0.831977
7682.000000;0.832317
7681.000000;0.832856
7680.000000;0.833385
7679.000000;0.833768
7678.000000;0.834016
7677.000000;0.834227
7676.000000;0.834466
7675.000000;0.834691
7674.000000;0.834815
7673.000000;0.834831
7672.000000;0.834842
7671.000000;0.834922
7670.000000;0.835040
7669.000000;0.835134
7668.000000;0.835230
7667.000000;0.835398
7666.000000;0.835635
7665.000000;0.835878
7664.000000;0.836126
7663.000000;0.836440
7662.000000;0.836805
7661.000000;0.837098
7660.000000;0.837247
7659.000000;0.837346
7658.000000;0.837543
7657.000000;0.837854
7656.000000;0.838156
7655.000000;0.838344
7654.000000;0.838428
7653.000000;0.838492
7652.000000;0.838630
7651.000000;0.838887
7650.000000;0.839219
7649.000000;0.839510
7648.000000;0.839679
7647.000000;0.839761
7646.000000;0.839838
7645.000000;0.839932
7644.000000;0.840015
7643.000000;0.840123
7642.000000;0.840323
7641.000000;0.840583
7640.000000;0.840776
7639.000000;0.840860
7638.000000;0.840961
7637.000000;0.841183
7636.000000;0.841436
7635.000000;0.841562
7634.000000;0.841586
7633.000000;0.841713
7632.000000;0.842069
7631.000000;0.842578
7630.000000;0.843117
7629.000000;0.843669
7628.000000;0.844258
7627.000000;0.844802
7626.000000;0.845160
7625.000000;0.845310
7624.000000;0.845372
7623.000000;0.845433
7622.000000;0.845431
7621.000000;0.845272
7620.000000;0.845021
7619.000000;0.844907
7618.000000;0.845106
7617.000000;0.845582
7616.000000;0.846148
7615.000000;0.846660
7614.000000;0.847091
7613.000000;0.847474
7612.000000;0.847844
7611.000000;0.848222
7610.000000;0.848592
7609.000000;0.848856
7608.000000;0.848917
7607.000000;0.848836
7606.000000;0.848830
7605.000000;0.849027
7604.000000;0.849305
7603.000000;0.849457
7602.000000;0.849480
7601.000000;0.849569
7600.000000;0.849851
7599.000000;0.850244
7598.000000;0.850610
7597.000000;0.850911
7596.000000;0.851177
7595.000000;0.851429
7594.000000;0.851713
7593.000000;0.852126
7592.000000;0.852702
7591.000000;0.853313
7590.000000;0.853770
7589.000000;0.854007
7588.000000;0.854093
7587.000000;0.854127
7586.000000;0.854189
7585.000000;0.854370
7584.000000;0.854733
7583.000000;0.855202
7582.000000;0.855601
7581.000000;0.855849
7580.000000;0.856067
7579.000000;0.856430
7578.000000;0.856960
7577.000000;0.857511
7576.000000;0.857940
7575.000000;0.858235
7574.000000;0.858468
7573.000000;0.858680
7572.000000;0.858851
7571.000000;0.858968
7570.000000;0.859084
7569.000000;0.859286
7568.000000;0.859612
7567.000000;0.860019
7566.000000;0.860448
7565.000000;0.860895
7564.000000;0.861388
7563.000000;0.861894
7562.000000;0.862305
7561.000000;0.862545
7560.000000;0.862646
7559.000000;0.862700
7558.000000;0.862746
7557.000000;0.862770
7556.000000;0.862795
7555.000000;0.862902
7554.000000;0.863132
7553.000000;0.863420
7552.000000;0.863686
7551.000000;0.863968
7550.000000;0.864381
7549.000000;0.864953
7548.000000;0.865575
7547.000000;0.866149
7546.000000;0.866713
7545.000000;0.867341
7544.000000;0.867971
7543.000000;0.868425
7542.000000;0.868608
7541.000000;0.868634
7540.000000;0.868734
7539.000000;0.869055
7538.000000;0.869552
7537.000000;0.870040
7536.000000;0.870349
7535.000000;0.870458
7534.000000;0.870516
7533.000000;0.870724
7532.000000;0.871174
7531.000000;0.871800
7530.000000;0.872462
7529.000000;0.873043
7528.000000;0.873488
7527.000000;0.873796
7526.000000;0.874006
7525.000000;0.874169
7524.000000;0.874328
7523.000000;0.874526
7522.000000;0.874815
7521.000000;0.875227
7520.000000;0.875712
7519.000000;0.876156
7518.000000;0.876473
7517.000000;0.876681
7516.000000;0.876890
7515.000000;0.877233
7514.000000;0.877791
7513.000000;0.878522
7512.000000;0.879255
7511.000000;0.879787
7510.000000;0.880034
7509.000000;0.880084
7508.000000;0.880105
7507.000000;0.880213
7506.000000;0.880428
7505.000000;0.880731
7504.000000;0.881124
7503.000000;0.881623
7502.000000;0.882192
7501.000000;0.882729
7500.000000;0.883148
7499.000000;0.883493
7498.000000;0.883884
7497.000000;0.884339
7496.000000;0.884716
7495.000000;0.884925
7494.000000;0.885117
7493.000000;0.885547
7492.000000;0.886264
7491.000000;0.887038
7490.000000;0.887607
7489.000000;0.887934
7488.000000;0.888099
7487.000000;0.888197
7486.000000;0.888312
7485.000000;0.888524
7484.000000;0.888859
7483.000000;0.889262
7482.000000;0.889671
7481.000000;0.890088
7480.000000;0.890530
7479.000000;0.890967
7478.000000;0.891368
7477.000000;0.891756
7476.000000;0.892165
7475.000000;0.892591
7474.000000;0.893003
7473.000000;0.893379
7472.000000;0.893687
7471.000000;0.893922
7470.000000;0.894179
7469.000000;0.894613
7468.000000;0.895233
7467.000000;0.895848
7466.000000;0.896301
7465.000000;0.896663
7464.000000;0.897070
7463.000000;0.897467
7462.000000;0.897703
7461.000000;0.897831
7460.000000;0.898104
7459.000000;0.898629
7458.000000;0.899199
7457.000000;0.899550
7456.000000;0.899669
7455.000000;0.899769
7454.000000;0.900023
7453.000000;0.900438
7452.000000;0.900904
7451.000000;0.901302
7450.000000;0.901590
7449.000000;0.901841
7448.000000;0.902194
7447.000000;0.902711
7446.000000;0.903316
7445.000000;0.903869
7444.000000;0.904284
7443.000000;0.904562
7442.000000;0.904770
7441.000000;0.905023
7440.000000;0.905409
7439.000000;0.905912
7438.000000;0.906434
7437.000000;0.906910
7436.000000;0.907373
7435.000000;0.907871
7434.000000;0.908396
7433.000000;0.908923
7432.000000;0.909453
7431.000000;0.909960
7430.000000;0.910340
7429.000000;0.910500
7428.000000;0.910490
7427.000000;0.910490
7426.000000;0.910666
7425.000000;0.911041
7424.000000;0.911498
7423.000000;0.911898
7422.000000;0.912233
7421.000000;0.912645
7420.000000;0.913257
7419.000000;0.914005
7418.000000;0.914688
7417.000000;0.915199
7416.000000;0.915593
7415.000000;0.915914
7414.000000;0.916096
7413.000000;0.916129
7412.000000;0.916197
7411.000000;0.916506
7410.000000;0.917019
7409.000000;0.917500
7408.000000;0.917801
7407.000000;0.917978
7406.000000;0.918140
7405.000000;0.918337
7404.000000;0.918599
7403.000000;0.918947
7402.000000;0.919338
7401.000000;0.919697
7400.000000;0.920046
7399.000000;0.920491
7398.000000;0.921018
7397.000000;0.921453
7396.000000;0.921705
7395.000000;0.921930
7394.000000;0.922311
7393.000000;0.922790
7392.000000;0.923169
7391.000000;0.923415
7390.000000;0.923667
7389.000000;0.923986
7388.000000;0.924269
7387.000000;0.924479
7386.000000;0.924745
7385.000000;0.925154
7384.000000;0.925586
7383.000000;0.925908
7382.000000;0.926198
7381.000000;0.926624
7380.000000;0.927145
7379.000000;0.927532
7378.000000;0.927677
7377.000000;0.927738
7376.000000;0.927930
7375.000000;0.928314
7374.000000;0.928829
7373.000000;0.929400
7372.000000;0.929943
7371.000000;0.930356
7370.000000;0.930654
7369.000000;0.931022
7368.000000;0.931627
7367.000000;0.932363
7366.000000;0.932918
7365.000000;0.933112
7364.000000;0.933093
7363.000000;0.933176
7362.000000;0.933565
7361.000000;0.934236
7360.000000;0.935000
7359.000000;0.935645
7358.000000;0.936082
7357.000000;0.936388
7356.000000;0.936690
7355.000000;0.937018
7354.000000;0.937305
7353.000000;0.937511
7352.000000;0.937676
7351.000000;0.937869
7350.000000;0.938157
7349.000000;0.938603
7348.000000;0.939207
7347.000000;0.939820
7346.000000;0.940246
7345.000000;0.940444
7344.000000;0.940538
7343.000000;0.940624
7342.000000;0.940702
7341.000000;0.940845
7340.000000;0.941254
7339.000000;0.941994
7338.000000;0.942802
7337.000000;0.943338
7336.000000;0.943574
7335.000000;0.943789
7334.000000;0.944237
7333.000000;0.944915
7332.000000;0.945636
7331.000000;0.946201
7330.000000;0.946494
7329.000000;0.946552
7328.000000;0.946554
7327.000000;0.946690
7326.000000;0.947040
7325.000000;0.947619
7324.000000;0.948452
7323.000000;0.949469
7322.000000;0.950438
7321.000000;0.951145
7320.000000;0.951658
7319.000000;0.952233
7318.000000;0.952981
7317.000000;0.953769
7316.000000;0.954456
7315.000000;0.955051
7314.000000;0.955590
7313.000000;0.956034
7312.000000;0.956352
7311.000000;0.956567
7310.000000;0.956718
7309.000000;0.956870
7308.000000;0.957162
7307.000000;0.957707
7306.000000;0.958407
7305.000000;0.959051
7304.000000;0.959629
7303.000000;0.960373
7302.000000;0.961414
7301.000000;0.962576
7300.000000;0.963609
7299.000000;0.964441
7298.000000;0.965087
7297.000000;0.965489
7296.000000;0.965691
7295.000000;0.965996
7294.000000;0.966718
7293.000000;0.967813
7292.000000;0.968954
7291.000000;0.969944
7290.000000;0.970843
7289.000000;0.971739
7288.000000;0.972623
7287.000000;0.973516
7286.000000;0.974511
7285.000000;0.975593
7284.000000;0.976576
7283.000000;0.977321
7282.000000;0.977927
7281.000000;0.978637
7280.000000;0.979621
7279.000000;0.980882
7278.000000;0.982280
7277.000000;0.983588
7276.000000;0.984621
7275.000000;0.985382
7274.000000;0.986049
7273.000000;0.986798
7272.000000;0.987677
7271.000000;0.988642
7270.000000;0.989645
7269.000000;0.990657
7268.000000;0.991678
7267.000000;0.992765
7266.000000;0.993982
7265.000000;0.995280
7264.000000;0.996510
7263.000000;0.997587
7262.000000;0.998628
7261.000000;0.999859
7260.000000;1.001405
7259.000000;1.003163
7258.000000;1.004873
7257.000000;1.006314
7256.000000;1.007472
7255.000000;1.008554
7254.000000;1.009791
7253.000000;1.011231
7252.000000;1.012750
7251.000000;1.014253
7250.000000;1.015759
7249.000000;1.017289
7248.000000;1.018789
7247.000000;1.020210
7246.000000;1.021587
7245.000000;1.022973
7244.000000;1.024369
7243.000000;1.025767
7242.000000;1.027245
7241.000000;1.028912
7240.000000;1.030766
7239.000000;1.032710
7238.000000;1.034680
7237.000000;1.036675
7236.000000;1.038674
7235.000000;1.040627
7234.000000;1.042568
7233.000000;1.044638
7232.000000;1.046920
7231.000000;1.049292
7230.000000;1.051502
7229.000000;1.053419
7228.000000;1.055174
7227.000000;1.057050
7226.000000;1.059251
7225.000000;1.061771
7224.000000;1.064452
7223.000000;1.067118
7222.000000;1.069660
7221.000000;1.072068
7220.000000;1.074419
7219.000000;1.076815
7218.000000;1.079291
7217.000000;1.081828
7216.000000;1.084428
7215.000000;1.087136
7214.000000;1.089979
7213.000000;1.092938
7212.000000;1.096012
7211.000000;1.099230
7210.000000;1.102542
7209.000000;1.105741
7208.000000;1.108598
7207.000000;1.111090
7206.000000;1.113457
7205.000000;1.116015
7204.000000;1.118926
7203.000000;1.122137
7202.000000;1.125496
7201.000000;1.128897
7200.000000;1.132301
7199.000000;1.135677
7198.000000;1.138985
7197.000000;1.142244
7196.000000;1.145582
7195.000000;1.149145
7194.000000;1.152922
7193.000000;1.156738
7192.000000;1.160455
7191.000000;1.164123
7190.000000;1.167887
7189.000000;1.171795
7188.000000;1.175767
7187.000000;1.179676
7186.000000;1.183379
7185.000000;1.186720
7184.000000;1.189707
7183.000000;1.192685
7182.000000;1.196167
7181.000000;1.200354
7180.000000;1.204920
7179.000000;1.209386
7178.000000;1.213616
7177.000000;1.217804
7176.000000;1.222106
7175.000000;1.226530
7174.000000;1.231124
7173.000000;1.235998
7172.000000;1.241047
7171.000000;1.245833
7170.000000;1.249971
7169.000000;1.253562
7168.000000;1.257127
7167.000000;1.261110
7166.000000;1.265511
7165.000000;1.269975
7164.000000;1.274168
7163.000000;1.278120
7162.000000;1.282252
7161.000000;1.287036
7160.000000;1.292523
7159.000000;1.298236
7158.000000;1.303637
7157.000000;1.308635
7156.000000;1.313543
7155.000000;1.318607
7154.000000;1.323750
7153.000000;1.328750
7152.000000;1.333505
7151.000000;1.338089
7150.000000;1.342698
7149.000000;1.347568
7148.000000;1.352792
7147.000000;1.358142
7146.000000;1.363218
7145.000000;1.367843
7144.000000;1.372169
7143.000000;1.376328
7142.000000;1.380258
7141.000000;1.384057
7140.000000;1.388218
7139.000000;1.393146
7138.000000;1.398564
7137.000000;1.403787
7136.000000;1.408602
7135.000000;1.413462
7134.000000;1.418734
7133.000000;1.424194
7132.000000;1.429436
7131.000000;1.434442
7130.000000;1.439437
7129.000000;1.444418
7128.000000;1.449155
7127.000000;1.453568
7126.000000;1.457836
7125.000000;1.462196
7124.000000;1.466832
7123.000000;1.471851
7122.000000;1.477118
7121.000000;1.482183
7120.000000;1.486633
7119.000000;1.490563
7118.000000;1.494528
7117.000000;1.499030
7116.000000;1.504165
7115.000000;1.509702
7114.000000;1.515247
7113.000000;1.520331
7112.000000;1.524632
7111.000000;1.528290
7110.000000;1.531848
7109.000000;1.535757
7108.000000;1.540010
7107.000000;1.544371
7106.000000;1.548822
7105.000000;1.553597
7104.000000;1.558798
7103.000000;1.564097
7102.000000;1.568894
7101.000000;1.572749
7100.000000;1.575734
7099.000000;1.578423
7098.000000;1.581545
7097.000000;1.585517
7096.000000;1.590200
7095.000000;1.595041
7094.000000;1.599490
7093.000000;1.603367
7092.000000;1.606882
7091.000000;1.610380
7090.000000;1.614110
7089.000000;1.618198
7088.000000;1.622619
7087.000000;1.627079
7086.000000;1.631075
7085.000000;1.634341
7084.000000;1.637200
7083.000000;1.640240
7082.000000;1.643607
7081.000000;1.646916
7080.000000;1.649926
7079.000000;1.652964
7078.000000;1.656440
7077.000000;1.660216
7076.000000;1.663802
7075.000000;1.666998
7074.000000;1.670004
7073.000000;1.673008
7072.000000;1.676008
7071.000000;1.679077
7070.000000;1.682433
7069.000000;1.686125
7068.000000;1.689853
7067.000000;1.693216
7066.000000;1.696062
7065.000000;1.698563
7064.000000;1.701084
7063.000000;1.703959
7062.000000;1.707191
7061.000000;1.710320
7060.000000;1.712750
7059.000000;1.714309
7058.000000;1.715427
7057.000000;1.716820
7056.000000;1.719116
7055.000000;1.722636
7054.000000;1.727165
7053.000000;1.731834
7052.000000;1.735547
7051.000000;1.737817
7050.000000;1.739108
7049.000000;1.740290
7048.000000;1.741934
7047.000000;1.744141
7046.000000;1.746731
7045.000000;1.749394
7044.000000;1.751790
7043.000000;1.753748
7042.000000;1.755337
7041.000000;1.756661
7040.000000;1.757674
7039.000000;1.758391
7038.000000;1.759248
7037.000000;1.760999
7036.000000;1.764111
7035.000000;1.768150
7034.000000;1.771805
7033.000000;1.773776
7032.000000;1.773917
7031.000000;1.773446
7030.000000;1.773779
7029.000000;1.775176
7028.000000;1.776801
7027.000000;1.778027
7026.000000;1.779175
7025.000000;1.780803
7024.000000;1.782816
7023.000000;1.784796
7022.000000;1.786827
7021.000000;1.789245
7020.000000;1.791651
7019.000000;1.792946
7018.000000;1.792638
7017.000000;1.791703
7016.000000;1.791762
7015.000000;1.793606
7014.000000;1.796594
7013.000000;1.799264
7012.000000;1.800509
7011.000000;1.800454
7010.000000;1.800298
7009.000000;1.801146
7008.000000;1.802957
7007.000000;1.804821
7006.000000;1.806209
7005.000000;1.807502
7004.000000;1.809184
7003.000000;1.811049
7002.000000;1.812604
7001.000000;1.813842
7000.000000;1.815096
6999.000000;1.816383
6998.000000;1.817354
6997.000000;1.817763
6996.000000;1.817651
6995.000000;1.817133
6994.000000;1.816444
6993.000000;1.816197
6992.000000;1.816982
6991.000000;1.818562
6990.000000;1.819978
6989.000000;1.820720
6988.000000;1.821390
6987.000000;1.822838
6986.000000;1.824945
6985.000000;1.826659
6984.000000;1.827202
6983.000000;1.826883
6982.000000;1.826580
6981.000000;1.826640
6980.000000;1.826543
6979.000000;1.825702
6978.000000;1.824460
6977.000000;1.823970
6976.000000;1.824957
6975.000000;1.826890
6974.000000;1.828654
6973.000000;1.829813
6972.000000;1.830728
6971.000000;1.831552
6970.000000;1.831774
6969.000000;1.831137
6968.000000;1.830402
6967.000000;1.830658
6966.000000;1.832150
6965.000000;1.834130
6964.000000;1.835603
6963.000000;1.835970
6962.000000;1.835229
6961.000000;1.833969
6960.000000;1.832965
6959.000000;1.832450
6958.000000;1.832006
6957.000000;1.831509
6956.000000;1.831745
6955.000000;1.833430
6954.000000;1.835826
6953.000000;1.837094
6952.000000;1.836223
6951.000000;1.834043
6950.000000;1.832087
6949.000000;1.831088
6948.000000;1.830874
6947.000000;1.831140
6946.000000;1.831784
6945.000000;1.832659
6944.000000;1.833445
6943.000000;1.833811
6942.000000;1.833589
6941.000000;1.832847
6940.000000;1.831861
6939.000000;1.830923
6938.000000;1.830184
6937.000000;1.829867
6936.000000;1.830498
6935.000000;1.832518
6934.000000;1.835531
6933.000000;1.838261
6932.000000;1.839524
6931.000000;1.839199
6930.000000;1.838160
6929.000000;1.837431
6928.000000;1.837481
6927.000000;1.838055
6926.000000;1.838483
6925.000000;1.838313
6924.000000;1.837751
6923.000000;1.837245
6922.000000;1.836679
6921.000000;1.835416
6920.000000;1.833308
6919.000000;1.831237
6918.000000;1.830322
6917.000000;1.830810
6916.000000;1.831944
6915.000000;1.832739
6914.000000;1.832707
6913.000000;1.832028
6912.000000;1.831292
6911.000000;1.831013
6910.000000;1.831241
6909.000000;1.831709
6908.000000;1.832299
6907.000000;1.833064
6906.000000;1.833823
6905.000000;1.834221
6904.000000;1.834324
6903.000000;1.834604
6902.000000;1.835033
6901.000000;1.834785
6900.000000;1.833337
6899.000000;1.831395
6898.000000;1.830141
6897.000000;1.829906
6896.000000;1.830178
6895.000000;1.830542
6894.000000;1.830845
6893.000000;1.830647
6892.000000;1.829452
6891.000000;1.827604
6890.000000;1.826175
6889.000000;1.825743
6888.000000;1.825840
6887.000000;1.825809
6886.000000;1.825643
6885.000000;1.825690
6884.000000;1.825952
6883.000000;1.826110
6882.000000;1.825995
6881.000000;1.825697
6880.000000;1.825364
6879.000000;1.825065
6878.000000;1.824757
6877.000000;1.824326
6876.000000;1.823748
6875.000000;1.823181
6874.000000;1.822817
6873.000000;1.822698
6872.000000;1.822831
6871.000000;1.823332
6870.000000;1.824121
6869.000000;1.824649
6868.000000;1.824431
6867.000000;1.823783
6866.000000;1.823470
6865.000000;1.823628
6864.000000;1.823615
6863.000000;1.823064
6862.000000;1.822455
6861.000000;1.822314
6860.000000;1.822381
6859.000000;1.822056
6858.000000;1.821272
6857.000000;1.820431
6856.000000;1.819698
6855.000000;1.818868
6854.000000;1.817844
6853.000000;1.816817
6852.000000;1.815967
6851.000000;1.815300
6850.000000;1.814800
6849.000000;1.814545
6848.000000;1.814577
6847.000000;1.814748
6846.000000;1.814675
6845.000000;1.813883
6844.000000;1.812157
6843.000000;1.809847
6842.000000;1.807743
6841.000000;1.806576
6840.000000;1.806588
6839.000000;1.807422
6838.000000;1.808260
6837.000000;1.808281
6836.000000;1.807346
6835.000000;1.806187
6834.000000;1.805589
6833.000000;1.805454
6832.000000;1.805056
6831.000000;1.804158
6830.000000;1.803262
6829.000000;1.802639
6828.000000;1.801800
6827.000000;1.800326
6826.000000;1.798639
6825.000000;1.797439
6824.000000;1.796715
6823.000000;1.795784
6822.000000;1.794146
6821.000000;1.791936
6820.000000;1.789698
6819.000000;1.787988
6818.000000;1.786977
6817.000000;1.786153
6816.000000;1.784716
6815.000000;1.782582
6814.000000;1.780577
6813.000000;1.779278
6812.000000;1.778119
6811.000000;1.776193
6810.000000;1.773632
6809.000000;1.771517
6808.000000;1.770561
6807.000000;1.770469
6806.000000;1.770500
6805.000000;1.770086
6804.000000;1.768887
6803.000000;1.766872
6802.000000;1.764507
6801.000000;1.762408
6800.000000;1.760708
6799.000000;1.759142
6798.000000;1.757695
6797.000000;1.756610
6796.000000;1.755684
6795.000000;1.754228
6794.000000;1.752022
6793.000000;1.749799
6792.000000;1.748413
6791.000000;1.747835
6790.000000;1.747268
6789.000000;1.745984
6788.000000;1.743821
6787.000000;1.741128
6786.000000;1.738498
6785.000000;1.736380
6784.000000;1.734734
6783.000000;1.733201
6782.000000;1.731659
6781.000000;1.730314
6780.000000;1.729118
6779.000000;1.727533
6778.000000;1.725170
6777.000000;1.722347
6776.000000;1.719689
6775.000000;1.717484
6774.000000;1.715773
6773.000000;1.714732
6772.000000;1.714383
6771.000000;1.714049
6770.000000;1.712700
6769.000000;1.710056
6768.000000;1.706919
6767.000000;1.704231
6766.000000;1.702112
6765.000000;1.700030
6764.000000;1.697696
6763.000000;1.695492
6762.000000;1.694007
6761.000000;1.693356
6760.000000;1.693019
6759.000000;1.692286
6758.000000;1.690779
6757.000000;1.688553
6756.000000;1.685842
6755.000000;1.682889
6754.000000;1.680008
6753.000000;1.677567
6752.000000;1.675743
6751.000000;1.674361
6750.000000;1.673088
6749.000000;1.671702
6748.000000;1.670096
6747.000000;1.668139
6746.000000;1.665769
6745.000000;1.663199
6744.000000;1.660833
6743.000000;1.658862
6742.000000;1.657059
6741.000000;1.655079
6740.000000;1.652890
6739.000000;1.650777
6738.000000;1.648923
6737.000000;1.647132
6736.000000;1.645060
6735.000000;1.642662
6734.000000;1.640270
6733.000000;1.638191
6732.000000;1.636366
6731.000000;1.634493
6730.000000;1.632443
6729.000000;1.630397
6728.000000;1.628592
6727.000000;1.627073
6726.000000;1.625709
6725.000000;1.624336
6724.000000;1.622871
6723.000000;1.621350
6722.000000;1.619877
6721.000000;1.618419
6720.000000;1.616666
6719.000000;1.614291
6718.000000;1.611413
6717.000000;1.608635
6716.000000;1.606471
6715.000000;1.604833
6714.000000;1.603217
6713.000000;1.601315
6712.000000;1.599269
6711.000000;1.597360
6710.000000;1.595633
6709.000000;1.593895
6708.000000;1.591970
6707.000000;1.589875
6706.000000;1.587766
6705.000000;1.585758
6704.000000;1.583821
6703.000000;1.581852
6702.000000;1.579842
6701.000000;1.577951
6700.000000;1.576370
6699.000000;1.575111
6698.000000;1.573950
6697.000000;1.572558
6696.000000;1.570788
6695.000000;1.568794
6694.000000;1.566927
6693.000000;1.565385
6692.000000;1.563909
6691.000000;1.561968
6690.000000;1.559308
6689.000000;1.556281
6688.000000;1.553520
6687.000000;1.551326
6686.000000;1.549494
6685.000000;1.547710
6684.000000;1.545978
6683.000000;1.544551
6682.000000;1.543526
6681.000000;1.542625
6680.000000;1.541432
6679.000000;1.539792
6678.000000;1.537920
6677.000000;1.536120
6676.000000;1.534453
6675.000000;1.532720
6674.000000;1.530736
6673.000000;1.528573
6672.000000;1.526502
6671.000000;1.524718
6670.000000;1.523142
6669.000000;1.521505
6668.000000;1.519667
6667.000000;1.517794
6666.000000;1.516147
6665.000000;1.514693
6664.000000;1.513051
6663.000000;1.510928
6662.000000;1.508507
6661.000000;1.506251
6660.000000;1.504392
6659.000000;1.502791
6658.000000;1.501255
6657.000000;1.499756
6656.000000;1.498269
6655.000000;1.496636
6654.000000;1.494776
6653.000000;1.492902
6652.000000;1.491321
6651.000000;1.490050
6650.000000;1.488796
6649.000000;1.487319
6648.000000;1.485655
6647.000000;1.483951
6646.000000;1.482219
6645.000000;1.480331
6644.000000;1.478215
6643.000000;1.475976
6642.000000;1.473825
6641.000000;1.471910
6640.000000;1.470225
6639.000000;1.468696
6638.000000;1.467342
6637.000000;1.466254
6636.000000;1.465391
6635.000000;1.464474
6634.000000;1.463192
6633.000000;1.461501
6632.000000;1.459627
6631.000000;1.457806
6630.000000;1.456107
6629.000000;1.454526
6628.000000;1.453095
6627.000000;1.451804
6626.000000;1.450478
6625.000000;1.448864
6624.000000;1.446914
6623.000000;1.444912
6622.000000;1.443256
6621.000000;1.442059
6620.000000;1.441004
6619.000000;1.439645
6618.000000;1.437878
6617.000000;1.436052
6616.000000;1.434562
6615.000000;1.433428
6614.000000;1.432324
6613.000000;1.430956
6612.000000;1.429293
6611.000000;1.427460
6610.000000;1.425595
6609.000000;1.423848
6608.000000;1.422351
6607.000000;1.421059
6606.000000;1.419719
6605.000000;1.418137
6604.000000;1.416430
6603.000000;1.414878
6602.000000;1.413577
6601.000000;1.412394
6600.000000;1.411234
6599.000000;1.410148
6598.000000;1.409117
6597.000000;1.407939
6596.000000;1.406480
6595.000000;1.404903
6594.000000;1.403466
6593.000000;1.402196
6592.000000;1.400920
6591.000000;1.399589
6590.000000;1.398328
6589.000000;1.397174
6588.000000;1.395964
6587.000000;1.394590
6586.000000;1.393187
6585.000000;1.391937
6584.000000;1.390807
6583.000000;1.389610
6582.000000;1.388256
6581.000000;1.386801
6580.000000;1.385310
6579.000000;1.383811
6578.000000;1.382364
6577.000000;1.381060
6576.000000;1.379934
6575.000000;1.378944
6574.000000;1.378013
6573.000000;1.377017
6572.000000;1.375797
6571.000000;1.374301
6570.000000;1.372684
6569.000000;1.371166
6568.000000;1.369802
6567.000000;1.368513
6566.000000;1.367286
6565.000000;1.366179
6564.000000;1.365120
6563.000000;1.363910
6562.000000;1.362494
6561.000000;1.361099
6560.000000;1.359980
6559.000000;1.359100
6558.000000;1.358175
6557.000000;1.356970
6556.000000;1.355495
6555.000000;1.353968
6554.000000;1.352651
6553.000000;1.351647
6552.000000;1.350787
6551.000000;1.349758
6550.000000;1.348421
6549.000000;1.346952
6548.000000;1.345620
6547.000000;1.344514
6546.000000;1.343559
6545.000000;1.342699
6544.000000;1.341900
6543.000000;1.341009
6542.000000;1.339803
6541.000000;1.338231
6540.000000;1.336531
6539.000000;1.335027
6538.000000;1.333857
6537.000000;1.332935
6536.000000;1.332098
6535.000000;1.331241
6534.000000;1.330318
6533.000000;1.329298
6532.000000;1.328157
6531.000000;1.326919
6530.000000;1.325672
6529.000000;1.324496
6528.000000;1.323379
6527.000000;1.322250
6526.000000;1.321140
6525.000000;1.320224
6524.000000;1.319617
6523.000000;1.319156
6522.000000;1.318496
6521.000000;1.317446
6520.000000;1.316144
6519.000000;1.314870
6518.000000;1.313755
6517.000000;1.312722
6516.000000;1.311641
6515.000000;1.310484
6514.000000;1.309328
6513.000000;1.308262
6512.000000;1.307296
6511.000000;1.306365
6510.000000;1.305405
6509.000000;1.304426
6508.000000;1.303494
6507.000000;1.302654
6506.000000;1.301892
6505.000000;1.301163
6504.000000;1.300417
6503.000000;1.299589
6502.000000;1.298624
6501.000000;1.297528
6500.000000;1.296380
6499.000000;1.295253
6498.000000;1.294150
6497.000000;1.293032
6496.000000;1.291897
6495.000000;1.290798
6494.000000;1.289782
6493.000000;1.288826
6492.000000;1.287846
6491.000000;1.286774
6490.000000;1.285648
6489.000000;1.284611
6488.000000;1.283802
6487.000000;1.283230
6486.000000;1.282751
6485.000000;1.282168
6484.000000;1.281345
6483.000000;1.280284
6482.000000;1.279130
6481.000000;1.278090
6480.000000;1.277261
6479.000000;1.276521
6478.000000;1.275653
6477.000000;1.274593
6476.000000;1.273494
6475.000000;1.272541
6474.000000;1.271776
6473.000000;1.271136
6472.000000;1.270570
6471.000000;1.270022
6470.000000;1.269374
6469.000000;1.268533
6468.000000;1.267587
6467.000000;1.266743
6466.000000;1.266087
6465.000000;1.265488
6464.000000;1.264761
6463.000000;1.263852
6462.000000;1.262846
6461.000000;1.261859
6460.000000;1.260967
6459.000000;1.260188
6458.000000;1.259439
6457.000000;1.258595
6456.000000;1.257621
6455.000000;1.256634
6454.000000;1.255765
6453.000000;1.254999
6452.000000;1.254209
6451.000000;1.253317
6450.000000;1.252367
6449.000000;1.251461
6448.000000;1.250675
6447.000000;1.250005
6446.000000;1.249340
6445.000000;1.248522
6444.000000;1.247504
6443.000000;1.246460
6442.000000;1.245624
6441.000000;1.245036
6440.000000;1.244495
6439.000000;1.243782
6438.000000;1.242873
6437.000000;1.241913
6436.000000;1.241067
6435.000000;1.240437
6434.000000;1.240012
6433.000000;1.239652
6432.000000;1.239141
6431.000000;1.238344
6430.000000;1.237313
6429.000000;1.236228
6428.000000;1.235264
6427.000000;1.234515
6426.000000;1.233984
6425.000000;1.233583
6424.000000;1.233159
6423.000000;1.232584
6422.000000;1.231840
6421.000000;1.231016
6420.000000;1.230216
6419.000000;1.229490
6418.000000;1.228822
6417.000000;1.228177
6416.000000;1.227539
6415.000000;1.226905
6414.000000;1.226239
6413.000000;1.225473
6412.000000;1.224600
6411.000000;1.223735
6410.000000;1.223017
6409.000000;1.222457
6408.000000;1.221952
6407.000000;1.221449
6406.000000;1.220990
6405.000000;1.220578
6404.000000;1.220099
6403.000000;1.219445
6402.000000;1.218661
6401.000000;1.217890
6400.000000;1.217203
6399.000000;1.216569
6398.000000;1.215952
6397.000000;1.215355
6396.000000;1.214760
6395.000000;1.214118
6394.000000;1.213414
6393.000000;1.212686
6392.000000;1.211979
6391.000000;1.211285
6390.000000;1.210571
6389.000000;1.209829
6388.000000;1.209105
6387.000000;1.208473
6386.000000;1.207972
6385.000000;1.207550
6384.000000;1.207101
6383.000000;1.206565
6382.000000;1.205989
6381.000000;1.205453
6380.000000;1.204967
6379.000000;1.204471
6378.000000;1.203916
6377.000000;1.203308
6376.000000;1.202688
6375.000000;1.202085
6374.000000;1.201507
6373.000000;1.200938
6372.000000;1.200355
6371.000000;1.199774
6370.000000;1.199246
6369.000000;1.198785
6368.000000;1.198318
6367.000000;1.197748
6366.000000;1.197064
6365.000000;1.196347
6364.000000;1.195676
6363.000000;1.195051
6362.000000;1.194414
6361.000000;1.193717
6360.000000;1.192985
6359.000000;1.192301
6358.000000;1.191747
6357.000000;1.191334
6356.000000;1.190995
6355.000000;1.190642
6354.000000;1.190205
6353.000000;1.189632
6352.000000;1.188901
6351.000000;1.188050
6350.000000;1.187184
6349.000000;1.186418
6348.000000;1.185829
6347.000000;1.185438
6346.000000;1.185192
6345.000000;1.184956
6344.000000;1.184584
6343.000000;1.184047
6342.000000;1.183449
6341.000000;1.182903
6340.000000;1.182434
6339.000000;1.182006
6338.000000;1.181589
6337.000000;1.181151
6336.000000;1.180647
6335.000000;1.180069
6334.000000;1.179475
6333.000000;1.178909
6332.000000;1.178356
6331.000000;1.177813
6330.000000;1.177348
6329.000000;1.177033
6328.000000;1.176831
6327.000000;1.176609
6326.000000;1.176247
6325.000000;1.175690
6324.000000;1.174972
6323.000000;1.174230
6322.000000;1.173642
6321.000000;1.173251
6320.000000;1.172903
6319.000000;1.172422
6318.000000;1.171829
6317.000000;1.171273
6316.000000;1.170816
6315.000000;1.170397
6314.000000;1.169985
6313.000000;1.169629
6312.000000;1.169318
6311.000000;1.168918
6310.000000;1.168336
6309.000000;1.167661
6308.000000;1.167092
6307.000000;1.166745
6306.000000;1.166569
6305.000000;1.166400
6304.000000;1.166086
6303.000000;1.165590
6302.000000;1.164998
6301.000000;1.164419
6300.000000;1.163900
6299.000000;1.163458
6298.000000;1.163127
6297.000000;1.162904
6296.000000;1.162679
6295.000000;1.162338
6294.000000;1.161910
6293.000000;1.161532
6292.000000;1.161243
6291.000000;1.160938
6290.000000;1.160536
6289.000000;1.160083
6288.000000;1.159642
6287.000000;1.159182
6286.000000;1.158672
6285.000000;1.158190
6284.000000;1.157849
6283.000000;1.157639
6282.000000;1.157415
6281.000000;1.157036
6280.000000;1.156491
6279.000000;1.155902
6278.000000;1.155424
6277.000000;1.155117
6276.000000;1.154895
6275.000000;1.154617
6274.000000;1.154234
6273.000000;1.153815
6272.000000;1.153443
6271.000000;1.153136
6270.000000;1.152870
6269.000000;1.152610
6268.000000;1.152306
6267.000000;1.151932
6266.000000;1.151539
6265.000000;1.151226
6264.000000;1.151016
6263.000000;1.150821
6262.000000;1.150553
6261.000000;1.150200
6260.000000;1.149794
6259.000000;1.149359
6258.000000;1.148943
6257.000000;1.148616
6256.000000;1.148372
6255.000000;1.148113
6254.000000;1.147778
6253.000000;1.147424
6252.000000;1.147120
6251.000000;1.146819
6250.000000;1.146434
6249.000000;1.146003
6248.000000;1.145653
6247.000000;1.145433
6246.000000;1.145254
6245.000000;1.145003
6244.000000;1.144662
6243.000000;1.144273
6242.000000;1.143880
6241.000000;1.143505
6240.000000;1.143167
6239.000000;1.142884
6238.000000;1.142684
6237.000000;1.142593
6236.000000;1.142570
6235.000000;1.142486
6234.000000;1.142211
6233.000000;1.141738
6232.000000;1.141193
6231.000000;1.140719
6230.000000;1.140372
6229.000000;1.140114
6228.000000;1.139878
6227.000000;1.139611
6226.000000;1.139286
6225.000000;1.138905
6224.000000;1.138497
6223.000000;1.138117
6222.000000;1.137820
6221.000000;1.137615
6220.000000;1.137458
6219.000000;1.137300
6218.000000;1.137150
6217.000000;1.137037
6216.000000;1.136914
6215.000000;1.136652
6214.000000;1.136189
6213.000000;1.135632
6212.000000;1.135174
6211.000000;1.134918
6210.000000;1.134821
6209.000000;1.134766
6208.000000;1.134646
6207.000000;1.134399
6206.000000;1.134030
6205.000000;1.133615
6204.000000;1.133252
6203.000000;1.132974
6202.000000;1.132741
6201.000000;1.132523
6200.000000;1.132337
6199.000000;1.132205
6198.000000;1.132102
6197.000000;1.131977
6196.000000;1.131806
6195.000000;1.131604
6194.000000;1.131395
6193.000000;1.131176
6192.000000;1.130920
6191.000000;1.130598
6190.000000;1.130203
6189.000000;1.129766
6188.000000;1.129336
6187.000000;1.128972
6186.000000;1.128715
6185.000000;1.128574
6184.000000;1.128510
6183.000000;1.128449
6182.000000;1.128318
6181.000000;1.128091
6180.000000;1.127809
6179.000000;1.127550
6178.000000;1.127373
6177.000000;1.127266
6176.000000;1.127170
6175.000000;1.127047
6174.000000;1.126919
6173.000000;1.126831
6172.000000;1.126790
6171.000000;1.126770
6170.000000;1.126731
6169.000000;1.126623
6168.000000;1.126382
6167.000000;1.125995
6166.000000;1.125551
6165.000000;1.125185
6164.000000;1.124949
6163.000000;1.124788
6162.000000;1.124644
6161.000000;1.124533
6160.000000;1.124469
6159.000000;1.124396
6158.000000;1.124247
6157.000000;1.124032
6156.000000;1.123806
6155.000000;1.123566
6154.000000;1.123259
6153.000000;1.122872
6152.000000;1.122478
6151.000000;1.122149
6150.000000;1.121885
6149.000000;1.121652
6148.000000;1.121462
6147.000000;1.121373
6146.000000;1.121418
6145.000000;1.121559
6144.000000;1.121713
6143.000000;1.121792
6142.000000;1.121733
6141.000000;1.121506
6140.000000;1.121147
6139.000000;1.120759
6138.000000;1.120457
6137.000000;1.120260
6136.000000;1.120087
6135.000000;1.119862
6134.000000;1.119616
6133.000000;1.119435
6132.000000;1.119329
6131.000000;1.119228
6130.000000;1.119100
6129.000000;1.119017
6128.000000;1.119053
6127.000000;1.119146
6126.000000;1.119144
6125.000000;1.118956
6124.000000;1.118638
6123.000000;1.118318
6122.000000;1.118082
6121.000000;1.117929
6120.000000;1.117808
6119.000000;1.117662
6118.000000;1.117458
6117.000000;1.117185
6116.000000;1.116848
6115.000000;1.116481
6114.000000;1.116146
6113.000000;1.115914
6112.000000;1.115817
6111.000000;1.115819
6110.000000;1.115847
6109.000000;1.115832
6108.000000;1.115753
6107.000000;1.115646
6106.000000;1.115586
6105.000000;1.115616
6104.000000;1.115681
6103.000000;1.115660
6102.000000;1.115497
6101.000000;1.115272
6100.000000;1.115107
6099.000000;1.115014
6098.000000;1.114890
6097.000000;1.114657
6096.000000;1.114368
6095.000000;1.114154
6094.000000;1.114089
6093.000000;1.114136
6092.000000;1.114204
6091.000000;1.114221
6090.000000;1.114161
6089.000000;1.114044
6088.000000;1.113918
6087.000000;1.113835
6086.000000;1.113798
6085.000000;1.113759
6084.000000;1.113678
6083.000000;1.113567
6082.000000;1.113462
6081.000000;1.113359
6080.000000;1.113231
6079.000000;1.113097
6078.000000;1.113024
6077.000000;1.113061
6076.000000;1.113192
6075.000000;1.113364
6074.000000;1.113503
6073.000000;1.113524
6072.000000;1.113367
6071.000000;1.113084
6070.000000;1.112821
6069.000000;1.112665
6068.000000;1.112558
6067.000000;1.112385
6066.000000;1.112134
6065.000000;1.111902
6064.000000;1.111786
6063.000000;1.111828
6062.000000;1.112021
6061.000000;1.112292
6060.000000;1.112489
6059.000000;1.112482
6058.000000;1.112313
6057.000000;1.112140
6056.000000;1.112044
6055.000000;1.111954
6054.000000;1.111798
6053.000000;1.111624
6052.000000;1.111508
6051.000000;1.111443
6050.000000;1.111387
6049.000000;1.111374
6048.000000;1.111470
6047.000000;1.111625
6046.000000;1.111685
6045.000000;1.111553
6044.000000;1.111296
6043.000000;1.111058
6042.000000;1.110929
6041.000000;1.110908
6040.000000;1.110971
6039.000000;1.111119
6038.000000;1.111352
6037.000000;1.111613
6036.000000;1.111774
6035.000000;1.111730
6034.000000;1.111516
6033.000000;1.111300
6032.000000;1.111224
6031.000000;1.111269
6030.000000;1.111292
6029.000000;1.111190
6028.000000;1.110997
6027.000000;1.110822
6026.000000;1.110751
6025.000000;1.110795
6024.000000;1.110905
6023.000000;1.111004
6022.000000;1.111032
6021.000000;1.110989
6020.000000;1.110937
6019.000000;1.110935
6018.000000;1.110991
6017.000000;1.111067
6016.000000;1.111150
6015.000000;1.111261
6014.000000;1.111404
6013.000000;1.111512
6012.000000;1.111491
6011.000000;1.111323
6010.000000;1.111105
6009.000000;1.110968
6008.000000;1.110974
6007.000000;1.111092
6006.000000;1.111248
6005.000000;1.111376
6004.000000;1.111455
6003.000000;1.111528
6002.000000;1.111668
6001.000000;1.111890
6000.000000;1.112127
5999.000000;1.112319
5998.000000;1.112499
5997.000000;1.112732
5996.000000;1.112975
5995.000000;1.113097
5994.000000;1.113040
5993.000000;1.112898
5992.000000;1.112808
5991.000000;1.112832
5990.000000;1.112970
5989.000000;1.113220
5988.000000;1.113536
5987.000000;1.113787
5986.000000;1.113847
5985.000000;1.113742
5984.000000;1.113640
5983.000000;1.113703
5982.000000;1.113958
5981.000000;1.114309
5980.000000;1.114615
5979.000000;1.114770
5978.000000;1.114767
5977.000000;1.114714
5976.000000;1.114750
5975.000000;1.114927
5974.000000;1.115178
5973.000000;1.115403
5972.000000;1.115561
5971.000000;1.115686
5970.000000;1.115844
5969.000000;1.116095
5968.000000;1.116461
5967.000000;1.116887
5966.000000;1.117262
5965.000000;1.117490
5964.000000;1.117565
5963.000000;1.117565
5962.000000;1.117591
5961.000000;1.117718
5960.000000;1.117976
5959.000000;1.118342
5958.000000;1.118742
5957.000000;1.119087
5956.000000;1.119329
5955.000000;1.119505
5954.000000;1.119696
5953.000000;1.119962
5952.000000;1.120301
5951.000000;1.120675
5950.000000;1.121048
5949.000000;1.121400
5948.000000;1.121719
5947.000000;1.121996
5946.000000;1.122240
5945.000000;1.122475
5944.000000;1.122719
5943.000000;1.122977
5942.000000;1.123257
5941.000000;1.123579
5940.000000;1.123949
5939.000000;1.124338
5938.000000;1.124690
5937.000000;1.124971
5936.000000;1.125184
5935.000000;1.125357
5934.000000;1.125512
5933.000000;1.125663
5932.000000;1.125839
5931.000000;1.126076
5930.000000;1.126369
5929.000000;1.126665
5928.000000;1.126917
5927.000000;1.127139
5926.000000;1.127378
5925.000000;1.127641
5924.000000;1.127882
5923.000000;1.128075
5922.000000;1.128260
5921.000000;1.128481
5920.000000;1.128718
5919.000000;1.128924
5918.000000;1.129095
5917.000000;1.129255
5916.000000;1.129412
5915.000000;1.129557
5914.000000;1.129715
5913.000000;1.129919
5912.000000;1.130140
5911.000000;1.130279
5910.000000;1.130276
5909.000000;1.130188
5908.000000;1.130123
5907.000000;1.130142
5906.000000;1.130224
5905.000000;1.130320
5904.000000;1.130400
5903.000000;1.130461
5902.000000;1.130519
5901.000000;1.130596
5900.000000;1.130698
5899.000000;1.130810
5898.000000;1.130907
5897.000000;1.130979
5896.000000;1.131028
5895.000000;1.131071
5894.000000;1.131121
5893.000000;1.131162
5892.000000;1.131145
5891.000000;1.131028
5890.000000;1.130853
5889.000000;1.130746
5888.000000;1.130831
5887.000000;1.131108
5886.000000;1.131445
5885.000000;1.131687
5884.000000;1.131791
5883.000000;1.131840
5882.000000;1.131934
5881.000000;1.132070
5880.000000;1.132168
5879.000000;1.132209
5878.000000;1.132295
5877.000000;1.132528
5876.000000;1.132891
5875.000000;1.133278
5874.000000;1.133618
5873.000000;1.133898
5872.000000;1.134087
5871.000000;1.134137
5870.000000;1.134086
5869.000000;1.134082
5868.000000;1.134254
5867.000000;1.134598
5866.000000;1.135013
5865.000000;1.135407
5864.000000;1.135744
5863.000000;1.136028
5862.000000;1.136302
5861.000000;1.136624
5860.000000;1.137015
5859.000000;1.137418
5858.000000;1.137758
5857.000000;1.138024
5856.000000;1.138271
5855.000000;1.138554
5854.000000;1.138887
5853.000000;1.139273
5852.000000;1.139717
5851.000000;1.140210
5850.000000;1.140715
5849.000000;1.141184
5848.000000;1.141599
5847.000000;1.141991
5846.000000;1.142415
5845.000000;1.142892
5844.000000;1.143389
5843.000000;1.143863
5842.000000;1.144319
5841.000000;1.144785
5840.000000;1.145247
5839.000000;1.145657
5838.000000;1.146019
5837.000000;1.146416
5836.000000;1.146906
5835.000000;1.147439
5834.000000;1.147897
5833.000000;1.148225
5832.000000;1.148484
5831.000000;1.148789
5830.000000;1.149235
5829.000000;1.149829
5828.000000;1.150483
5827.000000;1.151070
5826.000000;1.151541
5825.000000;1.151960
5824.000000;1.152397
5823.000000;1.152828
5822.000000;1.153197
5821.000000;1.153532
5820.000000;1.153933
5819.000000;1.154443
5818.000000;1.155000
5817.000000;1.155544
5816.000000;1.156101
5815.000000;1.156718
5814.000000;1.157359
5813.000000;1.157938
5812.000000;1.158420
5811.000000;1.158846
5810.000000;1.159265
5809.000000;1.159701
5808.000000;1.160170
5807.000000;1.160674
5806.000000;1.161180
5805.000000;1.161647
5804.000000;1.162112
5803.000000;1.162684
5802.000000;1.163420
5801.000000;1.164228
5800.000000;1.164956
5799.000000;1.165543
5798.000000;1.166051
5797.000000;1.166556
5796.000000;1.167076
5795.000000;1.167621
5794.000000;1.168218
5793.000000;1.168858
5792.000000;1.169467
5791.000000;1.169989
5790.000000;1.170459
5789.000000;1.170958
5788.000000;1.171504
5787.000000;1.172063
5786.000000;1.172618
5785.000000;1.173177
5784.000000;1.173715
5783.000000;1.174190
5782.000000;1.174619
5781.000000;1.175075
5780.000000;1.175590
5779.000000;1.176121
5778.000000;1.176641
5777.000000;1.177206
5776.000000;1.177884
5775.000000;1.178666
5774.000000;1.179475
5773.000000;1.180246
5772.000000;1.180946
5771.000000;1.181558
5770.000000;1.182090
5769.000000;1.182593
5768.000000;1.183119
5767.000000;1.183666
5766.000000;1.184195
5765.000000;1.184688
5764.000000;1.185164
5763.000000;1.185642
5762.000000;1.186116
5761.000000;1.186555
5760.000000;1.186941
5759.000000;1.187300
5758.000000;1.187716
5757.000000;1.188266
5756.000000;1.188926
5755.000000;1.189564
5754.000000;1.190083
5753.000000;1.190527
5752.000000;1.191007
5751.000000;1.191547
5750.000000;1.192080
5749.000000;1.192580
5748.000000;1.193126
5747.000000;1.193779
5746.000000;1.194476
5745.000000;1.195098
5744.000000;1.195614
5743.000000;1.196099
5742.000000;1.196634
5741.000000;1.197228
5740.000000;1.197844
5739.000000;1.198450
5738.000000;1.199035
5737.000000;1.199597
5736.000000;1.200153
5735.000000;1.200739
5734.000000;1.201364
5733.000000;1.201985
5732.000000;1.202531
5731.000000;1.202984
5730.000000;1.203419
5729.000000;1.203948
5728.000000;1.204611
5727.000000;1.205324
5726.000000;1.205954
5725.000000;1.206453
5724.000000;1.206904
5723.000000;1.207429
5722.000000;1.208066
5721.000000;1.208751
5720.000000;1.209411
5719.000000;1.210062
5718.000000;1.210786
5717.000000;1.211624
5716.000000;1.212481
5715.000000;1.213177
5714.000000;1.213599
5713.000000;1.213818
5712.000000;1.214036
5711.000000;1.214421
5710.000000;1.214990
5709.000000;1.215672
5708.000000;1.216425
5707.000000;1.217250
5706.000000;1.218104
5705.000000;1.218864
5704.000000;1.219444
5703.000000;1.219916
5702.000000;1.220443
5701.000000;1.221099
5700.000000;1.221801
5699.000000;1.222433
5698.000000;1.222987
5697.000000;1.223552
5696.000000;1.224204
5695.000000;1.224933
5694.000000;1.225667
5693.000000;1.226329
5692.000000;1.226870
5691.000000;1.227311
5690.000000;1.227742
5689.000000;1.228262
5688.000000;1.228891
5687.000000;1.229555
5686.000000;1.230143
5685.000000;1.230601
5684.000000;1.230989
5683.000000;1.231444
5682.000000;1.232076
5681.000000;1.232878
5680.000000;1.233738
5679.000000;1.234535
5678.000000;1.235218
5677.000000;1.235787
5676.000000;1.236266
5675.000000;1.236718
5674.000000;1.237231
5673.000000;1.237836
5672.000000;1.238443
5671.000000;1.238942
5670.000000;1.239343
5669.000000;1.239768
5668.000000;1.240305
5667.000000;1.240934
5666.000000;1.241607
5665.000000;1.242310
5664.000000;1.243025
5663.000000;1.243687
5662.000000;1.244252
5661.000000;1.244758
5660.000000;1.245290
5659.000000;1.245875
5658.000000;1.246476
5657.000000;1.247053
5656.000000;1.247595
5655.000000;1.248100
5654.000000;1.248568
5653.000000;1.249019
5652.000000;1.249474
5651.000000;1.249929
5650.000000;1.250373
5649.000000;1.250827
5648.000000;1.251333
5647.000000;1.251889
5646.000000;1.252442
5645.000000;1.252954
5644.000000;1.253459
5643.000000;1.254023
5642.000000;1.254679
5641.000000;1.255393
5640.000000;1.256093
5639.000000;1.256702
5638.000000;1.257163
5637.000000;1.257456
5636.000000;1.257635
5635.000000;1.257821
5634.000000;1.258128
5633.000000;1.258564
5632.000000;1.259027
5631.000000;1.259423
5630.000000;1.259765
5629.000000;1.260139
5628.000000;1.260584
5627.000000;1.261063
5626.000000;1.261543
5625.000000;1.262039
5624.000000;1.262554
5623.000000;1.263027
5622.000000;1.263389
5621.000000;1.263649
5620.000000;1.263885
5619.000000;1.264159
5618.000000;1.264486
5617.000000;1.264874
5616.000000;1.265334
5615.000000;1.265844
5614.000000;1.266311
5613.000000;1.266623
5612.000000;1.266737
5611.000000;1.266741
5610.000000;1.266819
5609.000000;1.267125
5608.000000;1.267681
5607.000000;1.268376
5606.000000;1.269077
5605.000000;1.269699
5604.000000;1.270188
5603.000000;1.270501
5602.000000;1.270661
5601.000000;1.270770
5600.000000;1.270909
5599.000000;1.271044
5598.000000;1.271102
5597.000000;1.271120
5596.000000;1.271234
5595.000000;1.271513
5594.000000;1.271878
5593.000000;1.272188
5592.000000;1.272359
5591.000000;1.272366
5590.000000;1.272251
5589.000000;1.272155
5588.000000;1.272249
5587.000000;1.272559
5586.000000;1.272904
5585.000000;1.273101
5584.000000;1.273175
5583.000000;1.273293
5582.000000;1.273517
5581.000000;1.273747
5580.000000;1.273884
5579.000000;1.273955
5578.000000;1.274019
5577.000000;1.274085
5576.000000;1.274152
5575.000000;1.274257
5574.000000;1.274410
5573.000000;1.274544
5572.000000;1.274604
5571.000000;1.274638
5570.000000;1.274732
5569.000000;1.274913
5568.000000;1.275165
5567.000000;1.275503
5566.000000;1.275922
5565.000000;1.276296
5564.000000;1.276456
5563.000000;1.276402
5562.000000;1.276327
5561.000000;1.276380
5560.000000;1.276498
5559.000000;1.276541
5558.000000;1.276528
5557.000000;1.276616
5556.000000;1.276857
5555.000000;1.277089
5554.000000;1.277118
5553.000000;1.276956
5552.000000;1.276809
5551.000000;1.276824
5550.000000;1.276920
5549.000000;1.276895
5548.000000;1.276685
5547.000000;1.276437
5546.000000;1.276326
5545.000000;1.276349
5544.000000;1.276377
5543.000000;1.276345
5542.000000;1.276317
5541.000000;1.276361
5540.000000;1.276455
5539.000000;1.276551
5538.000000;1.276657
5537.000000;1.276800
5536.000000;1.276971
5535.000000;1.277155
5534.000000;1.277369
5533.000000;1.277619
5532.000000;1.277845
5531.000000;1.277983
5530.000000;1.278045
5529.000000;1.278092
5528.000000;1.278127
5527.000000;1.278077
5526.000000;1.277876
5525.000000;1.277550
5524.000000;1.277200
5523.000000;1.276954
5522.000000;1.276896
5521.000000;1.277012
5520.000000;1.277203
5519.000000;1.277393
5518.000000;1.277590
5517.000000;1.277823
5516.000000;1.278032
5515.000000;1.278100
5514.000000;1.277985
5513.000000;1.277775
5512.000000;1.277599
5511.000000;1.277541
5510.000000;1.277627
5509.000000;1.277843
5508.000000;1.278122
5507.000000;1.278371
5506.000000;1.278538
5505.000000;1.278647
5504.000000;1.278758
5503.000000;1.278907
5502.000000;1.279088
5501.000000;1.279274
5500.000000;1.279445
5499.000000;1.279599
5498.000000;1.279746
5497.000000;1.279868
5496.000000;1.279935
5495.000000;1.279962
5494.000000;1.280032
5493.000000;1.280219
5492.000000;1.280494
5491.000000;1.280757
5490.000000;1.280938
5489.000000;1.281035
5488.000000;1.281085
5487.000000;1.281142
5486.000000;1.281273
5485.000000;1.281500
5484.000000;1.281771
5483.000000;1.282025
5482.000000;1.282290
5481.000000;1.282639
5480.000000;1.283043
5479.000000;1.283347
5478.000000;1.283433
5477.000000;1.283361
5476.000000;1.283336
5475.000000;1.283544
5474.000000;1.284024
5473.000000;1.284656
5472.000000;1.285294
5471.000000;1.285888
5470.000000;1.286456
5469.000000;1.286961
5468.000000;1.287274
5467.000000;1.287333
5466.000000;1.287272
5465.000000;1.287317
5464.000000;1.287567
5463.000000;1.287969
5462.000000;1.288439
5461.000000;1.288950
5460.000000;1.289504
5459.000000;1.290115
5458.000000;1.290810
5457.000000;1.291603
5456.000000;1.292439
5455.000000;1.293220
5454.000000;1.293873
5453.000000;1.294387
5452.000000;1.294824
5451.000000;1.295280
5450.000000;1.295811
5449.000000;1.296357
5448.000000;1.296806
5447.000000;1.297173
5446.000000;1.297656
5445.000000;1.298433
5444.000000;1.299436
5443.000000;1.300411
5442.000000;1.301195
5441.000000;1.301865
5440.000000;1.302601
5439.000000;1.303473
5438.000000;1.304408
5437.000000;1.305336
5436.000000;1.306265
5435.000000;1.307226
5434.000000;1.308190
5433.000000;1.309082
5432.000000;1.309896
5431.000000;1.310749
5430.000000;1.311774
5429.000000;1.313013
5428.000000;1.314407
5427.000000;1.315885
5426.000000;1.317418
5425.000000;1.318972
5424.000000;1.320467
5423.000000;1.321825
5422.000000;1.323038
5421.000000;1.324174
5420.000000;1.325328
5419.000000;1.326570
5418.000000;1.327906
5417.000000;1.329299
5416.000000;1.330723
5415.000000;1.332198
5414.000000;1.333791
5413.000000;1.335527
5412.000000;1.337319
5411.000000;1.339076
5410.000000;1.340833
5409.000000;1.342703
5408.000000;1.344698
5407.000000;1.346714
5406.000000;1.348700
5405.000000;1.350756
5404.000000;1.352997
5403.000000;1.355381
5402.000000;1.357762
5401.000000;1.360087
5400.000000;1.362474
5399.000000;1.365067
5398.000000;1.367849
5397.000000;1.370677
5396.000000;1.373433
5395.000000;1.376131
5394.000000;1.378900
5393.000000;1.381887
5392.000000;1.385132
5391.000000;1.388537
5390.000000;1.391961
5389.000000;1.395329
5388.000000;1.398661
5387.000000;1.402050
5386.000000;1.405592
5385.000000;1.409303
5384.000000;1.413096
5383.000000;1.416895
5382.000000;1.420759
5381.000000;1.424825
5380.000000;1.429162
5379.000000;1.433715
5378.000000;1.438376
5377.000000;1.443078
5376.000000;1.447838
5375.000000;1.452714
5374.000000;1.457770
5373.000000;1.463034
5372.000000;1.468479
5371.000000;1.474055
5370.000000;1.479766
5369.000000;1.485649
5368.000000;1.491707
5367.000000;1.497911
5366.000000;1.504238
5365.000000;1.510672
5364.000000;1.517178
5363.000000;1.523770
5362.000000;1.530555
5361.000000;1.537656
5360.000000;1.545089
5359.000000;1.552767
5358.000000;1.560599
5357.000000;1.568548
5356.000000;1.576640
5355.000000;1.584969
5354.000000;1.593684
5353.000000;1.602822
5352.000000;1.612221
5351.000000;1.621739
5350.000000;1.631486
5349.000000;1.641652
5348.000000;1.652175
5347.000000;1.662817
5346.000000;1.673562
5345.000000;1.684701
5344.000000;1.696395
5343.000000;1.708348
5342.000000;1.720168
5341.000000;1.731900
5340.000000;1.743991
5339.000000;1.756861
5338.000000;1.770569
5337.000000;1.784789
5336.000000;1.799085
5335.000000;1.813299
5334.000000;1.827673
5333.000000;1.842579
5332.000000;1.858145
5331.000000;1.874254
5330.000000;1.890840
5329.000000;1.907944
5328.000000;1.925503
5327.000000;1.943392
5326.000000;1.961676
5325.000000;1.980499
5324.000000;1.999683
5323.000000;2.018808
5322.000000;2.037777
5321.000000;2.056996
5320.000000;2.076824
5319.000000;2.097218
5318.000000;2.118050
5317.000000;2.139443
5316.000000;2.161585
5315.000000;2.184406
5314.000000;2.207548
5313.000000;2.230566
5312.000000;2.253194
5311.000000;2.275620
5310.000000;2.298391
5309.000000;2.321902
5308.000000;2.346172
5307.000000;2.371221
5306.000000;2.397171
5305.000000;2.423545
5304.000000;2.449118
5303.000000;2.473250
5302.000000;2.496874
5301.000000;2.521370
5300.000000;2.546973
5299.000000;2.572960
5298.000000;2.598756
5297.000000;2.623807
5296.000000;2.646995
5295.000000;2.667752
5294.000000;2.687329
5293.000000;2.707301
5292.000000;2.727305
5291.000000;2.746000
5290.000000;2.763854
5289.000000;2.782795
5288.000000;2.802933
5287.000000;2.821412
5286.000000;2.834979
5285.000000;2.842951
5284.000000;2.847640
5283.000000;2.852968
5282.000000;2.862224
5281.000000;2.875248
5280.000000;2.888308
5279.000000;2.898490
5278.000000;2.907102
5277.000000;2.916589
5276.000000;2.925746
5275.000000;2.930600
5274.000000;2.929846
5273.000000;2.926954
5272.000000;2.926562
5271.000000;2.930914
5270.000000;2.938678
5269.000000;2.945298
5268.000000;2.946792
5267.000000;2.944694
5266.000000;2.944476
5265.000000;2.948453
5264.000000;2.952377
5263.000000;2.951403
5262.000000;2.948200
5261.000000;2.949677
5260.000000;2.957004
5259.000000;2.964039
5258.000000;2.965339
5257.000000;2.961848
5256.000000;2.957543
5255.000000;2.954547
5254.000000;2.953067
5253.000000;2.953118
5252.000000;2.954080
5251.000000;2.954093
5250.000000;2.952417
5249.000000;2.951805
5248.000000;2.956234
5247.000000;2.965722
5246.000000;2.974642
5245.000000;2.976610
5244.000000;2.971183
5243.000000;2.964031
5242.000000;2.960504
5241.000000;2.961229
5240.000000;2.964158
5239.000000;2.968975
5238.000000;2.977026
5237.000000;2.986907
5236.000000;2.994131
5235.000000;2.996291
5234.000000;2.995592
5233.000000;2.994750
5232.000000;2.992595
5231.000000;2.986392
5230.000000;2.976762
5229.000000;2.967633
5228.000000;2.962201
5227.000000;2.960968
5226.000000;2.963321
5225.000000;2.968501
5224.000000;2.974511
5223.000000;2.978426
5222.000000;2.978869
5221.000000;2.977563
5220.000000;2.977510
5219.000000;2.979902
5218.000000;2.982371
5217.000000;2.980574
5216.000000;2.972968
5215.000000;2.963258
5214.000000;2.956634
5213.000000;2.954642
5212.000000;2.955018
5211.000000;2.955864
5210.000000;2.957949
5209.000000;2.962181
5208.000000;2.967023
5207.000000;2.970118
5206.000000;2.971297
5205.000000;2.972212
5204.000000;2.973863
5203.000000;2.975802
5202.000000;2.976496
5201.000000;2.973452
5200.000000;2.965374
5199.000000;2.956062
5198.000000;2.953082
5197.000000;2.960890
5196.000000;2.976352
5195.000000;2.991460
5194.000000;3.000816
5193.000000;3.004896
5192.000000;3.005611
5191.000000;3.002208
5190.000000;2.993030
5189.000000;2.979358
5188.000000;2.965853
5187.000000;2.957318
5186.000000;2.955352
5185.000000;2.957418
5184.000000;2.959001
5183.000000;2.958046
5182.000000;2.957077
5181.000000;2.959596
5180.000000;2.965333
5179.000000;2.970333
5178.000000;2.971397
5177.000000;2.969078
5176.000000;2.965470
5175.000000;2.961380
5174.000000;2.957721
5173.000000;2.957776
5172.000000;2.965631
5171.000000;2.981247
5170.000000;2.997434
5169.000000;3.004080
5168.000000;2.997603
5167.000000;2.983993
5166.000000;2.971547
5165.000000;2.964248
5164.000000;2.961755
5163.000000;2.962372
5162.000000;2.964613
5161.000000;2.966859
5160.000000;2.968101
5159.000000;2.969552
5158.000000;2.973616
5157.000000;2.980529
5156.000000;2.987026
5155.000000;2.988983
5154.000000;2.985389
5153.000000;2.979227
5152.000000;2.974501
5151.000000;2.973221
5150.000000;2.974776
5149.000000;2.977097
5148.000000;2.978551
5147.000000;2.978834
5146.000000;2.978063
5145.000000;2.976007
5144.000000;2.972746
5143.000000;2.969471
5142.000000;2.967597
5141.000000;2.967208
5140.000000;2.967344
5139.000000;2.966678
5138.000000;2.963195
5137.000000;2.955700
5136.000000;2.947083
5135.000000;2.943719
5134.000000;2.949569
5133.000000;2.961459
5132.000000;2.971413
5131.000000;2.974408
5130.000000;2.972235
5129.000000;2.968992
5128.000000;2.966416
5127.000000;2.964388
5126.000000;2.962836
5125.000000;2.962014
5124.000000;2.962077
5123.000000;2.962582
5122.000000;2.961725
5121.000000;2.957148
5120.000000;2.949360
5119.000000;2.943295
5118.000000;2.943552
5117.000000;2.949358
5116.000000;2.956321
5115.000000;2.961149
5114.000000;2.962762
5113.000000;2.960496
5112.000000;2.954679
5111.000000;2.949082
5110.000000;2.949000
5109.000000;2.955341
5108.000000;2.962425
5107.000000;2.963477
5106.000000;2.957532
5105.000000;2.949239
5104.000000;2.943385
5103.000000;2.942162
5102.000000;2.946044
5101.000000;2.953390
5100.000000;2.960387
5099.000000;2.963647
5098.000000;2.962264
5097.000000;2.957661
5096.000000;2.952689
5095.000000;2.950615
5094.000000;2.953203
5093.000000;2.958873
5092.000000;2.963715
5091.000000;2.965160
5090.000000;2.963808
5089.000000;2.961194
5088.000000;2.957687
5087.000000;2.953694
5086.000000;2.950727
5085.000000;2.949820
5084.000000;2.950409
5083.000000;2.951482
5082.000000;2.952390
5081.000000;2.952342
5080.000000;2.950866
5079.000000;2.949147
5078.000000;2.949226
5077.000000;2.951100
5076.000000;2.951818
5075.000000;2.949068
5074.000000;2.944612
5073.000000;2.941972
5072.000000;2.941909
5071.000000;2.942096
5070.000000;2.940730
5069.000000;2.939072
5068.000000;2.940132
5067.000000;2.945518
5066.000000;2.953716
5065.000000;2.960760
5064.000000;2.963197
5063.000000;2.961163
5062.000000;2.957568
5061.000000;2.954447
5060.000000;2.951465
5059.000000;2.947489
5058.000000;2.942569
5057.000000;2.938749
5056.000000;2.938535
5055.000000;2.941826
5054.000000;2.944935
5053.000000;2.943860
5052.000000;2.939819
5051.000000;2.938863
5050.000000;2.943301
5049.000000;2.947133
5048.000000;2.944169
5047.000000;2.938129
5046.000000;2.937595
5045.000000;2.943206
5044.000000;2.946555
5043.000000;2.941842
5042.000000;2.932676
5041.000000;2.924732
5040.000000;2.918774
5039.000000;2.913568
5038.000000;2.910255
5037.000000;2.910337
5036.000000;2.912348
5035.000000;2.914108
5034.000000;2.916067
5033.000000;2.919067
5032.000000;2.920846
5031.000000;2.918625
5030.000000;2.913899
5029.000000;2.910617
5028.000000;2.909785
5027.000000;2.909188
5026.000000;2.907711
5025.000000;2.906681
5024.000000;2.906614
5023.000000;2.905789
5022.000000;2.902657
5021.000000;2.897828
5020.000000;2.893590
5019.000000;2.892310
5018.000000;2.894682
5017.000000;2.898182
5016.000000;2.897881
5015.000000;2.890690
5014.000000;2.878670
5013.000000;2.867134
5012.000000;2.860351
5011.000000;2.859333
5010.000000;2.862029
5009.000000;2.864764
5008.000000;2.864737
5007.000000;2.861914
5006.000000;2.857949
5005.000000;2.853420
5004.000000;2.847920
5003.000000;2.843329
5002.000000;2.843607
5001.000000;2.849392
5000.000000;2.855685
4999.000000;2.857351
4998.000000;2.855012
4997.000000;2.853275
4996.000000;2.855217
4995.000000;2.859536
4994.000000;2.861394
4993.000000;2.855733
4992.000000;2.841845
4991.000000;2.825665
4990.000000;2.815319
4989.000000;2.813754
4988.000000;2.816807
4987.000000;2.818702
4986.000000;2.818193
4985.000000;2.817353
4984.000000;2.816283
4983.000000;2.812852
4982.000000;2.806991
4981.000000;2.801286
4980.000000;2.797062
4979.000000;2.793055
4978.000000;2.788241
4977.000000;2.783488
4976.000000;2.779880
4975.000000;2.777263
4974.000000;2.774876
4973.000000;2.772121
4972.000000;2.768754
4971.000000;2.765435
4970.000000;2.763454
4969.000000;2.762949
4968.000000;2.762344
4967.000000;2.760393
4966.000000;2.757761
4965.000000;2.755232
4964.000000;2.751583
4963.000000;2.745286
4962.000000;2.737483
4961.000000;2.731008
4960.000000;2.726909
4959.000000;2.723920
4958.000000;2.720993
4957.000000;2.718357
4956.000000;2.716062
4955.000000;2.713477
4954.000000;2.710737
4953.000000;2.708986
4952.000000;2.708532
4951.000000;2.707960
4950.000000;2.705453
4949.000000;2.700717
4948.000000;2.695278
4947.000000;2.690984
4946.000000;2.688753
4945.000000;2.687817
4944.000000;2.685973
4943.000000;2.682028
4942.000000;2.677594
4941.000000;2.675087
4940.000000;2.674436
4939.000000;2.672998
4938.000000;2.668764
4937.000000;2.662440
4936.000000;2.655953
4935.000000;2.650125
4934.000000;2.644295
4933.000000;2.637550
4932.000000;2.630078
4931.000000;2.623513
4930.000000;2.619690
4929.000000;2.618779
4928.000000;2.618911
4927.000000;2.618118
4926.000000;2.616315
4925.000000;2.614610
4924.000000;2.613343
4923.000000;2.611981
4922.000000;2.610353
4921.000000;2.608541
4920.000000;2.605756
4919.000000;2.600921
4918.000000;2.594485
4917.000000;2.588461
4916.000000;2.584628
4915.000000;2.583431
4914.000000;2.584210
4913.000000;2.585320
4912.000000;2.584259
4911.000000;2.579210
4910.000000;2.570790
4909.000000;2.561313
4908.000000;2.552446
4907.000000;2.544738
4906.000000;2.539149
4905.000000;2.537133
4904.000000;2.538668
4903.000000;2.541374
4902.000000;2.542538
4901.000000;2.541583
4900.000000;2.539711
4899.000000;2.537747
4898.000000;2.535568
4897.000000;2.533208
4896.000000;2.530996
4895.000000;2.528386
4894.000000;2.523894
4893.000000;2.516818
4892.000000;2.508496
4891.000000;2.501338
4890.000000;2.496793
4889.000000;2.494427
4888.000000;2.492788
4887.000000;2.490887
4886.000000;2.488604
4885.000000;2.485979
4884.000000;2.482800
4883.000000;2.479175
4882.000000;2.475956
4881.000000;2.473897
4880.000000;2.472490
4879.000000;2.470255
4878.000000;2.466285
4877.000000;2.461048
4876.000000;2.455547
4875.000000;2.450292
4874.000000;2.445378
4873.000000;2.441153
4872.000000;2.438207
4871.000000;2.436569
4870.000000;2.435168
4869.000000;2.432481
4868.000000;2.427953
4867.000000;2.422671
4866.000000;2.418355
4865.000000;2.415666
4864.000000;2.413827
4863.000000;2.412040
4862.000000;2.410691
4861.000000;2.410494
4860.000000;2.410800
4859.000000;2.409577
4858.000000;2.405329
4857.000000;2.398646
4856.000000;2.391679
4855.000000;2.386454
4854.000000;2.383643
4853.000000;2.382373
4852.000000;2.381002
4851.000000;2.378384
4850.000000;2.374606
4849.000000;2.370443
4848.000000;2.366365
4847.000000;2.362393
4846.000000;2.358670
4845.000000;2.355607
4844.000000;2.353442
4843.000000;2.352039
4842.000000;2.351035
4841.000000;2.349768
4840.000000;2.347204
4839.000000;2.342662
4838.000000;2.336825
4837.000000;2.331471
4836.000000;2.327958
4835.000000;2.326235
4834.000000;2.325275
4833.000000;2.324015
4832.000000;2.321804
4831.000000;2.318498
4830.000000;2.314572
4829.000000;2.310882
4828.000000;2.307952
4827.000000;2.305571
4826.000000;2.303208
4825.000000;2.300612
4824.000000;2.297829
4823.000000;2.294899
4822.000000;2.291781
4821.000000;2.288430
4820.000000;2.284752
4819.000000;2.280675
4818.000000;2.276502
4817.000000;2.272969
4816.000000;2.270642
4815.000000;2.269341
4814.000000;2.268369
4813.000000;2.267200
4812.000000;2.265680
4811.000000;2.263671
4810.000000;2.260977
4809.000000;2.257763
4808.000000;2.254632
4807.000000;2.251994
4806.000000;2.249482
4805.000000;2.246261
4804.000000;2.241951
4803.000000;2.237064
4802.000000;2.232603
4801.000000;2.229366
4800.000000;2.227519
4799.000000;2.226428
4798.000000;2.224790
4797.000000;2.221425
4796.000000;2.216467
4795.000000;2.211667
4794.000000;2.208932
4793.000000;2.208455
4792.000000;2.208476
4791.000000;2.206976
4790.000000;2.203428
4789.000000;2.198811
4788.000000;2.194359
4787.000000;2.190752
4786.000000;2.188162
4785.000000;2.186390
4784.000000;2.184826
4783.000000;2.182661
4782.000000;2.179428
4781.000000;2.175288
4780.000000;2.170763
4779.000000;2.166371
4778.000000;2.162558
4777.000000;2.159677
4776.000000;2.157748
4775.000000;2.156229
4774.000000;2.154216
4773.000000;2.151080
4772.000000;2.147074
4771.000000;2.143287
4770.000000;2.140877
4769.000000;2.140141
4768.000000;2.140189
4767.000000;2.139567
4766.000000;2.137299
4765.000000;2.133464
4764.000000;2.128960
4763.000000;2.124849
4762.000000;2.121719
4761.000000;2.119365
4760.000000;2.116960
4759.000000;2.113714
4758.000000;2.109496
4757.000000;2.104901
4756.000000;2.100802
4755.000000;2.097829
4754.000000;2.096098
4753.000000;2.095228
4752.000000;2.094588
4751.000000;2.093567
4750.000000;2.091694
4749.000000;2.088711
4748.000000;2.084848
4747.000000;2.080955
4746.000000;2.077962
4745.000000;2.075992
4744.000000;2.074279
4743.000000;2.072178
4742.000000;2.069886
4741.000000;2.067858
4740.000000;2.065918
4739.000000;2.063542
4738.000000;2.060825
4737.000000;2.058434
4736.000000;2.056545
4735.000000;2.054463
4734.000000;2.051597
4733.000000;2.048312
4732.000000;2.045466
4731.000000;2.043432
4730.000000;2.041949
4729.000000;2.040629
4728.000000;2.039162
4727.000000;2.037228
4726.000000;2.034699
4725.000000;2.031948
4724.000000;2.029579
4723.000000;2.027718
4722.000000;2.025816
4721.000000;2.023265
4720.000000;2.020042
4719.000000;2.016629
4718.000000;2.013474
4717.000000;2.010667
4716.000000;2.008077
4715.000000;2.005644
4714.000000;2.003500
4713.000000;2.001830
4712.000000;2.000649
4711.000000;1.999749
4710.000000;1.998827
4709.000000;1.997579
4708.000000;1.995647
4707.000000;1.992698
4706.000000;1.988780
4705.000000;1.984554
4704.000000;1.980898
4703.000000;1.978175
4702.000000;1.976004
4701.000000;1.973832
4700.000000;1.971604
4699.000000;1.969740
4698.000000;1.968593
4697.000000;1.968091
4696.000000;1.967826
4695.000000;1.967287
4694.000000;1.966007
4693.000000;1.963750
4692.000000;1.960743
4691.000000;1.957620
4690.000000;1.954982
4689.000000;1.952979
4688.000000;1.951352
4687.000000;1.949798
4686.000000;1.948225
4685.000000;1.946713
4684.000000;1.945322
4683.000000;1.943951
4682.000000;1.942353
4681.000000;1.940323
4680.000000;1.937954
4679.000000;1.935647
4678.000000;1.933747
4677.000000;1.932189
4676.000000;1.930574
4675.000000;1.928603
4674.000000;1.926366
4673.000000;1.924188
4672.000000;1.922276
4671.000000;1.920571
4670.000000;1.918914
4669.000000;1.917269
4668.000000;1.915709
4667.000000;1.914184
4666.000000;1.912471
4665.000000;1.910487
4664.000000;1.908576
4663.000000;1.907183
4662.000000;1.906181
4661.000000;1.904827
4660.000000;1.902625
4659.000000;1.899973
4658.000000;1.897667
4657.000000;1.895936
4656.000000;1.894356
4655.000000;1.892592
4654.000000;1.890779
4653.000000;1.889149
4652.000000;1.887686
4651.000000;1.886337
4650.000000;1.885224
4649.000000;1.884414
4648.000000;1.883713
4647.000000;1.882868
4646.000000;1.881778
4645.000000;1.880377
4644.000000;1.878579
4643.000000;1.876538
4642.000000;1.874726
4641.000000;1.873474
4640.000000;1.872611
4639.000000;1.871747
4638.000000;1.870720
4637.000000;1.869498
4636.000000;1.867881
4635.000000;1.865680
4634.000000;1.863144
4633.000000;1.860845
4632.000000;1.859100
4631.000000;1.857730
4630.000000;1.856374
4629.000000;1.854866
4628.000000;1.853294
4627.000000;1.851908
4626.000000;1.850950
4625.000000;1.850376
4624.000000;1.849753
4623.000000;1.848647
4622.000000;1.847108
4621.000000;1.845564
4620.000000;1.844241
4619.000000;1.842961
4618.000000;1.841549
4617.000000;1.840145
4616.000000;1.838975
4615.000000;1.837994
4614.000000;1.836962
4613.000000;1.835711
4612.000000;1.834199
4611.000000;1.832406
4610.000000;1.830353
4609.000000;1.828220
4608.000000;1.826384
4607.000000;1.825271
4606.000000;1.825105
4605.000000;1.825669
4604.000000;1.826323
4603.000000;1.826402
4602.000000;1.825649
4601.000000;1.824226
4600.000000;1.822386
4599.000000;1.820333
4598.000000;1.818388
4597.000000;1.817006
4596.000000;1.816418
4595.000000;1.816334
4594.000000;1.816149
4593.000000;1.815455
4592.000000;1.814269
4591.000000;1.812848
4590.000000;1.811405
4589.000000;1.809998
4588.000000;1.808581
4587.000000;1.807139
4586.000000;1.805770
4585.000000;1.804593
4584.000000;1.803580
4583.000000;1.802543
4582.000000;1.801399
4581.000000;1.800394
4580.000000;1.799934
4579.000000;1.800109
4578.000000;1.800445
4577.000000;1.800220
4576.000000;1.799097
4575.000000;1.797459
4574.000000;1.796050
4573.000000;1.795291
4572.000000;1.794965
4571.000000;1.794546
4570.000000;1.793745
4569.000000;1.792709
4568.000000;1.791760
4567.000000;1.791052
4566.000000;1.790460
4565.000000;1.789731
4564.000000;1.788742
4563.000000;1.787645
4562.000000;1.786731
4561.000000;1.786120
4560.000000;1.785660
4559.000000;1.785159
4558.000000;1.784613
4557.000000;1.784128
4556.000000;1.783721
4555.000000;1.783338
4554.000000;1.782959
4553.000000;1.782520
4552.000000;1.781816
4551.000000;1.780729
4550.000000;1.779531
4549.000000;1.778688
4548.000000;1.778294
4547.000000;1.777927
4546.000000;1.777205
4545.000000;1.776273
4544.000000;1.775534
4543.000000;1.775052
4542.000000;1.774484
4541.000000;1.773576
4540.000000;1.772496
4539.000000;1.771621
4538.000000;1.771166
4537.000000;1.771116
4536.000000;1.771316
4535.000000;1.771443
4534.000000;1.771012
4533.000000;1.769722
4532.000000;1.767908
4531.000000;1.766396
4530.000000;1.765726
4529.000000;1.765642
4528.000000;1.765515
4527.000000;1.765158
4526.000000;1.764959
4525.000000;1.765236
4524.000000;1.765793
4523.000000;1.766200
4522.000000;1.766235
4521.000000;1.765887
4520.000000;1.765164
4519.000000;1.764143
4518.000000;1.763056
4517.000000;1.762109
4516.000000;1.761314
4515.000000;1.760655
4514.000000;1.760255
4513.000000;1.760154
4512.000000;1.760101
4511.000000;1.759853
4510.000000;1.759590
4509.000000;1.759705
4508.000000;1.760197
4507.000000;1.760574
4506.000000;1.760438
4505.000000;1.759930
4504.000000;1.759493
4503.000000;1.759379
4502.000000;1.759487
4501.000000;1.759551
4500.000000;1.759385
4499.000000;1.758991
4498.000000;1.758473
4497.000000;1.757841
4496.000000;1.757022
4495.000000;1.756131
4494.000000;1.755543
4493.000000;1.755494
4492.000000;1.755744
4491.000000;1.755891
4490.000000;1.755914
4489.000000;1.756114
4488.000000;1.756600
4487.000000;1.757146
4486.000000;1.757525
4485.000000;1.757672
4484.000000;1.757537
4483.000000;1.757160
4482.000000;1.756903
4481.000000;1.757235
4480.000000;1.758161
4479.000000;1.759182
4478.000000;1.759902
4477.000000;1.760358
4476.000000;1.760661
4475.000000;1.760717
4474.000000;1.760490
4473.000000;1.760241
4472.000000;1.760274
4471.000000;1.760674
4470.000000;1.761390
4469.000000;1.762305
4468.000000;1.763083
4467.000000;1.763302
4466.000000;1.762974
4465.000000;1.762654
4464.000000;1.762864
4463.000000;1.763649
4462.000000;1.764811
4461.000000;1.766206
4460.000000;1.767602
4459.000000;1.768639
4458.000000;1.769230
4457.000000;1.769691
4456.000000;1.770245
4455.000000;1.770771
4454.000000;1.771316
4453.000000;1.772363
4452.000000;1.774115
4451.000000;1.775936
4450.000000;1.777070
4449.000000;1.777639
4448.000000;1.778329
4447.000000;1.779327
4446.000000;1.780238
4445.000000;1.780905
4444.000000;1.781636
4443.000000;1.782631
4442.000000;1.783816
4441.000000;1.785309
4440.000000;1.787426
4439.000000;1.790036
4438.000000;1.792402
4437.000000;1.793906
4436.000000;1.794655
4435.000000;1.795302
4434.000000;1.796530
4433.000000;1.798717
4432.000000;1.801693
4431.000000;1.804721
4430.000000;1.807086
4429.000000;1.808797
4428.000000;1.810394
4427.000000;1.812086
4426.000000;1.813546
4425.000000;1.814552
4424.000000;1.815352
4423.000000;1.816330
4422.000000;1.817735
4421.000000;1.819768
4420.000000;1.822451
4419.000000;1.825314
4418.000000;1.827775
4417.000000;1.829926
4416.000000;1.832410
4415.000000;1.835381
4414.000000;1.838279
4413.000000;1.840853
4412.000000;1.843658
4411.000000;1.847073
4410.000000;1.850545
4409.000000;1.853422
4408.000000;1.855972
4407.000000;1.858822
4406.000000;1.861784
4405.000000;1.864047
4404.000000;1.865352
4403.000000;1.866307
4402.000000;1.867653
4401.000000;1.869858
4400.000000;1.873260
4399.000000;1.877813
4398.000000;1.882581
4397.000000;1.886168
4396.000000;1.887979
4395.000000;1.888744
4394.000000;1.889681
4393.000000;1.891429
4392.000000;1.893830
4391.000000;1.896401
4390.000000;1.898884
4389.000000;1.901452
4388.000000;1.904417
4387.000000;1.907742
4386.000000;1.911041
4385.000000;1.914118
4384.000000;1.917106
4383.000000;1.919883
4382.000000;1.921952
4381.000000;1.923440
4380.000000;1.925627
4379.000000;1.929529
4378.000000;1.934267
4377.000000;1.937833
4376.000000;1.939572
4375.000000;1.940931
4374.000000;1.943462
4373.000000;1.946911
4372.000000;1.949769
4371.000000;1.951107
4370.000000;1.951294
4369.000000;1.951292
4368.000000;1.951830
4367.000000;1.953198
4366.000000;1.955429
4365.000000;1.958543
4364.000000;1.962491
4363.000000;1.966720
4362.000000;1.970051
4361.000000;1.971563
4360.000000;1.971629
4359.000000;1.971589
4358.000000;1.972357
4357.000000;1.973960
4356.000000;1.976385
4355.000000;1.979945
4354.000000;1.984484
4353.000000;1.988992
4352.000000;1.992623
4351.000000;1.995572
4350.000000;1.998417
4349.000000;2.001088
4348.000000;2.003068
4347.000000;2.004435
4346.000000;2.005893
4345.000000;2.007798
4344.000000;2.009902
4343.000000;2.011847
4342.000000;2.013345
4341.000000;2.014121
4340.000000;2.014336
4339.000000;2.014918
4338.000000;2.016829
4337.000000;2.019977
4336.000000;2.023314
4335.000000;2.025960
4334.000000;2.027795
4333.000000;2.029005
4332.000000;2.029758
4331.000000;2.030466
4330.000000;2.031719
4329.000000;2.033617
4328.000000;2.035484
4327.000000;2.036581
4326.000000;2.036855
4325.000000;2.036793
4324.000000;2.036848
4323.000000;2.037304
4322.000000;2.038526
4321.000000;2.040962
4320.000000;2.044596
4319.000000;2.048329
4318.000000;2.050225
4317.000000;2.048979
4316.000000;2.045396
4315.000000;2.042182
4314.000000;2.041925
4313.000000;2.045234
4312.000000;2.050608
4311.000000;2.055713
4310.000000;2.058904
4309.000000;2.060114
4308.000000;2.060791
4307.000000;2.062837
4306.000000;2.067200
4305.000000;2.073286
4304.000000;2.079561
4303.000000;2.084360
4302.000000;2.086217
4301.000000;2.084546
4300.000000;2.080922
4299.000000;2.078904
4298.000000;2.081202
4297.000000;2.086906
4296.000000;2.092237
4295.000000;2.094422
4294.000000;2.094214
4293.000000;2.094191
4292.000000;2.095704
4291.000000;2.098085
4290.000000;2.099931
4289.000000;2.100581
4288.000000;2.100835
4287.000000;2.102740
4286.000000;2.108165
4285.000000;2.116712
4284.000000;2.125204
4283.000000;2.130045
4282.000000;2.130372
4281.000000;2.128604
4280.000000;2.128114
4279.000000;2.130995
4278.000000;2.137663
4277.000000;2.147335
4276.000000;2.158231
4275.000000;2.167743
4274.000000;2.173468
4273.000000;2.174982
4272.000000;2.174674
4271.000000;2.176194
4270.000000;2.181167
4269.000000;2.187282
4268.000000;2.190601
4267.000000;2.190218
4266.000000;2.189337
4265.000000;2.191163
4264.000000;2.195189
4263.000000;2.198550
4262.000000;2.200001
4261.000000;2.201028
4260.000000;2.203355
4259.000000;2.206661
4258.000000;2.209572
4257.000000;2.212330
4256.000000;2.216934
4255.000000;2.224467
4254.000000;2.233617
4253.000000;2.242092
4252.000000;2.248709
4251.000000;2.253667
4250.000000;2.256983
4249.000000;2.257951
4248.000000;2.256690
4247.000000;2.254764
4246.000000;2.253548
4245.000000;2.252554
4244.000000;2.250248
4243.000000;2.246750
4242.000000;2.244687
4241.000000;2.247276
4240.000000;2.256008
4239.000000;2.270351
4238.000000;2.288324
4237.000000;2.306971
4236.000000;2.322617
4235.000000;2.331754
4234.000000;2.333278
4233.000000;2.329982
4232.000000;2.327226
4231.000000;2.328707
4230.000000;2.332915
4229.000000;2.334597
4228.000000;2.330982
4227.000000;2.325818
4226.000000;2.325112
4225.000000;2.329982
4224.000000;2.335604
4223.000000;2.337083
4222.000000;2.335501
4221.000000;2.336867
4220.000000;2.345963
4219.000000;2.362243
4218.000000;2.380359
4217.000000;2.394195
4216.000000;2.401130
4215.000000;2.403055
4214.000000;2.403456
4213.000000;2.403807
4212.000000;2.403117
4211.000000;2.399951
4210.000000;2.395019
4209.000000;2.391583
4208.000000;2.392158
4207.000000;2.397942
4206.000000;2.410482
4205.000000;2.428476
4204.000000;2.445405
4203.000000;2.453978
4202.000000;2.451829
4201.000000;2.442718
4200.000000;2.433770
4199.000000;2.431219
4198.000000;2.436363
4197.000000;2.444901
4196.000000;2.451927
4195.000000;2.457321
4194.000000;2.464746
4193.000000;2.476650
4192.000000;2.491329
4191.000000;2.504817
4190.000000;2.512560
4189.000000;2.508706
4188.000000;2.492203
4187.000000;2.472867
4186.000000;2.462981
4185.000000;2.463901
4184.000000;2.466295
4183.000000;2.465907
4182.000000;2.472248
4181.000000;2.494564
4180.000000;2.523117
4179.000000;2.535857
4178.000000;2.528438
4177.000000;2.510145
4176.000000;2.486764
4175.000000;2.464713
4174.000000;2.451462
4173.000000;2.452629
4172.000000;2.469374
4171.000000;2.497214
4170.000000;2.527633
4169.000000;2.550145
4168.000000;2.556338
4167.000000;2.548325
4166.000000;2.538493
4165.000000;2.534777
4164.000000;2.533664
4163.000000;2.529652
4162.000000;2.524783
4161.000000;2.525057
4160.000000;2.530474
4159.000000;2.533496
4158.000000;2.530811
4157.000000;2.530710
4156.000000;2.541980
4155.000000;2.561246
4154.000000;2.577273
4153.000000;2.580765
4152.000000;2.569480
4151.000000;2.552825
4150.000000;2.540222
4149.000000;2.533038
4148.000000;2.533441
4147.000000;2.544889
4146.000000;2.561713
4145.000000;2.570855
4144.000000;2.572450
4143.000000;2.590126
4142.000000;2.651925
4141.000000;2.752862
4140.000000;2.816460
4139.000000;2.756936
4138.000000;2.637625
4137.000000;2.557801
4136.000000;2.544077
4135.000000;2.584165
4134.000000;2.652209
4133.000000;2.722103
4132.000000;2.774183
4131.000000;2.796278
4130.000000;2.790710
4129.000000;2.762480
4128.000000;2.709294
4127.000000;2.639622
4126.000000;2.578801
4125.000000;2.549802
4124.000000;2.558402
4123.000000;2.594540
4122.000000;2.644448
4121.000000;2.706123
4120.000000;2.743796
4119.000000;2.689749
4118.000000;2.609057
4117.000000;2.565457
4116.000000;2.562357
4115.000000;2.583984
4114.000000;2.599409
4113.000000;2.588151
4112.000000;2.570496
4111.000000;2.576317
4110.000000;2.603109
4109.000000;2.611475
4108.000000;2.567824
4107.000000;2.493883
4106.000000;2.432934
4105.000000;2.403914
4104.000000;2.400978
4103.000000;2.409835
4102.000000;2.424380
4101.000000;2.444848
4100.000000;2.466904
4099.000000;2.499052
4098.000000;2.560981
4097.000000;2.641293
4096.000000;2.704913
4095.000000;2.727606
4094.000000;2.670313
4093.000000;2.558265
4092.000000;2.460823
4091.000000;2.400631
4090.000000;2.367607
4089.000000;2.362253
4088.000000;2.406466
4087.000000;2.497150
4086.000000;2.572565
4085.000000;2.581622
4084.000000;2.559850
4083.000000;2.555370
4082.000000;2.572765
4081.000000;2.553928
4080.000000;2.483640
4079.000000;2.437463
4078.000000;2.453146
4077.000000;2.523383
4076.000000;2.568788
4075.000000;2.521729
4074.000000;2.474107
4073.000000;2.493352
4072.000000;2.571453
4071.000000;2.659834
4070.000000;2.715201
4069.000000;2.735505
4068.000000;2.717498
4067.000000;2.681841
4066.000000;2.673268
4065.000000;2.667643
4064.000000;2.595748
4063.000000;2.516965
4062.000000;2.494550
4061.000000;2.510771
4060.000000;2.517243
4059.000000;2.514467
4058.000000;2.536081
4057.000000;2.570102
4056.000000;2.583138
4055.000000;2.576137
4054.000000;2.524573
4053.000000;2.436340
4052.000000;2.380518
4051.000000;2.367853
4050.000000;2.377694
4049.000000;2.413052
4048.000000;2.494560
4047.000000;2.627536
4046.000000;2.743314
4045.000000;2.715830
4044.000000;2.566040
4043.000000;2.450919
4042.000000;2.424652
4041.000000;2.436222
4040.000000;2.442410
4039.000000;2.477527
4038.000000;2.575285
4037.000000;2.711168
4036.000000;2.709482
4035.000000;2.538564
4034.000000;2.398751
4033.000000;2.345798
4032.000000;2.392277
4031.000000;2.559377
4030.000000;2.909764
4029.000000;3.236659
4028.000000;3.041898
4027.000000;2.955334
4026.000000;2.925070
4025.000000;2.899357
4024.000000;2.804798
4023.000000;2.718218
4022.000000;2.694663
4021.000000;2.674329
4020.000000;2.593709
4019.000000;2.499265
4018.000000;2.450304
4017.000000;2.437889
4016.000000;2.415117
4015.000000;2.367277
4014.000000;2.344669
4013.000000;2.397315
4012.000000;2.490913
4011.000000;2.510682
4010.000000;2.535055
4009.000000;2.709270
4008.000000;3.188807
4007.000000;3.340909
4006.000000;2.900892
4005.000000;2.766140
4004.000000;2.800830
4003.000000;3.113196
4002.000000;3.172565
4001.000000;2.825874
4000.000000;3.124430
3999.000000;3.127360
3998.000000;2.570939
3997.000000;2.429901
3996.000000;2.395628
3995.000000;2.435091
3994.000000;2.493876
3993.000000;2.478517
3992.000000;2.415153
3991.000000;2.402803
3990.000000;2.474913
3989.000000;2.595742
3988.000000;2.707347
3987.000000;2.723067
3986.000000;2.620423
3985.000000;2.506037
3984.000000;2.442034
3983.000000;2.430841
3982.000000;2.456029
3981.000000;2.510370
3980.000000;2.637839
3979.000000;2.878792
3978.000000;2.860010
3977.000000;2.642250
3976.000000;2.571173
3975.000000;2.613314
3974.000000;2.777623
3973.000000;3.088387
3972.000000;3.612581
3971.000000;3.365274
3970.000000;2.942102
3969.000000;2.868200
3968.000000;2.963997
3967.000000;3.085803
3966.000000;3.090012
3965.000000;3.145762
3964.000000;3.283378
3963.000000;3.218390
3962.000000;2.937841
3961.000000;2.705019
3960.000000;2.621167
3959.000000;2.688959
3958.000000;2.903419
3957.000000;3.333402
3956.000000;3.762912
3955.000000;3.167334
3954.000000;2.901510
3953.000000;2.844290
3952.000000;2.948616
3951.000000;3.054002
3950.000000;2.928663
3949.000000;2.963284
3948.000000;3.368111
3947.000000;3.219281
3946.000000;2.956600
3945.000000;2.999470
3944.000000;2.869590
3943.000000;2.722331
3942.000000;2.659994
3941.000000;2.617364
3940.000000;2.578360
3939.000000;2.556889
3938.000000;2.593326
3937.000000;2.742143
3936.000000;3.047822
3935.000000;3.333445
3934.000000;3.612321
3933.000000;3.483716
3932.000000;3.139939
3931.000000;3.033793
3930.000000;3.024414
3929.000000;3.004190
3928.000000;2.975558
3927.000000;3.064857
3926.000000;3.168015
3925.000000;2.952837
3924.000000;2.808244
3923.000000;2.780563
3922.000000;2.799207
3921.000000;2.864428
3920.000000;2.949144
3919.000000;2.964931
3918.000000;2.950811
3917.000000;3.179401
3916.000000;3.590866
3915.000000;3.130102
3914.000000;2.852214
3913.000000;2.728487
3912.000000;2.700884
3911.000000;2.758706
3910.000000;2.853549
3909.000000;2.916848
3908.000000;3.026535
3907.000000;3.629564
3906.000000;3.397857
3905.000000;3.113261
3904.000000;3.079770
3903.000000;2.803080
3902.000000;2.567071
3901.000000;2.469146
3900.000000;2.455745
3899.000000;2.609948
3898.000000;3.012416
3897.000000;2.756431
3896.000000;2.531401
3895.000000;2.567488
3894.000000;2.756583
3893.000000;2.927303
3892.000000;2.843819
3891.000000;2.827065
3890.000000;2.926395
3889.000000;2.975195
3888.000000;2.917143
3887.000000;2.858654
3886.000000;2.810876
3885.000000;2.788364
3884.000000;2.791342
3883.000000;2.713517
3882.000000;2.608392
3881.000000;2.534507
3880.000000;2.577817
3879.000000;2.958864
3878.000000;3.012963
3877.000000;2.694231
3876.000000;2.683842
3875.000000;2.800515
3874.000000;2.914358
3873.000000;2.807215
3872.000000;2.650214
3871.000000;2.542388
3870.000000;2.494416
3869.000000;2.563153
3868.000000;2.891814
3867.000000;3.232653
3866.000000;2.878520
3865.000000;2.715666
3864.000000;2.691197
3863.000000;2.912423
3862.000000;3.365999
3861.000000;3.084006
3860.000000;2.844946
3859.000000;2.843022
3858.000000;3.043116
3857.000000;3.286262
3856.000000;3.246097
3855.000000;2.948362
3854.000000;2.735051
3853.000000;2.595754
3852.000000;2.666671
3851.000000;3.123035
3850.000000;2.962362
3849.000000;2.710706
3848.000000;2.814511
3847.000000;3.061857
3846.000000;2.968552
3845.000000;2.804806
3844.000000;2.891885
3843.000000;3.263429
3842.000000;2.978637
3841.000000;2.607253
3840.000000;2.472493
3839.000000;2.437925
3838.000000;2.513254
3837.000000;2.726235
3836.000000;2.985366
3835.000000;3.081119
3834.000000;2.996343
3833.000000;2.941379
3832.000000;2.968799
3831.000000;3.005861
3830.000000;2.916012
3829.000000;3.002943
3828.000000;3.514106
3827.000000;3.141393
3826.000000;2.881629
3825.000000;2.865165
3824.000000;2.932891
3823.000000;3.138471
3822.000000;3.517132
3821.000000;3.666481
3820.000000;3.026151
3819.000000;2.654991
3818.000000;2.487861
3817.000000;2.416788
3816.000000;2.390099
3815.000000;2.403221
3814.000000;2.453357
3813.000000;2.535005
3812.000000;2.639290
3811.000000;2.778588
3810.000000;3.126664
3809.000000;3.682165
3808.000000;3.398427
3807.000000;3.161301
3806.000000;2.995650
3805.000000;2.796965
3804.000000;2.660419
3803.000000;2.631088
3802.000000;2.805635
3801.000000;3.064829
3800.000000;2.553494
3799.000000;2.350061
3798.000000;2.378389
3797.000000;2.537086
3796.000000;3.097736
3795.000000;3.000685
3794.000000;2.753228
3793.000000;2.809298
3792.000000;2.855055
3791.000000;2.975475
3790.000000;3.119824
3789.000000;3.134784
3788.000000;2.944300
3787.000000;2.806793
3786.000000;2.789297
3785.000000;2.875665
3784.000000;2.976583
3783.000000;3.094789
3782.000000;3.156749
3781.000000;3.078430
3780.000000;3.003047
3779.000000;3.079327
3778.000000;3.666445
3777.000000;3.408069
3776.000000;3.059293
3775.000000;3.142372
3774.000000;3.211431
3773.000000;3.186027
3772.000000;3.059130
3771.000000;2.991839
3770.000000;2.917104
3769.000000;2.800328
3768.000000;2.736765
3767.000000;2.863753
3766.000000;3.246263
3765.000000;3.002549
3764.000000;2.720670
3763.000000;2.632363
3762.000000;2.588883
3761.000000;2.573802
3760.000000;2.604671
3759.000000;2.721609
3758.000000;3.032040
3757.000000;3.377606
3756.000000;3.068103
3755.000000;2.924890
3754.000000;3.024235
3753.000000;3.553057
3752.000000;3.168106
3751.000000;3.100479
3750.000000;3.430291
3749.000000;3.147649
3748.000000;3.076183
3747.000000;3.080618
3746.000000;3.417164
3745.000000;3.574786
3744.000000;3.140012
3743.000000;2.957454
3742.000000;2.934097
3741.000000;2.974279
3740.000000;2.909628
3739.000000;2.817637
3738.000000;2.811428
3737.000000;2.831006
3736.000000;2.833232
3735.000000;2.844516
3734.000000;2.929257
3733.000000;3.065117
3732.000000;3.240424
3731.000000;2.990520
3730.000000;3.046848
3729.000000;2.673999
3728.000000;2.580879
3727.000000;2.895544
3726.000000;2.960805
3725.000000;3.041488
3724.000000;3.000271
3723.000000;3.058192
3722.000000;3.036782
3721.000000;2.950882
3720.000000;2.895118
3719.000000;2.976979
3718.000000;3.421333
3717.000000;3.463107
3716.000000;3.069418
3715.000000;3.000162
3714.000000;3.058567
3713.000000;3.117007
3712.000000;2.912654
3711.000000;2.683246
3710.000000;2.577798
3709.000000;2.559462
3708.000000;2.547556
3707.000000;2.514571
3706.000000;2.512169
3705.000000;2.548705
3704.000000;2.624601
3703.000000;2.732394
3702.000000;2.834893
3701.000000;2.936829
3700.000000;3.149435
3699.000000;3.173339
3698.000000;3.068503
3697.000000;3.374492
3696.000000;3.316007
3695.000000;3.000999
3694.000000;3.008134
3693.000000;3.190888
3692.000000;3.920273
3691.000000;3.484096
3690.000000;2.893650
3689.000000;2.576768
3688.000000;2.526918
3687.000000;2.747256
3686.000000;2.579254
3685.000000;2.423862
3684.000000;2.498008
3683.000000;2.639335
3682.000000;2.802938
3681.000000;2.857264
3680.000000;2.827893
3679.000000;2.824495
3678.000000;2.797496
3677.000000;2.858424
3676.000000;2.870608
3675.000000;2.730359
3674.000000;2.674994
3673.000000;2.689159
3672.000000;2.822642
3671.000000;3.211456
3670.000000;3.603583
3669.000000;2.950307
3668.000000;2.944466
3667.000000;2.596580
3666.000000;2.494477
3665.000000;2.661676
3664.000000;2.770218
3663.000000;3.101967
3662.000000;3.340212
3661.000000;3.442695
3660.000000;3.277965
3659.000000;3.018221
3658.000000;2.849181
3657.000000;2.782505
3656.000000;2.825560
3655.000000;2.959925
3654.000000;3.286316
3653.000000;3.889770
3652.000000;3.317446
3651.000000;3.368965
3650.000000;3.306632
3649.000000;2.812677
3648.000000;2.693777
3647.000000;2.828080
3646.000000;2.914209
3645.000000;2.585203
3644.000000;2.472246
3643.000000;2.678415
3642.000000;2.980430
3641.000000;3.080193
3640.000000;3.270629
3639.000000;3.490375
3638.000000;3.311944
3637.000000;3.232525
3636.000000;3.113269
3635.000000;2.968837
3634.000000;2.922830
3633.000000;3.181855
3632.000000;3.403484
3631.000000;2.842385
3630.000000;2.647542
3629.000000;2.590593
3628.000000;2.719426
3627.000000;2.769124
3626.000000;2.512186
3625.000000;2.452554
3624.000000;2.556054
3623.000000;2.731684
3622.000000;2.803500
3621.000000;2.788968
3620.000000;2.808241
3619.000000;2.768143
3618.000000;2.651381
3617.000000;2.514838
3616.000000;2.432568
3615.000000;2.414266
3614.000000;2.460644
3613.000000;2.579810
3612.000000;2.821104
3611.000000;3.103699
3610.000000;3.051903
3609.000000;2.922276
3608.000000;3.033955
3607.000000;3.126336
3606.000000;2.756422
3605.000000;2.590620
3604.000000;2.595475
3603.000000;2.664635
3602.000000;2.738887
3601.000000;2.755482
3600.000000;2.795079
3599.000000;2.893012
3598.000000;3.248058
3597.000000;3.747676
3596.000000;3.104245
3595.000000;2.947257
3594.000000;3.177097
3593.000000;3.165401
3592.000000;2.801080
3591.000000;2.694036
3590.000000;2.677542
3589.000000;2.692742
3588.000000;2.753676
3587.000000;2.946188
3586.000000;3.460878
3585.000000;3.085549
3584.000000;2.821819
3583.000000;2.824306
3582.000000;2.854681
3581.000000;2.796227
3580.000000;2.684038
3579.000000;2.631922
3578.000000;2.660347
3577.000000;2.756984
3576.000000;2.891081
3575.000000;3.034865
3574.000000;3.358278
3573.000000;3.576891
3572.000000;3.158025
3571.000000;3.073892
3570.000000;3.178238
3569.000000;3.320944
3568.000000;3.426204
3567.000000;3.209461
3566.000000;2.994259
3565.000000;2.911203
3564.000000;3.001320
3563.000000;3.369736
3562.000000;3.077311
3561.000000;2.776853
3560.000000;2.822655
3559.000000;3.161476
3558.000000;3.283228
3557.000000;2.984521
3556.000000;2.843562
3555.000000;2.753947
3554.000000;2.678988
3553.000000;2.625676
3552.000000;2.598318
3551.000000;2.586648
3550.000000;2.582863
3549.000000;2.597236
3548.000000;2.641422
3547.000000;2.731759
3546.000000;2.926316
3545.000000;3.245433
3544.000000;3.216252
3543.000000;3.034797
3542.000000;2.943415
3541.000000;2.888761
3540.000000;2.911909
3539.000000;3.042785
3538.000000;3.486887
3537.000000;3.448259
3536.000000;3.007366
3535.000000;2.867464
3534.000000;2.751379
3533.000000;2.693346
3532.000000;2.743181
3531.000000;2.979961
3530.000000;3.776962
3529.000000;3.692879
3528.000000;3.469078
3527.000000;3.465899
3526.000000;3.277208
3525.000000;3.147853
3524.000000;3.031901
3523.000000;2.936399
3522.000000;2.914990
3521.000000;2.993476
3520.000000;3.223415
3519.000000;3.369284
3518.000000;3.023757
3517.000000;2.774263
3516.000000;2.642969
3515.000000;2.620720
3514.000000;2.752018
3513.000000;2.896100
3512.000000;2.796477
3511.000000;2.752646
3510.000000;2.869548
3509.000000;3.086054
3508.000000;3.278746
3507.000000;3.193570
3506.000000;3.026703
3505.000000;2.911854
3504.000000;2.787202
3503.000000;2.680063
3502.000000;2.660943
3501.000000;2.772457
3500.000000;2.927412
3499.000000;2.848353
3498.000000;2.758638
3497.000000;2.795306
3496.000000;2.919329
3495.000000;3.046430
3494.000000;3.196917
3493.000000;3.560515
3492.000000;3.333512
3491.000000;2.950548
3490.000000;2.791563
3489.000000;2.720305
3488.000000;2.713994
3487.000000;2.751599
3486.000000;2.803446
3485.000000;2.862512
3484.000000;2.942782
3483.000000;3.025472
3482.000000;3.016627
3481.000000;2.947780
3480.000000;2.941897
3479.000000;3.034779
3478.000000;3.175366
3477.000000;3.274457
3476.000000;3.333361
3475.000000;3.375272
3474.000000;3.418329
3473.000000;3.552339
3472.000000;3.665557
3471.000000;3.537119
3470.000000;3.319076
3469.000000;3.118552
3468.000000;3.034564
3467.000000;3.107849
3466.000000;3.465053
3465.000000;3.488751
3464.000000;3.228644
3463.000000;3.510868
3462.000000;3.241841
3461.000000;2.891570
3460.000000;2.889065
3459.000000;3.039488
3458.000000;3.138658
3457.000000;3.018465
3456.000000;2.923197
3455.000000;2.947155
3454.000000;3.102858
3453.000000;3.353647
3452.000000;3.439162
3451.000000;3.285307
3450.000000;3.218957
3449.000000;3.537548
3448.000000;3.679280
3447.000000;3.337985
3446.000000;3.227988
3445.000000;2.998350
3444.000000;2.839650
3443.000000;2.807755
3442.000000;2.852003
3441.000000;2.929080
3440.000000;2.998505
3439.000000;3.050351
3438.000000;3.083321
3437.000000;3.110964
3436.000000;3.155298
3435.000000;3.220363
3434.000000;3.273760
3433.000000;3.264411
3432.000000;3.237951
3431.000000;3.177418
3430.000000;3.072602
3429.000000;3.024450
3428.000000;3.087793
3427.000000;3.461268
3426.000000;3.668423
3425.000000;3.253695
3424.000000;3.178795
3423.000000;3.315220
3422.000000;3.323874
3421.000000;3.155829
3420.000000;3.124725
3419.000000;3.219511
3418.000000;3.277113
3417.000000;3.299522
3416.000000;3.159909
3415.000000;2.968784
3414.000000;2.916163
3413.000000;3.178485
3412.000000;3.651230
3411.000000;3.022717
3410.000000;2.915446
3409.000000;2.970345
3408.000000;3.250120
3407.000000;3.308483
3406.000000;2.928356
3405.000000;2.817437
3404.000000;2.852306
3403.000000;3.009431
3402.000000;3.145542
3401.000000;3.080163
3400.000000;2.978303
3399.000000;2.904135
3398.000000;2.822113
3397.000000;2.786911
3396.000000;2.880229
3395.000000;3.193581
3394.000000;3.414089
3393.000000;3.226116
3392.000000;3.183470
3391.000000;3.156690
3390.000000;3.069400
3389.000000;3.033776
3388.000000;3.097052
3387.000000;3.214346
3386.000000;3.271289
3385.000000;3.295769
3384.000000;3.220676
3383.000000;3.055077
3382.000000;2.978212
3381.000000;3.010856
3380.000000;3.089668
3379.000000;3.118364
3378.000000;3.102144
3377.000000;3.065555
3376.000000;3.007226
3375.000000;3.014720
3374.000000;3.166707
3373.000000;3.144548
3372.000000;3.021266
3371.000000;3.110098
3370.000000;3.364435
3369.000000;3.288359
3368.000000;3.080177
3367.000000;2.922339
3366.000000;2.834646
3365.000000;2.888654
3364.000000;3.183570
3363.000000;3.328036
3362.000000;3.318875
3361.000000;3.782973
3360.000000;3.022693
3359.000000;2.843657
3358.000000;2.898358
3357.000000;3.061256
3356.000000;2.940123
3355.000000;2.785461
3354.000000;2.792100
3353.000000;3.025533
3352.000000;3.279814
3351.000000;3.004983
3350.000000;2.924653
3349.000000;2.997359
3348.000000;3.037688
3347.000000;3.032960
3346.000000;3.132480
3345.000000;3.821804
3344.000000;3.632079
3343.000000;3.265676
3342.000000;3.323763
3341.000000;3.691831
3340.000000;3.231369
3339.000000;3.034184
3338.000000;3.333664
3337.000000;3.188588
3336.000000;2.776943
3335.000000;2.663371
3334.000000;2.701970
3333.000000;2.892663
3332.000000;3.258898
3331.000000;3.125920
3330.000000;2.941626
3329.000000;2.971453
3328.000000;3.240141
3327.000000;3.650023
3326.000000;3.187487
3325.000000;2.963716
3324.000000;2.928344
3323.000000;2.997343
3322.000000;3.098997
3321.000000;3.105218
3320.000000;2.952463
3319.000000;2.865132
3318.000000;2.964268
3317.000000;3.186426
3316.000000;3.214802
3315.000000;3.237225
3314.000000;2.984775
3313.000000;2.768293
3312.000000;2.749879
3311.000000;2.937158
3310.000000;3.560929
3309.000000;3.405152
3308.000000;3.253592
3307.000000;3.117486
3306.000000;2.996792
3305.000000;2.977650
3304.000000;3.061071
3303.000000;3.330995
3302.000000;3.622112
3301.000000;3.219029
3300.000000;2.948032
3299.000000;2.797124
3298.000000;2.767305
3297.000000;2.857242
3296.000000;3.040421
3295.000000;3.165099
3294.000000;3.137504
3293.000000;3.121564
3292.000000;3.391940
3291.000000;3.489950
3290.000000;3.135042
3289.000000;3.003831
3288.000000;3.000469
3287.000000;3.025911
3286.000000;3.020294
3285.000000;3.085123
3284.000000;3.250580
3283.000000;3.233461
3282.000000;3.273050
3281.000000;3.276684
3280.000000;2.926357
3279.000000;2.785216
3278.000000;2.838886
3277.000000;3.192199
3276.000000;3.867363
3275.000000;3.175813
3274.000000;2.934484
3273.000000;2.752625
3272.000000;2.693742
3271.000000;2.746428
3270.000000;2.907055
3269.000000;3.132402
3268.000000;3.258933
3267.000000;3.193586
3266.000000;3.138138
3265.000000;3.123977
3264.000000;3.177844
3263.000000;3.427526
3262.000000;3.543328
3261.000000;3.355594
3260.000000;3.315693
3259.000000;3.395102
3258.000000;3.569384
3257.000000;3.726516
3256.000000;4.208013
3255.000000;3.306446
3254.000000;3.068828
3253.000000;3.017976
3252.000000;2.967253
3251.000000;2.838925
3250.000000;2.745625
3249.000000;2.743460
3248.000000;2.890873
3247.000000;3.090665
3246.000000;2.939655
3245.000000;2.808300
3244.000000;2.834939
3243.000000;2.903527
3242.000000;2.891589
3241.000000;2.885536
3240.000000;2.864924
3239.000000;2.811856
3238.000000;2.809796
3237.000000;2.869542
3236.000000;2.988128
3235.000000;3.091233
3234.000000;3.036454
3233.000000;3.030873
3232.000000;3.210843
3231.000000;3.525562
3230.000000;3.429871
3229.000000;3.026761
3228.000000;2.840621
3227.000000;2.841726
3226.000000;3.020292
3225.000000;3.424543
3224.000000;4.118821
3223.000000;3.449654
3222.000000;3.066399
3221.000000;2.946795
3220.000000;3.024882
3219.000000;3.463775
3218.000000;3.603799
3217.000000;3.183175
3216.000000;3.241605
3215.000000;3.228363
3214.000000;3.078263
3213.000000;2.983018
3212.000000;3.018242
3211.000000;3.090022
3210.000000;3.111614
3209.000000;3.166917
3208.000000;3.129615
3207.000000;3.032278
3206.000000;2.982895
3205.000000;2.908554
3204.000000;2.925446
3203.000000;3.159314
3202.000000;3.968315
3201.000000;3.220255
3200.000000;3.016358
3199.000000;2.898580
3198.000000;2.850541
3197.000000;2.875280
3196.000000;2.997093
3195.000000;3.296104
3194.000000;3.426926
3193.000000;3.047538
3192.000000;2.880217
3191.000000;2.830349
3190.000000;2.920088
3189.000000;3.349996
3188.000000;3.322200
3187.000000;2.993697
3186.000000;3.045712
3185.000000;3.138571
3184.000000;3.128623
3183.000000;3.077032
3182.000000;3.078408
3181.000000;3.007657
3180.000000;2.967276
3179.000000;3.034736
3178.000000;2.850855
3177.000000;2.660038
3176.000000;2.617288
3175.000000;2.685131
3174.000000;2.780983
3173.000000;2.819626
3172.000000;2.908482
3171.000000;3.250115
3170.000000;3.855658
3169.000000;3.476151
3168.000000;3.583021
3167.000000;3.254652
3166.000000;3.154150
3165.000000;3.176115
3164.000000;3.323101
3163.000000;3.207888
3162.000000;2.973203
3161.000000;2.887379
3160.000000;2.885530
3159.000000;2.889810
3158.000000;2.862794
3157.000000;2.850885
3156.000000;2.889705
3155.000000;3.055193
3154.000000;3.135101
3153.000000;2.927133
3152.000000;2.794417
3151.000000;2.729971
3150.000000;2.684712
3149.000000;2.669386
3148.000000;2.709242
3147.000000;2.827286
3146.000000;3.000135
3145.000000;2.959906
3144.000000;2.828174
3143.000000;2.818880
3142.000000;2.884600
3141.000000;2.841760
3140.000000;2.715840
3139.000000;2.651705
3138.000000;2.649901
3137.000000;2.680347
3136.000000;2.709230
3135.000000;2.753396
3134.000000;2.845565
3133.000000;2.983752
3132.000000;3.013694
3131.000000;2.898734
3130.000000;2.840287
3129.000000;2.865864
3128.000000;2.919819
3127.000000;2.963920
3126.000000;3.026543
3125.000000;3.136438
3124.000000;3.145092
3123.000000;3.065081
3122.000000;3.034890
3121.000000;3.029510
3120.000000;3.014029
3119.000000;3.016498
3118.000000;3.091477
3117.000000;3.233016
3116.000000;3.177379
3115.000000;3.006139
3114.000000;2.914942
3113.000000;2.860334
3112.000000;2.843314
3111.000000;2.883227
3110.000000;2.931169
3109.000000;2.883243
3108.000000;2.775747
3107.000000;2.710288
3106.000000;2.713647
3105.000000;2.752538
3104.000000;2.760344
3103.000000;2.715886
3102.000000;2.678845
3101.000000;2.696903
3100.000000;2.757302
3099.000000;2.813999
3098.000000;2.878242
3097.000000;3.013455
3096.000000;3.298695
3095.000000;3.121767
3094.000000;2.856114
3093.000000;2.751681
3092.000000;2.772520
3091.000000;2.879780
3090.000000;2.908524
3089.000000;2.831236
3088.000000;2.834687
3087.000000;3.123552
3086.000000;3.308469
3085.000000;2.835492
3084.000000;2.762274
3083.000000;2.808572
3082.000000;2.912579
3081.000000;2.963296
3080.000000;3.022256
3079.000000;3.081227
3078.000000;3.073745
3077.000000;3.082490
3076.000000;3.056083
3075.000000;3.051246
3074.000000;3.221190
3073.000000;3.180986
3072.000000;3.084344
3071.000000;3.063475
3070.000000;2.873727
3069.000000;2.712587
3068.000000;2.656439
3067.000000;2.704773
3066.000000;2.861710
3065.000000;3.026707
3064.000000;3.089105
3063.000000;3.347544
3062.000000;3.792252
3061.000000;3.744217
3060.000000;3.389640
3059.000000;2.926125
3058.000000;2.809596
3057.000000;2.829552
3056.000000;3.225719
3055.000000;3.522062
3054.000000;2.941136
3053.000000;2.874698
3052.000000;2.957981
3051.000000;3.109278
3050.000000;3.180689
3049.000000;3.258437
3048.000000;3.625150
3047.000000;3.538496
3046.000000;3.195331
3045.000000;3.054082
3044.000000;3.011682
3043.000000;3.007330
3042.000000;2.959819
3041.000000;2.895935
3040.000000;2.882842
3039.000000;2.962896
3038.000000;3.223521
3037.000000;3.596678
3036.000000;3.311241
3035.000000;3.222874
3034.000000;3.125471
3033.000000;3.012975
3032.000000;3.008771
3031.000000;3.265889
3030.000000;3.490750
3029.000000;3.198582
3028.000000;3.269866
3027.000000;3.513616
3026.000000;3.363885
3025.000000;3.215016
3024.000000;3.269314
3023.000000;3.389315
3022.000000;3.579204
3021.000000;3.673930
3020.000000;3.697133
3019.000000;4.062044
3018.000000;3.420400
3017.000000;3.079672
3016.000000;2.944352
3015.000000;2.937607
3014.000000;3.068115
3013.000000;3.421587
3012.000000;4.792610
3011.000000;3.650490
3010.000000;3.486246
3009.000000;3.287830
3008.000000;3.177705
3007.000000;3.195528
3006.000000;3.259344
3005.000000;3.201020
3004.000000;3.056496
3003.000000;2.968397
3002.000000;2.967604
3001.000000;3.026203
3000.000000;2.998050
2999.000000;2.911969
2998.000000;2.919156
2997.000000;3.039273
2996.000000;3.130060
2995.000000;3.097282
2994.000000;3.078073
2993.000000;2.998659
2992.000000;2.842214
2991.000000;2.732365
2990.000000;2.703819
2989.000000;2.739270
2988.000000;2.796592
2987.000000;2.818762
2986.000000;2.799421
2985.000000;2.797695
2984.000000;2.850616
2983.000000;2.943410
2982.000000;3.020699
2981.000000;3.083965
2980.000000;3.240167
2979.000000;3.534486
2978.000000;3.512179
2977.000000;3.182083
2976.000000;2.949744
2975.000000;2.839996
2974.000000;2.832556
2973.000000;2.924826
2972.000000;3.058753
2971.000000;3.000127
2970.000000;2.902449
2969.000000;2.977901
2968.000000;3.339156
2967.000000;3.193719
2966.000000;2.889135
2965.000000;2.761385
2964.000000;2.730425
2963.000000;2.822937
2962.000000;3.065434
2961.000000;3.089730
2960.000000;2.849587
2959.000000;2.794205
2958.000000;2.882329
2957.000000;3.006363
2956.000000;3.154797
2955.000000;3.357304
2954.000000;3.301656
2953.000000;3.108071
2952.000000;3.005078
2951.000000;2.948475
2950.000000;2.908755
2949.000000;2.913756
2948.000000;2.959440
2947.000000;3.037068
2946.000000;3.273778
2945.000000;3.550382
2944.000000;3.523544
2943.000000;3.273508
2942.000000;3.049992
2941.000000;2.992659
2940.000000;2.991810
2939.000000;2.945163
2938.000000;2.902235
2937.000000;2.908635
2936.000000;2.962892
2935.000000;3.018268
2934.000000;3.136608
2933.000000;3.584265
2932.000000;3.433410
2931.000000;3.204395
2930.000000;3.219729
2929.000000;3.132056
2928.000000;3.046850
2927.000000;2.969336
2926.000000;2.881923
2925.000000;2.880063
2924.000000;2.929831
2923.000000;2.840622
2922.000000;2.698574
2921.000000;2.647570
2920.000000;2.674683
2919.000000;2.732681
2918.000000;2.771016
2917.000000;2.795359
2916.000000;2.856861
2915.000000;2.920773
2914.000000;2.896278
2913.000000;2.859724
2912.000000;2.914889
2911.000000;3.086640
2910.000000;3.116121
2909.000000;2.967169
2908.000000;2.912658
2907.000000;2.961715
2906.000000;3.098915
2905.000000;3.446534
2904.000000;3.891451
2903.000000;3.741610
2902.000000;3.933884
2901.000000;3.371409
2900.000000;3.022695
2899.000000;2.905690
2898.000000;2.968150
2897.000000;3.109910
2896.000000;3.112315
2895.000000;3.126478
2894.000000;3.320404
2893.000000;3.547316
2892.000000;3.344955
2891.000000;3.106068
2890.000000;2.931948
2889.000000;2.847869
2888.000000;2.912673
2887.000000;3.188269
2886.000000;3.735991
2885.000000;3.586546
2884.000000;3.510021
2883.000000;3.657485
2882.000000;3.624255
2881.000000;3.894030
2880.000000;3.417752
2879.000000;3.069381
2878.000000;2.964464
2877.000000;2.928994
2876.000000;2.844114
2875.000000;2.762478
2874.000000;2.794046
2873.000000;2.974096
2872.000000;3.326632
2871.000000;3.790132
2870.000000;3.751086
2869.000000;3.474285
2868.000000;3.206635
2867.000000;2.993585
2866.000000;2.884713
2865.000000;3.010448
2864.000000;3.447505
2863.000000;3.053833
2862.000000;2.775123
2861.000000;2.756683
2860.000000;2.794500
2859.000000;2.847946
2858.000000;2.873933
2857.000000;2.912330
2856.000000;3.014341
2855.000000;3.200672
2854.000000;3.411874
2853.000000;3.322435
2852.000000;3.090152
2851.000000;2.904521
2850.000000;2.808576
2849.000000;2.807547
2848.000000;2.884909
2847.000000;2.955773
2846.000000;2.875936
2845.000000;2.768488
2844.000000;2.755493
2843.000000;2.845049
2842.000000;3.023998
2841.000000;3.212423
2840.000000;3.253116
2839.000000;3.157158
2838.000000;3.045046
2837.000000;2.990835
2836.000000;3.017045
2835.000000;3.170913
2834.000000;3.400678
2833.000000;3.509013
2832.000000;3.375486
2831.000000;3.345698
2830.000000;3.660485
2829.000000;3.347480
2828.000000;3.123412
2827.000000;3.155996
2826.000000;3.172215
2825.000000;3.095725
2824.000000;2.997993
2823.000000;3.008233
2822.000000;3.062145
2821.000000;3.276883
2820.000000;3.654213
2819.000000;3.163182
2818.000000;3.006000
2817.000000;3.062481
2816.000000;3.004272
2815.000000;2.932631
2814.000000;2.889936
2813.000000;2.826127
2812.000000;2.941065
2811.000000;2.910253
2810.000000;2.655742
2809.000000;2.595516
2808.000000;2.666537
2807.000000;2.766779
2806.000000;2.888095
2805.000000;3.031725
2804.000000;3.170679
2803.000000;3.191087
2802.000000;3.312565
2801.000000;3.657671
2800.000000;3.091548
2799.000000;2.789468
2798.000000;2.690787
2797.000000;2.674073
2796.000000;2.738577
2795.000000;2.870131
2794.000000;3.218485
2793.000000;3.515529
2792.000000;3.101930
2791.000000;2.997075
2790.000000;3.041391
2789.000000;3.145442
2788.000000;3.258801
2787.000000;3.252179
2786.000000;3.394782
2785.000000;3.695925
2784.000000;3.283438
2783.000000;3.015475
2782.000000;3.023271
2781.000000;3.225731
2780.000000;3.331176
2779.000000;3.119012
2778.000000;3.044253
2777.000000;3.124878
2776.000000;3.357818
2775.000000;3.764488
2774.000000;3.440534
2773.000000;3.007366
2772.000000;2.834403
2771.000000;2.853551
2770.000000;3.090262
2769.000000;3.564143
2768.000000;3.457742
2767.000000;3.224284
2766.000000;3.265902
2765.000000;3.321995
2764.000000;3.118969
2763.000000;2.990665
2762.000000;3.004326
2761.000000;3.221930
2760.000000;3.586585
2759.000000;3.305901
2758.000000;3.095143
2757.000000;3.020965
2756.000000;2.984353
2755.000000;3.029911
2754.000000;3.141412
2753.000000;3.310302
2752.000000;3.272120
2751.000000;3.161259
2750.000000;3.121938
2749.000000;3.293595
2748.000000;3.934756
2747.000000;3.282317
2746.000000;3.007835
2745.000000;2.970347
2744.000000;2.951055
2743.000000;2.907028
2742.000000;2.852072
2741.000000;2.883339
2740.000000;3.074647
2739.000000;3.393521
2738.000000;3.324693
2737.000000;3.299712
2736.000000;3.550589
2735.000000;3.382750
2734.000000;3.108049
2733.000000;3.088441
2732.000000;3.201625
2731.000000;3.528864
2730.000000;4.000153
2729.000000;3.598712
2728.000000;3.605688
2727.000000;3.423873
2726.000000;3.101866
2725.000000;3.016636
2724.000000;3.141371
2723.000000;3.324649
2722.000000;3.134743
2721.000000;3.053829
2720.000000;3.151311
2719.000000;3.141849
2718.000000;3.044010
2717.000000;3.140110
2716.000000;3.623435
2715.000000;3.325675
2714.000000;2.942888
2713.000000;2.828594
2712.000000;2.876036
2711.000000;2.976956
2710.000000;2.895098
2709.000000;2.813623
2708.000000;3.009644
2707.000000;3.446933
2706.000000;3.073351
2705.000000;2.855623
2704.000000;2.891229
2703.000000;3.069958
2702.000000;3.339536
2701.000000;3.383078
2700.000000;3.254716
2699.000000;3.075965
2698.000000;2.922138
2697.000000;2.881160
2696.000000;2.987820
2695.000000;3.079318
2694.000000;3.017708
2693.000000;3.025031
2692.000000;3.127001
2691.000000;3.255473
2690.000000;3.376154
2689.000000;3.337075
2688.000000;3.169787
2687.000000;3.013106
2686.000000;2.901492
2685.000000;2.874092
2684.000000;2.948205
2683.000000;3.163907
2682.000000;3.516597
2681.000000;3.507691
2680.000000;3.372020
2679.000000;3.188777
2678.000000;2.963192
2677.000000;2.859927
2676.000000;2.892022
2675.000000;3.074983
2674.000000;3.314027
2673.000000;3.573732
2672.000000;3.445981
2671.000000;3.119484
2670.000000;2.955904
2669.000000;2.904185
2668.000000;2.904091
2667.000000;3.080632
2666.000000;3.567938
2665.000000;3.224430
2664.000000;3.030012
2663.000000;3.105161
2662.000000;3.168920
2661.000000;3.168281
2660.000000;3.141425
2659.000000;3.077074
2658.000000;2.939097
2657.000000;2.803020
2656.000000;2.718286
2655.000000;2.722414
2654.000000;2.832488
2653.000000;3.056566
2652.000000;3.205664
2651.000000;3.121075
2650.000000;3.059925
2649.000000;3.058448
2648.000000;3.099471
2647.000000;3.292463
2646.000000;3.394002
2645.000000;3.056655
2644.000000;2.852044
2643.000000;2.798868
2642.000000;2.839681
2641.000000;2.952049
2640.000000;3.068427
2639.000000;3.178645
2638.000000;3.185665
2637.000000;3.131994
2636.000000;3.334331
2635.000000;3.296543
2634.000000;2.938659
2633.000000;2.857683
2632.000000;2.866392
2631.000000;2.803328
2630.000000;2.745828
2629.000000;2.743458
2628.000000;2.812437
2627.000000;2.939975
2626.000000;2.970856
2625.000000;2.907780
2624.000000;2.918743
2623.000000;2.988127
2622.000000;3.071187
2621.000000;3.138159
2620.000000;3.121346
2619.000000;3.039343
2618.000000;3.018032
2617.000000;3.061695
2616.000000;3.098002
2615.000000;3.168365
2614.000000;3.223959
2613.000000;3.226491
2612.000000;3.245206
2611.000000;3.200700
2610.000000;3.114893
2609.000000;3.002570
2608.000000;2.865712
2607.000000;2.744335
2606.000000;2.682329
2605.000000;2.699490
2604.000000;2.885849
2603.000000;3.100473
2602.000000;2.886464
2601.000000;2.774852
2600.000000;2.831409
2599.000000;2.913691
2598.000000;2.905078
2597.000000;2.887950
2596.000000;2.942629
2595.000000;3.070087
2594.000000;3.145856
2593.000000;3.124075
2592.000000;3.086784
2591.000000;3.193143
2590.000000;3.986160
2589.000000;3.522432
2588.000000;3.166716
2587.000000;3.293633
2586.000000;3.295214
2585.000000;3.300030
2584.000000;3.584539
2583.000000;3.330218
2582.000000;3.146786
2581.000000;3.223696
2580.000000;3.345692
2579.000000;3.698280
2578.000000;3.312035
2577.000000;2.903716
2576.000000;2.802039
2575.000000;2.859722
2574.000000;3.157763
2573.000000;3.403821
2572.000000;3.085368
2571.000000;2.974537
2570.000000;2.964088
2569.000000;2.972690
2568.000000;2.964552
2567.000000;2.941333
2566.000000;2.929181
2565.000000;2.914937
2564.000000;2.891689
2563.000000;2.899184
2562.000000;2.999467
2561.000000;3.238926
2560.000000;3.722089
2559.000000;3.515561
2558.000000;3.117489
2557.000000;2.971956
2556.000000;2.986460
2555.000000;3.124386
2554.000000;3.336779
2553.000000;3.685179
2552.000000;3.380725
2551.000000;2.950794
2550.000000;2.761533
2549.000000;2.702750
2548.000000;2.748511
2547.000000;2.877015
2546.000000;3.027025
2545.000000;3.127808
2544.000000;3.255131
2543.000000;3.310135
2542.000000;3.118615
2541.000000;2.991885
2540.000000;2.968368
2539.000000;2.987152
2538.000000;3.038502
2537.000000;3.102527
2536.000000;3.090339
2535.000000;3.015992
2534.000000;2.975613
2533.000000;2.971147
2532.000000;2.978585
2531.000000;3.020616
2530.000000;3.151856
2529.000000;3.525689
2528.000000;3.609030
2527.000000;3.169490
2526.000000;3.102817
2525.000000;3.331500
2524.000000;3.303505
2523.000000;2.996513
2522.000000;2.895426
2521.000000;2.876895
2520.000000;2.932001
2519.000000;3.024677
2518.000000;2.918881
2517.000000;2.744597
2516.000000;2.690642
2515.000000;2.735639
2514.000000;2.908287
2513.000000;3.569677
2512.000000;3.372075
2511.000000;3.082604
2510.000000;3.391387
2509.000000;3.410912
2508.000000;3.181663
2507.000000;3.013010
2506.000000;2.904146
2505.000000;2.879290
2504.000000;2.915352
2503.000000;2.969475
2502.000000;3.171937
2501.000000;3.766798
2500.000000;3.479197
2499.000000;3.364164
2498.000000;3.284638
2497.000000;3.108837
2496.000000;3.191173
2495.000000;3.423627
2494.000000;3.241101
2493.000000;2.919173
2492.000000;2.748086
2491.000000;2.696799
2490.000000;2.780037
2489.000000;3.020089
2488.000000;3.204386
2487.000000;3.039867
2486.000000;2.970286
2485.000000;2.985094
2484.000000;3.102691
2483.000000;3.796851
2482.000000;3.465745
2481.000000;3.111151
2480.000000;3.250909
2479.000000;3.469879
2478.000000;3.168969
2477.000000;2.926933
2476.000000;2.841239
2475.000000;2.874244
2474.000000;3.037597
2473.000000;3.163001
2472.000000;3.098745
2471.000000;3.251871
2470.000000;3.421244
2469.000000;3.013244
2468.000000;2.838771
2467.000000;2.824911
2466.000000;2.892546
2465.000000;2.965866
2464.000000;2.976022
2463.000000;3.025674
2462.000000;3.320562
2461.000000;3.702418
2460.000000;3.438095
2459.000000;3.356132
2458.000000;3.298514
2457.000000;3.268637
2456.000000;3.390535
2455.000000;3.401817
2454.000000;3.270205
2453.000000;3.213318
2452.000000;3.165614
2451.000000;3.029390
2450.000000;2.858451
2449.000000;2.735419
2448.000000;2.694390
2447.000000;2.711056
2446.000000;2.764321
2445.000000;2.839951
2444.000000;3.117137
2443.000000;3.662324
2442.000000;3.160935
2441.000000;3.022624
2440.000000;3.051707
2439.000000;3.130529
2438.000000;3.221146
2437.000000;3.311183
2436.000000;3.443674
2435.000000;3.459012
2434.000000;3.938560
2433.000000;3.571387
2432.000000;3.128315
2431.000000;3.057700
2430.000000;3.098978
2429.000000;3.263968
2428.000000;3.239572
2427.000000;3.054949
2426.000000;3.014099
2425.000000;3.035128
2424.000000;3.057716
2423.000000;3.332783
2422.000000;3.745647
2421.000000;3.358005
2420.000000;3.598053
2419.000000;3.848057
2418.000000;3.395948
2417.000000;3.492519
2416.000000;3.304117
2415.000000;2.951005
2414.000000;2.866176
2413.000000;2.894621
2412.000000;2.917307
2411.000000;2.969874
2410.000000;3.115915
2409.000000;3.339840
2408.000000;3.564678
2407.000000;3.510547
2406.000000;3.330152
2405.000000;3.173772
2404.000000;2.973354
2403.000000;2.804503
2402.000000;2.695288
2401.000000;2.618857
2400.000000;2.564649
2399.000000;2.538336
2398.000000;2.553276
2397.000000;2.625249
2396.000000;2.796016
2395.000000;3.169252
2394.000000;3.268397
2393.000000;3.032565
2392.000000;2.991687
2391.000000;2.899629
2390.000000;2.767115
2389.000000;2.699767
2388.000000;2.707202
2387.000000;2.790104
2386.000000;2.955896
2385.000000;3.145057
2384.000000;3.184542
2383.000000;3.100446
2382.000000;3.044187
2381.000000;3.134506
2380.000000;3.241563
2379.000000;3.160773
2378.000000;3.230764
2377.000000;3.447478
2376.000000;3.084289
2375.000000;2.780240
2374.000000;2.663872
2373.000000;2.665471
2372.000000;2.837799
2371.000000;3.548990
2370.000000;3.173692
2369.000000;2.895376
2368.000000;2.899101
2367.000000;2.976979
2366.000000;3.005848
2365.000000;2.944250
2364.000000;2.846816
2363.000000;2.718779
2362.000000;2.659322
2361.000000;2.698933
2360.000000;2.822246
2359.000000;3.114462
2358.000000;3.482975
2357.000000;3.131371
2356.000000;2.951642
2355.000000;2.985243
2354.000000;2.949586
2353.000000;2.755880
2352.000000;2.677617
2351.000000;2.777551
2350.000000;3.180175
2349.000000;3.463188
2348.000000;3.145300
2347.000000;2.959377
2346.000000;2.797522
2345.000000;2.840571
2344.000000;3.054286
2343.000000;2.982200
2342.000000;2.853239
2341.000000;2.897591
2340.000000;3.062679
2339.000000;3.070222
2338.000000;2.962630
2337.000000;2.930769
2336.000000;2.920429
2335.000000;2.864716
2334.000000;2.808127
2333.000000;2.816075
2332.000000;2.900264
2331.000000;3.046595
2330.000000;3.200735
2329.000000;3.458374
2328.000000;3.603785
2327.000000;3.115581
2326.000000;2.896009
2325.000000;2.900364
2324.000000;3.058470
2323.000000;3.293365
2322.000000;3.445437
2321.000000;3.411360
2320.000000;3.260956
2319.000000;3.135723
2318.000000;3.066580
2317.000000;2.989012
2316.000000;2.879779
2315.000000;2.805131
2314.000000;2.805158
2313.000000;2.841510
2312.000000;2.832409
2311.000000;2.782533
2310.000000;2.777450
2309.000000;2.957367
2308.000000;3.469722
2307.000000;3.162823
2306.000000;2.945637
2305.000000;3.003114
2304.000000;3.154524
2303.000000;3.237401
2302.000000;3.105310
2301.000000;2.957103
2300.000000;2.911963
2299.000000;3.018035
2298.000000;3.272265
2297.000000;3.056527
2296.000000;2.842598
2295.000000;2.844290
2294.000000;2.960151
2293.000000;3.025457
2292.000000;2.933346
2291.000000;2.864113
2290.000000;2.865918
2289.000000;2.921493
2288.000000;2.987792
2287.000000;3.008377
2286.000000;3.070719
2285.000000;3.217123
2284.000000;3.163959
2283.000000;3.081927
2282.000000;3.074215
2281.000000;3.055143
2280.000000;3.066836
2279.000000;3.134985
2278.000000;3.332425
2277.000000;3.705029
2276.000000;3.533362
2275.000000;3.226316
2274.000000;3.073228
2273.000000;3.007042
2272.000000;3.042896
2271.000000;3.135163
2270.000000;3.182183
2269.000000;3.165817
2268.000000;3.213311
2267.000000;3.343546
2266.000000;3.173519
2265.000000;3.013681
2264.000000;3.042811
2263.000000;3.293978
2262.000000;3.432413
2261.000000;3.121404
2260.000000;3.101646
2259.000000;3.225445
2258.000000;2.914938
2257.000000;2.773383
2256.000000;2.806075
2255.000000;2.914150
2254.000000;2.964218
2253.000000;2.906858
2252.000000;2.813527
2251.000000;2.764339
2250.000000;2.793117
2249.000000;2.864844
2248.000000;2.926511
2247.000000;2.950821
2246.000000;2.925405
2245.000000;2.874644
2244.000000;2.832448
2243.000000;2.842167
2242.000000;2.940206
2241.000000;3.141950
2240.000000;3.230280
2239.000000;3.100555
2238.000000;2.996428
2237.000000;2.928624
2236.000000;2.881786
2235.000000;2.871713
2234.000000;2.912629
2233.000000;3.022377
2232.000000;3.211580
2231.000000;3.282441
2230.000000;3.190838
2229.000000;3.316067
2228.000000;3.574554
2227.000000;3.178306
2226.000000;3.006199
2225.000000;3.004544
2224.000000;3.155265
2223.000000;3.411770
2222.000000;3.580631
2221.000000;3.407497
2220.000000;3.112867
2219.000000;2.919403
2218.000000;2.817624
2217.000000;2.802919
2216.000000;2.878179
2215.000000;3.013025
2214.000000;3.130711
2213.000000;3.212940
2212.000000;3.269295
2211.000000;3.312663
2210.000000;3.245567
2209.000000;3.111129
2208.000000;3.075478
2207.000000;3.121517
2206.000000;3.150082
2205.000000;3.216444
2204.000000;2.948129
2203.000000;2.738845
2202.000000;2.733449
2201.000000;2.870445
2200.000000;2.947899
2199.000000;2.915333
2198.000000;2.976834
2197.000000;3.171174
2196.000000;3.515699
2195.000000;3.628396
2194.000000;3.970913
2193.000000;3.868914
2192.000000;3.347759
2191.000000;3.235932
2190.000000;3.281061
2189.000000;3.305648
2188.000000;3.073843
2187.000000;2.974032
2186.000000;3.082894
2185.000000;3.489426
2184.000000;3.089230
2183.000000;2.846804
2182.000000;2.788393
2181.000000;2.769894
2180.000000;2.733124
2179.000000;2.700271
2178.000000;2.703720
2177.000000;2.745616
2176.000000;2.825594
2175.000000;2.934103
2174.000000;3.066520
2173.000000;3.185404
2172.000000;3.188026
2171.000000;3.109870
2170.000000;3.006532
2169.000000;2.947710
2168.000000;2.983829
2167.000000;3.274432
2166.000000;3.444472
2165.000000;3.133097
2164.000000;3.081828
2163.000000;3.087325
2162.000000;3.577879
2161.000000;3.558709
2160.000000;3.153578
2159.000000;3.676447
2158.000000;3.304082
2157.000000;2.943833
2156.000000;2.902004
2155.000000;2.999793
2154.000000;3.142163
2153.000000;3.247009
2152.000000;3.423659
2151.000000;3.173316
2150.000000;2.904762
2149.000000;2.785921
2148.000000;2.769894
2147.000000;2.830334
2146.000000;2.951764
2145.000000;3.140349
2144.000000;3.439424
2143.000000;3.328718
2142.000000;3.022907
2141.000000;2.961358
2140.000000;3.012941
2139.000000;3.015491
2138.000000;2.948938
2137.000000;2.899284
2136.000000;2.864481
2135.000000;2.861701
2134.000000;2.857022
2133.000000;2.839538
2132.000000;2.831495
2131.000000;2.858530
2130.000000;2.946897
2129.000000;3.068076
2128.000000;3.106269
2127.000000;3.213861
2126.000000;3.298313
2125.000000;3.099256
2124.000000;3.148425
2123.000000;3.780422
2122.000000;3.105351
2121.000000;2.820019
2120.000000;2.752183
2119.000000;2.854708
2118.000000;3.085778
2117.000000;3.347156
2116.000000;3.452762
2115.000000;3.176740
2114.000000;2.959137
2113.000000;2.840319
2112.000000;2.836600
2111.000000;2.967316
2110.000000;3.082120
2109.000000;3.059510
2108.000000;3.025842
2107.000000;3.016393
2106.000000;3.077436
2105.000000;3.228404
2104.000000;3.671955
2103.000000;3.733100
2102.000000;3.332967
2101.000000;3.240170
2100.000000;3.296296
2099.000000;3.367437
2098.000000;3.255850
2097.000000;3.143771
2096.000000;3.111996
2095.000000;3.185084
2094.000000;3.274226
2093.000000;3.322766
2092.000000;3.412794
2091.000000;3.069034
2090.000000;2.821062
2089.000000;2.768799
2088.000000;2.870679
2087.000000;3.097693
2086.000000;3.276753
2085.000000;3.239495
2084.000000;3.139065
2083.000000;3.036260
2082.000000;2.930911
2081.000000;2.841634
2080.000000;2.800242
2079.000000;2.835507
2078.000000;2.935504
2077.000000;2.942985
2076.000000;2.891605
2075.000000;2.956544
2074.000000;3.175636
2073.000000;3.995744
2072.000000;3.400238
2071.000000;3.205750
2070.000000;3.325145
2069.000000;3.948275
2068.000000;3.475466
2067.000000;3.216397
2066.000000;3.179941
2065.000000;3.384420
2064.000000;3.883749
2063.000000;3.807370
2062.000000;3.695007
2061.000000;3.213516
2060.000000;2.852230
2059.000000;2.669636
2058.000000;2.597951
2057.000000;2.638751
2056.000000;2.804278
2055.000000;3.208817
2054.000000;3.804434
2053.000000;3.766426
2052.000000;3.478910
2051.000000;3.205384
2050.000000;3.082553
2049.000000;3.024148
2048.000000;2.984816
2047.000000;2.940466
2046.000000;2.876237
2045.000000;2.836012
2044.000000;2.873381
2043.000000;2.969646
2042.000000;3.011562
2041.000000;3.040198
2040.000000;3.328049
2039.000000;3.883328
2038.000000;3.159535
2037.000000;3.068438
2036.000000;3.103111
2035.000000;3.234356
2034.000000;3.409665
2033.000000;3.573867
2032.000000;3.562636
2031.000000;3.416365
2030.000000;3.707177
2029.000000;3.627675
2028.000000;3.181495
2027.000000;3.215654
2026.000000;3.571475
2025.000000;3.187542
2024.000000;3.008208
2023.000000;3.121919
2022.000000;3.123370
2021.000000;2.854142
2020.000000;2.743157
2019.000000;2.834155
2018.000000;3.271104
2017.000000;3.240660
2016.000000;2.933086
2015.000000;2.913003
2014.000000;3.005891
2013.000000;3.130146
2012.000000;3.214875
2011.000000;3.298019
2010.000000;3.269272
2009.000000;3.039913
2008.000000;2.891025
2007.000000;2.886500
2006.000000;3.026855
2005.000000;3.255599
2004.000000;3.580400
2003.000000;3.939212
2002.000000;3.444609
2001.000000;3.442312
2000.000000;3.435750
1999.000000;3.020546
1998.000000;2.860897
1997.000000;2.871168
1996.000000;2.918409
1995.000000;2.959076
1994.000000;3.073537
1993.000000;3.345439
1992.000000;3.438689
1991.000000;3.282898
1990.000000;3.070364
1989.000000;2.863132
1988.000000;2.755866
1987.000000;2.734297
1986.000000;2.778166
1985.000000;2.893592
1984.000000;3.091658
1983.000000;3.511571
1982.000000;3.843316
1981.000000;3.225297
1980.000000;2.939637
1979.000000;2.775933
1978.000000;2.732020
1977.000000;2.781315
1976.000000;2.901157
1975.000000;3.079659
1974.000000;3.250692
1973.000000;3.300657
1972.000000;3.262496
1971.000000;3.141962
1970.000000;3.099159
1969.000000;3.088777
1968.000000;2.958660
1967.000000;2.890904
1966.000000;2.926999
1965.000000;2.978143
1964.000000;2.948889
1963.000000;2.857416
1962.000000;2.832612
1961.000000;2.985145
1960.000000;3.396297
1959.000000;3.325686
1958.000000;3.041545
1957.000000;2.898562
1956.000000;2.804926
1955.000000;2.748177
1954.000000;2.723942
1953.000000;2.736708
1952.000000;2.778389
1951.000000;2.837244
1950.000000;2.908908
1949.000000;3.007899
1948.000000;3.202152
1947.000000;3.524678
1946.000000;3.276573
1945.000000;3.063408
1944.000000;3.050446
1943.000000;2.963734
1942.000000;2.816882
1941.000000;2.781218
1940.000000;2.907085
1939.000000;3.334663
1938.000000;3.444742
1937.000000;3.036054
1936.000000;2.932339
1935.000000;2.963565
1934.000000;3.012402
1933.000000;2.977695
1932.000000;2.995389
1931.000000;3.267067
1930.000000;3.518634
1929.000000;3.336132
1928.000000;3.466011
1927.000000;3.206208
1926.000000;3.035080
1925.000000;2.987624
1924.000000;2.889431
1923.000000;2.869853
1922.000000;3.008999
1921.000000;3.088381
1920.000000;2.992933
1919.000000;2.975314
1918.000000;3.086056
1917.000000;3.321015
1916.000000;3.480315
1915.000000;3.288525
1914.000000;3.109576
1913.000000;3.147484
1912.000000;3.412103
1911.000000;3.124723
1910.000000;2.926215
1909.000000;2.963537
1908.000000;3.179791
1907.000000;3.171374
1906.000000;2.983193
1905.000000;2.945252
1904.000000;2.964438
1903.000000;2.941359
1902.000000;2.883991
1901.000000;2.893413
1900.000000;3.063395
1899.000000;3.490890
1898.000000;3.638224
1897.000000;3.361632
1896.000000;3.223787
1895.000000;3.179620
1894.000000;3.353191
1893.000000;3.559814
1892.000000;3.322823
1891.000000;3.140810
1890.000000;3.115408
1889.000000;3.246364
1888.000000;3.648552
1887.000000;3.949414
1886.000000;3.779513
1885.000000;3.470861
1884.000000;3.272664
1883.000000;3.242584
1882.000000;3.409616
1881.000000;3.682374
1880.000000;3.395272
1879.000000;3.293927
1878.000000;3.264686
1877.000000;3.116935
1876.000000;3.067150
1875.000000;3.196025
1874.000000;3.394201
1873.000000;3.330304
1872.000000;3.163450
1871.000000;3.072379
1870.000000;3.130929
1869.000000;3.293250
1868.000000;3.335115
1867.000000;3.508304
1866.000000;3.851993
1865.000000;3.407621
1864.000000;3.177698
1863.000000;3.298293
1862.000000;3.589402
1861.000000;3.244342
1860.000000;3.193276
1859.000000;3.354376
1858.000000;3.103698
1857.000000;2.964599
1856.000000;2.940614
1855.000000;2.881511
1854.000000;2.783738
1853.000000;2.705961
1852.000000;2.698766
1851.000000;2.867705
1850.000000;3.257881
1849.000000;3.103159
1848.000000;2.924589
1847.000000;3.000547
1846.000000;3.337436
1845.000000;3.717545
1844.000000;3.214296
1843.000000;3.051095
1842.000000;3.139338
1841.000000;3.452741
1840.000000;3.673031
1839.000000;3.641856
1838.000000;3.818163
1837.000000;3.541393
1836.000000;3.300998
1835.000000;3.307978
1834.000000;3.153594
1833.000000;2.862984
1832.000000;2.694040
1831.000000;2.671026
1830.000000;2.772162
1829.000000;2.753378
1828.000000;2.657384
1827.000000;2.686129
1826.000000;2.786371
1825.000000;2.912345
1824.000000;3.030054
1823.000000;3.124002
1822.000000;3.243232
1821.000000;3.305834
1820.000000;3.124606
1819.000000;2.950386
1818.000000;2.869553
1817.000000;2.863937
1816.000000;2.921778
1815.000000;3.022885
1814.000000;3.075654
1813.000000;3.095639
1812.000000;3.193996
1811.000000;3.332996
1810.000000;3.660097
1809.000000;3.530094
1808.000000;3.184528
1807.000000;3.056075
1806.000000;2.978520
1805.000000;3.015000
1804.000000;3.365999
1803.000000;3.395595
1802.000000;2.991403
1801.000000;2.944947
1800.000000;3.101737
1799.000000;3.204621
1798.000000;3.200463
1797.000000;3.121754
1796.000000;3.055212
1795.000000;3.186225
1794.000000;3.214739
1793.000000;3.023003
1792.000000;3.102106
1791.000000;3.359451
1790.000000;3.210484
1789.000000;3.174661
1788.000000;3.612314
1787.000000;3.600518
1786.000000;3.446146
1785.000000;3.863478
1784.000000;3.459429
1783.000000;3.259258
1782.000000;3.419915
1781.000000;3.681294
1780.000000;3.834136
1779.000000;4.012436
1778.000000;3.312701
1777.000000;3.026571
1776.000000;2.907023
1775.000000;3.063405
1774.000000;3.589793
1773.000000;2.848145
1772.000000;2.604840
1771.000000;2.610912
1770.000000;2.726339
1769.000000;2.887698
1768.000000;2.943190
1767.000000;2.910557
1766.000000;2.847899
1765.000000;2.832221
1764.000000;2.859862
1763.000000;2.893109
1762.000000;2.875359
1761.000000;2.894550
1760.000000;3.035333
1759.000000;3.161665
1758.000000;3.063253
1757.000000;2.868132
1756.000000;2.773074
1755.000000;2.831276
1754.000000;3.120056
1753.000000;3.548040
1752.000000;3.126518
1751.000000;3.061696
1750.000000;3.482280
1749.000000;3.426397
1748.000000;3.135799
1747.000000;3.062551
1746.000000;3.073339
1745.000000;3.011177
1744.000000;2.825416
1743.000000;2.704731
1742.000000;2.691408
1741.000000;2.765214
1740.000000;2.825472
1739.000000;2.788717
1738.000000;2.725724
1737.000000;2.654292
1736.000000;2.578610
1735.000000;2.509595
1734.000000;2.508771
1733.000000;2.645994
1732.000000;2.931260
1731.000000;3.140778
1730.000000;3.044298
1729.000000;2.960241
1728.000000;3.175151
1727.000000;3.676418
1726.000000;3.424376
1725.000000;3.595749
1724.000000;3.911163
1723.000000;3.557056
1722.000000;3.244287
1721.000000;2.874161
1720.000000;2.694685
1719.000000;2.592588
1718.000000;2.749196
1717.000000;3.166078
1716.000000;2.875036
1715.000000;2.758958
1714.000000;2.779093
1713.000000;2.874612
1712.000000;3.025731
1711.000000;3.099588
1710.000000;3.110743
1709.000000;3.051107
1708.000000;2.970494
1707.000000;2.918501
1706.000000;2.886050
1705.000000;2.782811
1704.000000;2.688854
1703.000000;2.669532
1702.000000;2.681767
1701.000000;2.711725
1700.000000;2.811086
1699.000000;2.827713
1698.000000;2.750945
1697.000000;2.794524
1696.000000;2.856267
1695.000000;2.850081
1694.000000;2.860926
1693.000000;2.956220
1692.000000;3.255342
1691.000000;3.358751
1690.000000;2.987967
1689.000000;2.898652
1688.000000;2.932127
1687.000000;2.961853
1686.000000;3.024335
1685.000000;3.122005
1684.000000;3.095931
1683.000000;3.176774
1682.000000;3.498016
1681.000000;3.189308
1680.000000;3.003611
1679.000000;3.110090
1678.000000;3.279113
1677.000000;3.217417
1676.000000;2.944959
1675.000000;2.715337
1674.000000;2.603612
1673.000000;2.676162
1672.000000;3.045641
1671.000000;3.218331
1670.000000;2.868244
1669.000000;2.866867
1668.000000;3.044873
1667.000000;3.055266
1666.000000;3.077590
1665.000000;3.139140
1664.000000;3.139163
1663.000000;3.056540
1662.000000;2.995625
1661.000000;3.034044
1660.000000;3.076457
1659.000000;3.079730
1658.000000;3.074270
1657.000000;2.950128
1656.000000;2.790817
1655.000000;2.692604
1654.000000;2.939305
1653.000000;3.198726
1652.000000;2.972614
1651.000000;3.178473
1650.000000;3.609960
1649.000000;3.773369
1648.000000;3.245469
1647.000000;2.851430
1646.000000;2.875242
1645.000000;3.343728
1644.000000;3.170920
1643.000000;2.931754
1642.000000;2.948384
1641.000000;3.041022
1640.000000;3.158480
1639.000000;3.175001
1638.000000;3.082198
1637.000000;2.974607
1636.000000;3.010879
1635.000000;3.272516
1634.000000;3.576536
1633.000000;3.604828
1632.000000;3.525697
1631.000000;3.333448
1630.000000;3.170913
1629.000000;3.062571
1628.000000;3.255236
1627.000000;3.591428
1626.000000;3.171458
1625.000000;3.038235
1624.000000;3.201580
1623.000000;3.615967
1622.000000;3.496887
1621.000000;3.192284
1620.000000;3.151076
1619.000000;3.148469
1618.000000;3.105696
1617.000000;3.106636
1616.000000;3.176478
1615.000000;3.205717
1614.000000;3.240284
1613.000000;3.284521
1612.000000;3.373541
1611.000000;3.687026
1610.000000;3.520633
1609.000000;3.301705
1608.000000;3.312262
1607.000000;3.170045
1606.000000;3.027736
1605.000000;3.021276
1604.000000;3.146386
1603.000000;3.321584
1602.000000;3.426199
1601.000000;3.246573
1600.000000;2.989618
1599.000000;2.844267
1598.000000;2.890242
1597.000000;3.161888
1596.000000;3.247926
1595.000000;3.011733
1594.000000;3.054878
1593.000000;3.642556
1592.000000;3.398059
1591.000000;3.100752
1590.000000;3.141639
1589.000000;2.974732
1588.000000;2.760792
1587.000000;2.655775
1586.000000;2.654602
1585.000000;2.702648
1584.000000;2.709359
1583.000000;2.710364
1582.000000;2.756354
1581.000000;2.988355
1580.000000;3.425261
1579.000000;3.018801
1578.000000;2.771396
1577.000000;2.752301
1576.000000;2.934015
1575.000000;3.322700
1574.000000;3.292557
1573.000000;3.096419
1572.000000;3.051562
1571.000000;3.268580
1570.000000;3.276928
1569.000000;2.960385
1568.000000;2.842513
1567.000000;2.782380
1566.000000;2.735169
1565.000000;2.736791
1564.000000;2.789802
1563.000000;2.878105
1562.000000;2.965808
1561.000000;3.144894
1560.000000;3.325696
1559.000000;2.790883
1558.000000;2.657734
1557.000000;2.877583
1556.000000;3.019451
1555.000000;2.942202
1554.000000;2.951154
1553.000000;3.075823
1552.000000;3.061808
1551.000000;3.000951
1550.000000;2.995281
1549.000000;2.995783
1548.000000;2.963357
1547.000000;2.902679
1546.000000;2.832302
1545.000000;2.799993
1544.000000;2.813892
1543.000000;2.908620
1542.000000;3.053138
1541.000000;3.443148
1540.000000;3.688495
1539.000000;3.262308
1538.000000;3.109976
1537.000000;3.185143
1536.000000;3.735581
1535.000000;3.170227
1534.000000;2.735180
1533.000000;2.620954
1532.000000;2.702296
1531.000000;2.889069
1530.000000;3.119356
1529.000000;3.517462
1528.000000;3.416548
1527.000000;3.160284
1526.000000;3.037305
1525.000000;2.924844
1524.000000;2.936305
1523.000000;3.204385
1522.000000;3.716687
1521.000000;3.331385
1520.000000;3.081699
1519.000000;2.977830
1518.000000;3.028708
1517.000000;3.513269
1516.000000;3.034375
1515.000000;2.711351
1514.000000;2.652168
1513.000000;2.610551
1512.000000;2.634564
1511.000000;2.739640
1510.000000;3.016431
1509.000000;3.145064
1508.000000;3.260445
1507.000000;3.564253
1506.000000;3.025925
1505.000000;2.888071
1504.000000;2.886104
1503.000000;2.927934
1502.000000;3.053588
1501.000000;2.998037
1500.000000;2.809474
1499.000000;2.676383
1498.000000;2.637049
1497.000000;2.710866
1496.000000;2.916591
1495.000000;3.161220
1494.000000;3.205282
1493.000000;3.126656
1492.000000;3.211099
1491.000000;3.206824
1490.000000;2.968022
1489.000000;2.853397
1488.000000;2.814122
1487.000000;2.813955
1486.000000;2.989779
1485.000000;3.336694
1484.000000;3.278368
1483.000000;3.130103
1482.000000;3.067504
1481.000000;3.031007
1480.000000;3.132568
1479.000000;3.264245
1478.000000;3.143243
1477.000000;3.083390
1476.000000;3.019290
1475.000000;3.188992
1474.000000;3.623161
1473.000000;2.985999
1472.000000;2.794842
1471.000000;3.051008
1470.000000;3.273246
1469.000000;2.859774
1468.000000;2.724298
1467.000000;2.740980
1466.000000;2.814065
1465.000000;2.923680
1464.000000;3.060255
1463.000000;3.332790
1462.000000;3.424017
1461.000000;3.286122
1460.000000;3.209107
1459.000000;3.220161
1458.000000;3.246752
1457.000000;3.011919
1456.000000;2.848532
1455.000000;2.856356
1454.000000;2.982237
1453.000000;3.133759
1452.000000;3.102906
1451.000000;3.092894
1450.000000;3.220086
1449.000000;3.411516
1448.000000;3.415662
1447.000000;3.197452
1446.000000;3.050867
1445.000000;2.995613
1444.000000;3.014070
1443.000000;3.136763
1442.000000;3.620728
1441.000000;3.555072
1440.000000;3.094593
1439.000000;3.020752
1438.000000;3.019292
1437.000000;3.036730
1436.000000;2.952904
1435.000000;2.970738
1434.000000;3.050497
1433.000000;2.921258
1432.000000;2.819188
1431.000000;2.811465
1430.000000;2.887315
1429.000000;3.184070
1428.000000;3.469927
1427.000000;3.143007
1426.000000;3.042177
1425.000000;3.105996
1424.000000;3.128664
1423.000000;2.978878
1422.000000;2.933701
1421.000000;3.106005
1420.000000;2.977480
1419.000000;2.666761
1418.000000;2.606573
1417.000000;2.845111
1416.000000;3.327009
1415.000000;3.012642
1414.000000;2.795109
1413.000000;2.857602
1412.000000;3.161071
1411.000000;3.611800
1410.000000;3.221723
1409.000000;3.003008
1408.000000;2.967026
1407.000000;3.134027
1406.000000;3.532636
1405.000000;3.240091
1404.000000;3.072933
1403.000000;3.223548
1402.000000;3.595047
1401.000000;3.398577
1400.000000;3.032927
1399.000000;2.840000
1398.000000;2.757420
1397.000000;2.872109
1396.000000;3.245704
1395.000000;3.094221
1394.000000;2.860622
1393.000000;3.028894
1392.000000;3.302341
1391.000000;3.009413
1390.000000;2.840378
1389.000000;2.793323
1388.000000;2.816103
1387.000000;2.928290
1386.000000;3.100830
1385.000000;3.166942
1384.000000;3.072668
1383.000000;2.997031
1382.000000;3.017675
1381.000000;3.127367
1380.000000;3.078776
1379.000000;2.920812
1378.000000;2.833925
1377.000000;2.829201
1376.000000;2.929501
1375.000000;3.255398
1374.000000;3.425007
1373.000000;3.063738
1372.000000;2.901583
1371.000000;2.832372
1370.000000;2.811965
1369.000000;2.945822
1368.000000;3.204706
1367.000000;3.025588
1366.000000;2.883397
1365.000000;2.995141
1364.000000;3.191606
1363.000000;3.081790
1362.000000;3.083889
1361.000000;3.043909
1360.000000;2.799760
1359.000000;2.731980
1358.000000;2.852376
1357.000000;3.051635
1356.000000;3.088501
1355.000000;3.247249
1354.000000;3.670290
1353.000000;3.197506
1352.000000;2.984385
1351.000000;3.046476
1350.000000;3.177066
1349.000000;3.149792
1348.000000;3.085608
1347.000000;3.047397
1346.000000;2.986102
1345.000000;2.954414
1344.000000;2.967095
1343.000000;3.064234
1342.000000;3.438870
1341.000000;3.524056
1340.000000;3.152988
1339.000000;3.199081
1338.000000;3.494689
1337.000000;3.628380
1336.000000;3.259302
1335.000000;3.130953
1334.000000;3.193245
1333.000000;3.323889
1332.000000;3.313855
1331.000000;3.192949
1330.000000;3.086125
1329.000000;3.006687
1328.000000;3.007192
1327.000000;3.148203
1326.000000;3.424790
1325.000000;3.289516
1324.000000;3.206742
1323.000000;3.525954
1322.000000;3.302860
1321.000000;2.966267
1320.000000;2.849705
1319.000000;2.844437
1318.000000;2.899587
1317.000000;3.004712
1316.000000;3.170901
1315.000000;3.188827
1314.000000;3.194481
1313.000000;3.338577
1312.000000;3.135375
1311.000000;2.896865
1310.000000;2.768857
1309.000000;2.725357
1308.000000;2.792652
1307.000000;2.989593
1306.000000;3.356014
1305.000000;3.715274
1304.000000;3.567285
1303.000000;3.249275
1302.000000;2.960491
1301.000000;2.787868
1300.000000;2.742586
1299.000000;2.820419
1298.000000;2.996721
1297.000000;3.103635
1296.000000;3.087464
1295.000000;3.088840
1294.000000;3.107593
1293.000000;3.179161
1292.000000;3.122052
1291.000000;2.927454
1290.000000;2.858951
1289.000000;2.956382
1288.000000;3.160285
1287.000000;3.136976
1286.000000;3.004409
1285.000000;2.990976
1284.000000;3.092363
1283.000000;3.187781
1282.000000;3.196410
1281.000000;3.267723
1280.000000;3.284855
1279.000000;3.175562
1278.000000;3.127428
1277.000000;3.213683
1276.000000;3.392359
1275.000000;3.463965
1274.000000;3.837698
1273.000000;3.262084
1272.000000;2.852843
1271.000000;2.763526
1270.000000;2.875350
1269.000000;3.352895
1268.000000;3.480834
1267.000000;3.067592
1266.000000;2.883421
1265.000000;2.786816
1264.000000;2.793814
1263.000000;2.920125
1262.000000;3.080781
1261.000000;3.066061
1260.000000;2.995810
1259.000000;2.960870
1258.000000;2.963843
1257.000000;3.012335
1256.000000;3.079652
1255.000000;3.148378
1254.000000;3.263041
1253.000000;3.437013
1252.000000;3.447100
1251.000000;3.298102
1250.000000;3.115200
1249.000000;2.970831
1248.000000;2.964991
1247.000000;3.079901
1246.000000;3.106386
1245.000000;3.005991
1244.000000;2.947285
1243.000000;2.951456
1242.000000;3.018182
1241.000000;3.127200
1240.000000;3.141186
1239.000000;3.090870
1238.000000;3.157706
1237.000000;3.447650
1236.000000;4.204674
1235.000000;4.366933
1234.000000;3.639478
1233.000000;3.513213
1232.000000;3.467762
1231.000000;3.193982
1230.000000;3.075905
1229.000000;3.129387
1228.000000;3.364095
1227.000000;3.397990
1226.000000;3.159920
1225.000000;3.088487
1224.000000;3.078516
1223.000000;2.977694
1222.000000;2.845714
1221.000000;2.824582
1220.000000;2.936645
1219.000000;3.235154
1218.000000;3.781575
1217.000000;3.204466
1216.000000;2.875447
1215.000000;2.759607
1214.000000;2.782737
1213.000000;2.938479
1212.000000;3.158784
1211.000000;3.345936
1210.000000;3.535176
1209.000000;3.300844
1208.000000;3.006207
1207.000000;2.962755
1206.000000;3.188500
1205.000000;3.669762
1204.000000;3.362696
1203.000000;3.148657
1202.000000;3.049721
1201.000000;3.047920
1200.000000;3.365915
