Criado como novo conjunto de dados;"e0108.spp","-4254822.9 Secs"
cm-1;Abs
10000.000000;1.042417
9999.000000;1.042180
9998.000000;1.042711
9997.000000;1.042756
9996.000000;1.041596
9995.000000;1.039695
9994.000000;1.038416
9993.000000;1.038896
9992.000000;1.041017
9991.000000;1.043525
9990.000000;1.045175
9989.000000;1.045568
9988.000000;1.044909
9987.000000;1.043456
9986.000000;1.041496
9985.000000;1.039532
9984.000000;1.038083
9983.000000;1.037340
9982.000000;1.037160
9981.000000;1.037227
9980.000000;1.037093
9979.000000;1.036319
9978.000000;1.034848
9977.000000;1.033126
9976.000000;1.031708
9975.000000;1.030866
9974.000000;1.030705
9973.000000;1.031323
9972.000000;1.032488
9971.000000;1.033334
9970.000000;1.032969
9969.000000;1.031540
9968.000000;1.030332
9967.000000;1.030564
9966.000000;1.032180
9965.000000;1.033848
9964.000000;1.034082
9963.000000;1.032505
9962.000000;1.030143
9961.000000;1.028491
9960.000000;1.028176
9959.000000;1.028529
9958.000000;1.028455
9957.000000;1.027593
9956.000000;1.026535
9955.000000;1.026135
9954.000000;1.026805
9953.000000;1.028296
9952.000000;1.029782
9951.000000;1.030192
9950.000000;1.028930
9949.000000;1.026471
9948.000000;1.024054
9947.000000;1.022691
9946.000000;1.022538
9945.000000;1.023062
9944.000000;1.023614
9943.000000;1.023886
9942.000000;1.023988
9941.000000;1.024131
9940.000000;1.024195
9939.000000;1.023772
9938.000000;1.022775
9937.000000;1.021753
9936.000000;1.021321
9935.000000;1.021432
9934.000000;1.021503
9933.000000;1.021156
9932.000000;1.020516
9931.000000;1.019854
9930.000000;1.019301
9929.000000;1.018887
9928.000000;1.018514
9927.000000;1.017865
9926.000000;1.016740
9925.000000;1.015570
9924.000000;1.015230
9923.000000;1.016139
9922.000000;1.017753
9921.000000;1.019105
9920.000000;1.019698
9919.000000;1.019741
9918.000000;1.019693
9917.000000;1.019728
9916.000000;1.019561
9915.000000;1.018760
9914.000000;1.017316
9913.000000;1.015815
9912.000000;1.014878
9911.000000;1.014534
9910.000000;1.014387
9909.000000;1.014296
9908.000000;1.014429
9907.000000;1.014599
9906.000000;1.014116
9905.000000;1.012704
9904.000000;1.011200
9903.000000;1.010746
9902.000000;1.011338
9901.000000;1.011691
9900.000000;1.010713
9899.000000;1.008761
9898.000000;1.007122
9897.000000;1.006510
9896.000000;1.006461
9895.000000;1.006169
9894.000000;1.005510
9893.000000;1.004965
9892.000000;1.004838
9891.000000;1.004991
9890.000000;1.005306
9889.000000;1.005897
9888.000000;1.006729
9887.000000;1.007405
9886.000000;1.007584
9885.000000;1.007338
9884.000000;1.006800
9883.000000;1.005796
9882.000000;1.004300
9881.000000;1.002964
9880.000000;1.002521
9879.000000;1.002727
9878.000000;1.002508
9877.000000;1.001326
9876.000000;0.999866
9875.000000;0.999137
9874.000000;0.999363
9873.000000;1.000071
9872.000000;1.000853
9871.000000;1.001578
9870.000000;1.002063
9869.000000;1.002023
9868.000000;1.001409
9867.000000;1.000503
9866.000000;0.999564
9865.000000;0.998575
9864.000000;0.997468
9863.000000;0.996479
9862.000000;0.996045
9861.000000;0.996216
9860.000000;0.996325
9859.000000;0.995576
9858.000000;0.994093
9857.000000;0.993036
9856.000000;0.993402
9855.000000;0.994974
9854.000000;0.996740
9853.000000;0.997994
9852.000000;0.998542
9851.000000;0.998097
9850.000000;0.996350
9849.000000;0.993830
9848.000000;0.991870
9847.000000;0.991252
9846.000000;0.991422
9845.000000;0.991372
9844.000000;0.990804
9843.000000;0.990003
9842.000000;0.989000
9841.000000;0.987589
9840.000000;0.985981
9839.000000;0.984835
9838.000000;0.984628
9837.000000;0.985400
9836.000000;0.986992
9835.000000;0.989061
9834.000000;0.990876
9833.000000;0.991619
9832.000000;0.991120
9831.000000;0.990026
9830.000000;0.989080
9829.000000;0.988458
9828.000000;0.987909
9827.000000;0.987261
9826.000000;0.986596
9825.000000;0.986082
9824.000000;0.985694
9823.000000;0.985070
9822.000000;0.983773
9821.000000;0.981903
9820.000000;0.980320
9819.000000;0.979885
9818.000000;0.980494
9817.000000;0.981164
9816.000000;0.981175
9815.000000;0.980774
9814.000000;0.980573
9813.000000;0.980624
9812.000000;0.980483
9811.000000;0.979977
9810.000000;0.979496
9809.000000;0.979494
9808.000000;0.980004
9807.000000;0.980707
9806.000000;0.981247
9805.000000;0.981350
9804.000000;0.980814
9803.000000;0.979627
9802.000000;0.978157
9801.000000;0.977062
9800.000000;0.976843
9799.000000;0.977350
9798.000000;0.977755
9797.000000;0.977175
9796.000000;0.975466
9795.000000;0.973434
9794.000000;0.972184
9793.000000;0.972210
9792.000000;0.973068
9791.000000;0.973896
9790.000000;0.974204
9789.000000;0.974173
9788.000000;0.974249
9787.000000;0.974570
9786.000000;0.974822
9785.000000;0.974644
9784.000000;0.974033
9783.000000;0.973299
9782.000000;0.972669
9781.000000;0.972079
9780.000000;0.971400
9779.000000;0.970699
9778.000000;0.970149
9777.000000;0.969735
9776.000000;0.969304
9775.000000;0.968903
9774.000000;0.968813
9773.000000;0.969114
9772.000000;0.969460
9771.000000;0.969430
9770.000000;0.968923
9769.000000;0.968023
9768.000000;0.966756
9767.000000;0.965337
9766.000000;0.964417
9765.000000;0.964524
9764.000000;0.965250
9763.000000;0.965520
9762.000000;0.964819
9761.000000;0.963682
9760.000000;0.962760
9759.000000;0.962007
9758.000000;0.961204
9757.000000;0.960768
9756.000000;0.961375
9755.000000;0.962956
9754.000000;0.964645
9753.000000;0.965730
9752.000000;0.966171
9751.000000;0.966140
9750.000000;0.965518
9749.000000;0.964072
9748.000000;0.961957
9747.000000;0.959836
9746.000000;0.958513
9745.000000;0.958289
9744.000000;0.958523
9743.000000;0.958098
9742.000000;0.956721
9741.000000;0.955584
9740.000000;0.956150
9739.000000;0.958356
9738.000000;0.960538
9737.000000;0.961229
9736.000000;0.960544
9735.000000;0.959565
9734.000000;0.958950
9733.000000;0.958601
9732.000000;0.958265
9731.000000;0.957845
9730.000000;0.957260
9729.000000;0.956465
9728.000000;0.955645
9727.000000;0.955123
9726.000000;0.955085
9725.000000;0.955489
9724.000000;0.956149
9723.000000;0.956772
9722.000000;0.957002
9721.000000;0.956628
9720.000000;0.955782
9719.000000;0.954793
9718.000000;0.953946
9717.000000;0.953394
9716.000000;0.953106
9715.000000;0.952810
9714.000000;0.952169
9713.000000;0.951212
9712.000000;0.950485
9711.000000;0.950554
9710.000000;0.951389
9709.000000;0.952334
9708.000000;0.952710
9707.000000;0.952386
9706.000000;0.951785
9705.000000;0.951363
9704.000000;0.951102
9703.000000;0.950546
9702.000000;0.949381
9701.000000;0.947898
9700.000000;0.946699
9699.000000;0.945999
9698.000000;0.945452
9697.000000;0.944655
9696.000000;0.943637
9695.000000;0.942815
9694.000000;0.942648
9693.000000;0.943334
9692.000000;0.944592
9691.000000;0.945715
9690.000000;0.946037
9689.000000;0.945444
9688.000000;0.944315
9687.000000;0.943044
9686.000000;0.941892
9685.000000;0.941201
9684.000000;0.941250
9683.000000;0.941747
9682.000000;0.941932
9681.000000;0.941448
9680.000000;0.940815
9679.000000;0.940745
9678.000000;0.941274
9677.000000;0.941879
9676.000000;0.942198
9675.000000;0.942260
9674.000000;0.942127
9673.000000;0.941697
9672.000000;0.940923
9671.000000;0.940018
9670.000000;0.939382
9669.000000;0.939367
9668.000000;0.940039
9667.000000;0.941047
9666.000000;0.941797
9665.000000;0.941853
9664.000000;0.941180
9663.000000;0.940054
9662.000000;0.938871
9661.000000;0.937992
9660.000000;0.937486
9659.000000;0.937032
9658.000000;0.936365
9657.000000;0.935807
9656.000000;0.935934
9655.000000;0.936606
9654.000000;0.936892
9653.000000;0.936276
9652.000000;0.935443
9651.000000;0.935321
9650.000000;0.935751
9649.000000;0.935698
9648.000000;0.934580
9647.000000;0.932834
9646.000000;0.931165
9645.000000;0.929868
9644.000000;0.928976
9643.000000;0.928592
9642.000000;0.928766
9641.000000;0.929328
9640.000000;0.930039
9639.000000;0.930699
9638.000000;0.931032
9637.000000;0.930760
9636.000000;0.930020
9635.000000;0.929467
9634.000000;0.929637
9633.000000;0.930241
9632.000000;0.930317
9631.000000;0.929221
9630.000000;0.927373
9629.000000;0.925908
9628.000000;0.925562
9627.000000;0.925970
9626.000000;0.926126
9625.000000;0.925472
9624.000000;0.924391
9623.000000;0.923648
9622.000000;0.923578
9621.000000;0.923943
9620.000000;0.924370
9619.000000;0.924722
9618.000000;0.925053
9617.000000;0.925356
9616.000000;0.925364
9615.000000;0.924644
9614.000000;0.923022
9613.000000;0.920998
9612.000000;0.919559
9611.000000;0.919374
9610.000000;0.920230
9609.000000;0.921340
9608.000000;0.922135
9607.000000;0.922657
9606.000000;0.923239
9605.000000;0.923910
9604.000000;0.924179
9603.000000;0.923447
9602.000000;0.921758
9601.000000;0.920050
9600.000000;0.919402
9599.000000;0.919974
9598.000000;0.920883
9597.000000;0.921222
9596.000000;0.920896
9595.000000;0.920412
9594.000000;0.920250
9593.000000;0.920615
9592.000000;0.921361
9591.000000;0.921826
9590.000000;0.921167
9589.000000;0.919295
9588.000000;0.917234
9587.000000;0.916091
9586.000000;0.915906
9585.000000;0.915905
9584.000000;0.915692
9583.000000;0.915601
9582.000000;0.915896
9581.000000;0.916215
9580.000000;0.916029
9579.000000;0.915275
9578.000000;0.914344
9577.000000;0.913687
9576.000000;0.913567
9575.000000;0.913899
9574.000000;0.914184
9573.000000;0.913859
9572.000000;0.912880
9571.000000;0.911830
9570.000000;0.911366
9569.000000;0.911678
9568.000000;0.912424
9567.000000;0.912938
9566.000000;0.912556
9565.000000;0.911089
9564.000000;0.909168
9563.000000;0.907877
9562.000000;0.907868
9561.000000;0.908834
9560.000000;0.909828
9559.000000;0.909980
9558.000000;0.908984
9557.000000;0.907207
9556.000000;0.905477
9555.000000;0.904561
9554.000000;0.904646
9553.000000;0.905320
9552.000000;0.906022
9551.000000;0.906379
9550.000000;0.906205
9549.000000;0.905574
9548.000000;0.905036
9547.000000;0.905352
9546.000000;0.906644
9545.000000;0.907927
9544.000000;0.907920
9543.000000;0.906424
9542.000000;0.904585
9541.000000;0.903623
9540.000000;0.903565
9539.000000;0.903491
9538.000000;0.902859
9537.000000;0.902212
9536.000000;0.902417
9535.000000;0.903516
9534.000000;0.904628
9533.000000;0.904916
9532.000000;0.904333
9531.000000;0.903379
9530.000000;0.902471
9529.000000;0.901755
9528.000000;0.901291
9527.000000;0.901145
9526.000000;0.901362
9525.000000;0.901985
9524.000000;0.903002
9523.000000;0.904107
9522.000000;0.904629
9521.000000;0.903978
9520.000000;0.902244
9519.000000;0.900228
9518.000000;0.898820
9517.000000;0.898291
9516.000000;0.898196
9515.000000;0.897913
9514.000000;0.897315
9513.000000;0.896855
9512.000000;0.896891
9511.000000;0.897105
9510.000000;0.896909
9509.000000;0.896411
9508.000000;0.896466
9507.000000;0.897488
9506.000000;0.898621
9505.000000;0.898533
9504.000000;0.896902
9503.000000;0.894717
9502.000000;0.893166
9501.000000;0.892627
9500.000000;0.892716
9499.000000;0.892897
9498.000000;0.892915
9497.000000;0.892896
9496.000000;0.893132
9495.000000;0.893694
9494.000000;0.894280
9493.000000;0.894547
9492.000000;0.894522
9491.000000;0.894498
9490.000000;0.894602
9489.000000;0.894655
9488.000000;0.894432
9487.000000;0.893863
9486.000000;0.893023
9485.000000;0.892081
9484.000000;0.891223
9483.000000;0.890515
9482.000000;0.889897
9481.000000;0.889428
9480.000000;0.889320
9479.000000;0.889532
9478.000000;0.889545
9477.000000;0.888889
9476.000000;0.887842
9475.000000;0.887214
9474.000000;0.887431
9473.000000;0.888106
9472.000000;0.888486
9471.000000;0.888101
9470.000000;0.887031
9469.000000;0.885810
9468.000000;0.885066
9467.000000;0.885018
9466.000000;0.885301
9465.000000;0.885413
9464.000000;0.885259
9463.000000;0.885094
9462.000000;0.885129
9461.000000;0.885418
9460.000000;0.885967
9459.000000;0.886604
9458.000000;0.886902
9457.000000;0.886627
9456.000000;0.886139
9455.000000;0.885986
9454.000000;0.886194
9453.000000;0.886377
9452.000000;0.886391
9451.000000;0.886373
9450.000000;0.886205
9449.000000;0.885583
9448.000000;0.884713
9447.000000;0.884307
9446.000000;0.884657
9445.000000;0.885192
9444.000000;0.885250
9443.000000;0.884862
9442.000000;0.884455
9441.000000;0.884195
9440.000000;0.883955
9439.000000;0.883661
9438.000000;0.883328
9437.000000;0.882932
9436.000000;0.882508
9435.000000;0.882148
9434.000000;0.881762
9433.000000;0.881133
9432.000000;0.880397
9431.000000;0.880101
9430.000000;0.880483
9429.000000;0.881025
9428.000000;0.881085
9427.000000;0.880703
9426.000000;0.880386
9425.000000;0.880302
9424.000000;0.880151
9423.000000;0.879716
9422.000000;0.879068
9421.000000;0.878250
9420.000000;0.877189
9419.000000;0.876013
9418.000000;0.875133
9417.000000;0.874839
9416.000000;0.874978
9415.000000;0.875122
9414.000000;0.874962
9413.000000;0.874540
9412.000000;0.874175
9411.000000;0.874185
9410.000000;0.874560
9409.000000;0.874934
9408.000000;0.874954
9407.000000;0.874645
9406.000000;0.874346
9405.000000;0.874337
9404.000000;0.874611
9403.000000;0.874943
9402.000000;0.875087
9401.000000;0.874912
9400.000000;0.874455
9399.000000;0.873866
9398.000000;0.873289
9397.000000;0.872804
9396.000000;0.872416
9395.000000;0.872076
9394.000000;0.871744
9393.000000;0.871552
9392.000000;0.871778
9391.000000;0.872430
9390.000000;0.872972
9389.000000;0.872793
9388.000000;0.871970
9387.000000;0.871228
9386.000000;0.871094
9385.000000;0.871426
9384.000000;0.871801
9383.000000;0.871915
9382.000000;0.871496
9381.000000;0.870359
9380.000000;0.868891
9379.000000;0.868020
9378.000000;0.868233
9377.000000;0.868951
9376.000000;0.869320
9375.000000;0.869299
9374.000000;0.869427
9373.000000;0.869750
9372.000000;0.869721
9371.000000;0.869146
9370.000000;0.868511
9369.000000;0.868187
9368.000000;0.867939
9367.000000;0.867509
9366.000000;0.867169
9365.000000;0.867263
9364.000000;0.867536
9363.000000;0.867392
9362.000000;0.866709
9361.000000;0.865994
9360.000000;0.865772
9359.000000;0.866095
9358.000000;0.866658
9357.000000;0.867107
9356.000000;0.867160
9355.000000;0.866725
9354.000000;0.866022
9353.000000;0.865429
9352.000000;0.865076
9351.000000;0.864686
9350.000000;0.863911
9349.000000;0.862839
9348.000000;0.862030
9347.000000;0.862025
9346.000000;0.862860
9345.000000;0.864054
9344.000000;0.864925
9343.000000;0.864882
9342.000000;0.863700
9341.000000;0.861814
9340.000000;0.860230
9339.000000;0.859748
9338.000000;0.860148
9337.000000;0.860447
9336.000000;0.860047
9335.000000;0.859334
9334.000000;0.858970
9333.000000;0.858994
9332.000000;0.858983
9331.000000;0.858808
9330.000000;0.858745
9329.000000;0.858909
9328.000000;0.859074
9327.000000;0.859081
9326.000000;0.859075
9325.000000;0.859194
9324.000000;0.859327
9323.000000;0.859303
9322.000000;0.859078
9321.000000;0.858645
9320.000000;0.858003
9319.000000;0.857322
9318.000000;0.856911
9317.000000;0.856845
9316.000000;0.856844
9315.000000;0.856660
9314.000000;0.856382
9313.000000;0.856222
9312.000000;0.856185
9311.000000;0.856184
9310.000000;0.856276
9309.000000;0.856532
9308.000000;0.856797
9307.000000;0.856840
9306.000000;0.856684
9305.000000;0.856523
9304.000000;0.856358
9303.000000;0.855976
9302.000000;0.855317
9301.000000;0.854619
9300.000000;0.854153
9299.000000;0.853988
9298.000000;0.854090
9297.000000;0.854414
9296.000000;0.854774
9295.000000;0.854826
9294.000000;0.854379
9293.000000;0.853624
9292.000000;0.852919
9291.000000;0.852448
9290.000000;0.852187
9289.000000;0.852108
9288.000000;0.852200
9287.000000;0.852366
9286.000000;0.852506
9285.000000;0.852712
9284.000000;0.853135
9283.000000;0.853646
9282.000000;0.853843
9281.000000;0.853538
9280.000000;0.853026
9279.000000;0.852704
9278.000000;0.852573
9277.000000;0.852316
9276.000000;0.851794
9275.000000;0.851242
9274.000000;0.850979
9273.000000;0.851050
9272.000000;0.851185
9271.000000;0.850990
9270.000000;0.850256
9269.000000;0.849261
9268.000000;0.848706
9267.000000;0.849087
9266.000000;0.850070
9265.000000;0.850681
9264.000000;0.850295
9263.000000;0.849294
9262.000000;0.848604
9261.000000;0.848726
9260.000000;0.849355
9259.000000;0.849830
9258.000000;0.849738
9257.000000;0.849104
9256.000000;0.848239
9255.000000;0.847510
9254.000000;0.847141
9253.000000;0.847088
9252.000000;0.847079
9251.000000;0.846825
9250.000000;0.846281
9249.000000;0.845706
9248.000000;0.845397
9247.000000;0.845286
9246.000000;0.844902
9245.000000;0.843943
9244.000000;0.842860
9243.000000;0.842582
9242.000000;0.843503
9241.000000;0.844945
9240.000000;0.845840
9239.000000;0.845838
9238.000000;0.845471
9237.000000;0.845298
9236.000000;0.845259
9235.000000;0.845008
9234.000000;0.844571
9233.000000;0.844356
9232.000000;0.844589
9231.000000;0.845011
9230.000000;0.845156
9229.000000;0.844757
9228.000000;0.843841
9227.000000;0.842614
9226.000000;0.841433
9225.000000;0.840779
9224.000000;0.841018
9223.000000;0.842091
9222.000000;0.843516
9221.000000;0.844745
9220.000000;0.845474
9219.000000;0.845616
9218.000000;0.845176
9217.000000;0.844345
9216.000000;0.843597
9215.000000;0.843445
9214.000000;0.843991
9213.000000;0.844809
9212.000000;0.845297
9211.000000;0.845081
9210.000000;0.844148
9209.000000;0.842822
9208.000000;0.841668
9207.000000;0.841213
9206.000000;0.841536
9205.000000;0.842152
9204.000000;0.842419
9203.000000;0.842032
9202.000000;0.841107
9201.000000;0.839935
9200.000000;0.838819
9199.000000;0.838041
9198.000000;0.837785
9197.000000;0.838007
9196.000000;0.838482
9195.000000;0.838981
9194.000000;0.839366
9193.000000;0.839534
9192.000000;0.839421
9191.000000;0.839105
9190.000000;0.838789
9189.000000;0.838604
9188.000000;0.838492
9187.000000;0.838310
9186.000000;0.837991
9185.000000;0.837543
9184.000000;0.836958
9183.000000;0.836253
9182.000000;0.835601
9181.000000;0.835270
9180.000000;0.835340
9179.000000;0.835531
9178.000000;0.835463
9177.000000;0.835076
9176.000000;0.834679
9175.000000;0.834552
9174.000000;0.834645
9173.000000;0.834746
9172.000000;0.834778
9171.000000;0.834746
9170.000000;0.834525
9169.000000;0.833987
9168.000000;0.833369
9167.000000;0.833209
9166.000000;0.833753
9165.000000;0.834581
9164.000000;0.834988
9163.000000;0.834705
9162.000000;0.834085
9161.000000;0.833662
9160.000000;0.833636
9159.000000;0.833805
9158.000000;0.833845
9157.000000;0.833630
9156.000000;0.833297
9155.000000;0.833049
9154.000000;0.832950
9153.000000;0.832984
9152.000000;0.833211
9151.000000;0.833701
9150.000000;0.834273
9149.000000;0.834527
9148.000000;0.834281
9147.000000;0.833858
9146.000000;0.833761
9145.000000;0.834146
9144.000000;0.834720
9143.000000;0.835074
9142.000000;0.834953
9141.000000;0.834283
9140.000000;0.833190
9139.000000;0.832036
9138.000000;0.831259
9137.000000;0.831041
9136.000000;0.831167
9135.000000;0.831252
9134.000000;0.831103
9133.000000;0.830889
9132.000000;0.830984
9131.000000;0.831617
9130.000000;0.832585
9129.000000;0.833293
9128.000000;0.833164
9127.000000;0.832111
9126.000000;0.830662
9125.000000;0.829638
9124.000000;0.829601
9123.000000;0.830455
9122.000000;0.831511
9121.000000;0.832061
9120.000000;0.831963
9119.000000;0.831605
9118.000000;0.831283
9117.000000;0.830859
9116.000000;0.830140
9115.000000;0.829353
9114.000000;0.828940
9113.000000;0.828972
9112.000000;0.829056
9111.000000;0.828841
9110.000000;0.828371
9109.000000;0.827874
9108.000000;0.827432
9107.000000;0.826974
9106.000000;0.826483
9105.000000;0.826081
9104.000000;0.825982
9103.000000;0.826365
9102.000000;0.827196
9101.000000;0.828120
9100.000000;0.828689
9099.000000;0.828783
9098.000000;0.828668
9097.000000;0.828583
9096.000000;0.828414
9095.000000;0.827936
9094.000000;0.827233
9093.000000;0.826661
9092.000000;0.826414
9091.000000;0.826303
9090.000000;0.825990
9089.000000;0.825356
9088.000000;0.824617
9087.000000;0.824197
9086.000000;0.824467
9085.000000;0.825430
9084.000000;0.826564
9083.000000;0.827083
9082.000000;0.826573
9081.000000;0.825389
9080.000000;0.824356
9079.000000;0.824073
9078.000000;0.824520
9077.000000;0.825251
9076.000000;0.825814
9075.000000;0.825977
9074.000000;0.825753
9073.000000;0.825359
9072.000000;0.825079
9071.000000;0.825044
9070.000000;0.825129
9069.000000;0.825157
9068.000000;0.825144
9067.000000;0.825197
9066.000000;0.825237
9065.000000;0.825005
9064.000000;0.824395
9063.000000;0.823646
9062.000000;0.823100
9061.000000;0.822866
9060.000000;0.822789
9059.000000;0.822692
9058.000000;0.822621
9057.000000;0.822854
9056.000000;0.823593
9055.000000;0.824550
9054.000000;0.824924
9053.000000;0.824117
9052.000000;0.822528
9051.000000;0.821340
9050.000000;0.821339
9049.000000;0.822142
9048.000000;0.822765
9047.000000;0.822736
9046.000000;0.822364
9045.000000;0.822106
9044.000000;0.822117
9043.000000;0.822367
9042.000000;0.822772
9041.000000;0.823041
9040.000000;0.822736
9039.000000;0.821755
9038.000000;0.820604
9037.000000;0.819993
9036.000000;0.820227
9035.000000;0.821073
9034.000000;0.822086
9033.000000;0.822901
9032.000000;0.823283
9031.000000;0.823108
9030.000000;0.822406
9029.000000;0.821408
9028.000000;0.820485
9027.000000;0.819978
9026.000000;0.819998
9025.000000;0.820337
9024.000000;0.820605
9023.000000;0.820497
9022.000000;0.819957
9021.000000;0.819146
9020.000000;0.818339
9019.000000;0.817801
9018.000000;0.817668
9017.000000;0.817912
9016.000000;0.818451
9015.000000;0.819210
9014.000000;0.820018
9013.000000;0.820526
9012.000000;0.820424
9011.000000;0.819734
9010.000000;0.818780
9009.000000;0.817885
9008.000000;0.817255
9007.000000;0.817115
9006.000000;0.817638
9005.000000;0.818647
9004.000000;0.819593
9003.000000;0.820018
9002.000000;0.819942
9001.000000;0.819685
9000.000000;0.819469
8999.000000;0.819328
8998.000000;0.819257
8997.000000;0.819247
8996.000000;0.819234
8995.000000;0.819167
8994.000000;0.819119
8993.000000;0.819192
8992.000000;0.819350
8991.000000;0.819452
8990.000000;0.819381
8989.000000;0.819024
8988.000000;0.818231
8987.000000;0.816993
8986.000000;0.815599
8985.000000;0.814436
8984.000000;0.813646
8983.000000;0.813137
8982.000000;0.812878
8981.000000;0.812968
8980.000000;0.813396
8979.000000;0.813984
8978.000000;0.814631
8977.000000;0.815397
8976.000000;0.816220
8975.000000;0.816761
8974.000000;0.816748
8973.000000;0.816382
8972.000000;0.816203
8971.000000;0.816565
8970.000000;0.817382
8969.000000;0.818293
8968.000000;0.818889
8967.000000;0.818842
8966.000000;0.818096
8965.000000;0.817013
8964.000000;0.816163
8963.000000;0.815836
8962.000000;0.815848
8961.000000;0.815890
8960.000000;0.815916
8959.000000;0.816052
8958.000000;0.816298
8957.000000;0.816524
8956.000000;0.816678
8955.000000;0.816730
8954.000000;0.816448
8953.000000;0.815524
8952.000000;0.814074
8951.000000;0.812751
8950.000000;0.812196
8949.000000;0.812476
8948.000000;0.813205
8947.000000;0.814074
8946.000000;0.815018
8945.000000;0.815947
8944.000000;0.816593
8943.000000;0.816730
8942.000000;0.816414
8941.000000;0.815947
8940.000000;0.815649
8939.000000;0.815636
8938.000000;0.815724
8937.000000;0.815584
8936.000000;0.815141
8935.000000;0.814781
8934.000000;0.814972
8933.000000;0.815652
8932.000000;0.816168
8931.000000;0.815930
8930.000000;0.814985
8929.000000;0.813905
8928.000000;0.813267
8927.000000;0.813323
8926.000000;0.813953
8925.000000;0.814722
8924.000000;0.815104
8923.000000;0.814903
8922.000000;0.814450
8921.000000;0.814232
8920.000000;0.814361
8919.000000;0.814526
8918.000000;0.814425
8917.000000;0.814049
8916.000000;0.813547
8915.000000;0.813015
8914.000000;0.812519
8913.000000;0.812168
8912.000000;0.812038
8911.000000;0.812070
8910.000000;0.812144
8909.000000;0.812240
8908.000000;0.812470
8907.000000;0.812924
8906.000000;0.813503
8905.000000;0.813924
8904.000000;0.813937
8903.000000;0.813571
8902.000000;0.813114
8901.000000;0.812805
8900.000000;0.812616
8899.000000;0.812433
8898.000000;0.812396
8897.000000;0.812839
8896.000000;0.813803
8895.000000;0.814764
8894.000000;0.815048
8893.000000;0.814539
8892.000000;0.813817
8891.000000;0.813549
8890.000000;0.813852
8889.000000;0.814313
8888.000000;0.814510
8887.000000;0.814388
8886.000000;0.814141
8885.000000;0.813959
8884.000000;0.813974
8883.000000;0.814302
8882.000000;0.814907
8881.000000;0.815456
8880.000000;0.815521
8879.000000;0.815018
8878.000000;0.814314
8877.000000;0.813838
8876.000000;0.813668
8875.000000;0.813629
8874.000000;0.813629
8873.000000;0.813729
8872.000000;0.813945
8871.000000;0.814168
8870.000000;0.814312
8869.000000;0.814398
8868.000000;0.814477
8867.000000;0.814582
8866.000000;0.814769
8865.000000;0.815044
8864.000000;0.815195
8863.000000;0.814868
8862.000000;0.813938
8861.000000;0.812733
8860.000000;0.811803
8859.000000;0.811509
8858.000000;0.811880
8857.000000;0.812717
8856.000000;0.813714
8855.000000;0.814540
8854.000000;0.814992
8853.000000;0.815097
8852.000000;0.814981
8851.000000;0.814654
8850.000000;0.814050
8849.000000;0.813278
8848.000000;0.812667
8847.000000;0.812483
8846.000000;0.812663
8845.000000;0.812940
8844.000000;0.813161
8843.000000;0.813434
8842.000000;0.813962
8841.000000;0.814800
8840.000000;0.815746
8839.000000;0.816432
8838.000000;0.816534
8837.000000;0.815984
8836.000000;0.815039
8835.000000;0.814152
8834.000000;0.813705
8833.000000;0.813780
8832.000000;0.814094
8831.000000;0.814195
8830.000000;0.813827
8829.000000;0.813191
8828.000000;0.812815
8827.000000;0.813065
8826.000000;0.813771
8825.000000;0.814381
8824.000000;0.814499
8823.000000;0.814216
8822.000000;0.813926
8821.000000;0.813905
8820.000000;0.814160
8819.000000;0.814594
8818.000000;0.815156
8817.000000;0.815768
8816.000000;0.816256
8815.000000;0.816473
8814.000000;0.816498
8813.000000;0.816578
8812.000000;0.816829
8811.000000;0.817068
8810.000000;0.817048
8809.000000;0.816794
8808.000000;0.816612
8807.000000;0.816738
8806.000000;0.817074
8805.000000;0.817310
8804.000000;0.817254
8803.000000;0.816971
8802.000000;0.816658
8801.000000;0.816459
8800.000000;0.816403
8799.000000;0.816469
8798.000000;0.816642
8797.000000;0.816922
8796.000000;0.817275
8795.000000;0.817616
8794.000000;0.817848
8793.000000;0.817976
8792.000000;0.818154
8791.000000;0.818567
8790.000000;0.819207
8789.000000;0.819781
8788.000000;0.819892
8787.000000;0.819365
8786.000000;0.818432
8785.000000;0.817595
8784.000000;0.817295
8783.000000;0.817661
8782.000000;0.818495
8781.000000;0.819389
8780.000000;0.819910
8779.000000;0.819845
8778.000000;0.819418
8777.000000;0.819173
8776.000000;0.819472
8775.000000;0.820086
8774.000000;0.820433
8773.000000;0.820262
8772.000000;0.819932
8771.000000;0.819928
8770.000000;0.820291
8769.000000;0.820689
8768.000000;0.820866
8767.000000;0.820794
8766.000000;0.820520
8765.000000;0.820172
8764.000000;0.820083
8763.000000;0.820589
8762.000000;0.821571
8761.000000;0.822453
8760.000000;0.822799
8759.000000;0.822742
8758.000000;0.822691
8757.000000;0.822805
8756.000000;0.822950
8755.000000;0.822977
8754.000000;0.822831
8753.000000;0.822496
8752.000000;0.822093
8751.000000;0.821969
8750.000000;0.822412
8749.000000;0.823261
8748.000000;0.824013
8747.000000;0.824368
8746.000000;0.824489
8745.000000;0.824676
8744.000000;0.825000
8743.000000;0.825374
8742.000000;0.825792
8741.000000;0.826313
8740.000000;0.826843
8739.000000;0.827138
8738.000000;0.827068
8737.000000;0.826814
8736.000000;0.826721
8735.000000;0.826990
8734.000000;0.827506
8733.000000;0.827964
8732.000000;0.828154
8731.000000;0.828116
8730.000000;0.828052
8729.000000;0.828122
8728.000000;0.828325
8727.000000;0.828507
8726.000000;0.828496
8725.000000;0.828300
8724.000000;0.828216
8723.000000;0.828613
8722.000000;0.829509
8721.000000;0.830429
8720.000000;0.830844
8719.000000;0.830704
8718.000000;0.830450
8717.000000;0.830538
8716.000000;0.831088
8715.000000;0.831918
8714.000000;0.832699
8713.000000;0.833033
8712.000000;0.832622
8711.000000;0.831576
8710.000000;0.830471
8709.000000;0.829933
8708.000000;0.830158
8707.000000;0.830881
8706.000000;0.831716
8705.000000;0.832430
8704.000000;0.832956
8703.000000;0.833329
8702.000000;0.833663
8701.000000;0.834079
8700.000000;0.834562
8699.000000;0.834898
8698.000000;0.834845
8697.000000;0.834375
8696.000000;0.833749
8695.000000;0.833319
8694.000000;0.833274
8693.000000;0.833576
8692.000000;0.834061
8691.000000;0.834523
8690.000000;0.834756
8689.000000;0.834663
8688.000000;0.834389
8687.000000;0.834234
8686.000000;0.834345
8685.000000;0.834602
8684.000000;0.834889
8683.000000;0.835344
8682.000000;0.836159
8681.000000;0.837187
8680.000000;0.837945
8679.000000;0.838037
8678.000000;0.837491
8677.000000;0.836691
8676.000000;0.836132
8675.000000;0.836203
8674.000000;0.836956
8673.000000;0.838014
8672.000000;0.838857
8671.000000;0.839265
8670.000000;0.839386
8669.000000;0.839368
8668.000000;0.839156
8667.000000;0.838694
8666.000000;0.838140
8665.000000;0.837691
8664.000000;0.837373
8663.000000;0.837128
8662.000000;0.837008
8661.000000;0.837124
8660.000000;0.837511
8659.000000;0.838126
8658.000000;0.838859
8657.000000;0.839419
8656.000000;0.839440
8655.000000;0.838932
8654.000000;0.838451
8653.000000;0.838513
8652.000000;0.838927
8651.000000;0.839063
8650.000000;0.838761
8649.000000;0.838555
8648.000000;0.838871
8647.000000;0.839406
8646.000000;0.839562
8645.000000;0.839223
8644.000000;0.838777
8643.000000;0.838555
8642.000000;0.838622
8641.000000;0.839019
8640.000000;0.839812
8639.000000;0.840852
8638.000000;0.841759
8637.000000;0.842290
8636.000000;0.842493
8635.000000;0.842434
8634.000000;0.842039
8633.000000;0.841382
8632.000000;0.840875
8631.000000;0.840895
8630.000000;0.841329
8629.000000;0.841739
8628.000000;0.841931
8627.000000;0.842086
8626.000000;0.842317
8625.000000;0.842368
8624.000000;0.841918
8623.000000;0.841046
8622.000000;0.840215
8621.000000;0.839857
8620.000000;0.840049
8619.000000;0.840545
8618.000000;0.841060
8617.000000;0.841506
8616.000000;0.841956
8615.000000;0.842428
8614.000000;0.842794
8613.000000;0.842976
8612.000000;0.843131
8611.000000;0.843449
8610.000000;0.843825
8609.000000;0.843929
8608.000000;0.843597
8607.000000;0.842954
8606.000000;0.842166
8605.000000;0.841354
8604.000000;0.840811
8603.000000;0.840932
8602.000000;0.841705
8601.000000;0.842553
8600.000000;0.842934
8599.000000;0.842936
8598.000000;0.842962
8597.000000;0.843052
8596.000000;0.842863
8595.000000;0.842264
8594.000000;0.841560
8593.000000;0.841114
8592.000000;0.841035
8591.000000;0.841244
8590.000000;0.841556
8589.000000;0.841692
8588.000000;0.841524
8587.000000;0.841371
8586.000000;0.841740
8585.000000;0.842687
8584.000000;0.843683
8583.000000;0.844204
8582.000000;0.844217
8581.000000;0.843970
8580.000000;0.843636
8579.000000;0.843371
8578.000000;0.843419
8577.000000;0.843834
8576.000000;0.844250
8575.000000;0.844201
8574.000000;0.843643
8573.000000;0.842964
8572.000000;0.842537
8571.000000;0.842437
8570.000000;0.842519
8569.000000;0.842615
8568.000000;0.842656
8567.000000;0.842733
8566.000000;0.843006
8565.000000;0.843478
8564.000000;0.843928
8563.000000;0.844150
8562.000000;0.844129
8561.000000;0.843917
8560.000000;0.843506
8559.000000;0.842997
8558.000000;0.842724
8557.000000;0.842932
8556.000000;0.843404
8555.000000;0.843652
8554.000000;0.843471
8553.000000;0.843124
8552.000000;0.842971
8551.000000;0.843103
8550.000000;0.843355
8549.000000;0.843536
8548.000000;0.843584
8547.000000;0.843594
8546.000000;0.843722
8545.000000;0.843978
8544.000000;0.844167
8543.000000;0.844116
8542.000000;0.843906
8541.000000;0.843747
8540.000000;0.843669
8539.000000;0.843529
8538.000000;0.843301
8537.000000;0.843149
8536.000000;0.843201
8535.000000;0.843388
8534.000000;0.843576
8533.000000;0.843720
8532.000000;0.843839
8531.000000;0.843944
8530.000000;0.844076
8529.000000;0.844286
8528.000000;0.844526
8527.000000;0.844620
8526.000000;0.844448
8525.000000;0.844142
8524.000000;0.844007
8523.000000;0.844252
8522.000000;0.844796
8521.000000;0.845324
8520.000000;0.845557
8519.000000;0.845482
8518.000000;0.845301
8517.000000;0.845144
8516.000000;0.844919
8515.000000;0.844532
8514.000000;0.844138
8513.000000;0.844017
8512.000000;0.844174
8511.000000;0.844264
8510.000000;0.843989
8509.000000;0.843471
8508.000000;0.843114
8507.000000;0.843186
8506.000000;0.843595
8505.000000;0.844027
8504.000000;0.844191
8503.000000;0.843998
8502.000000;0.843595
8501.000000;0.843277
8500.000000;0.843293
8499.000000;0.843658
8498.000000;0.844146
8497.000000;0.844460
8496.000000;0.844467
8495.000000;0.844306
8494.000000;0.844265
8493.000000;0.844531
8492.000000;0.845025
8491.000000;0.845490
8490.000000;0.845700
8489.000000;0.845578
8488.000000;0.845172
8487.000000;0.844629
8486.000000;0.844189
8485.000000;0.844089
8484.000000;0.844348
8483.000000;0.844703
8482.000000;0.844849
8481.000000;0.844722
8480.000000;0.844480
8479.000000;0.844213
8478.000000;0.843850
8477.000000;0.843418
8476.000000;0.843218
8475.000000;0.843522
8474.000000;0.844138
8473.000000;0.844513
8472.000000;0.844364
8471.000000;0.844005
8470.000000;0.843924
8469.000000;0.844205
8468.000000;0.844568
8467.000000;0.844840
8466.000000;0.845105
8465.000000;0.845407
8464.000000;0.845581
8463.000000;0.845494
8462.000000;0.845245
8461.000000;0.844994
8460.000000;0.844737
8459.000000;0.844387
8458.000000;0.843994
8457.000000;0.843755
8456.000000;0.843854
8455.000000;0.844343
8454.000000;0.845093
8453.000000;0.845826
8452.000000;0.846285
8451.000000;0.846457
8450.000000;0.846555
8449.000000;0.846714
8448.000000;0.846830
8447.000000;0.846722
8446.000000;0.846343
8445.000000;0.845768
8444.000000;0.845157
8443.000000;0.844795
8442.000000;0.844966
8441.000000;0.845590
8440.000000;0.846117
8439.000000;0.846017
8438.000000;0.845349
8437.000000;0.844679
8436.000000;0.844494
8435.000000;0.844841
8434.000000;0.845461
8433.000000;0.846052
8432.000000;0.846420
8431.000000;0.846552
8430.000000;0.846583
8429.000000;0.846585
8428.000000;0.846388
8427.000000;0.845771
8426.000000;0.844818
8425.000000;0.843996
8424.000000;0.843813
8423.000000;0.844445
8422.000000;0.845627
8421.000000;0.846818
8420.000000;0.847550
8419.000000;0.847767
8418.000000;0.847807
8417.000000;0.847938
8416.000000;0.847980
8415.000000;0.847547
8414.000000;0.846621
8413.000000;0.845676
8412.000000;0.845215
8411.000000;0.845352
8410.000000;0.845858
8409.000000;0.846422
8408.000000;0.846796
8407.000000;0.846863
8406.000000;0.846693
8405.000000;0.846473
8404.000000;0.846323
8403.000000;0.846230
8402.000000;0.846174
8401.000000;0.846208
8400.000000;0.846351
8399.000000;0.846525
8398.000000;0.846680
8397.000000;0.846894
8396.000000;0.847250
8395.000000;0.847658
8394.000000;0.847893
8393.000000;0.847835
8392.000000;0.847604
8391.000000;0.847456
8390.000000;0.847517
8389.000000;0.847650
8388.000000;0.847617
8387.000000;0.847353
8386.000000;0.847018
8385.000000;0.846768
8384.000000;0.846595
8383.000000;0.846459
8382.000000;0.846438
8381.000000;0.846611
8380.000000;0.846883
8379.000000;0.847099
8378.000000;0.847259
8377.000000;0.847461
8376.000000;0.847672
8375.000000;0.847744
8374.000000;0.847616
8373.000000;0.847343
8372.000000;0.846958
8371.000000;0.846533
8370.000000;0.846334
8369.000000;0.846634
8368.000000;0.847300
8367.000000;0.847817
8366.000000;0.847821
8365.000000;0.847438
8364.000000;0.847037
8363.000000;0.846881
8362.000000;0.847095
8361.000000;0.847717
8360.000000;0.848527
8359.000000;0.849053
8358.000000;0.848996
8357.000000;0.848592
8356.000000;0.848343
8355.000000;0.848429
8354.000000;0.848584
8353.000000;0.848498
8352.000000;0.848145
8351.000000;0.847733
8350.000000;0.847506
8349.000000;0.847608
8348.000000;0.847999
8347.000000;0.848461
8346.000000;0.848775
8345.000000;0.848917
8344.000000;0.849009
8343.000000;0.849118
8342.000000;0.849241
8341.000000;0.849447
8340.000000;0.849841
8339.000000;0.850327
8338.000000;0.850534
8337.000000;0.850159
8336.000000;0.849312
8335.000000;0.848434
8334.000000;0.847862
8333.000000;0.847580
8332.000000;0.847385
8331.000000;0.847210
8330.000000;0.847176
8329.000000;0.847379
8328.000000;0.847739
8327.000000;0.848110
8326.000000;0.848443
8325.000000;0.848749
8324.000000;0.848980
8323.000000;0.849057
8322.000000;0.849015
8321.000000;0.849014
8320.000000;0.849176
8319.000000;0.849457
8318.000000;0.849671
8317.000000;0.849607
8316.000000;0.849199
8315.000000;0.848682
8314.000000;0.848498
8313.000000;0.848865
8312.000000;0.849438
8311.000000;0.849590
8310.000000;0.849088
8309.000000;0.848348
8308.000000;0.847959
8307.000000;0.848114
8306.000000;0.848593
8305.000000;0.849120
8304.000000;0.849554
8303.000000;0.849836
8302.000000;0.849941
8301.000000;0.849906
8300.000000;0.849791
8299.000000;0.849612
8298.000000;0.849362
8297.000000;0.849087
8296.000000;0.848899
8295.000000;0.848934
8294.000000;0.849281
8293.000000;0.849846
8292.000000;0.850288
8291.000000;0.850227
8290.000000;0.849649
8289.000000;0.848980
8288.000000;0.848666
8287.000000;0.848758
8286.000000;0.848989
8285.000000;0.849136
8284.000000;0.849179
8283.000000;0.849194
8282.000000;0.849267
8281.000000;0.849462
8280.000000;0.849714
8279.000000;0.849800
8278.000000;0.849564
8277.000000;0.849148
8276.000000;0.848857
8275.000000;0.848815
8274.000000;0.848894
8273.000000;0.848955
8272.000000;0.849017
8271.000000;0.849168
8270.000000;0.849446
8269.000000;0.849820
8268.000000;0.850183
8267.000000;0.850376
8266.000000;0.850348
8265.000000;0.850277
8264.000000;0.850381
8263.000000;0.850625
8262.000000;0.850797
8261.000000;0.850883
8260.000000;0.851134
8259.000000;0.851652
8258.000000;0.852114
8257.000000;0.852097
8256.000000;0.851582
8255.000000;0.850961
8254.000000;0.850581
8253.000000;0.850468
8252.000000;0.850488
8251.000000;0.850610
8250.000000;0.850940
8249.000000;0.851544
8248.000000;0.852311
8247.000000;0.852957
8246.000000;0.853176
8245.000000;0.852854
8244.000000;0.852175
8243.000000;0.851518
8242.000000;0.851181
8241.000000;0.851162
8240.000000;0.851202
8239.000000;0.851083
8238.000000;0.850899
8237.000000;0.850962
8236.000000;0.851398
8235.000000;0.851906
8234.000000;0.852052
8233.000000;0.851768
8232.000000;0.851421
8231.000000;0.851363
8230.000000;0.851581
8229.000000;0.851835
8228.000000;0.851979
8227.000000;0.852005
8226.000000;0.851896
8225.000000;0.851624
8224.000000;0.851282
8223.000000;0.851053
8222.000000;0.851018
8221.000000;0.851129
8220.000000;0.851385
8219.000000;0.851880
8218.000000;0.852592
8217.000000;0.853187
8216.000000;0.853207
8215.000000;0.852510
8214.000000;0.851509
8213.000000;0.850892
8212.000000;0.851067
8211.000000;0.851837
8210.000000;0.852612
8209.000000;0.852952
8208.000000;0.852910
8207.000000;0.852831
8206.000000;0.852897
8205.000000;0.852957
8204.000000;0.852800
8203.000000;0.852453
8202.000000;0.852124
8201.000000;0.851914
8200.000000;0.851727
8199.000000;0.851470
8198.000000;0.851243
8197.000000;0.851220
8196.000000;0.851422
8195.000000;0.851712
8194.000000;0.852023
8193.000000;0.852473
8192.000000;0.853140
8191.000000;0.853792
8190.000000;0.853981
8189.000000;0.853496
8188.000000;0.852668
8187.000000;0.852121
8186.000000;0.852202
8185.000000;0.852704
8184.000000;0.853152
8183.000000;0.853282
8182.000000;0.853208
8181.000000;0.853157
8180.000000;0.853180
8179.000000;0.853180
8178.000000;0.853137
8177.000000;0.853145
8176.000000;0.853227
8175.000000;0.853244
8174.000000;0.853070
8173.000000;0.852797
8172.000000;0.852680
8171.000000;0.852892
8170.000000;0.853412
8169.000000;0.854081
8168.000000;0.854690
8167.000000;0.855040
8166.000000;0.855041
8165.000000;0.854806
8164.000000;0.854540
8163.000000;0.854314
8162.000000;0.854042
8161.000000;0.853704
8160.000000;0.853483
8159.000000;0.853547
8158.000000;0.853816
8157.000000;0.854065
8156.000000;0.854215
8155.000000;0.854366
8154.000000;0.854551
8153.000000;0.854638
8152.000000;0.854521
8151.000000;0.854285
8150.000000;0.854109
8149.000000;0.854085
8148.000000;0.854218
8147.000000;0.854498
8146.000000;0.854861
8145.000000;0.855117
8144.000000;0.855093
8143.000000;0.854899
8142.000000;0.854901
8141.000000;0.855312
8140.000000;0.855863
8139.000000;0.856014
8138.000000;0.855546
8137.000000;0.854857
8136.000000;0.854577
8135.000000;0.854925
8134.000000;0.855519
8133.000000;0.855798
8132.000000;0.855559
8131.000000;0.855063
8130.000000;0.854724
8129.000000;0.854786
8128.000000;0.855219
8127.000000;0.855787
8126.000000;0.856205
8125.000000;0.856312
8124.000000;0.856161
8123.000000;0.855906
8122.000000;0.855651
8121.000000;0.855434
8120.000000;0.855301
8119.000000;0.855262
8118.000000;0.855210
8117.000000;0.855040
8116.000000;0.854878
8115.000000;0.855049
8114.000000;0.855676
8113.000000;0.856441
8112.000000;0.856870
8111.000000;0.856820
8110.000000;0.856553
8109.000000;0.856371
8108.000000;0.856330
8107.000000;0.856306
8106.000000;0.856190
8105.000000;0.855972
8104.000000;0.855734
8103.000000;0.855610
8102.000000;0.855690
8101.000000;0.855889
8100.000000;0.855998
8099.000000;0.855926
8098.000000;0.855823
8097.000000;0.855919
8096.000000;0.856246
8095.000000;0.856610
8094.000000;0.856818
8093.000000;0.856887
8092.000000;0.857001
8091.000000;0.857278
8090.000000;0.857637
8089.000000;0.857909
8088.000000;0.858060
8087.000000;0.858242
8086.000000;0.858571
8085.000000;0.858917
8084.000000;0.859017
8083.000000;0.858773
8082.000000;0.858338
8081.000000;0.857919
8080.000000;0.857606
8079.000000;0.857440
8078.000000;0.857491
8077.000000;0.857748
8076.000000;0.857989
8075.000000;0.857929
8074.000000;0.857504
8073.000000;0.856962
8072.000000;0.856645
8071.000000;0.856725
8070.000000;0.857136
8069.000000;0.857646
8068.000000;0.858002
8067.000000;0.858062
8066.000000;0.857895
8065.000000;0.857730
8064.000000;0.857785
8063.000000;0.858092
8062.000000;0.858462
8061.000000;0.858626
8060.000000;0.858462
8059.000000;0.858121
8058.000000;0.857909
8057.000000;0.858000
8056.000000;0.858281
8055.000000;0.858513
8054.000000;0.858610
8053.000000;0.858683
8052.000000;0.858836
8051.000000;0.859044
8050.000000;0.859254
8049.000000;0.859495
8048.000000;0.859788
8047.000000;0.860021
8046.000000;0.860009
8045.000000;0.859705
8044.000000;0.859286
8043.000000;0.859033
8042.000000;0.859140
8041.000000;0.859597
8040.000000;0.860176
8039.000000;0.860550
8038.000000;0.860530
8037.000000;0.860229
8036.000000;0.859927
8035.000000;0.859773
8034.000000;0.859697
8033.000000;0.859634
8032.000000;0.859669
8031.000000;0.859851
8030.000000;0.859989
8029.000000;0.859807
8028.000000;0.859314
8027.000000;0.858844
8026.000000;0.858691
8025.000000;0.858836
8024.000000;0.859096
8023.000000;0.859384
8022.000000;0.859723
8021.000000;0.860083
8020.000000;0.860344
8019.000000;0.860416
8018.000000;0.860309
8017.000000;0.860100
8016.000000;0.859906
8015.000000;0.859853
8014.000000;0.859989
8013.000000;0.860234
8012.000000;0.860459
8011.000000;0.860618
8010.000000;0.860739
8009.000000;0.860851
8008.000000;0.860997
8007.000000;0.861276
8006.000000;0.861716
8005.000000;0.862113
8004.000000;0.862141
8003.000000;0.861702
8002.000000;0.861074
8001.000000;0.860652
8000.000000;0.860605
7999.000000;0.860831
7998.000000;0.861150
7997.000000;0.861440
7996.000000;0.861638
7995.000000;0.861726
7994.000000;0.861753
7993.000000;0.861808
7992.000000;0.861946
7991.000000;0.862136
7990.000000;0.862266
7989.000000;0.862224
7988.000000;0.862005
7987.000000;0.861744
7986.000000;0.861613
7985.000000;0.861649
7984.000000;0.861730
7983.000000;0.861733
7982.000000;0.861684
7981.000000;0.861709
7980.000000;0.861893
7979.000000;0.862218
7978.000000;0.862617
7977.000000;0.863014
7976.000000;0.863325
7975.000000;0.863476
7974.000000;0.863439
7973.000000;0.863242
7972.000000;0.862948
7971.000000;0.862634
7970.000000;0.862394
7969.000000;0.862338
7968.000000;0.862540
7967.000000;0.862974
7966.000000;0.863505
7965.000000;0.863975
7964.000000;0.864317
7963.000000;0.864547
7962.000000;0.864668
7961.000000;0.864622
7960.000000;0.864389
7959.000000;0.864063
7958.000000;0.863757
7957.000000;0.863486
7956.000000;0.863225
7955.000000;0.863050
7954.000000;0.863107
7953.000000;0.863407
7952.000000;0.863758
7951.000000;0.863942
7950.000000;0.863921
7949.000000;0.863819
7948.000000;0.863784
7947.000000;0.863889
7946.000000;0.864117
7945.000000;0.864388
7944.000000;0.864627
7943.000000;0.864805
7942.000000;0.864907
7941.000000;0.864868
7940.000000;0.864644
7939.000000;0.864344
7938.000000;0.864204
7937.000000;0.864373
7936.000000;0.864784
7935.000000;0.865261
7934.000000;0.865687
7933.000000;0.866014
7932.000000;0.866202
7931.000000;0.866211
7930.000000;0.866045
7929.000000;0.865745
7928.000000;0.865382
7927.000000;0.865062
7926.000000;0.864893
7925.000000;0.864917
7924.000000;0.865090
7923.000000;0.865335
7922.000000;0.865585
7921.000000;0.865785
7920.000000;0.865939
7919.000000;0.866153
7918.000000;0.866512
7917.000000;0.866905
7916.000000;0.867092
7915.000000;0.866975
7914.000000;0.866701
7913.000000;0.866444
7912.000000;0.866237
7911.000000;0.866079
7910.000000;0.866072
7909.000000;0.866297
7908.000000;0.866648
7907.000000;0.866943
7906.000000;0.867135
7905.000000;0.867298
7904.000000;0.867448
7903.000000;0.867510
7902.000000;0.867427
7901.000000;0.867199
7900.000000;0.866870
7899.000000;0.866566
7898.000000;0.866484
7897.000000;0.866702
7896.000000;0.867045
7895.000000;0.867263
7894.000000;0.867321
7893.000000;0.867357
7892.000000;0.867419
7891.000000;0.867429
7890.000000;0.867388
7889.000000;0.867423
7888.000000;0.867578
7887.000000;0.867752
7886.000000;0.867891
7885.000000;0.868084
7884.000000;0.868368
7883.000000;0.868591
7882.000000;0.868596
7881.000000;0.868449
7880.000000;0.868362
7879.000000;0.868442
7878.000000;0.868617
7877.000000;0.868761
7876.000000;0.868818
7875.000000;0.868839
7874.000000;0.868972
7873.000000;0.869354
7872.000000;0.869940
7871.000000;0.870463
7870.000000;0.870644
7869.000000;0.870448
7868.000000;0.870087
7867.000000;0.869792
7866.000000;0.869660
7865.000000;0.869678
7864.000000;0.869815
7863.000000;0.870038
7862.000000;0.870290
7861.000000;0.870491
7860.000000;0.870586
7859.000000;0.870593
7858.000000;0.870581
7857.000000;0.870600
7856.000000;0.870631
7855.000000;0.870651
7854.000000;0.870709
7853.000000;0.870878
7852.000000;0.871132
7851.000000;0.871336
7850.000000;0.871401
7849.000000;0.871388
7848.000000;0.871443
7847.000000;0.871641
7846.000000;0.871947
7845.000000;0.872253
7844.000000;0.872451
7843.000000;0.872484
7842.000000;0.872404
7841.000000;0.872345
7840.000000;0.872401
7839.000000;0.872528
7838.000000;0.872613
7837.000000;0.872600
7836.000000;0.872514
7835.000000;0.872381
7834.000000;0.872196
7833.000000;0.871982
7832.000000;0.871832
7831.000000;0.871845
7830.000000;0.872046
7829.000000;0.872378
7828.000000;0.872757
7827.000000;0.873130
7826.000000;0.873463
7825.000000;0.873715
7824.000000;0.873851
7823.000000;0.873872
7822.000000;0.873831
7821.000000;0.873795
7820.000000;0.873802
7819.000000;0.873844
7818.000000;0.873877
7817.000000;0.873850
7816.000000;0.873734
7815.000000;0.873568
7814.000000;0.873477
7813.000000;0.873624
7812.000000;0.874081
7811.000000;0.874744
7810.000000;0.875347
7809.000000;0.875631
7808.000000;0.875529
7807.000000;0.875198
7806.000000;0.874876
7805.000000;0.874715
7804.000000;0.874757
7803.000000;0.875002
7802.000000;0.875401
7801.000000;0.875802
7800.000000;0.876019
7799.000000;0.876014
7798.000000;0.875945
7797.000000;0.875974
7796.000000;0.876095
7795.000000;0.876203
7794.000000;0.876250
7793.000000;0.876255
7792.000000;0.876221
7791.000000;0.876159
7790.000000;0.876176
7789.000000;0.876402
7788.000000;0.876819
7787.000000;0.877246
7786.000000;0.877522
7785.000000;0.877637
7784.000000;0.877655
7783.000000;0.877638
7782.000000;0.877676
7781.000000;0.877911
7780.000000;0.878421
7779.000000;0.879096
7778.000000;0.879693
7777.000000;0.880010
7776.000000;0.880012
7775.000000;0.879812
7774.000000;0.879565
7773.000000;0.879388
7772.000000;0.879313
7771.000000;0.879334
7770.000000;0.879443
7769.000000;0.879610
7768.000000;0.879728
7767.000000;0.879670
7766.000000;0.879441
7765.000000;0.879224
7764.000000;0.879222
7763.000000;0.879440
7762.000000;0.879674
7761.000000;0.879713
7760.000000;0.879546
7759.000000;0.879370
7758.000000;0.879412
7757.000000;0.879720
7756.000000;0.880127
7755.000000;0.880416
7754.000000;0.880526
7753.000000;0.880575
7752.000000;0.880704
7751.000000;0.880940
7750.000000;0.881225
7749.000000;0.881512
7748.000000;0.881783
7747.000000;0.882005
7746.000000;0.882144
7745.000000;0.882240
7744.000000;0.882414
7743.000000;0.882742
7742.000000;0.883146
7741.000000;0.883445
7740.000000;0.883527
7739.000000;0.883450
7738.000000;0.883356
7737.000000;0.883330
7736.000000;0.883366
7735.000000;0.883450
7734.000000;0.883619
7733.000000;0.883902
7732.000000;0.884257
7731.000000;0.884601
7730.000000;0.884872
7729.000000;0.885056
7728.000000;0.885176
7727.000000;0.885279
7726.000000;0.885403
7725.000000;0.885525
7724.000000;0.885566
7723.000000;0.885491
7722.000000;0.885370
7721.000000;0.885289
7720.000000;0.885232
7719.000000;0.885123
7718.000000;0.884991
7717.000000;0.884978
7716.000000;0.885176
7715.000000;0.885501
7714.000000;0.885794
7713.000000;0.885996
7712.000000;0.886176
7711.000000;0.886401
7710.000000;0.886648
7709.000000;0.886852
7708.000000;0.887006
7707.000000;0.887188
7706.000000;0.887477
7705.000000;0.887868
7704.000000;0.888258
7703.000000;0.888526
7702.000000;0.888628
7701.000000;0.888618
7700.000000;0.888598
7699.000000;0.888665
7698.000000;0.888882
7697.000000;0.889248
7696.000000;0.889676
7695.000000;0.890017
7694.000000;0.890159
7693.000000;0.890109
7692.000000;0.889995
7691.000000;0.889969
7690.000000;0.890074
7689.000000;0.890219
7688.000000;0.890304
7687.000000;0.890366
7686.000000;0.890544
7685.000000;0.890885
7684.000000;0.891249
7683.000000;0.891467
7682.000000;0.891563
7681.000000;0.891717
7680.000000;0.892022
7679.000000;0.892376
7678.000000;0.892655
7677.000000;0.892887
7676.000000;0.893173
7675.000000;0.893478
7674.000000;0.893626
7673.000000;0.893520
7672.000000;0.893308
7671.000000;0.893276
7670.000000;0.893589
7669.000000;0.894161
7668.000000;0.894716
7667.000000;0.894980
7666.000000;0.894866
7665.000000;0.894554
7664.000000;0.894378
7663.000000;0.894545
7662.000000;0.894933
7661.000000;0.895240
7660.000000;0.895338
7659.000000;0.895411
7658.000000;0.895682
7657.000000;0.896090
7656.000000;0.896375
7655.000000;0.896447
7654.000000;0.896505
7653.000000;0.896756
7652.000000;0.897128
7651.000000;0.897379
7650.000000;0.897408
7649.000000;0.897344
7648.000000;0.897380
7647.000000;0.897592
7646.000000;0.897927
7645.000000;0.898292
7644.000000;0.898617
7643.000000;0.898877
7642.000000;0.899097
7641.000000;0.899344
7640.000000;0.899689
7639.000000;0.900139
7638.000000;0.900572
7637.000000;0.900787
7636.000000;0.900711
7635.000000;0.900534
7634.000000;0.900554
7633.000000;0.900841
7632.000000;0.901181
7631.000000;0.901382
7630.000000;0.901523
7629.000000;0.901794
7628.000000;0.902196
7627.000000;0.902554
7626.000000;0.902778
7625.000000;0.902952
7624.000000;0.903168
7623.000000;0.903397
7622.000000;0.903580
7621.000000;0.903761
7620.000000;0.904050
7619.000000;0.904499
7618.000000;0.905027
7617.000000;0.905484
7616.000000;0.905768
7615.000000;0.905931
7614.000000;0.906121
7613.000000;0.906412
7612.000000;0.906721
7611.000000;0.906949
7610.000000;0.907107
7609.000000;0.907239
7608.000000;0.907282
7607.000000;0.907159
7606.000000;0.906981
7605.000000;0.906989
7604.000000;0.907270
7603.000000;0.907678
7602.000000;0.908063
7601.000000;0.908426
7600.000000;0.908807
7599.000000;0.909157
7598.000000;0.909423
7597.000000;0.909661
7596.000000;0.909943
7595.000000;0.910241
7594.000000;0.910501
7593.000000;0.910754
7592.000000;0.911060
7591.000000;0.911395
7590.000000;0.911724
7589.000000;0.912110
7588.000000;0.912591
7587.000000;0.913001
7586.000000;0.913101
7585.000000;0.912942
7584.000000;0.912916
7583.000000;0.913336
7582.000000;0.914069
7581.000000;0.914704
7580.000000;0.915029
7579.000000;0.915200
7578.000000;0.915464
7577.000000;0.915858
7576.000000;0.916250
7575.000000;0.916556
7574.000000;0.916820
7573.000000;0.917089
7572.000000;0.917341
7571.000000;0.917541
7570.000000;0.917715
7569.000000;0.917928
7568.000000;0.918213
7567.000000;0.918592
7566.000000;0.919092
7565.000000;0.919707
7564.000000;0.920338
7563.000000;0.920858
7562.000000;0.921228
7561.000000;0.921526
7560.000000;0.921835
7559.000000;0.922143
7558.000000;0.922359
7557.000000;0.922404
7556.000000;0.922293
7555.000000;0.922159
7554.000000;0.922195
7553.000000;0.922507
7552.000000;0.923015
7551.000000;0.923505
7550.000000;0.923824
7549.000000;0.924020
7548.000000;0.924283
7547.000000;0.924775
7546.000000;0.925501
7545.000000;0.926302
7544.000000;0.926971
7543.000000;0.927378
7542.000000;0.927535
7541.000000;0.927558
7540.000000;0.927600
7539.000000;0.927804
7538.000000;0.928238
7537.000000;0.928791
7536.000000;0.929189
7535.000000;0.929233
7534.000000;0.929057
7533.000000;0.929047
7532.000000;0.929458
7531.000000;0.930175
7530.000000;0.930892
7529.000000;0.931438
7528.000000;0.931860
7527.000000;0.932246
7526.000000;0.932589
7525.000000;0.932836
7524.000000;0.932996
7523.000000;0.933153
7522.000000;0.933414
7521.000000;0.933871
7520.000000;0.934547
7519.000000;0.935364
7518.000000;0.936164
7517.000000;0.936807
7516.000000;0.937251
7515.000000;0.937547
7514.000000;0.937750
7513.000000;0.937884
7512.000000;0.937980
7511.000000;0.938122
7510.000000;0.938397
7509.000000;0.938781
7508.000000;0.939120
7507.000000;0.939271
7506.000000;0.939269
7505.000000;0.939319
7504.000000;0.939622
7503.000000;0.940189
7502.000000;0.940841
7501.000000;0.941368
7500.000000;0.941691
7499.000000;0.941904
7498.000000;0.942181
7497.000000;0.942649
7496.000000;0.943290
7495.000000;0.943982
7494.000000;0.944556
7493.000000;0.944921
7492.000000;0.945146
7491.000000;0.945444
7490.000000;0.945967
7489.000000;0.946627
7488.000000;0.947159
7487.000000;0.947413
7486.000000;0.947527
7485.000000;0.947742
7484.000000;0.948121
7483.000000;0.948525
7482.000000;0.948840
7481.000000;0.949106
7480.000000;0.949425
7479.000000;0.949854
7478.000000;0.950410
7477.000000;0.951083
7476.000000;0.951792
7475.000000;0.952400
7474.000000;0.952851
7473.000000;0.953225
7472.000000;0.953611
7471.000000;0.953980
7470.000000;0.954256
7469.000000;0.954475
7468.000000;0.954777
7467.000000;0.955254
7466.000000;0.955880
7465.000000;0.956594
7464.000000;0.957353
7463.000000;0.958081
7462.000000;0.958656
7461.000000;0.959004
7460.000000;0.959199
7459.000000;0.959399
7458.000000;0.959684
7457.000000;0.959998
7456.000000;0.960244
7455.000000;0.960402
7454.000000;0.960522
7453.000000;0.960642
7452.000000;0.960780
7451.000000;0.960998
7450.000000;0.961405
7449.000000;0.962039
7448.000000;0.962767
7447.000000;0.963362
7446.000000;0.963700
7445.000000;0.963846
7444.000000;0.963959
7443.000000;0.964160
7442.000000;0.964495
7441.000000;0.964961
7440.000000;0.965496
7439.000000;0.965985
7438.000000;0.966343
7437.000000;0.966616
7436.000000;0.966968
7435.000000;0.967533
7434.000000;0.968271
7433.000000;0.968968
7432.000000;0.969394
7431.000000;0.969496
7430.000000;0.969441
7429.000000;0.969473
7428.000000;0.969717
7427.000000;0.970115
7426.000000;0.970520
7425.000000;0.970851
7424.000000;0.971145
7423.000000;0.971509
7422.000000;0.972021
7421.000000;0.972670
7420.000000;0.973351
7419.000000;0.973919
7418.000000;0.974282
7417.000000;0.974477
7416.000000;0.974667
7415.000000;0.975036
7414.000000;0.975642
7413.000000;0.976365
7412.000000;0.976992
7411.000000;0.977392
7410.000000;0.977584
7409.000000;0.977680
7408.000000;0.977775
7407.000000;0.977925
7406.000000;0.978183
7405.000000;0.978601
7404.000000;0.979173
7403.000000;0.979786
7402.000000;0.980244
7401.000000;0.980401
7400.000000;0.980315
7399.000000;0.980267
7398.000000;0.980541
7397.000000;0.981146
7396.000000;0.981830
7395.000000;0.982377
7394.000000;0.982797
7393.000000;0.983176
7392.000000;0.983482
7391.000000;0.983662
7390.000000;0.983828
7389.000000;0.984152
7388.000000;0.984611
7387.000000;0.984992
7386.000000;0.985211
7385.000000;0.985438
7384.000000;0.985858
7383.000000;0.986416
7382.000000;0.986916
7381.000000;0.987266
7380.000000;0.987549
7379.000000;0.987870
7378.000000;0.988240
7377.000000;0.988628
7376.000000;0.989019
7375.000000;0.989423
7374.000000;0.989852
7373.000000;0.990290
7372.000000;0.990697
7371.000000;0.991049
7370.000000;0.991396
7369.000000;0.991827
7368.000000;0.992343
7367.000000;0.992830
7366.000000;0.993202
7365.000000;0.993500
7364.000000;0.993774
7363.000000;0.993949
7362.000000;0.993929
7361.000000;0.993811
7360.000000;0.993872
7359.000000;0.994274
7358.000000;0.994891
7357.000000;0.995466
7356.000000;0.995881
7355.000000;0.996214
7354.000000;0.996615
7353.000000;0.997148
7352.000000;0.997722
7351.000000;0.998155
7350.000000;0.998354
7349.000000;0.998437
7348.000000;0.998616
7347.000000;0.998926
7346.000000;0.999212
7345.000000;0.999408
7344.000000;0.999686
7343.000000;1.000207
7342.000000;1.000882
7341.000000;1.001505
7340.000000;1.002042
7339.000000;1.002593
7338.000000;1.003144
7337.000000;1.003588
7336.000000;1.003978
7335.000000;1.004531
7334.000000;1.005305
7333.000000;1.006066
7332.000000;1.006538
7331.000000;1.006683
7330.000000;1.006691
7329.000000;1.006806
7328.000000;1.007219
7327.000000;1.007963
7326.000000;1.008848
7325.000000;1.009625
7324.000000;1.010245
7323.000000;1.010867
7322.000000;1.011601
7321.000000;1.012369
7320.000000;1.013029
7319.000000;1.013545
7318.000000;1.013975
7317.000000;1.014370
7316.000000;1.014771
7315.000000;1.015230
7314.000000;1.015731
7313.000000;1.016157
7312.000000;1.016435
7311.000000;1.016661
7310.000000;1.017000
7309.000000;1.017510
7308.000000;1.018142
7307.000000;1.018826
7306.000000;1.019486
7305.000000;1.020048
7304.000000;1.020557
7303.000000;1.021212
7302.000000;1.022159
7301.000000;1.023288
7300.000000;1.024338
7299.000000;1.025194
7298.000000;1.025954
7297.000000;1.026692
7296.000000;1.027352
7295.000000;1.027883
7294.000000;1.028353
7293.000000;1.028847
7292.000000;1.029383
7291.000000;1.029995
7290.000000;1.030809
7289.000000;1.031920
7288.000000;1.033269
7287.000000;1.034684
7286.000000;1.036006
7285.000000;1.037171
7284.000000;1.038194
7283.000000;1.039131
7282.000000;1.040025
7281.000000;1.040882
7280.000000;1.041720
7279.000000;1.042614
7278.000000;1.043636
7277.000000;1.044727
7276.000000;1.045723
7275.000000;1.046542
7274.000000;1.047269
7273.000000;1.048037
7272.000000;1.048904
7271.000000;1.049879
7270.000000;1.051007
7269.000000;1.052334
7268.000000;1.053826
7267.000000;1.055381
7266.000000;1.056885
7265.000000;1.058256
7264.000000;1.059463
7263.000000;1.060558
7262.000000;1.061629
7261.000000;1.062691
7260.000000;1.063682
7259.000000;1.064589
7258.000000;1.065538
7257.000000;1.066674
7256.000000;1.068031
7255.000000;1.069566
7254.000000;1.071247
7253.000000;1.073014
7252.000000;1.074713
7251.000000;1.076177
7250.000000;1.077415
7249.000000;1.078622
7248.000000;1.080029
7247.000000;1.081740
7246.000000;1.083635
7245.000000;1.085449
7244.000000;1.087028
7243.000000;1.088547
7242.000000;1.090357
7241.000000;1.092529
7240.000000;1.094713
7239.000000;1.096578
7238.000000;1.098207
7237.000000;1.099941
7236.000000;1.101949
7235.000000;1.104089
7234.000000;1.106135
7233.000000;1.108010
7232.000000;1.109810
7231.000000;1.111723
7230.000000;1.113919
7229.000000;1.116409
7228.000000;1.119021
7227.000000;1.121556
7226.000000;1.123979
7225.000000;1.126440
7224.000000;1.129074
7223.000000;1.131848
7222.000000;1.134604
7221.000000;1.137188
7220.000000;1.139520
7219.000000;1.141662
7218.000000;1.143834
7217.000000;1.146270
7216.000000;1.148997
7215.000000;1.151806
7214.000000;1.154481
7213.000000;1.157024
7212.000000;1.159639
7211.000000;1.162556
7210.000000;1.165852
7209.000000;1.169355
7208.000000;1.172719
7207.000000;1.175691
7206.000000;1.178319
7205.000000;1.180841
7204.000000;1.183442
7203.000000;1.186198
7202.000000;1.189234
7201.000000;1.192717
7200.000000;1.196628
7199.000000;1.200678
7198.000000;1.204551
7197.000000;1.208163
7196.000000;1.211631
7195.000000;1.215129
7194.000000;1.218802
7193.000000;1.222696
7192.000000;1.226677
7191.000000;1.230536
7190.000000;1.234228
7189.000000;1.237903
7188.000000;1.241653
7187.000000;1.245394
7186.000000;1.249077
7185.000000;1.252832
7184.000000;1.256759
7183.000000;1.260765
7182.000000;1.264738
7181.000000;1.268745
7180.000000;1.272895
7179.000000;1.277116
7178.000000;1.281302
7177.000000;1.285554
7176.000000;1.290036
7175.000000;1.294678
7174.000000;1.299246
7173.000000;1.303696
7172.000000;1.308241
7171.000000;1.313021
7170.000000;1.317920
7169.000000;1.322761
7168.000000;1.327567
7167.000000;1.332494
7166.000000;1.337568
7165.000000;1.342570
7164.000000;1.347226
7163.000000;1.351544
7162.000000;1.355871
7161.000000;1.360532
7160.000000;1.365433
7159.000000;1.370191
7158.000000;1.374699
7157.000000;1.379316
7156.000000;1.384392
7155.000000;1.389798
7154.000000;1.395109
7153.000000;1.400111
7152.000000;1.404933
7151.000000;1.409770
7150.000000;1.414689
7149.000000;1.419588
7148.000000;1.424220
7147.000000;1.428360
7146.000000;1.432148
7145.000000;1.436157
7144.000000;1.440915
7143.000000;1.446370
7142.000000;1.452007
7141.000000;1.457409
7140.000000;1.462525
7139.000000;1.467465
7138.000000;1.472287
7137.000000;1.477010
7136.000000;1.481661
7135.000000;1.486298
7134.000000;1.491085
7133.000000;1.496296
7132.000000;1.502037
7131.000000;1.508004
7130.000000;1.513686
7129.000000;1.518806
7128.000000;1.523437
7127.000000;1.527797
7126.000000;1.532101
7125.000000;1.536578
7124.000000;1.541345
7123.000000;1.546292
7122.000000;1.551266
7121.000000;1.556331
7120.000000;1.561633
7119.000000;1.567034
7118.000000;1.572147
7117.000000;1.576737
7116.000000;1.580884
7115.000000;1.584747
7114.000000;1.588425
7113.000000;1.592030
7112.000000;1.595701
7111.000000;1.599573
7110.000000;1.603879
7109.000000;1.608873
7108.000000;1.614408
7107.000000;1.619802
7106.000000;1.624523
7105.000000;1.628866
7104.000000;1.633450
7103.000000;1.638204
7102.000000;1.642482
7101.000000;1.646132
7100.000000;1.649783
7099.000000;1.653888
7098.000000;1.658115
7097.000000;1.661998
7096.000000;1.665676
7095.000000;1.669546
7094.000000;1.673609
7093.000000;1.677597
7092.000000;1.681485
7091.000000;1.685410
7090.000000;1.689280
7089.000000;1.692858
7088.000000;1.696103
7087.000000;1.699161
7086.000000;1.702187
7085.000000;1.705425
7084.000000;1.709231
7083.000000;1.713715
7082.000000;1.718460
7081.000000;1.722814
7080.000000;1.726483
7079.000000;1.729664
7078.000000;1.732772
7077.000000;1.736149
7076.000000;1.739850
7075.000000;1.743466
7074.000000;1.746444
7073.000000;1.748861
7072.000000;1.751660
7071.000000;1.755746
7070.000000;1.760884
7069.000000;1.765779
7068.000000;1.769186
7067.000000;1.770786
7066.000000;1.771121
7065.000000;1.771146
7064.000000;1.771889
7063.000000;1.774102
7062.000000;1.777838
7061.000000;1.782340
7060.000000;1.786498
7059.000000;1.789649
7058.000000;1.792058
7057.000000;1.794600
7056.000000;1.797856
7055.000000;1.801545
7054.000000;1.804896
7053.000000;1.807403
7052.000000;1.809059
7051.000000;1.810090
7050.000000;1.810918
7049.000000;1.812231
7048.000000;1.814454
7047.000000;1.817063
7046.000000;1.818990
7045.000000;1.820030
7044.000000;1.821291
7043.000000;1.823893
7042.000000;1.827699
7041.000000;1.831617
7040.000000;1.834746
7039.000000;1.836808
7038.000000;1.837953
7037.000000;1.838754
7036.000000;1.840057
7035.000000;1.842191
7034.000000;1.844402
7033.000000;1.845561
7032.000000;1.845443
7031.000000;1.844966
7030.000000;1.845308
7029.000000;1.847123
7028.000000;1.850351
7027.000000;1.854185
7026.000000;1.857378
7025.000000;1.859234
7024.000000;1.860373
7023.000000;1.861945
7022.000000;1.864093
7021.000000;1.865766
7020.000000;1.866199
7019.000000;1.866039
7018.000000;1.866648
7017.000000;1.868601
7016.000000;1.871174
7015.000000;1.873141
7014.000000;1.873896
7013.000000;1.873866
7012.000000;1.873933
7011.000000;1.874553
7010.000000;1.875614
7009.000000;1.877052
7008.000000;1.879189
7007.000000;1.882169
7006.000000;1.885280
7005.000000;1.887319
7004.000000;1.887743
7003.000000;1.887137
7002.000000;1.886457
7001.000000;1.886153
7000.000000;1.886105
6999.000000;1.886088
6998.000000;1.886089
6997.000000;1.886264
6996.000000;1.886716
6995.000000;1.887330
6994.000000;1.887918
6993.000000;1.888596
6992.000000;1.889777
6991.000000;1.891577
6990.000000;1.893436
6989.000000;1.894709
6988.000000;1.895487
6987.000000;1.896410
6986.000000;1.897752
6985.000000;1.899185
6984.000000;1.900444
6983.000000;1.901604
6982.000000;1.902502
6981.000000;1.902514
6980.000000;1.901439
6979.000000;1.900257
6978.000000;1.900355
6977.000000;1.901987
6976.000000;1.903901
6975.000000;1.904613
6974.000000;1.903886
6973.000000;1.902822
6972.000000;1.902606
6971.000000;1.903313
6970.000000;1.903937
6969.000000;1.903562
6968.000000;1.902452
6967.000000;1.901848
6966.000000;1.902668
6965.000000;1.904562
6964.000000;1.906294
6963.000000;1.906989
6962.000000;1.906876
6961.000000;1.906898
6960.000000;1.907751
6959.000000;1.909335
6958.000000;1.910970
6957.000000;1.912006
6956.000000;1.912177
6955.000000;1.911509
6954.000000;1.910176
6953.000000;1.908631
6952.000000;1.907643
6951.000000;1.907697
6950.000000;1.908342
6949.000000;1.908478
6948.000000;1.907478
6947.000000;1.905826
6946.000000;1.904527
6945.000000;1.904142
6944.000000;1.904554
6943.000000;1.905392
6942.000000;1.906447
6941.000000;1.907772
6940.000000;1.909548
6939.000000;1.911754
6938.000000;1.913823
6937.000000;1.914848
6936.000000;1.914453
6935.000000;1.913321
6934.000000;1.912499
6933.000000;1.912288
6932.000000;1.912168
6931.000000;1.911714
6930.000000;1.911074
6929.000000;1.910413
6928.000000;1.909463
6927.000000;1.908082
6926.000000;1.906912
6925.000000;1.906946
6924.000000;1.908458
6923.000000;1.910597
6922.000000;1.912091
6921.000000;1.912188
6920.000000;1.910997
6919.000000;1.909276
6918.000000;1.908033
6917.000000;1.908026
6916.000000;1.909215
6915.000000;1.910654
6914.000000;1.911220
6913.000000;1.910628
6912.000000;1.909667
6911.000000;1.909283
6910.000000;1.909474
6909.000000;1.909214
6908.000000;1.907582
6907.000000;1.904841
6906.000000;1.902239
6905.000000;1.900839
6904.000000;1.900742
6903.000000;1.901331
6902.000000;1.901979
6901.000000;1.902424
6900.000000;1.902739
6899.000000;1.903135
6898.000000;1.903676
6897.000000;1.904013
6896.000000;1.903569
6895.000000;1.902208
6894.000000;1.900615
6893.000000;1.899782
6892.000000;1.900167
6891.000000;1.901522
6890.000000;1.903284
6889.000000;1.904808
6888.000000;1.905393
6887.000000;1.904563
6886.000000;1.902516
6885.000000;1.900123
6884.000000;1.898417
6883.000000;1.898122
6882.000000;1.899402
6881.000000;1.901628
6880.000000;1.903441
6879.000000;1.903629
6878.000000;1.902222
6877.000000;1.900409
6876.000000;1.899213
6875.000000;1.898567
6874.000000;1.897782
6873.000000;1.896522
6872.000000;1.895023
6871.000000;1.893675
6870.000000;1.892795
6869.000000;1.892699
6868.000000;1.893628
6867.000000;1.895509
6866.000000;1.897825
6865.000000;1.899671
6864.000000;1.900063
6863.000000;1.898643
6862.000000;1.896249
6861.000000;1.894407
6860.000000;1.893928
6859.000000;1.894201
6858.000000;1.894023
6857.000000;1.892909
6856.000000;1.891287
6855.000000;1.889770
6854.000000;1.888744
6853.000000;1.888462
6852.000000;1.888917
6851.000000;1.889560
6850.000000;1.889593
6849.000000;1.888682
6848.000000;1.887179
6847.000000;1.885701
6846.000000;1.884746
6845.000000;1.884525
6844.000000;1.884714
6843.000000;1.884493
6842.000000;1.883379
6841.000000;1.881986
6840.000000;1.881389
6839.000000;1.881738
6838.000000;1.882072
6837.000000;1.881680
6836.000000;1.880954
6835.000000;1.880487
6834.000000;1.880100
6833.000000;1.879331
6832.000000;1.878324
6831.000000;1.877555
6830.000000;1.876963
6829.000000;1.876042
6828.000000;1.874683
6827.000000;1.873272
6826.000000;1.871944
6825.000000;1.870416
6824.000000;1.868617
6823.000000;1.866863
6822.000000;1.865208
6821.000000;1.863284
6820.000000;1.861104
6819.000000;1.859426
6818.000000;1.858803
6817.000000;1.858666
6816.000000;1.857937
6815.000000;1.856421
6814.000000;1.854975
6813.000000;1.854220
6812.000000;1.853632
6811.000000;1.852164
6810.000000;1.849495
6809.000000;1.846420
6808.000000;1.844110
6807.000000;1.843091
6806.000000;1.842787
6805.000000;1.841991
6804.000000;1.839994
6803.000000;1.837317
6802.000000;1.835137
6801.000000;1.833978
6800.000000;1.833271
6799.000000;1.832210
6798.000000;1.830652
6797.000000;1.828913
6796.000000;1.827075
6795.000000;1.824974
6794.000000;1.822703
6793.000000;1.820590
6792.000000;1.818686
6791.000000;1.816745
6790.000000;1.814779
6789.000000;1.813178
6788.000000;1.812081
6787.000000;1.811015
6786.000000;1.809463
6785.000000;1.807523
6784.000000;1.805690
6783.000000;1.804126
6782.000000;1.802524
6781.000000;1.800616
6780.000000;1.798504
6779.000000;1.796404
6778.000000;1.794302
6777.000000;1.792033
6776.000000;1.789610
6775.000000;1.787349
6774.000000;1.785592
6773.000000;1.784365
6772.000000;1.783359
6771.000000;1.782282
6770.000000;1.781074
6769.000000;1.779677
6768.000000;1.777781
6767.000000;1.775081
6766.000000;1.771789
6765.000000;1.768565
6764.000000;1.765906
6763.000000;1.763833
6762.000000;1.762235
6761.000000;1.761142
6760.000000;1.760468
6759.000000;1.759742
6758.000000;1.758460
6757.000000;1.756580
6756.000000;1.754419
6755.000000;1.752162
6754.000000;1.749785
6753.000000;1.747387
6752.000000;1.745261
6751.000000;1.743546
6750.000000;1.741990
6749.000000;1.740144
6748.000000;1.737766
6747.000000;1.735032
6746.000000;1.732404
6745.000000;1.730218
6744.000000;1.728356
6743.000000;1.726442
6742.000000;1.724425
6741.000000;1.722718
6740.000000;1.721579
6739.000000;1.720572
6738.000000;1.718987
6737.000000;1.716714
6736.000000;1.714343
6735.000000;1.712389
6734.000000;1.710753
6733.000000;1.708997
6732.000000;1.706883
6731.000000;1.704523
6730.000000;1.702220
6729.000000;1.700260
6728.000000;1.698696
6727.000000;1.697197
6726.000000;1.695305
6725.000000;1.692912
6724.000000;1.690348
6723.000000;1.687929
6722.000000;1.685641
6721.000000;1.683384
6720.000000;1.681324
6719.000000;1.679773
6718.000000;1.678754
6717.000000;1.677862
6716.000000;1.676584
6715.000000;1.674684
6714.000000;1.672320
6713.000000;1.669850
6712.000000;1.667540
6711.000000;1.665440
6710.000000;1.663490
6709.000000;1.661669
6708.000000;1.659916
6707.000000;1.657977
6706.000000;1.655568
6705.000000;1.652797
6704.000000;1.650230
6703.000000;1.648312
6702.000000;1.646880
6701.000000;1.645281
6700.000000;1.643217
6699.000000;1.641076
6698.000000;1.639376
6697.000000;1.638069
6696.000000;1.636581
6695.000000;1.634502
6694.000000;1.632025
6693.000000;1.629682
6692.000000;1.627839
6691.000000;1.626496
6690.000000;1.625401
6689.000000;1.624168
6688.000000;1.622454
6687.000000;1.620280
6686.000000;1.618139
6685.000000;1.616524
6684.000000;1.615311
6683.000000;1.613848
6682.000000;1.611742
6681.000000;1.609314
6680.000000;1.607123
6679.000000;1.605265
6678.000000;1.603392
6677.000000;1.601317
6676.000000;1.599337
6675.000000;1.597885
6674.000000;1.596990
6673.000000;1.596134
6672.000000;1.594620
6671.000000;1.592190
6670.000000;1.589366
6669.000000;1.587039
6668.000000;1.585597
6667.000000;1.584548
6666.000000;1.583134
6665.000000;1.581174
6664.000000;1.579096
6663.000000;1.577252
6662.000000;1.575516
6661.000000;1.573583
6660.000000;1.571390
6659.000000;1.569156
6658.000000;1.567151
6657.000000;1.565495
6656.000000;1.564040
6655.000000;1.562413
6654.000000;1.560329
6653.000000;1.557929
6652.000000;1.555682
6651.000000;1.553930
6650.000000;1.552640
6649.000000;1.551575
6648.000000;1.550499
6647.000000;1.549184
6646.000000;1.547460
6645.000000;1.545423
6644.000000;1.543467
6643.000000;1.541957
6642.000000;1.540876
6641.000000;1.539869
6640.000000;1.538560
6639.000000;1.536818
6638.000000;1.534795
6637.000000;1.532786
6636.000000;1.530979
6635.000000;1.529319
6634.000000;1.527644
6633.000000;1.525948
6632.000000;1.524394
6631.000000;1.523072
6630.000000;1.521888
6629.000000;1.520723
6628.000000;1.519524
6627.000000;1.518195
6626.000000;1.516558
6625.000000;1.514565
6624.000000;1.512409
6623.000000;1.510311
6622.000000;1.508297
6621.000000;1.506285
6620.000000;1.504297
6619.000000;1.502464
6618.000000;1.500877
6617.000000;1.499561
6616.000000;1.498521
6615.000000;1.497704
6614.000000;1.496930
6613.000000;1.495981
6612.000000;1.494749
6611.000000;1.493253
6610.000000;1.491564
6609.000000;1.489790
6608.000000;1.488073
6607.000000;1.486489
6606.000000;1.484957
6605.000000;1.483339
6604.000000;1.481607
6603.000000;1.479878
6602.000000;1.478290
6601.000000;1.476903
6600.000000;1.475674
6599.000000;1.474463
6598.000000;1.473103
6597.000000;1.471513
6596.000000;1.469773
6595.000000;1.468055
6594.000000;1.466519
6593.000000;1.465256
6592.000000;1.464228
6591.000000;1.463230
6590.000000;1.462007
6589.000000;1.460496
6588.000000;1.458895
6587.000000;1.457432
6586.000000;1.456160
6585.000000;1.455036
6584.000000;1.454029
6583.000000;1.453026
6582.000000;1.451748
6581.000000;1.449988
6580.000000;1.447919
6579.000000;1.446003
6578.000000;1.444576
6577.000000;1.443603
6576.000000;1.442798
6575.000000;1.441840
6574.000000;1.440517
6573.000000;1.438860
6572.000000;1.437178
6571.000000;1.435797
6570.000000;1.434706
6569.000000;1.433588
6568.000000;1.432245
6567.000000;1.430837
6566.000000;1.429636
6565.000000;1.428668
6564.000000;1.427730
6563.000000;1.426630
6562.000000;1.425275
6561.000000;1.423626
6560.000000;1.421745
6559.000000;1.419875
6558.000000;1.418329
6557.000000;1.417225
6556.000000;1.416403
6555.000000;1.415612
6554.000000;1.414707
6553.000000;1.413691
6552.000000;1.412633
6551.000000;1.411604
6550.000000;1.410610
6549.000000;1.409558
6548.000000;1.408336
6547.000000;1.406957
6546.000000;1.405589
6545.000000;1.404387
6544.000000;1.403333
6543.000000;1.402291
6542.000000;1.401157
6541.000000;1.399909
6540.000000;1.398568
6539.000000;1.397235
6538.000000;1.396130
6537.000000;1.395444
6536.000000;1.395050
6535.000000;1.394483
6534.000000;1.393355
6533.000000;1.391746
6532.000000;1.390079
6531.000000;1.388633
6530.000000;1.387328
6529.000000;1.385995
6528.000000;1.384699
6527.000000;1.383663
6526.000000;1.382974
6525.000000;1.382477
6524.000000;1.381915
6523.000000;1.381081
6522.000000;1.379860
6521.000000;1.378290
6520.000000;1.376592
6519.000000;1.375038
6518.000000;1.373719
6517.000000;1.372499
6516.000000;1.371242
6515.000000;1.370021
6514.000000;1.369049
6513.000000;1.368422
6512.000000;1.367977
6511.000000;1.367399
6510.000000;1.366474
6509.000000;1.365273
6508.000000;1.364113
6507.000000;1.363293
6506.000000;1.362797
6505.000000;1.362303
6504.000000;1.361490
6503.000000;1.360341
6502.000000;1.359074
6501.000000;1.357841
6500.000000;1.356605
6499.000000;1.355320
6498.000000;1.354118
6497.000000;1.353198
6496.000000;1.352563
6495.000000;1.351965
6494.000000;1.351133
6493.000000;1.350010
6492.000000;1.348758
6491.000000;1.347592
6490.000000;1.346628
6489.000000;1.345865
6488.000000;1.345205
6487.000000;1.344499
6486.000000;1.343627
6485.000000;1.342583
6484.000000;1.341475
6483.000000;1.340442
6482.000000;1.339551
6481.000000;1.338764
6480.000000;1.337968
6479.000000;1.337028
6478.000000;1.335880
6477.000000;1.334605
6476.000000;1.333413
6475.000000;1.332490
6474.000000;1.331853
6473.000000;1.331357
6472.000000;1.330834
6471.000000;1.330211
6470.000000;1.329488
6469.000000;1.328672
6468.000000;1.327768
6467.000000;1.326808
6466.000000;1.325838
6465.000000;1.324865
6464.000000;1.323865
6463.000000;1.322866
6462.000000;1.321972
6461.000000;1.321235
6460.000000;1.320548
6459.000000;1.319740
6458.000000;1.318792
6457.000000;1.317883
6456.000000;1.317165
6455.000000;1.316562
6454.000000;1.315866
6453.000000;1.314989
6452.000000;1.314029
6451.000000;1.313104
6450.000000;1.312228
6449.000000;1.311374
6448.000000;1.310567
6447.000000;1.309832
6446.000000;1.309105
6445.000000;1.308271
6444.000000;1.307303
6443.000000;1.306302
6442.000000;1.305401
6441.000000;1.304638
6440.000000;1.303936
6439.000000;1.303192
6438.000000;1.302406
6437.000000;1.301694
6436.000000;1.301154
6435.000000;1.300713
6434.000000;1.300155
6433.000000;1.299337
6432.000000;1.298320
6431.000000;1.297290
6430.000000;1.296385
6429.000000;1.295642
6428.000000;1.295032
6427.000000;1.294487
6426.000000;1.293932
6425.000000;1.293341
6424.000000;1.292745
6423.000000;1.292137
6422.000000;1.291409
6421.000000;1.290495
6420.000000;1.289518
6419.000000;1.288719
6418.000000;1.288214
6417.000000;1.287875
6416.000000;1.287467
6415.000000;1.286842
6414.000000;1.286000
6413.000000;1.285051
6412.000000;1.284125
6411.000000;1.283279
6410.000000;1.282476
6409.000000;1.281669
6408.000000;1.280898
6407.000000;1.280227
6406.000000;1.279612
6405.000000;1.278939
6404.000000;1.278208
6403.000000;1.277554
6402.000000;1.277040
6401.000000;1.276532
6400.000000;1.275848
6399.000000;1.274986
6398.000000;1.274089
6397.000000;1.273262
6396.000000;1.272504
6395.000000;1.271809
6394.000000;1.271216
6393.000000;1.270737
6392.000000;1.270298
6391.000000;1.269789
6390.000000;1.269153
6389.000000;1.268424
6388.000000;1.267695
6387.000000;1.267053
6386.000000;1.266509
6385.000000;1.265988
6384.000000;1.265401
6383.000000;1.264717
6382.000000;1.263956
6381.000000;1.263156
6380.000000;1.262367
6379.000000;1.261663
6378.000000;1.261108
6377.000000;1.260708
6376.000000;1.260403
6375.000000;1.260075
6374.000000;1.259596
6373.000000;1.258906
6372.000000;1.258089
6371.000000;1.257311
6370.000000;1.256655
6369.000000;1.256056
6368.000000;1.255436
6367.000000;1.254844
6366.000000;1.254393
6365.000000;1.254088
6364.000000;1.253808
6363.000000;1.253431
6362.000000;1.252915
6361.000000;1.252272
6360.000000;1.251551
6359.000000;1.250860
6358.000000;1.250302
6357.000000;1.249859
6356.000000;1.249384
6355.000000;1.248755
6354.000000;1.247996
6353.000000;1.247224
6352.000000;1.246530
6351.000000;1.245929
6350.000000;1.245394
6349.000000;1.244895
6348.000000;1.244427
6347.000000;1.244008
6346.000000;1.243626
6345.000000;1.243197
6344.000000;1.242627
6343.000000;1.241913
6342.000000;1.241165
6341.000000;1.240498
6340.000000;1.239949
6339.000000;1.239519
6338.000000;1.239208
6337.000000;1.238957
6336.000000;1.238605
6335.000000;1.237992
6334.000000;1.237140
6333.000000;1.236279
6332.000000;1.235675
6331.000000;1.235397
6330.000000;1.235252
6329.000000;1.234946
6328.000000;1.234319
6327.000000;1.233440
6326.000000;1.232497
6325.000000;1.231648
6324.000000;1.230990
6323.000000;1.230585
6322.000000;1.230436
6321.000000;1.230425
6320.000000;1.230366
6319.000000;1.230139
6318.000000;1.229735
6317.000000;1.229198
6316.000000;1.228587
6315.000000;1.228002
6314.000000;1.227546
6313.000000;1.227207
6312.000000;1.226850
6311.000000;1.226362
6310.000000;1.225777
6309.000000;1.225210
6308.000000;1.224734
6307.000000;1.224342
6306.000000;1.223994
6305.000000;1.223633
6304.000000;1.223199
6303.000000;1.222695
6302.000000;1.222197
6301.000000;1.221760
6300.000000;1.221337
6299.000000;1.220872
6298.000000;1.220419
6297.000000;1.220089
6296.000000;1.219878
6295.000000;1.219640
6294.000000;1.219236
6293.000000;1.218668
6292.000000;1.218050
6291.000000;1.217491
6290.000000;1.217038
6289.000000;1.216672
6288.000000;1.216338
6287.000000;1.216004
6286.000000;1.215709
6285.000000;1.215522
6284.000000;1.215441
6283.000000;1.215353
6282.000000;1.215124
6281.000000;1.214710
6280.000000;1.214168
6279.000000;1.213588
6278.000000;1.213031
6277.000000;1.212507
6276.000000;1.211993
6275.000000;1.211475
6274.000000;1.210990
6273.000000;1.210631
6272.000000;1.210472
6271.000000;1.210481
6270.000000;1.210500
6269.000000;1.210334
6268.000000;1.209888
6267.000000;1.209227
6266.000000;1.208519
6265.000000;1.207927
6264.000000;1.207541
6263.000000;1.207370
6262.000000;1.207319
6261.000000;1.207196
6260.000000;1.206802
6259.000000;1.206106
6258.000000;1.205294
6257.000000;1.204644
6256.000000;1.204319
6255.000000;1.204303
6254.000000;1.204460
6253.000000;1.204610
6252.000000;1.204580
6251.000000;1.204265
6250.000000;1.203710
6249.000000;1.203092
6248.000000;1.202600
6247.000000;1.202299
6246.000000;1.202105
6245.000000;1.201883
6244.000000;1.201552
6243.000000;1.201126
6242.000000;1.200674
6241.000000;1.200254
6240.000000;1.199901
6239.000000;1.199619
6238.000000;1.199368
6237.000000;1.199074
6236.000000;1.198692
6235.000000;1.198270
6234.000000;1.197912
6233.000000;1.197676
6232.000000;1.197517
6231.000000;1.197348
6230.000000;1.197100
6229.000000;1.196733
6228.000000;1.196255
6227.000000;1.195753
6226.000000;1.195351
6225.000000;1.195070
6224.000000;1.194785
6223.000000;1.194382
6222.000000;1.193927
6221.000000;1.193595
6220.000000;1.193460
6219.000000;1.193418
6218.000000;1.193346
6217.000000;1.193243
6216.000000;1.193177
6215.000000;1.193144
6214.000000;1.193040
6213.000000;1.192759
6212.000000;1.192294
6211.000000;1.191735
6210.000000;1.191206
6209.000000;1.190786
6208.000000;1.190473
6207.000000;1.190210
6206.000000;1.189952
6205.000000;1.189711
6204.000000;1.189533
6203.000000;1.189442
6202.000000;1.189403
6201.000000;1.189332
6200.000000;1.189159
6199.000000;1.188876
6198.000000;1.188525
6197.000000;1.188138
6196.000000;1.187726
6195.000000;1.187312
6194.000000;1.186968
6193.000000;1.186757
6192.000000;1.186651
6191.000000;1.186540
6190.000000;1.186331
6189.000000;1.186031
6188.000000;1.185707
6187.000000;1.185397
6186.000000;1.185080
6185.000000;1.184737
6184.000000;1.184409
6183.000000;1.184160
6182.000000;1.183992
6181.000000;1.183813
6180.000000;1.183550
6179.000000;1.183250
6178.000000;1.183052
6177.000000;1.183035
6176.000000;1.183123
6175.000000;1.183155
6174.000000;1.183025
6173.000000;1.182753
6172.000000;1.182444
6171.000000;1.182201
6170.000000;1.182057
6169.000000;1.181971
6168.000000;1.181872
6167.000000;1.181706
6166.000000;1.181454
6165.000000;1.181137
6164.000000;1.180820
6163.000000;1.180599
6162.000000;1.180528
6161.000000;1.180541
6160.000000;1.180506
6159.000000;1.180346
6158.000000;1.180112
6157.000000;1.179892
6156.000000;1.179712
6155.000000;1.179522
6154.000000;1.179254
6153.000000;1.178868
6152.000000;1.178388
6151.000000;1.177917
6150.000000;1.177598
6149.000000;1.177511
6148.000000;1.177596
6147.000000;1.177690
6146.000000;1.177638
6145.000000;1.177395
6144.000000;1.177038
6143.000000;1.176696
6142.000000;1.176447
6141.000000;1.176267
6140.000000;1.176115
6139.000000;1.176013
6138.000000;1.175999
6137.000000;1.176020
6136.000000;1.175960
6135.000000;1.175795
6134.000000;1.175621
6133.000000;1.175504
6132.000000;1.175382
6131.000000;1.175178
6130.000000;1.174919
6129.000000;1.174688
6128.000000;1.174504
6127.000000;1.174354
6126.000000;1.174259
6125.000000;1.174235
6124.000000;1.174210
6123.000000;1.174085
6122.000000;1.173859
6121.000000;1.173604
6120.000000;1.173350
6119.000000;1.173083
6118.000000;1.172836
6117.000000;1.172665
6116.000000;1.172532
6115.000000;1.172316
6114.000000;1.171975
6113.000000;1.171608
6112.000000;1.171336
6111.000000;1.171195
6110.000000;1.171171
6109.000000;1.171268
6108.000000;1.171476
6107.000000;1.171723
6106.000000;1.171907
6105.000000;1.171961
6104.000000;1.171860
6103.000000;1.171618
6102.000000;1.171308
6101.000000;1.171027
6100.000000;1.170821
6099.000000;1.170650
6098.000000;1.170466
6097.000000;1.170276
6096.000000;1.170102
6095.000000;1.169931
6094.000000;1.169743
6093.000000;1.169570
6092.000000;1.169468
6091.000000;1.169444
6090.000000;1.169441
6089.000000;1.169397
6088.000000;1.169288
6087.000000;1.169112
6086.000000;1.168869
6085.000000;1.168580
6084.000000;1.168322
6083.000000;1.168211
6082.000000;1.168298
6081.000000;1.168492
6080.000000;1.168597
6079.000000;1.168484
6078.000000;1.168206
6077.000000;1.167937
6076.000000;1.167819
6075.000000;1.167870
6074.000000;1.167998
6073.000000;1.168072
6072.000000;1.168006
6071.000000;1.167829
6070.000000;1.167670
6069.000000;1.167631
6068.000000;1.167692
6067.000000;1.167753
6066.000000;1.167748
6065.000000;1.167679
6064.000000;1.167579
6063.000000;1.167494
6062.000000;1.167468
6061.000000;1.167472
6060.000000;1.167391
6059.000000;1.167144
6058.000000;1.166815
6057.000000;1.166576
6056.000000;1.166494
6055.000000;1.166505
6054.000000;1.166552
6053.000000;1.166643
6052.000000;1.166746
6051.000000;1.166769
6050.000000;1.166687
6049.000000;1.166602
6048.000000;1.166599
6047.000000;1.166621
6046.000000;1.166579
6045.000000;1.166492
6044.000000;1.166427
6043.000000;1.166365
6042.000000;1.166219
6041.000000;1.165987
6040.000000;1.165780
6039.000000;1.165707
6038.000000;1.165769
6037.000000;1.165873
6036.000000;1.165913
6035.000000;1.165833
6034.000000;1.165671
6033.000000;1.165531
6032.000000;1.165477
6031.000000;1.165483
6030.000000;1.165510
6029.000000;1.165587
6028.000000;1.165761
6027.000000;1.165978
6026.000000;1.166107
6025.000000;1.166096
6024.000000;1.166019
6023.000000;1.165969
6022.000000;1.165953
6021.000000;1.165927
6020.000000;1.165887
6019.000000;1.165858
6018.000000;1.165831
6017.000000;1.165756
6016.000000;1.165624
6015.000000;1.165496
6014.000000;1.165446
6013.000000;1.165472
6012.000000;1.165498
6011.000000;1.165474
6010.000000;1.165442
6009.000000;1.165487
6008.000000;1.165629
6007.000000;1.165810
6006.000000;1.165967
6005.000000;1.166103
6004.000000;1.166245
6003.000000;1.166379
6002.000000;1.166466
6001.000000;1.166493
6000.000000;1.166471
5999.000000;1.166405
5998.000000;1.166323
5997.000000;1.166311
5996.000000;1.166466
5995.000000;1.166772
5994.000000;1.167074
5993.000000;1.167216
5992.000000;1.167196
5991.000000;1.167146
5990.000000;1.167190
5989.000000;1.167347
5988.000000;1.167554
5987.000000;1.167739
5986.000000;1.167856
5985.000000;1.167899
5984.000000;1.167926
5983.000000;1.168038
5982.000000;1.168295
5981.000000;1.168653
5980.000000;1.168990
5979.000000;1.169208
5978.000000;1.169287
5977.000000;1.169269
5976.000000;1.169224
5975.000000;1.169240
5974.000000;1.169384
5973.000000;1.169647
5972.000000;1.169964
5971.000000;1.170284
5970.000000;1.170604
5969.000000;1.170926
5968.000000;1.171229
5967.000000;1.171497
5966.000000;1.171737
5965.000000;1.171938
5964.000000;1.172061
5963.000000;1.172125
5962.000000;1.172240
5961.000000;1.172490
5960.000000;1.172812
5959.000000;1.173075
5958.000000;1.173252
5957.000000;1.173420
5956.000000;1.173617
5955.000000;1.173790
5954.000000;1.173921
5953.000000;1.174078
5952.000000;1.174290
5951.000000;1.174476
5950.000000;1.174584
5949.000000;1.174738
5948.000000;1.175105
5947.000000;1.175654
5946.000000;1.176145
5945.000000;1.176408
5944.000000;1.176532
5943.000000;1.176721
5942.000000;1.177034
5941.000000;1.177338
5940.000000;1.177517
5939.000000;1.177626
5938.000000;1.177814
5937.000000;1.178155
5936.000000;1.178589
5935.000000;1.179023
5934.000000;1.179418
5933.000000;1.179762
5932.000000;1.180034
5931.000000;1.180226
5930.000000;1.180382
5929.000000;1.180551
5928.000000;1.180724
5927.000000;1.180860
5926.000000;1.180979
5925.000000;1.181161
5924.000000;1.181449
5923.000000;1.181791
5922.000000;1.182109
5921.000000;1.182370
5920.000000;1.182567
5919.000000;1.182687
5918.000000;1.182739
5917.000000;1.182771
5916.000000;1.182836
5915.000000;1.182938
5914.000000;1.183054
5913.000000;1.183171
5912.000000;1.183294
5911.000000;1.183419
5910.000000;1.183548
5909.000000;1.183704
5908.000000;1.183891
5907.000000;1.184053
5906.000000;1.184118
5905.000000;1.184083
5904.000000;1.184030
5903.000000;1.184037
5902.000000;1.184101
5901.000000;1.184165
5900.000000;1.184200
5899.000000;1.184233
5898.000000;1.184300
5897.000000;1.184392
5896.000000;1.184472
5895.000000;1.184543
5894.000000;1.184674
5893.000000;1.184924
5892.000000;1.185245
5891.000000;1.185499
5890.000000;1.185590
5889.000000;1.185557
5888.000000;1.185513
5887.000000;1.185525
5886.000000;1.185563
5885.000000;1.185567
5884.000000;1.185521
5883.000000;1.185473
5882.000000;1.185484
5881.000000;1.185577
5880.000000;1.185718
5879.000000;1.185879
5878.000000;1.186085
5877.000000;1.186384
5876.000000;1.186760
5875.000000;1.187100
5874.000000;1.187294
5873.000000;1.187350
5872.000000;1.187386
5871.000000;1.187518
5870.000000;1.187801
5869.000000;1.188224
5868.000000;1.188716
5867.000000;1.189152
5866.000000;1.189415
5865.000000;1.189508
5864.000000;1.189576
5863.000000;1.189777
5862.000000;1.190147
5861.000000;1.190596
5860.000000;1.191011
5859.000000;1.191340
5858.000000;1.191591
5857.000000;1.191794
5856.000000;1.192001
5855.000000;1.192264
5854.000000;1.192594
5853.000000;1.192957
5852.000000;1.193330
5851.000000;1.193751
5850.000000;1.194272
5849.000000;1.194856
5848.000000;1.195383
5847.000000;1.195772
5846.000000;1.196077
5845.000000;1.196419
5844.000000;1.196855
5843.000000;1.197328
5842.000000;1.197754
5841.000000;1.198108
5840.000000;1.198423
5839.000000;1.198733
5838.000000;1.199060
5837.000000;1.199439
5836.000000;1.199915
5835.000000;1.200507
5834.000000;1.201161
5833.000000;1.201768
5832.000000;1.202238
5831.000000;1.202552
5830.000000;1.202764
5829.000000;1.202947
5828.000000;1.203172
5827.000000;1.203520
5826.000000;1.204060
5825.000000;1.204776
5824.000000;1.205542
5823.000000;1.206222
5822.000000;1.206804
5821.000000;1.207400
5820.000000;1.208087
5819.000000;1.208769
5818.000000;1.209259
5817.000000;1.209477
5816.000000;1.209568
5815.000000;1.209792
5814.000000;1.210303
5813.000000;1.211034
5812.000000;1.211775
5811.000000;1.212359
5810.000000;1.212782
5809.000000;1.213164
5808.000000;1.213615
5807.000000;1.214134
5806.000000;1.214627
5805.000000;1.215025
5804.000000;1.215383
5803.000000;1.215851
5802.000000;1.216532
5801.000000;1.217359
5800.000000;1.218151
5799.000000;1.218776
5798.000000;1.219249
5797.000000;1.219668
5796.000000;1.220109
5795.000000;1.220593
5794.000000;1.221106
5793.000000;1.221616
5792.000000;1.222098
5791.000000;1.222575
5790.000000;1.223128
5789.000000;1.223799
5788.000000;1.224507
5787.000000;1.225115
5786.000000;1.225564
5785.000000;1.225934
5784.000000;1.226355
5783.000000;1.226911
5782.000000;1.227596
5781.000000;1.228333
5780.000000;1.229020
5779.000000;1.229606
5778.000000;1.230135
5777.000000;1.230693
5776.000000;1.231305
5775.000000;1.231918
5774.000000;1.232489
5773.000000;1.233028
5772.000000;1.233556
5771.000000;1.234070
5770.000000;1.234560
5769.000000;1.235036
5768.000000;1.235502
5767.000000;1.235947
5766.000000;1.236389
5765.000000;1.236886
5764.000000;1.237463
5763.000000;1.238072
5762.000000;1.238645
5761.000000;1.239172
5760.000000;1.239691
5759.000000;1.240226
5758.000000;1.240782
5757.000000;1.241376
5756.000000;1.242017
5755.000000;1.242664
5754.000000;1.243250
5753.000000;1.243769
5752.000000;1.244278
5751.000000;1.244812
5750.000000;1.245340
5749.000000;1.245835
5748.000000;1.246353
5747.000000;1.246980
5746.000000;1.247710
5745.000000;1.248423
5744.000000;1.249013
5743.000000;1.249498
5742.000000;1.249999
5741.000000;1.250610
5740.000000;1.251337
5739.000000;1.252123
5738.000000;1.252896
5737.000000;1.253577
5736.000000;1.254092
5735.000000;1.254419
5734.000000;1.254625
5733.000000;1.254818
5732.000000;1.255066
5731.000000;1.255382
5730.000000;1.255779
5729.000000;1.256285
5728.000000;1.256909
5727.000000;1.257618
5726.000000;1.258373
5725.000000;1.259179
5724.000000;1.260053
5723.000000;1.260950
5722.000000;1.261758
5721.000000;1.262367
5720.000000;1.262779
5719.000000;1.263138
5718.000000;1.263641
5717.000000;1.264386
5716.000000;1.265289
5715.000000;1.266154
5714.000000;1.266837
5713.000000;1.267335
5712.000000;1.267752
5711.000000;1.268200
5710.000000;1.268754
5709.000000;1.269426
5708.000000;1.270167
5707.000000;1.270874
5706.000000;1.271469
5705.000000;1.271976
5704.000000;1.272505
5703.000000;1.273132
5702.000000;1.273813
5701.000000;1.274433
5700.000000;1.274947
5699.000000;1.275436
5698.000000;1.276023
5697.000000;1.276724
5696.000000;1.277467
5695.000000;1.278170
5694.000000;1.278826
5693.000000;1.279457
5692.000000;1.280043
5691.000000;1.280545
5690.000000;1.280981
5689.000000;1.281441
5688.000000;1.282002
5687.000000;1.282667
5686.000000;1.283405
5685.000000;1.284198
5684.000000;1.285017
5683.000000;1.285777
5682.000000;1.286391
5681.000000;1.286898
5680.000000;1.287453
5679.000000;1.288158
5678.000000;1.288926
5677.000000;1.289585
5676.000000;1.290095
5675.000000;1.290577
5674.000000;1.291135
5673.000000;1.291722
5672.000000;1.292246
5671.000000;1.292734
5670.000000;1.293309
5669.000000;1.294021
5668.000000;1.294789
5667.000000;1.295510
5666.000000;1.296150
5665.000000;1.296731
5664.000000;1.297274
5663.000000;1.297809
5662.000000;1.298363
5661.000000;1.298918
5660.000000;1.299417
5659.000000;1.299846
5658.000000;1.300257
5657.000000;1.300686
5656.000000;1.301101
5655.000000;1.301482
5654.000000;1.301903
5653.000000;1.302458
5652.000000;1.303118
5651.000000;1.303761
5650.000000;1.304315
5649.000000;1.304820
5648.000000;1.305329
5647.000000;1.305823
5646.000000;1.306268
5645.000000;1.306700
5644.000000;1.307188
5643.000000;1.307738
5642.000000;1.308278
5641.000000;1.308754
5640.000000;1.309206
5639.000000;1.309725
5638.000000;1.310324
5637.000000;1.310904
5636.000000;1.311367
5635.000000;1.311747
5634.000000;1.312175
5633.000000;1.312713
5632.000000;1.313297
5631.000000;1.313860
5630.000000;1.314435
5629.000000;1.315070
5628.000000;1.315691
5627.000000;1.316149
5626.000000;1.316417
5625.000000;1.316640
5624.000000;1.316971
5623.000000;1.317412
5622.000000;1.317854
5621.000000;1.318212
5620.000000;1.318491
5619.000000;1.318748
5618.000000;1.319033
5617.000000;1.319373
5616.000000;1.319777
5615.000000;1.320235
5614.000000;1.320709
5613.000000;1.321137
5612.000000;1.321460
5611.000000;1.321672
5610.000000;1.321832
5609.000000;1.322037
5608.000000;1.322355
5607.000000;1.322809
5606.000000;1.323372
5605.000000;1.323957
5604.000000;1.324441
5603.000000;1.324760
5602.000000;1.324990
5601.000000;1.325273
5600.000000;1.325650
5599.000000;1.326001
5598.000000;1.326186
5597.000000;1.326213
5596.000000;1.326219
5595.000000;1.326320
5594.000000;1.326508
5593.000000;1.326710
5592.000000;1.326900
5591.000000;1.327123
5590.000000;1.327417
5589.000000;1.327739
5588.000000;1.327987
5587.000000;1.328098
5586.000000;1.328106
5585.000000;1.328098
5584.000000;1.328131
5583.000000;1.328197
5582.000000;1.328276
5581.000000;1.328386
5580.000000;1.328578
5579.000000;1.328876
5578.000000;1.329233
5577.000000;1.329563
5576.000000;1.329801
5575.000000;1.329947
5574.000000;1.330025
5573.000000;1.330039
5572.000000;1.329986
5571.000000;1.329911
5570.000000;1.329908
5569.000000;1.330031
5568.000000;1.330241
5567.000000;1.330459
5566.000000;1.330656
5565.000000;1.330858
5564.000000;1.331092
5563.000000;1.331338
5562.000000;1.331524
5561.000000;1.331553
5560.000000;1.331385
5559.000000;1.331105
5558.000000;1.330893
5557.000000;1.330866
5556.000000;1.330972
5555.000000;1.331083
5554.000000;1.331145
5553.000000;1.331203
5552.000000;1.331303
5551.000000;1.331426
5550.000000;1.331535
5549.000000;1.331621
5548.000000;1.331684
5547.000000;1.331724
5546.000000;1.331747
5545.000000;1.331756
5544.000000;1.331725
5543.000000;1.331627
5542.000000;1.331491
5541.000000;1.331407
5540.000000;1.331452
5539.000000;1.331637
5538.000000;1.331914
5537.000000;1.332207
5536.000000;1.332420
5535.000000;1.332485
5534.000000;1.332418
5533.000000;1.332326
5532.000000;1.332326
5531.000000;1.332440
5530.000000;1.332567
5529.000000;1.332561
5528.000000;1.332366
5527.000000;1.332105
5526.000000;1.332010
5525.000000;1.332212
5524.000000;1.332612
5523.000000;1.332967
5522.000000;1.333094
5521.000000;1.332982
5520.000000;1.332745
5519.000000;1.332537
5518.000000;1.332471
5517.000000;1.332575
5516.000000;1.332777
5515.000000;1.332979
5514.000000;1.333139
5513.000000;1.333256
5512.000000;1.333309
5511.000000;1.333263
5510.000000;1.333154
5509.000000;1.333086
5508.000000;1.333139
5507.000000;1.333305
5506.000000;1.333501
5505.000000;1.333628
5504.000000;1.333637
5503.000000;1.333572
5502.000000;1.333542
5501.000000;1.333622
5500.000000;1.333776
5499.000000;1.333923
5498.000000;1.334037
5497.000000;1.334145
5496.000000;1.334258
5495.000000;1.334366
5494.000000;1.334490
5493.000000;1.334662
5492.000000;1.334872
5491.000000;1.335069
5490.000000;1.335235
5489.000000;1.335388
5488.000000;1.335535
5487.000000;1.335678
5486.000000;1.335839
5485.000000;1.336019
5484.000000;1.336175
5483.000000;1.336312
5482.000000;1.336550
5481.000000;1.336983
5480.000000;1.337497
5479.000000;1.337853
5478.000000;1.338016
5477.000000;1.338221
5476.000000;1.338641
5475.000000;1.339147
5474.000000;1.339473
5473.000000;1.339575
5472.000000;1.339666
5471.000000;1.339935
5470.000000;1.340356
5469.000000;1.340785
5468.000000;1.341136
5467.000000;1.341442
5466.000000;1.341806
5465.000000;1.342291
5464.000000;1.342884
5463.000000;1.343538
5462.000000;1.344181
5461.000000;1.344696
5460.000000;1.344988
5459.000000;1.345111
5458.000000;1.345297
5457.000000;1.345751
5456.000000;1.346448
5455.000000;1.347203
5454.000000;1.347908
5453.000000;1.348590
5452.000000;1.349276
5451.000000;1.349919
5450.000000;1.350466
5449.000000;1.350924
5448.000000;1.351339
5447.000000;1.351770
5446.000000;1.352321
5445.000000;1.353062
5444.000000;1.353935
5443.000000;1.354824
5442.000000;1.355705
5441.000000;1.356642
5440.000000;1.357641
5439.000000;1.358578
5438.000000;1.359344
5437.000000;1.359977
5436.000000;1.360609
5435.000000;1.361356
5434.000000;1.362276
5433.000000;1.363347
5432.000000;1.364470
5431.000000;1.365547
5430.000000;1.366540
5429.000000;1.367493
5428.000000;1.368499
5427.000000;1.369680
5426.000000;1.371152
5425.000000;1.372917
5424.000000;1.374782
5423.000000;1.376481
5422.000000;1.377899
5421.000000;1.379142
5420.000000;1.380400
5419.000000;1.381766
5418.000000;1.383206
5417.000000;1.384653
5416.000000;1.386067
5415.000000;1.387445
5414.000000;1.388846
5413.000000;1.390386
5412.000000;1.392146
5411.000000;1.394085
5410.000000;1.396088
5409.000000;1.398089
5408.000000;1.400140
5407.000000;1.402349
5406.000000;1.404758
5405.000000;1.407273
5404.000000;1.409738
5403.000000;1.412077
5402.000000;1.414367
5401.000000;1.416748
5400.000000;1.419276
5399.000000;1.421900
5398.000000;1.424538
5397.000000;1.427156
5396.000000;1.429796
5395.000000;1.432517
5394.000000;1.435333
5393.000000;1.438217
5392.000000;1.441152
5391.000000;1.444205
5390.000000;1.447471
5389.000000;1.450968
5388.000000;1.454627
5387.000000;1.458380
5386.000000;1.462220
5385.000000;1.466149
5384.000000;1.470116
5383.000000;1.474084
5382.000000;1.478103
5381.000000;1.482218
5380.000000;1.486388
5379.000000;1.490593
5378.000000;1.494923
5377.000000;1.499516
5376.000000;1.504428
5375.000000;1.509630
5374.000000;1.515096
5373.000000;1.520771
5372.000000;1.526481
5371.000000;1.532044
5370.000000;1.537474
5369.000000;1.542992
5368.000000;1.548816
5367.000000;1.555020
5366.000000;1.561565
5365.000000;1.568371
5364.000000;1.575332
5363.000000;1.582392
5362.000000;1.589611
5361.000000;1.597065
5360.000000;1.604707
5359.000000;1.612450
5358.000000;1.620305
5357.000000;1.628334
5356.000000;1.636506
5355.000000;1.644786
5354.000000;1.653324
5353.000000;1.662344
5352.000000;1.671805
5351.000000;1.681406
5350.000000;1.691013
5349.000000;1.700818
5348.000000;1.711029
5347.000000;1.721649
5346.000000;1.732592
5345.000000;1.743835
5344.000000;1.755370
5343.000000;1.767169
5342.000000;1.779325
5341.000000;1.792066
5340.000000;1.805481
5339.000000;1.819332
5338.000000;1.833292
5337.000000;1.847230
5336.000000;1.861211
5335.000000;1.875343
5334.000000;1.889795
5333.000000;1.904825
5332.000000;1.920617
5331.000000;1.937147
5330.000000;1.954292
5329.000000;1.971961
5328.000000;1.990011
5327.000000;2.008239
5326.000000;2.026523
5325.000000;2.044838
5324.000000;2.063164
5323.000000;2.081610
5322.000000;2.100662
5321.000000;2.120934
5320.000000;2.142502
5319.000000;2.164728
5318.000000;2.186863
5317.000000;2.208596
5316.000000;2.230026
5315.000000;2.251471
5314.000000;2.273399
5313.000000;2.296170
5312.000000;2.319636
5311.000000;2.343204
5310.000000;2.366407
5309.000000;2.389294
5308.000000;2.412457
5307.000000;2.436849
5306.000000;2.462970
5305.000000;2.489664
5304.000000;2.514443
5303.000000;2.536125
5302.000000;2.556670
5301.000000;2.579059
5300.000000;2.603798
5299.000000;2.628856
5298.000000;2.652622
5297.000000;2.675137
5296.000000;2.696396
5295.000000;2.715678
5294.000000;2.733067
5293.000000;2.749438
5292.000000;2.764366
5291.000000;2.776378
5290.000000;2.786770
5289.000000;2.800942
5288.000000;2.823150
5287.000000;2.850891
5286.000000;2.875537
5285.000000;2.889001
5284.000000;2.890420
5283.000000;2.885837
5282.000000;2.882301
5281.000000;2.883511
5280.000000;2.889765
5279.000000;2.899782
5278.000000;2.911610
5277.000000;2.922256
5276.000000;2.928484
5275.000000;2.929776
5274.000000;2.928985
5273.000000;2.928897
5272.000000;2.929783
5271.000000;2.930664
5270.000000;2.931173
5269.000000;2.931088
5268.000000;2.930116
5267.000000;2.930027
5266.000000;2.934924
5265.000000;2.946935
5264.000000;2.961986
5263.000000;2.971860
5262.000000;2.972076
5261.000000;2.966019
5260.000000;2.960032
5259.000000;2.957666
5258.000000;2.959153
5257.000000;2.963183
5256.000000;2.967989
5255.000000;2.971896
5254.000000;2.973386
5253.000000;2.970982
5252.000000;2.964554
5251.000000;2.956963
5250.000000;2.952417
5249.000000;2.952354
5248.000000;2.954468
5247.000000;2.957050
5246.000000;2.961917
5245.000000;2.970626
5244.000000;2.980095
5243.000000;2.984503
5242.000000;2.982105
5241.000000;2.977468
5240.000000;2.975139
5239.000000;2.975272
5238.000000;2.975970
5237.000000;2.976230
5236.000000;2.975894
5235.000000;2.975030
5234.000000;2.974427
5233.000000;2.975536
5232.000000;2.979197
5231.000000;2.985083
5230.000000;2.991868
5229.000000;2.997126
5228.000000;2.998657
5227.000000;2.996963
5226.000000;2.994708
5225.000000;2.992820
5224.000000;2.988970
5223.000000;2.981565
5222.000000;2.973078
5221.000000;2.967231
5220.000000;2.964874
5219.000000;2.964357
5218.000000;2.964490
5217.000000;2.964794
5216.000000;2.963630
5215.000000;2.959510
5214.000000;2.954132
5213.000000;2.950713
5212.000000;2.949593
5211.000000;2.948903
5210.000000;2.949401
5209.000000;2.954759
5208.000000;2.966142
5207.000000;2.978980
5206.000000;2.986634
5205.000000;2.987041
5204.000000;2.983149
5203.000000;2.977789
5202.000000;2.972159
5201.000000;2.967899
5200.000000;2.966550
5199.000000;2.966481
5198.000000;2.964078
5197.000000;2.959512
5196.000000;2.957915
5195.000000;2.963531
5194.000000;2.974590
5193.000000;2.984425
5192.000000;2.987396
5191.000000;2.983043
5190.000000;2.974169
5189.000000;2.963285
5188.000000;2.952358
5187.000000;2.944096
5186.000000;2.941507
5185.000000;2.945575
5184.000000;2.953624
5183.000000;2.960750
5182.000000;2.963024
5181.000000;2.959653
5180.000000;2.952982
5179.000000;2.946515
5178.000000;2.942816
5177.000000;2.942427
5176.000000;2.944073
5175.000000;2.946247
5174.000000;2.948401
5173.000000;2.950934
5172.000000;2.954857
5171.000000;2.961451
5170.000000;2.971302
5169.000000;2.982405
5168.000000;2.989656
5167.000000;2.988380
5166.000000;2.979085
5165.000000;2.967180
5164.000000;2.958155
5163.000000;2.954220
5162.000000;2.954427
5161.000000;2.956517
5160.000000;2.958686
5159.000000;2.960232
5158.000000;2.960756
5157.000000;2.959143
5156.000000;2.954755
5155.000000;2.949785
5154.000000;2.948076
5153.000000;2.950947
5152.000000;2.955884
5151.000000;2.959936
5150.000000;2.963079
5149.000000;2.967042
5148.000000;2.972185
5147.000000;2.976986
5146.000000;2.979611
5145.000000;2.978591
5144.000000;2.973073
5143.000000;2.964564
5142.000000;2.957706
5141.000000;2.956722
5140.000000;2.961240
5139.000000;2.966996
5138.000000;2.970521
5137.000000;2.971713
5136.000000;2.971722
5135.000000;2.971082
5134.000000;2.970329
5133.000000;2.969686
5132.000000;2.967947
5131.000000;2.963606
5130.000000;2.957159
5129.000000;2.950646
5128.000000;2.945220
5127.000000;2.941241
5126.000000;2.940391
5125.000000;2.944737
5124.000000;2.952869
5123.000000;2.959574
5122.000000;2.961285
5121.000000;2.959876
5120.000000;2.958660
5119.000000;2.956961
5118.000000;2.952016
5117.000000;2.944456
5116.000000;2.938376
5115.000000;2.936776
5114.000000;2.939140
5113.000000;2.943567
5112.000000;2.949159
5111.000000;2.955150
5110.000000;2.959193
5109.000000;2.958149
5108.000000;2.950723
5107.000000;2.939222
5106.000000;2.928912
5105.000000;2.925577
5104.000000;2.932233
5103.000000;2.946406
5102.000000;2.960780
5101.000000;2.968760
5100.000000;2.969655
5099.000000;2.966992
5098.000000;2.963549
5097.000000;2.959520
5096.000000;2.954758
5095.000000;2.951195
5094.000000;2.951435
5093.000000;2.955364
5092.000000;2.959322
5091.000000;2.959238
5090.000000;2.955055
5089.000000;2.951019
5088.000000;2.950624
5087.000000;2.952697
5086.000000;2.952945
5085.000000;2.949489
5084.000000;2.945969
5083.000000;2.947348
5082.000000;2.953662
5081.000000;2.959658
5080.000000;2.960855
5079.000000;2.958439
5078.000000;2.956492
5077.000000;2.956235
5076.000000;2.955321
5075.000000;2.951973
5074.000000;2.947438
5073.000000;2.944139
5072.000000;2.943623
5071.000000;2.946265
5070.000000;2.950688
5069.000000;2.953081
5068.000000;2.949680
5067.000000;2.941680
5066.000000;2.935368
5065.000000;2.935693
5064.000000;2.940952
5063.000000;2.944918
5062.000000;2.944224
5061.000000;2.941886
5060.000000;2.942511
5059.000000;2.946436
5058.000000;2.949886
5057.000000;2.949958
5056.000000;2.947610
5055.000000;2.944812
5054.000000;2.941250
5053.000000;2.935700
5052.000000;2.929227
5051.000000;2.925120
5050.000000;2.925302
5049.000000;2.927987
5048.000000;2.930068
5047.000000;2.931186
5046.000000;2.933349
5045.000000;2.936667
5044.000000;2.938023
5043.000000;2.934890
5042.000000;2.928361
5041.000000;2.921205
5040.000000;2.915363
5039.000000;2.912665
5038.000000;2.915241
5037.000000;2.922797
5036.000000;2.930647
5035.000000;2.933308
5034.000000;2.930436
5033.000000;2.926464
5032.000000;2.924308
5031.000000;2.922520
5030.000000;2.918970
5029.000000;2.914760
5028.000000;2.912855
5027.000000;2.914202
5026.000000;2.916764
5025.000000;2.917829
5024.000000;2.916363
5023.000000;2.913333
5022.000000;2.910336
5021.000000;2.907812
5020.000000;2.904458
5019.000000;2.898818
5018.000000;2.891260
5017.000000;2.883281
5016.000000;2.875377
5015.000000;2.867624
5014.000000;2.862229
5013.000000;2.863015
5012.000000;2.871076
5011.000000;2.881838
5010.000000;2.887923
5009.000000;2.885827
5008.000000;2.878711
5007.000000;2.872461
5006.000000;2.870792
5005.000000;2.873562
5004.000000;2.877269
5003.000000;2.877057
5002.000000;2.870812
5001.000000;2.861753
5000.000000;2.855483
4999.000000;2.854541
4998.000000;2.856625
4997.000000;2.858270
4996.000000;2.858598
4995.000000;2.858762
4994.000000;2.859055
4993.000000;2.858328
4992.000000;2.856241
4991.000000;2.854167
4990.000000;2.853300
4989.000000;2.852812
4988.000000;2.850576
4987.000000;2.845463
4986.000000;2.838801
4985.000000;2.833888
4984.000000;2.833581
4983.000000;2.837437
4982.000000;2.841088
4981.000000;2.839495
4980.000000;2.831509
4979.000000;2.820386
4978.000000;2.810054
4977.000000;2.802518
4976.000000;2.798404
4975.000000;2.797902
4974.000000;2.800134
4973.000000;2.802636
4972.000000;2.802753
4971.000000;2.799346
4970.000000;2.792734
4969.000000;2.784185
4968.000000;2.776317
4967.000000;2.772424
4966.000000;2.773650
4965.000000;2.777006
4964.000000;2.777712
4963.000000;2.774105
4962.000000;2.768696
4961.000000;2.764263
4960.000000;2.761025
4959.000000;2.757562
4958.000000;2.752855
4957.000000;2.747134
4956.000000;2.741464
4955.000000;2.736946
4954.000000;2.733993
4953.000000;2.731860
4952.000000;2.729341
4951.000000;2.726358
4950.000000;2.724162
4949.000000;2.723480
4948.000000;2.723283
4947.000000;2.721784
4946.000000;2.718135
4945.000000;2.712879
4944.000000;2.707352
4943.000000;2.703185
4942.000000;2.701671
4941.000000;2.702462
4940.000000;2.703138
4939.000000;2.701053
4938.000000;2.695703
4937.000000;2.688961
4936.000000;2.683473
4935.000000;2.680857
4934.000000;2.680935
4933.000000;2.682216
4932.000000;2.683122
4931.000000;2.682854
4930.000000;2.680834
4929.000000;2.675798
4928.000000;2.666854
4927.000000;2.655619
4926.000000;2.645700
4925.000000;2.639472
4924.000000;2.636100
4923.000000;2.633272
4922.000000;2.630417
4921.000000;2.628821
4920.000000;2.628718
4919.000000;2.627974
4918.000000;2.624407
4917.000000;2.618465
4916.000000;2.612665
4915.000000;2.608948
4914.000000;2.607255
4913.000000;2.606271
4912.000000;2.604978
4911.000000;2.603260
4910.000000;2.601207
4909.000000;2.598322
4908.000000;2.593921
4907.000000;2.588333
4906.000000;2.583194
4905.000000;2.580207
4904.000000;2.579722
4903.000000;2.580564
4902.000000;2.580927
4901.000000;2.579336
4900.000000;2.575154
4899.000000;2.568637
4898.000000;2.560734
4897.000000;2.552835
4896.000000;2.546736
4895.000000;2.544289
4894.000000;2.545901
4893.000000;2.549234
4892.000000;2.550305
4891.000000;2.546763
4890.000000;2.539762
4889.000000;2.532066
4888.000000;2.525395
4887.000000;2.520317
4886.000000;2.517427
4885.000000;2.517114
4884.000000;2.518501
4883.000000;2.519744
4882.000000;2.519626
4881.000000;2.518155
4880.000000;2.515604
4879.000000;2.511981
4878.000000;2.507626
4877.000000;2.503336
4876.000000;2.499564
4875.000000;2.496173
4874.000000;2.493022
4873.000000;2.489957
4872.000000;2.486225
4871.000000;2.480941
4870.000000;2.474612
4869.000000;2.469247
4868.000000;2.466243
4867.000000;2.464898
4866.000000;2.463573
4865.000000;2.461720
4864.000000;2.459926
4863.000000;2.458262
4862.000000;2.455604
4861.000000;2.450802
4860.000000;2.443983
4859.000000;2.436548
4858.000000;2.430263
4857.000000;2.426335
4856.000000;2.424877
4855.000000;2.424946
4854.000000;2.425120
4853.000000;2.424272
4852.000000;2.422121
4851.000000;2.419198
4850.000000;2.416302
4849.000000;2.413700
4848.000000;2.410899
4847.000000;2.407563
4846.000000;2.404467
4845.000000;2.402742
4844.000000;2.402086
4843.000000;2.400554
4842.000000;2.396711
4841.000000;2.391356
4840.000000;2.386386
4839.000000;2.382592
4838.000000;2.379427
4837.000000;2.376472
4836.000000;2.373962
4835.000000;2.371777
4834.000000;2.368991
4833.000000;2.364902
4832.000000;2.359940
4831.000000;2.355166
4830.000000;2.351241
4829.000000;2.348247
4828.000000;2.346011
4827.000000;2.344066
4826.000000;2.341665
4825.000000;2.338393
4824.000000;2.334577
4823.000000;2.330819
4822.000000;2.327296
4821.000000;2.323912
4820.000000;2.320956
4819.000000;2.319038
4818.000000;2.318141
4817.000000;2.317183
4816.000000;2.314932
4815.000000;2.311220
4814.000000;2.306979
4813.000000;2.303224
4812.000000;2.300274
4811.000000;2.297798
4810.000000;2.295225
4809.000000;2.292012
4808.000000;2.287952
4807.000000;2.283469
4806.000000;2.279469
4805.000000;2.276587
4804.000000;2.274638
4803.000000;2.272949
4802.000000;2.271127
4801.000000;2.269261
4800.000000;2.267383
4799.000000;2.265081
4798.000000;2.261790
4797.000000;2.257373
4796.000000;2.252373
4795.000000;2.247867
4794.000000;2.245009
4793.000000;2.244264
4792.000000;2.244765
4791.000000;2.244648
4790.000000;2.242479
4789.000000;2.238432
4788.000000;2.233822
4787.000000;2.229673
4786.000000;2.226093
4785.000000;2.222873
4784.000000;2.220104
4783.000000;2.217957
4782.000000;2.216212
4781.000000;2.214393
4780.000000;2.212198
4779.000000;2.209498
4778.000000;2.206096
4777.000000;2.201912
4776.000000;2.197512
4775.000000;2.194021
4774.000000;2.192123
4773.000000;2.191216
4772.000000;2.189834
4771.000000;2.187118
4770.000000;2.183727
4769.000000;2.181028
4768.000000;2.179419
4767.000000;2.177788
4766.000000;2.174785
4765.000000;2.170473
4764.000000;2.166388
4763.000000;2.163981
4762.000000;2.163258
4761.000000;2.162901
4760.000000;2.161455
4759.000000;2.158399
4758.000000;2.154298
4757.000000;2.150120
4756.000000;2.146378
4755.000000;2.142833
4754.000000;2.139057
4753.000000;2.135243
4752.000000;2.132223
4751.000000;2.130567
4750.000000;2.129865
4749.000000;2.129077
4748.000000;2.127497
4747.000000;2.125165
4746.000000;2.122467
4745.000000;2.119676
4744.000000;2.116950
4743.000000;2.114435
4742.000000;2.112154
4741.000000;2.109856
4740.000000;2.107154
4739.000000;2.103861
4738.000000;2.100171
4737.000000;2.096526
4736.000000;2.093318
4735.000000;2.090651
4734.000000;2.088356
4733.000000;2.086235
4732.000000;2.084258
4731.000000;2.082520
4730.000000;2.081013
4729.000000;2.079465
4728.000000;2.077417
4727.000000;2.074538
4726.000000;2.070982
4725.000000;2.067423
4724.000000;2.064561
4723.000000;2.062506
4722.000000;2.060796
4721.000000;2.059072
4720.000000;2.057488
4719.000000;2.056255
4718.000000;2.055040
4717.000000;2.053207
4716.000000;2.050638
4715.000000;2.047869
4714.000000;2.045338
4713.000000;2.042922
4712.000000;2.040352
4711.000000;2.037728
4710.000000;2.035311
4709.000000;2.033063
4708.000000;2.030736
4707.000000;2.028329
4706.000000;2.026188
4705.000000;2.024609
4704.000000;2.023485
4703.000000;2.022288
4702.000000;2.020394
4701.000000;2.017582
4700.000000;2.014333
4699.000000;2.011477
4698.000000;2.009397
4697.000000;2.007743
4696.000000;2.006010
4695.000000;2.004174
4694.000000;2.002511
4693.000000;2.001058
4692.000000;1.999614
4691.000000;1.998127
4690.000000;1.996715
4689.000000;1.995332
4688.000000;1.993790
4687.000000;1.992097
4686.000000;1.990401
4685.000000;1.988636
4684.000000;1.986601
4683.000000;1.984425
4682.000000;1.982464
4681.000000;1.980635
4680.000000;1.978366
4679.000000;1.975479
4678.000000;1.972730
4677.000000;1.971044
4676.000000;1.970445
4675.000000;1.970081
4674.000000;1.969133
4673.000000;1.967393
4672.000000;1.965062
4671.000000;1.962429
4670.000000;1.959824
4669.000000;1.957577
4668.000000;1.955852
4667.000000;1.954613
4666.000000;1.953772
4665.000000;1.953243
4664.000000;1.952830
4663.000000;1.952197
4662.000000;1.951009
4661.000000;1.949104
4660.000000;1.946597
4659.000000;1.943854
4658.000000;1.941255
4657.000000;1.938849
4656.000000;1.936350
4655.000000;1.933572
4654.000000;1.930800
4653.000000;1.928546
4652.000000;1.927008
4651.000000;1.925876
4650.000000;1.924596
4649.000000;1.922755
4648.000000;1.920385
4647.000000;1.918092
4646.000000;1.916706
4645.000000;1.916529
4644.000000;1.916934
4643.000000;1.916997
4642.000000;1.916470
4641.000000;1.915802
4640.000000;1.915216
4639.000000;1.914242
4638.000000;1.912376
4637.000000;1.909852
4636.000000;1.907418
4635.000000;1.905507
4634.000000;1.903933
4633.000000;1.902334
4632.000000;1.900656
4631.000000;1.899164
4630.000000;1.898107
4629.000000;1.897419
4628.000000;1.896724
4627.000000;1.895655
4626.000000;1.894208
4625.000000;1.892698
4624.000000;1.891375
4623.000000;1.890157
4622.000000;1.888795
4621.000000;1.887187
4620.000000;1.885454
4619.000000;1.883792
4618.000000;1.882330
4617.000000;1.881098
4616.000000;1.880077
4615.000000;1.879283
4614.000000;1.878728
4613.000000;1.878197
4612.000000;1.877188
4611.000000;1.875361
4610.000000;1.873079
4609.000000;1.871221
4608.000000;1.870261
4607.000000;1.869779
4606.000000;1.869048
4605.000000;1.867923
4604.000000;1.866866
4603.000000;1.866209
4602.000000;1.865738
4601.000000;1.865003
4600.000000;1.863782
4599.000000;1.862183
4598.000000;1.860517
4597.000000;1.859163
4596.000000;1.858356
4595.000000;1.857959
4594.000000;1.857542
4593.000000;1.856800
4592.000000;1.855817
4591.000000;1.854844
4590.000000;1.853906
4589.000000;1.852815
4588.000000;1.851541
4587.000000;1.850397
4586.000000;1.849708
4585.000000;1.849355
4584.000000;1.848805
4583.000000;1.847678
4582.000000;1.846160
4581.000000;1.844733
4580.000000;1.843581
4579.000000;1.842503
4578.000000;1.841403
4577.000000;1.840630
4576.000000;1.840611
4575.000000;1.841250
4574.000000;1.841878
4573.000000;1.841776
4572.000000;1.840653
4571.000000;1.838709
4570.000000;1.836434
4569.000000;1.834379
4568.000000;1.832941
4567.000000;1.832200
4566.000000;1.831912
4565.000000;1.831679
4564.000000;1.831205
4563.000000;1.830511
4562.000000;1.829940
4561.000000;1.829822
4560.000000;1.830060
4559.000000;1.830115
4558.000000;1.829500
4557.000000;1.828193
4556.000000;1.826565
4555.000000;1.825065
4554.000000;1.824075
4553.000000;1.823829
4552.000000;1.824172
4551.000000;1.824488
4550.000000;1.824125
4549.000000;1.822939
4548.000000;1.821279
4547.000000;1.819575
4546.000000;1.818183
4545.000000;1.817469
4544.000000;1.817581
4543.000000;1.818071
4542.000000;1.818118
4541.000000;1.817327
4540.000000;1.816090
4539.000000;1.815024
4538.000000;1.814310
4537.000000;1.813762
4536.000000;1.813301
4535.000000;1.813105
4534.000000;1.813333
4533.000000;1.813858
4532.000000;1.814227
4531.000000;1.813893
4530.000000;1.812678
4529.000000;1.811129
4528.000000;1.810170
4527.000000;1.810245
4526.000000;1.810925
4525.000000;1.811428
4524.000000;1.811330
4523.000000;1.810695
4522.000000;1.809797
4521.000000;1.809002
4520.000000;1.808678
4519.000000;1.808805
4518.000000;1.808792
4517.000000;1.808060
4516.000000;1.806847
4515.000000;1.806063
4514.000000;1.806230
4513.000000;1.806841
4512.000000;1.806908
4511.000000;1.805997
4510.000000;1.804603
4509.000000;1.803582
4508.000000;1.803348
4507.000000;1.803573
4506.000000;1.803595
4505.000000;1.803115
4504.000000;1.802487
4503.000000;1.802294
4502.000000;1.802745
4501.000000;1.803530
4500.000000;1.804119
4499.000000;1.804097
4498.000000;1.803393
4497.000000;1.802402
4496.000000;1.801783
4495.000000;1.801861
4494.000000;1.802264
4493.000000;1.802395
4492.000000;1.802198
4491.000000;1.802114
4490.000000;1.802346
4489.000000;1.802612
4488.000000;1.802722
4487.000000;1.802929
4486.000000;1.803394
4485.000000;1.803702
4484.000000;1.803332
4483.000000;1.802424
4482.000000;1.801701
4481.000000;1.801674
4480.000000;1.802263
4479.000000;1.803147
4478.000000;1.804107
4477.000000;1.804977
4476.000000;1.805585
4475.000000;1.805925
4474.000000;1.806230
4473.000000;1.806763
4472.000000;1.807584
4471.000000;1.808525
4470.000000;1.809281
4469.000000;1.809556
4468.000000;1.809332
4467.000000;1.809039
4466.000000;1.809285
4465.000000;1.810246
4464.000000;1.811422
4463.000000;1.812123
4462.000000;1.812184
4461.000000;1.812081
4460.000000;1.812348
4459.000000;1.812997
4458.000000;1.813597
4457.000000;1.813881
4456.000000;1.814138
4455.000000;1.814871
4454.000000;1.816150
4453.000000;1.817508
4452.000000;1.818524
4451.000000;1.819282
4450.000000;1.820116
4449.000000;1.821150
4448.000000;1.822291
4447.000000;1.823514
4446.000000;1.824859
4445.000000;1.826210
4444.000000;1.827422
4443.000000;1.828692
4442.000000;1.830453
4441.000000;1.832753
4440.000000;1.835013
4439.000000;1.836602
4438.000000;1.837493
4437.000000;1.838219
4436.000000;1.839345
4435.000000;1.841135
4434.000000;1.843533
4433.000000;1.846214
4432.000000;1.848710
4431.000000;1.850698
4430.000000;1.852235
4429.000000;1.853688
4428.000000;1.855480
4427.000000;1.857886
4426.000000;1.860858
4425.000000;1.863893
4424.000000;1.866254
4423.000000;1.867578
4422.000000;1.868282
4421.000000;1.869234
4420.000000;1.871059
4419.000000;1.873784
4418.000000;1.876971
4417.000000;1.879985
4416.000000;1.882292
4415.000000;1.883888
4414.000000;1.885435
4413.000000;1.887719
4412.000000;1.890833
4411.000000;1.894040
4410.000000;1.896501
4409.000000;1.898034
4408.000000;1.899126
4407.000000;1.900369
4406.000000;1.901999
4405.000000;1.903929
4404.000000;1.906053
4403.000000;1.908472
4402.000000;1.911435
4401.000000;1.914994
4400.000000;1.918674
4399.000000;1.921636
4398.000000;1.923420
4397.000000;1.924556
4396.000000;1.926276
4395.000000;1.929429
4394.000000;1.933684
4393.000000;1.937866
4392.000000;1.941088
4391.000000;1.943441
4390.000000;1.945569
4389.000000;1.947929
4388.000000;1.950635
4387.000000;1.953642
4386.000000;1.956639
4385.000000;1.958983
4384.000000;1.960415
4383.000000;1.961829
4382.000000;1.964538
4381.000000;1.968489
4380.000000;1.971912
4379.000000;1.973327
4378.000000;1.973431
4377.000000;1.974197
4376.000000;1.976506
4375.000000;1.979593
4374.000000;1.982578
4373.000000;1.985466
4372.000000;1.988357
4371.000000;1.990723
4370.000000;1.992195
4369.000000;1.993448
4368.000000;1.995516
4367.000000;1.998493
4366.000000;2.001487
4365.000000;2.003750
4364.000000;2.005404
4363.000000;2.007055
4362.000000;2.009102
4361.000000;2.011527
4360.000000;2.014045
4359.000000;2.016236
4358.000000;2.017619
4357.000000;2.017867
4356.000000;2.017184
4355.000000;2.016563
4354.000000;2.017405
4353.000000;2.020349
4352.000000;2.024485
4351.000000;2.028090
4350.000000;2.030127
4349.000000;2.030869
4348.000000;2.031252
4347.000000;2.032087
4346.000000;2.033937
4345.000000;2.037055
4344.000000;2.041042
4343.000000;2.044996
4342.000000;2.048420
4341.000000;2.051686
4340.000000;2.055098
4339.000000;2.057845
4338.000000;2.058627
4337.000000;2.057359
4336.000000;2.055574
4335.000000;2.054924
4334.000000;2.055775
4333.000000;2.057418
4332.000000;2.059282
4331.000000;2.061621
4330.000000;2.065071
4329.000000;2.069741
4328.000000;2.074800
4327.000000;2.078955
4326.000000;2.081316
4325.000000;2.081853
4324.000000;2.081183
4323.000000;2.080176
4322.000000;2.079785
4321.000000;2.080799
4320.000000;2.083408
4319.000000;2.087249
4318.000000;2.091988
4317.000000;2.097331
4316.000000;2.102092
4315.000000;2.103979
4314.000000;2.101575
4313.000000;2.096543
4312.000000;2.092799
4311.000000;2.093205
4310.000000;2.097560
4309.000000;2.103651
4308.000000;2.109481
4307.000000;2.114111
4306.000000;2.117060
4305.000000;2.118191
4304.000000;2.118441
4303.000000;2.119602
4302.000000;2.122526
4301.000000;2.125819
4300.000000;2.127284
4299.000000;2.126844
4298.000000;2.127074
4297.000000;2.130438
4296.000000;2.136621
4295.000000;2.142748
4294.000000;2.145981
4293.000000;2.145644
4292.000000;2.143111
4291.000000;2.140496
4290.000000;2.139563
4289.000000;2.140955
4288.000000;2.143906
4287.000000;2.147200
4286.000000;2.150839
4285.000000;2.156070
4284.000000;2.163294
4283.000000;2.170797
4282.000000;2.176351
4281.000000;2.179737
4280.000000;2.182930
4279.000000;2.187846
4278.000000;2.194341
4277.000000;2.200144
4276.000000;2.202583
4275.000000;2.200935
4274.000000;2.197662
4273.000000;2.197009
4272.000000;2.201502
4271.000000;2.209860
4270.000000;2.218552
4269.000000;2.225109
4268.000000;2.229310
4267.000000;2.231403
4266.000000;2.231029
4265.000000;2.228756
4264.000000;2.226969
4263.000000;2.227678
4262.000000;2.230078
4261.000000;2.231759
4260.000000;2.232413
4259.000000;2.234669
4258.000000;2.240744
4257.000000;2.249074
4256.000000;2.255422
4255.000000;2.258171
4254.000000;2.260979
4253.000000;2.268526
4252.000000;2.280684
4251.000000;2.292059
4250.000000;2.297337
4249.000000;2.295986
4248.000000;2.291061
4247.000000;2.285702
4246.000000;2.282030
4245.000000;2.282126
4244.000000;2.287528
4243.000000;2.297697
4242.000000;2.309883
4241.000000;2.320698
4240.000000;2.327960
4239.000000;2.331709
4238.000000;2.334423
4237.000000;2.340036
4236.000000;2.350122
4235.000000;2.360652
4234.000000;2.365789
4233.000000;2.365273
4232.000000;2.364148
4231.000000;2.365213
4230.000000;2.365156
4229.000000;2.359096
4228.000000;2.347739
4227.000000;2.337391
4226.000000;2.334157
4225.000000;2.340793
4224.000000;2.355918
4223.000000;2.373803
4222.000000;2.387716
4221.000000;2.395763
4220.000000;2.402942
4219.000000;2.415467
4218.000000;2.432596
4217.000000;2.446369
4216.000000;2.449929
4215.000000;2.443941
4214.000000;2.434542
4213.000000;2.427230
4212.000000;2.423880
4211.000000;2.423991
4210.000000;2.426125
4209.000000;2.428374
4208.000000;2.429469
4207.000000;2.430135
4206.000000;2.433022
4205.000000;2.440807
4204.000000;2.453790
4203.000000;2.469328
4202.000000;2.483973
4201.000000;2.495244
4200.000000;2.500472
4199.000000;2.497117
4198.000000;2.487452
4197.000000;2.479236
4196.000000;2.478144
4195.000000;2.480760
4194.000000;2.477535
4193.000000;2.465129
4192.000000;2.452105
4191.000000;2.448664
4190.000000;2.454727
4189.000000;2.460263
4188.000000;2.458398
4187.000000;2.455538
4186.000000;2.463856
4185.000000;2.488348
4184.000000;2.521172
4183.000000;2.544615
4182.000000;2.544308
4181.000000;2.523445
4180.000000;2.499222
4179.000000;2.487368
4178.000000;2.493498
4177.000000;2.512217
4176.000000;2.530713
4175.000000;2.538465
4174.000000;2.536088
4173.000000;2.533254
4172.000000;2.539068
4171.000000;2.554690
4170.000000;2.572926
4169.000000;2.584506
4168.000000;2.583389
4167.000000;2.564298
4166.000000;2.529351
4165.000000;2.494743
4164.000000;2.477186
4163.000000;2.478663
4162.000000;2.485575
4161.000000;2.484608
4160.000000;2.476959
4159.000000;2.471835
4158.000000;2.475735
4157.000000;2.490178
4156.000000;2.512448
4155.000000;2.536843
4154.000000;2.557932
4153.000000;2.572453
4152.000000;2.584149
4151.000000;2.605523
4150.000000;2.638942
4149.000000;2.665275
4148.000000;2.669925
4147.000000;2.668246
4146.000000;2.675380
4145.000000;2.670581
4144.000000;2.631398
4143.000000;2.574848
4142.000000;2.528487
4141.000000;2.504394
4140.000000;2.494221
4139.000000;2.481615
4138.000000;2.462926
4137.000000;2.453169
4136.000000;2.469246
4135.000000;2.509928
4134.000000;2.551832
4133.000000;2.570178
4132.000000;2.566082
4131.000000;2.553904
4130.000000;2.535274
4129.000000;2.514620
4128.000000;2.508684
4127.000000;2.522155
4126.000000;2.544520
4125.000000;2.572731
4124.000000;2.618646
4123.000000;2.684120
4122.000000;2.727071
4121.000000;2.700169
4120.000000;2.644520
4119.000000;2.621809
4118.000000;2.637650
4117.000000;2.660821
4116.000000;2.668383
4115.000000;2.662201
4114.000000;2.653366
4113.000000;2.641645
4112.000000;2.614575
4111.000000;2.586734
4110.000000;2.602158
4109.000000;2.676505
4108.000000;2.757904
4107.000000;2.763901
4106.000000;2.710587
4105.000000;2.639788
4104.000000;2.582389
4103.000000;2.562766
4102.000000;2.553014
4101.000000;2.517689
4100.000000;2.480703
4099.000000;2.469748
4098.000000;2.488667
4097.000000;2.520863
4096.000000;2.537049
4095.000000;2.530806
4094.000000;2.519075
4093.000000;2.512546
4092.000000;2.498215
4091.000000;2.460535
4090.000000;2.414181
4089.000000;2.395275
4088.000000;2.425430
4087.000000;2.489941
4086.000000;2.528976
4085.000000;2.503715
4084.000000;2.453678
4083.000000;2.433171
4082.000000;2.473767
4081.000000;2.577096
4080.000000;2.704467
4079.000000;2.783661
4078.000000;2.802395
4077.000000;2.779835
4076.000000;2.711010
4075.000000;2.625133
4074.000000;2.555452
4073.000000;2.516049
4072.000000;2.513361
4071.000000;2.551924
4070.000000;2.623105
4069.000000;2.686792
4068.000000;2.670964
4067.000000;2.606983
4066.000000;2.583600
4065.000000;2.600719
4064.000000;2.604007
4063.000000;2.585101
4062.000000;2.601495
4061.000000;2.704824
4060.000000;2.895725
4059.000000;3.057830
4058.000000;2.864078
4057.000000;2.560705
4056.000000;2.365070
4055.000000;2.270910
4054.000000;2.269551
4053.000000;2.349063
4052.000000;2.480984
4051.000000;2.603279
4050.000000;2.655096
4049.000000;2.639259
4048.000000;2.586464
4047.000000;2.519190
4046.000000;2.469310
4045.000000;2.462738
4044.000000;2.488960
4043.000000;2.489532
4042.000000;2.452344
4041.000000;2.437460
4040.000000;2.463713
4039.000000;2.485631
4038.000000;2.455030
4037.000000;2.387778
4036.000000;2.342099
4035.000000;2.346188
4034.000000;2.378661
4033.000000;2.406388
4032.000000;2.413283
4031.000000;2.413729
4030.000000;2.437260
4029.000000;2.479715
4028.000000;2.523749
4027.000000;2.573849
4026.000000;2.634325
4025.000000;2.679045
4024.000000;2.693927
4023.000000;2.703700
4022.000000;2.685236
4021.000000;2.632037
4020.000000;2.572980
4019.000000;2.524509
4018.000000;2.521961
4017.000000;2.569948
4016.000000;2.616564
4015.000000;2.593794
4014.000000;2.523939
4013.000000;2.498054
4012.000000;2.551570
4011.000000;2.664056
4010.000000;2.806216
4009.000000;3.030449
4008.000000;3.143054
4007.000000;2.888836
4006.000000;2.836627
4005.000000;2.966914
4004.000000;3.223019
4003.000000;3.276874
4002.000000;2.918758
4001.000000;2.695131
4000.000000;2.669298
3999.000000;2.770179
3998.000000;2.728011
3997.000000;2.581632
3996.000000;2.548388
3995.000000;2.594683
3994.000000;2.582378
3993.000000;2.457255
3992.000000;2.368732
3991.000000;2.418139
3990.000000;2.674322
3989.000000;3.455201
3988.000000;3.218604
3987.000000;2.910084
3986.000000;2.638557
3985.000000;2.468053
3984.000000;2.399505
3983.000000;2.374481
3982.000000;2.390907
3981.000000;2.475389
3980.000000;2.657303
3979.000000;2.833881
3978.000000;2.736407
3977.000000;2.589228
3976.000000;2.505979
3975.000000;2.525140
3974.000000;2.662668
3973.000000;2.916336
3972.000000;3.139851
3971.000000;3.000540
3970.000000;2.711224
3969.000000;2.504682
3968.000000;2.412399
3967.000000;2.418001
3966.000000;2.464284
3965.000000;2.497596
3964.000000;2.528846
3963.000000;2.586106
3962.000000;2.686883
3961.000000;2.799530
3960.000000;2.848505
3959.000000;2.837816
3958.000000;2.789701
3957.000000;2.730422
3956.000000;2.720533
3955.000000;2.773979
3954.000000;2.848821
3953.000000;2.971885
3952.000000;3.092912
3951.000000;2.833463
3950.000000;2.612994
3949.000000;2.518557
3948.000000;2.527310
3947.000000;2.616635
3946.000000;2.740860
3945.000000;2.791943
3944.000000;2.743400
3943.000000;2.664457
3942.000000;2.608559
3941.000000;2.620283
3940.000000;2.706236
3939.000000;2.873283
3938.000000;3.107931
3937.000000;3.129818
3936.000000;3.073339
3935.000000;3.612755
3934.000000;3.195811
3933.000000;2.905060
3932.000000;2.920924
3931.000000;3.119089
3930.000000;3.394738
3929.000000;3.185742
3928.000000;2.933164
3927.000000;2.789466
3926.000000;2.716773
3925.000000;2.682435
3924.000000;2.707820
3923.000000;2.817512
3922.000000;2.993723
3921.000000;3.200150
3920.000000;3.276921
3919.000000;3.142819
3918.000000;3.024854
3917.000000;2.967130
3916.000000;3.036723
3915.000000;2.987199
3914.000000;2.816053
3913.000000;2.787237
3912.000000;3.102953
3911.000000;3.074566
3910.000000;2.751738
3909.000000;2.665713
3908.000000;2.642336
3907.000000;2.674442
3906.000000;2.782124
3905.000000;2.900344
3904.000000;2.851521
3903.000000;2.803036
3902.000000;2.861422
3901.000000;3.027416
3900.000000;3.218632
3899.000000;3.073201
3898.000000;2.889088
3897.000000;2.776021
3896.000000;2.715519
3895.000000;2.709545
3894.000000;2.763932
3893.000000;2.858956
3892.000000;2.972902
3891.000000;3.099503
3890.000000;3.148047
3889.000000;3.144434
3888.000000;3.143643
3887.000000;3.061056
3886.000000;2.932719
3885.000000;2.877535
3884.000000;2.958371
3883.000000;3.200713
3882.000000;3.445782
3881.000000;3.662931
3880.000000;3.438006
3879.000000;3.189130
3878.000000;3.139182
3877.000000;3.274500
3876.000000;3.406971
3875.000000;3.026590
3874.000000;2.877782
3873.000000;2.875630
3872.000000;2.899410
3871.000000;2.948100
3870.000000;2.910628
3869.000000;2.783510
3868.000000;2.774837
3867.000000;2.865167
3866.000000;3.027065
3865.000000;3.190452
3864.000000;3.309904
3863.000000;3.699470
3862.000000;3.902638
3861.000000;3.371554
3860.000000;3.140167
3859.000000;2.997618
3858.000000;2.886370
3857.000000;2.801585
3856.000000;2.786888
3855.000000;2.890134
3854.000000;3.049609
3853.000000;2.951767
3852.000000;2.961693
3851.000000;3.002553
3850.000000;2.860066
3849.000000;2.788181
3848.000000;2.816965
3847.000000;2.886982
3846.000000;2.893518
3845.000000;2.832419
3844.000000;2.816716
3843.000000;2.941158
3842.000000;3.234230
3841.000000;3.154225
3840.000000;3.074489
3839.000000;3.356795
3838.000000;2.917203
3837.000000;2.885148
3836.000000;2.992116
3835.000000;2.751294
3834.000000;2.623641
3833.000000;2.631045
3832.000000;2.750897
3831.000000;2.902124
3830.000000;2.860787
3829.000000;2.766798
3828.000000;2.738352
3827.000000;2.739882
3826.000000;2.751703
3825.000000;2.792729
3824.000000;2.881364
3823.000000;3.041415
3822.000000;3.179460
3821.000000;3.436542
3820.000000;3.120769
3819.000000;2.630507
3818.000000;2.427652
3817.000000;2.371456
3816.000000;2.505092
3815.000000;2.796119
3814.000000;2.917374
3813.000000;2.938322
3812.000000;2.911097
3811.000000;2.849148
3810.000000;2.851466
3809.000000;3.168275
3808.000000;3.339887
3807.000000;2.806348
3806.000000;2.653037
3805.000000;2.583359
3804.000000;2.565375
3803.000000;2.579367
3802.000000;2.753801
3801.000000;3.032637
3800.000000;2.944959
3799.000000;2.954837
3798.000000;2.929884
3797.000000;2.880881
3796.000000;2.959450
3795.000000;3.204821
3794.000000;2.995251
3793.000000;2.796354
3792.000000;2.768255
3791.000000;2.956085
3790.000000;3.496660
3789.000000;3.002344
3788.000000;2.804120
3787.000000;2.782375
3786.000000;2.951020
3785.000000;3.096711
3784.000000;2.951661
3783.000000;2.986832
3782.000000;3.182160
3781.000000;3.306628
3780.000000;3.239573
3779.000000;3.188561
3778.000000;3.076485
3777.000000;2.989754
3776.000000;2.943014
3775.000000;2.857286
3774.000000;2.770165
3773.000000;2.803171
3772.000000;2.993413
3771.000000;3.745196
3770.000000;3.175789
3769.000000;3.005281
3768.000000;3.065252
3767.000000;3.017300
3766.000000;2.937996
3765.000000;3.042167
3764.000000;3.379983
3763.000000;3.311145
3762.000000;3.105407
3761.000000;2.816474
3760.000000;2.658545
3759.000000;2.653189
3758.000000;2.731734
3757.000000;2.780117
3756.000000;2.816135
3755.000000;2.925428
3754.000000;3.089759
3753.000000;3.692097
3752.000000;3.610802
3751.000000;2.873142
3750.000000;2.690219
3749.000000;2.710962
3748.000000;2.942310
3747.000000;3.288506
3746.000000;3.171054
3745.000000;2.926126
3744.000000;2.845556
3743.000000;2.880297
3742.000000;2.978728
3741.000000;3.180712
3740.000000;3.280588
3739.000000;2.939391
3738.000000;2.778594
3737.000000;2.733036
3736.000000;2.743409
3735.000000;2.799389
3734.000000;2.904771
3733.000000;2.977619
3732.000000;2.937039
3731.000000;2.864489
3730.000000;2.854312
3729.000000;2.930205
3728.000000;3.044360
3727.000000;3.233178
3726.000000;3.338548
3725.000000;3.178282
3724.000000;3.122861
3723.000000;3.089097
3722.000000;2.976159
3721.000000;2.926399
3720.000000;3.024869
3719.000000;3.177032
3718.000000;3.063232
3717.000000;2.987221
3716.000000;3.064782
3715.000000;3.215584
3714.000000;3.150788
3713.000000;2.972906
3712.000000;2.861987
3711.000000;2.858806
3710.000000;3.009140
3709.000000;3.161240
3708.000000;3.073121
3707.000000;3.012463
3706.000000;3.016134
3705.000000;3.057857
3704.000000;3.077148
3703.000000;2.978395
3702.000000;2.902166
3701.000000;3.012717
3700.000000;3.247446
3699.000000;3.180233
3698.000000;3.078942
3697.000000;3.121968
3696.000000;3.198307
3695.000000;3.302762
3694.000000;3.479327
3693.000000;3.246753
3692.000000;3.002392
3691.000000;3.225606
3690.000000;2.906537
3689.000000;2.467258
3688.000000;2.418084
3687.000000;2.620727
3686.000000;3.035215
3685.000000;3.517868
3684.000000;3.419488
3683.000000;3.429775
3682.000000;3.742407
3681.000000;3.371270
3680.000000;3.027458
3679.000000;2.900981
3678.000000;2.811386
3677.000000;2.762404
3676.000000;2.745691
3675.000000;2.671981
3674.000000;2.637412
3673.000000;2.706455
3672.000000;2.795607
3671.000000;2.757700
3670.000000;2.699194
3669.000000;2.755287
3668.000000;2.871177
3667.000000;3.031251
3666.000000;3.106122
3665.000000;3.101361
3664.000000;3.251333
3663.000000;3.374095
3662.000000;3.465919
3661.000000;3.799689
3660.000000;3.346302
3659.000000;3.137782
3658.000000;3.110130
3657.000000;3.329448
3656.000000;4.187879
3655.000000;3.521155
3654.000000;3.521915
3653.000000;3.374680
3652.000000;3.249875
3651.000000;3.206953
3650.000000;3.101255
3649.000000;2.856231
3648.000000;2.689417
3647.000000;2.659459
3646.000000;2.707636
3645.000000;2.785186
3644.000000;2.859826
3643.000000;2.917926
3642.000000;2.985056
3641.000000;3.127684
3640.000000;3.319900
3639.000000;3.887234
3638.000000;3.475971
3637.000000;3.112473
3636.000000;3.045825
3635.000000;3.170978
3634.000000;3.560109
3633.000000;4.372331
3632.000000;4.257810
3631.000000;3.818997
3630.000000;3.583112
3629.000000;3.436987
3628.000000;3.334519
3627.000000;3.246932
3626.000000;3.159919
3625.000000;3.131707
3624.000000;3.125233
3623.000000;3.054595
3622.000000;3.030228
3621.000000;3.100825
3620.000000;3.183588
3619.000000;3.194939
3618.000000;3.151605
3617.000000;3.103523
3616.000000;3.129418
3615.000000;3.407814
3614.000000;3.632269
3613.000000;3.285152
3612.000000;3.143229
3611.000000;3.119913
3610.000000;3.136422
3609.000000;3.173377
3608.000000;3.248060
3607.000000;3.332786
3606.000000;3.262724
3605.000000;3.043997
3604.000000;2.851423
3603.000000;2.745076
3602.000000;2.731302
3601.000000;2.890542
3600.000000;3.164611
3599.000000;2.746942
3598.000000;2.569446
3597.000000;2.574268
3596.000000;2.733330
3595.000000;3.146936
3594.000000;3.799434
3593.000000;3.382127
3592.000000;3.455194
3591.000000;3.693831
3590.000000;3.426286
3589.000000;3.283874
3588.000000;3.408545
3587.000000;3.357655
3586.000000;3.245545
3585.000000;3.329045
3584.000000;3.948795
3583.000000;3.589284
3582.000000;3.304291
3581.000000;3.338967
3580.000000;3.477358
3579.000000;3.540835
3578.000000;3.544194
3577.000000;3.291285
3576.000000;3.022247
3575.000000;2.825788
3574.000000;2.678066
3573.000000;2.617764
3572.000000;2.692681
3571.000000;2.934757
3570.000000;3.186796
3569.000000;3.227723
3568.000000;3.399564
3567.000000;3.515486
3566.000000;3.550021
3565.000000;3.773968
3564.000000;3.627034
3563.000000;3.257463
3562.000000;3.038387
3561.000000;2.909256
3560.000000;2.838776
3559.000000;2.872085
3558.000000;3.106881
3557.000000;3.310112
3556.000000;3.084350
3555.000000;3.022632
3554.000000;3.080889
3553.000000;3.081528
3552.000000;2.899723
3551.000000;2.701389
3550.000000;2.609832
3549.000000;2.638900
3548.000000;2.800125
3547.000000;3.084989
3546.000000;3.140816
3545.000000;2.998674
3544.000000;2.926928
3543.000000;2.884509
3542.000000;2.841902
3541.000000;2.829861
3540.000000;2.907943
3539.000000;3.323153
3538.000000;3.503334
3537.000000;3.105664
3536.000000;3.089585
3535.000000;3.250322
3534.000000;3.416928
3533.000000;3.071082
3532.000000;2.927641
3531.000000;3.018017
3530.000000;3.000778
3529.000000;2.832080
3528.000000;2.795376
3527.000000;2.873503
3526.000000;2.976127
3525.000000;3.067374
3524.000000;3.165095
3523.000000;3.301516
3522.000000;3.305789
3521.000000;2.968507
3520.000000;2.741868
3519.000000;2.630400
3518.000000;2.606628
3517.000000;2.651404
3516.000000;2.761522
3515.000000;2.942356
3514.000000;3.169780
3513.000000;3.465579
3512.000000;3.230461
3511.000000;2.895650
3510.000000;2.814208
3509.000000;2.881057
3508.000000;3.107472
3507.000000;3.252125
3506.000000;3.101099
3505.000000;3.002653
3504.000000;2.924703
3503.000000;2.899095
3502.000000;3.011852
3501.000000;3.597209
3500.000000;3.441777
3499.000000;3.136421
3498.000000;3.133939
3497.000000;3.364563
3496.000000;3.800304
3495.000000;3.066575
3494.000000;2.905358
3493.000000;2.887684
3492.000000;2.919630
3491.000000;2.931415
3490.000000;2.980895
3489.000000;3.091570
3488.000000;3.524372
3487.000000;3.722391
3486.000000;3.343893
3485.000000;3.406288
3484.000000;3.126329
3483.000000;3.019180
3482.000000;3.294424
3481.000000;3.305553
3480.000000;3.079691
3479.000000;3.268039
3478.000000;3.150234
3477.000000;2.889275
3476.000000;2.824710
3475.000000;2.911430
3474.000000;3.063899
3473.000000;3.023289
3472.000000;2.995432
3471.000000;3.033130
3470.000000;2.967460
3469.000000;2.949681
3468.000000;3.131990
3467.000000;3.449525
3466.000000;3.126442
3465.000000;2.940450
3464.000000;2.827055
3463.000000;2.808707
3462.000000;2.910957
3461.000000;3.360054
3460.000000;3.483239
3459.000000;3.030968
3458.000000;3.063240
3457.000000;3.298845
3456.000000;3.292651
3455.000000;3.076404
3454.000000;3.112406
3453.000000;3.359200
3452.000000;3.424566
3451.000000;3.087638
3450.000000;2.892862
3449.000000;2.850975
3448.000000;2.967797
3447.000000;3.186525
3446.000000;2.920940
3445.000000;2.745712
3444.000000;2.746282
3443.000000;2.884001
3442.000000;3.116746
3441.000000;3.286903
3440.000000;3.163026
3439.000000;2.969916
3438.000000;2.881857
3437.000000;2.932206
3436.000000;3.073363
3435.000000;3.448358
3434.000000;3.852498
3433.000000;3.258325
3432.000000;3.138042
3431.000000;3.630688
3430.000000;3.559478
3429.000000;3.090432
3428.000000;3.159878
3427.000000;2.979407
3426.000000;2.797924
3425.000000;2.752236
3424.000000;2.815345
3423.000000;2.959242
3422.000000;3.168332
3421.000000;3.395255
3420.000000;3.278773
3419.000000;3.114347
3418.000000;3.060891
3417.000000;3.031990
3416.000000;2.983644
3415.000000;3.003495
3414.000000;3.151922
3413.000000;3.371846
3412.000000;3.696714
3411.000000;3.515075
3410.000000;3.071330
3409.000000;2.970634
3408.000000;3.045666
3407.000000;3.385134
3406.000000;3.207190
3405.000000;2.844111
3404.000000;2.733647
3403.000000;2.726098
3402.000000;2.792558
3401.000000;2.907778
3400.000000;3.112725
3399.000000;3.796982
3398.000000;3.330859
3397.000000;3.019415
3396.000000;2.991055
3395.000000;3.075634
3394.000000;3.210028
3393.000000;3.124803
3392.000000;3.083987
3391.000000;3.123350
3390.000000;3.158074
3389.000000;3.294077
3388.000000;3.319418
3387.000000;3.042571
3386.000000;2.889626
3385.000000;2.856245
3384.000000;2.975223
3383.000000;3.132646
3382.000000;2.981211
3381.000000;2.883466
3380.000000;3.017078
3379.000000;3.470052
3378.000000;3.243829
3377.000000;2.938206
3376.000000;2.864959
3375.000000;2.824358
3374.000000;2.832483
3373.000000;2.876561
3372.000000;2.959773
3371.000000;3.099416
3370.000000;3.149053
3369.000000;3.114368
3368.000000;3.250848
3367.000000;3.598286
3366.000000;3.525071
3365.000000;3.301988
3364.000000;3.189880
3363.000000;3.028300
3362.000000;2.837388
3361.000000;2.738048
3360.000000;2.713426
3359.000000;2.740155
3358.000000;2.819027
3357.000000;2.901959
3356.000000;2.903497
3355.000000;2.922901
3354.000000;3.146686
3353.000000;3.279787
3352.000000;3.020343
3351.000000;3.011780
3350.000000;3.210753
3349.000000;3.672064
3348.000000;3.577645
3347.000000;3.279973
3346.000000;3.146565
3345.000000;3.113552
3344.000000;3.203115
3343.000000;3.314859
3342.000000;3.544162
3341.000000;3.843758
3340.000000;3.302404
3339.000000;3.168856
3338.000000;3.232636
3337.000000;3.095895
3336.000000;2.928438
3335.000000;2.890096
3334.000000;2.926066
3333.000000;2.960040
3332.000000;3.012020
3331.000000;3.037482
3330.000000;3.029098
3329.000000;3.093999
3328.000000;3.038191
3327.000000;2.928650
3326.000000;2.909294
3325.000000;2.981814
3324.000000;2.976915
3323.000000;2.772352
3322.000000;2.686557
3321.000000;2.807941
3320.000000;3.048588
3319.000000;2.898935
3318.000000;2.786255
3317.000000;2.871714
3316.000000;3.246661
3315.000000;3.418581
3314.000000;3.058374
3313.000000;3.000743
3312.000000;3.173738
3311.000000;3.054903
3310.000000;2.831924
3309.000000;2.783397
3308.000000;2.872435
3307.000000;3.044417
3306.000000;3.179247
3305.000000;3.153630
3304.000000;3.034509
3303.000000;2.953103
3302.000000;2.939680
3301.000000;3.001098
3300.000000;3.138999
3299.000000;3.404654
3298.000000;3.328255
3297.000000;2.984752
3296.000000;2.836608
3295.000000;2.816858
3294.000000;2.921520
3293.000000;3.130569
3292.000000;3.397400
3291.000000;3.579508
3290.000000;3.501270
3289.000000;3.243120
3288.000000;3.079582
3287.000000;3.073460
3286.000000;3.440384
3285.000000;3.522541
3284.000000;3.157427
3283.000000;3.197236
3282.000000;3.430107
3281.000000;3.404972
3280.000000;3.371839
3279.000000;3.251975
3278.000000;3.163818
3277.000000;3.130454
3276.000000;3.041981
3275.000000;2.952347
3274.000000;3.021391
3273.000000;3.229059
3272.000000;3.154084
3271.000000;3.077063
3270.000000;3.368710
3269.000000;3.769143
3268.000000;3.236758
3267.000000;2.954299
3266.000000;2.882102
3265.000000;2.985836
3264.000000;3.235134
3263.000000;3.557819
3262.000000;3.721099
3261.000000;3.391432
3260.000000;3.162763
3259.000000;3.116870
3258.000000;3.209743
3257.000000;3.304901
3256.000000;3.497161
3255.000000;3.810812
3254.000000;3.404977
3253.000000;3.390377
3252.000000;3.523787
3251.000000;3.426432
3250.000000;3.107216
3249.000000;2.835607
3248.000000;2.679688
3247.000000;2.635110
3246.000000;2.681326
3245.000000;2.801062
3244.000000;2.998570
3243.000000;3.167889
3242.000000;2.994149
3241.000000;2.788832
3240.000000;2.699424
3239.000000;2.706874
3238.000000;2.816935
3237.000000;3.074909
3236.000000;3.276349
3235.000000;3.016959
3234.000000;2.815724
3233.000000;2.752743
3232.000000;2.815187
3231.000000;2.969625
3230.000000;3.054262
3229.000000;3.027540
3228.000000;2.927822
3227.000000;2.885571
3226.000000;3.019675
3225.000000;3.254024
3224.000000;2.990269
3223.000000;2.878932
3222.000000;2.911095
3221.000000;2.875938
3220.000000;2.730009
3219.000000;2.643974
3218.000000;2.639383
3217.000000;2.718748
3216.000000;2.853161
3215.000000;2.985025
3214.000000;3.108285
3213.000000;3.191848
3212.000000;3.149049
3211.000000;3.019015
3210.000000;2.949395
3209.000000;3.014964
3208.000000;3.230868
3207.000000;3.253904
3206.000000;3.050352
3205.000000;2.973375
3204.000000;3.027629
3203.000000;3.126279
3202.000000;3.130868
3201.000000;3.117471
3200.000000;3.213356
3199.000000;3.521940
3198.000000;3.378629
3197.000000;2.992839
3196.000000;2.868536
3195.000000;2.920591
3194.000000;3.116273
3193.000000;3.137355
3192.000000;2.994782
3191.000000;3.029886
3190.000000;3.275931
3189.000000;3.202696
3188.000000;2.970502
3187.000000;2.939702
3186.000000;3.029149
3185.000000;3.384166
3184.000000;3.812664
3183.000000;3.792447
3182.000000;4.015408
3181.000000;3.723153
3180.000000;3.269225
3179.000000;3.023660
3178.000000;2.944455
3177.000000;2.949576
3176.000000;3.001509
3175.000000;3.158163
3174.000000;3.561356
3173.000000;3.343348
3172.000000;3.095611
3171.000000;3.066956
3170.000000;3.318583
3169.000000;3.878010
3168.000000;3.204360
3167.000000;3.083178
3166.000000;3.050543
3165.000000;3.000493
3164.000000;2.948603
3163.000000;2.977787
3162.000000;3.480104
3161.000000;3.542125
3160.000000;3.096198
3159.000000;3.373860
3158.000000;3.383045
3157.000000;3.172999
3156.000000;3.076134
3155.000000;2.993209
3154.000000;3.009261
3153.000000;3.238428
3152.000000;3.645927
3151.000000;3.087985
3150.000000;2.866010
3149.000000;2.805824
3148.000000;2.835902
3147.000000;2.906789
3146.000000;2.916989
3145.000000;2.918692
3144.000000;3.008673
3143.000000;3.069657
3142.000000;2.979138
3141.000000;2.938842
3140.000000;2.970568
3139.000000;2.999794
3138.000000;2.969180
3137.000000;2.895753
3136.000000;2.818471
3135.000000;2.786377
3134.000000;2.827233
3133.000000;2.952021
3132.000000;3.147373
3131.000000;3.505927
3130.000000;3.769443
3129.000000;3.357883
3128.000000;3.125072
3127.000000;3.036721
3126.000000;3.066132
3125.000000;3.253765
3124.000000;3.215974
3123.000000;3.045961
3122.000000;3.004855
3121.000000;2.923305
3120.000000;2.771806
3119.000000;2.671491
3118.000000;2.648753
3117.000000;2.706858
3116.000000;2.771517
3115.000000;2.707485
3114.000000;2.651846
3113.000000;2.715900
3112.000000;2.935472
3111.000000;3.357900
3110.000000;3.766039
3109.000000;3.724887
3108.000000;3.368836
3107.000000;3.114084
3106.000000;3.054621
3105.000000;3.138505
3104.000000;3.433340
3103.000000;4.113203
3102.000000;4.496235
3101.000000;3.675748
3100.000000;3.149251
3099.000000;2.961160
3098.000000;3.002679
3097.000000;3.365374
3096.000000;3.216271
3095.000000;3.054930
3094.000000;3.160751
3093.000000;3.714010
3092.000000;3.304830
3091.000000;2.946686
3090.000000;2.831597
3089.000000;2.876196
3088.000000;3.062281
3087.000000;2.984968
3086.000000;2.738173
3085.000000;2.646716
3084.000000;2.654494
3083.000000;2.768045
3082.000000;2.978598
3081.000000;3.067030
3080.000000;3.030190
3079.000000;3.076065
3078.000000;3.091770
3077.000000;3.042300
3076.000000;2.970066
3075.000000;2.897784
3074.000000;2.861428
3073.000000;2.919845
3072.000000;3.163486
3071.000000;3.437801
3070.000000;3.241634
3069.000000;3.223159
3068.000000;3.195631
3067.000000;3.103639
3066.000000;3.114891
3065.000000;3.162661
3064.000000;3.131769
3063.000000;3.119123
3062.000000;3.228198
3061.000000;3.450276
3060.000000;3.338970
3059.000000;3.076245
3058.000000;2.949354
3057.000000;2.908418
3056.000000;2.940656
3055.000000;2.968010
3054.000000;2.963071
3053.000000;2.980940
3052.000000;3.001351
3051.000000;3.002817
3050.000000;3.025414
3049.000000;3.120278
3048.000000;3.270323
3047.000000;3.357268
3046.000000;3.422826
3045.000000;3.161824
3044.000000;2.879299
3043.000000;2.753760
3042.000000;2.760541
3041.000000;2.859474
3040.000000;2.951636
3039.000000;3.002579
3038.000000;3.136048
3037.000000;3.489922
3036.000000;3.388943
3035.000000;3.059549
3034.000000;2.976237
3033.000000;2.997727
3032.000000;3.045712
3031.000000;3.044214
3030.000000;3.099635
3029.000000;3.427409
3028.000000;3.224002
3027.000000;2.882659
3026.000000;2.807592
3025.000000;2.838137
3024.000000;2.976316
3023.000000;3.234052
3022.000000;3.342576
3021.000000;3.130510
3020.000000;3.084783
3019.000000;3.253156
3018.000000;3.530110
3017.000000;3.428484
3016.000000;3.384883
3015.000000;3.413720
3014.000000;3.289535
3013.000000;3.456031
3012.000000;3.352338
3011.000000;2.934510
3010.000000;2.868865
3009.000000;3.084370
3008.000000;3.424612
3007.000000;3.135529
3006.000000;3.251218
3005.000000;3.433853
3004.000000;3.341548
3003.000000;3.284860
3002.000000;3.237752
3001.000000;3.196014
3000.000000;3.746093
2999.000000;3.661789
2998.000000;3.172266
2997.000000;3.124941
2996.000000;2.959872
2995.000000;2.912733
2994.000000;3.032518
2993.000000;3.364830
2992.000000;3.609675
2991.000000;3.416005
2990.000000;3.131404
2989.000000;2.909825
2988.000000;2.821677
2987.000000;2.879307
2986.000000;3.147592
2985.000000;3.978608
2984.000000;3.080997
2983.000000;2.954606
2982.000000;2.953543
2981.000000;2.983528
2980.000000;3.015775
2979.000000;3.170304
2978.000000;3.123559
2977.000000;2.914909
2976.000000;2.897325
2975.000000;2.992307
2974.000000;3.082944
2973.000000;3.311693
2972.000000;3.566917
2971.000000;3.308338
2970.000000;3.285343
2969.000000;3.419385
2968.000000;3.537799
2967.000000;3.735885
2966.000000;3.513976
2965.000000;3.121233
2964.000000;2.834152
2963.000000;2.667414
2962.000000;2.614640
2961.000000;2.652910
2960.000000;2.751667
2959.000000;2.892602
2958.000000;3.077868
2957.000000;3.165947
2956.000000;3.044121
2955.000000;2.891259
2954.000000;2.801124
2953.000000;2.811357
2952.000000;2.934657
2951.000000;3.019761
2950.000000;2.914507
2949.000000;2.861709
2948.000000;2.880587
2947.000000;2.969055
2946.000000;3.138075
2945.000000;3.282498
2944.000000;3.176808
2943.000000;3.025700
2942.000000;3.038804
2941.000000;3.242391
2940.000000;3.877767
2939.000000;3.729408
2938.000000;3.285718
2937.000000;2.985703
2936.000000;2.827922
2935.000000;2.816048
2934.000000;2.933631
2933.000000;3.190600
2932.000000;3.669672
2931.000000;3.312919
2930.000000;3.074579
2929.000000;2.903693
2928.000000;2.807059
2927.000000;2.830038
2926.000000;2.996493
2925.000000;3.271291
2924.000000;3.725659
2923.000000;4.521409
2922.000000;3.697834
2921.000000;3.121214
2920.000000;2.794299
2919.000000;2.715983
2918.000000;2.810324
2917.000000;3.046057
2916.000000;3.174788
2915.000000;3.126389
2914.000000;3.378423
2913.000000;3.376661
2912.000000;3.033140
2911.000000;2.969121
2910.000000;3.009791
2909.000000;2.937789
2908.000000;2.912547
2907.000000;2.999555
2906.000000;2.932231
2905.000000;2.838151
2904.000000;2.845302
2903.000000;2.840140
2902.000000;2.766609
2901.000000;2.724354
2900.000000;2.772769
2899.000000;2.910303
2898.000000;3.219652
2897.000000;3.471915
2896.000000;3.077646
2895.000000;3.075535
2894.000000;3.442212
2893.000000;3.108637
2892.000000;2.800527
2891.000000;2.759505
2890.000000;2.800432
2889.000000;2.987013
2888.000000;3.207324
2887.000000;3.248261
2886.000000;3.213086
2885.000000;3.195409
2884.000000;3.341928
2883.000000;3.439264
2882.000000;3.053519
2881.000000;2.874253
2880.000000;2.854914
2879.000000;2.925616
2878.000000;3.006865
2877.000000;3.020106
2876.000000;2.983775
2875.000000;2.897876
2874.000000;2.767086
2873.000000;2.660623
2872.000000;2.627200
2871.000000;2.693753
2870.000000;2.888580
2869.000000;3.416814
2868.000000;3.523242
2867.000000;3.235309
2866.000000;3.226185
2865.000000;2.993557
2864.000000;3.068370
2863.000000;3.379956
2862.000000;2.999260
2861.000000;2.784967
2860.000000;2.823109
2859.000000;2.999526
2858.000000;3.111376
2857.000000;3.044584
2856.000000;3.087658
2855.000000;3.330700
2854.000000;3.473369
2853.000000;3.188922
2852.000000;2.990826
2851.000000;2.858642
2850.000000;2.813086
2849.000000;2.861624
2848.000000;2.982350
2847.000000;3.140847
2846.000000;3.196949
2845.000000;3.110684
2844.000000;3.064580
2843.000000;2.988346
2842.000000;2.829761
2841.000000;2.723835
2840.000000;2.745193
2839.000000;2.888805
2838.000000;3.029427
2837.000000;3.047149
2836.000000;3.002438
2835.000000;2.945644
2834.000000;2.951957
2833.000000;3.271143
2832.000000;3.376772
2831.000000;3.023090
2830.000000;2.946350
2829.000000;2.985583
2828.000000;2.998461
2827.000000;2.980193
2826.000000;3.037211
2825.000000;3.276920
2824.000000;3.713702
2823.000000;3.380394
2822.000000;3.262640
2821.000000;3.203507
2820.000000;3.126045
2819.000000;3.029044
2818.000000;2.993454
2817.000000;3.018178
2816.000000;3.069509
2815.000000;3.194523
2814.000000;3.567376
2813.000000;3.576165
2812.000000;3.504338
2811.000000;3.546080
2810.000000;3.092506
2809.000000;2.896990
2808.000000;2.889854
2807.000000;3.001829
2806.000000;3.133449
2805.000000;3.202899
2804.000000;3.273180
2803.000000;3.348392
2802.000000;3.376460
2801.000000;3.344707
2800.000000;3.290662
2799.000000;3.291074
2798.000000;3.471158
2797.000000;3.420812
2796.000000;3.081445
2795.000000;2.975303
2794.000000;3.022941
2793.000000;3.176224
2792.000000;3.186176
2791.000000;2.970037
2790.000000;2.814337
2789.000000;2.769533
2788.000000;2.871493
2787.000000;3.189611
2786.000000;3.183659
2785.000000;2.992788
2784.000000;3.144550
2783.000000;3.628276
2782.000000;3.463420
2781.000000;3.387784
2780.000000;3.945857
2779.000000;3.495580
2778.000000;3.358515
2777.000000;3.108581
2776.000000;2.886661
2775.000000;2.805031
2774.000000;2.802666
2773.000000;2.853389
2772.000000;2.930288
2771.000000;3.014138
2770.000000;2.892028
2769.000000;2.712090
2768.000000;2.654064
2767.000000;2.709760
2766.000000;2.848204
2765.000000;3.033020
2764.000000;3.236895
2763.000000;3.615811
2762.000000;3.914831
2761.000000;3.464058
2760.000000;3.524266
2759.000000;3.475943
2758.000000;3.199721
2757.000000;3.006806
2756.000000;2.927332
2755.000000;2.959297
2754.000000;3.294933
2753.000000;3.588560
2752.000000;3.209275
2751.000000;3.172012
2750.000000;3.399179
2749.000000;3.258123
2748.000000;3.069861
2747.000000;3.083537
2746.000000;3.282731
2745.000000;3.049182
2744.000000;2.864031
2743.000000;2.902491
2742.000000;3.151992
2741.000000;3.458610
2740.000000;3.650874
2739.000000;3.329140
2738.000000;3.050070
2737.000000;2.962408
2736.000000;2.944160
2735.000000;3.007940
2734.000000;3.181903
2733.000000;3.296608
2732.000000;3.198885
2731.000000;3.427254
2730.000000;3.593206
2729.000000;3.073004
2728.000000;2.845072
2727.000000;2.746762
2726.000000;2.721945
2725.000000;2.775556
2724.000000;2.938262
2723.000000;2.950657
2722.000000;2.799635
2721.000000;2.775078
2720.000000;2.903771
2719.000000;3.376598
2718.000000;3.418052
2717.000000;3.096364
2716.000000;3.116057
2715.000000;3.098659
2714.000000;2.950168
2713.000000;2.919130
2712.000000;3.044189
2711.000000;3.316696
2710.000000;3.242420
2709.000000;2.997533
2708.000000;2.941542
2707.000000;3.041885
2706.000000;3.067995
2705.000000;2.909987
2704.000000;2.886812
2703.000000;2.969398
2702.000000;2.974705
2701.000000;2.946836
2700.000000;3.028620
2699.000000;3.184160
2698.000000;3.352449
2697.000000;3.653354
2696.000000;3.610138
2695.000000;3.218727
2694.000000;2.997833
2693.000000;2.958879
2692.000000;3.109215
2691.000000;3.209872
2690.000000;3.116611
2689.000000;3.218927
2688.000000;3.766250
2687.000000;3.458780
2686.000000;3.222147
2685.000000;3.262331
2684.000000;3.300661
2683.000000;3.172276
2682.000000;3.101547
2681.000000;3.128385
2680.000000;3.150072
2679.000000;3.044064
2678.000000;2.954619
2677.000000;2.967613
2676.000000;2.997092
2675.000000;2.957003
2674.000000;2.949638
2673.000000;3.044569
2672.000000;3.279519
2671.000000;3.326064
2670.000000;3.076229
2669.000000;2.941341
2668.000000;2.954142
2667.000000;3.168767
2666.000000;3.190320
2665.000000;2.991964
2664.000000;2.863757
2663.000000;2.778617
2662.000000;2.791461
2661.000000;2.915793
2660.000000;3.092018
2659.000000;3.075110
2658.000000;2.980588
2657.000000;3.032328
2656.000000;3.173072
2655.000000;3.207252
2654.000000;3.157100
2653.000000;3.087268
2652.000000;3.001936
2651.000000;2.916562
2650.000000;2.891112
2649.000000;2.998676
2648.000000;3.324628
2647.000000;3.218778
2646.000000;3.023930
2645.000000;3.075808
2644.000000;3.124100
2643.000000;3.120041
2642.000000;3.174311
2641.000000;3.172468
2640.000000;3.198285
2639.000000;3.445761
2638.000000;3.530099
2637.000000;3.314203
2636.000000;3.037318
2635.000000;2.921152
2634.000000;2.971632
2633.000000;3.192149
2632.000000;3.642789
2631.000000;3.439904
2630.000000;3.237717
2629.000000;3.136333
2628.000000;2.910849
2627.000000;2.773605
2626.000000;2.773137
2625.000000;2.827370
2624.000000;2.811645
2623.000000;2.805258
2622.000000;2.934865
2621.000000;3.200750
2620.000000;3.176566
2619.000000;3.064989
2618.000000;3.045251
2617.000000;3.065972
2616.000000;3.346213
2615.000000;3.610929
2614.000000;3.357280
2613.000000;3.424529
2612.000000;3.520523
2611.000000;3.492763
2610.000000;3.609168
2609.000000;3.369066
2608.000000;3.146863
2607.000000;3.004720
2606.000000;2.973222
2605.000000;3.245352
2604.000000;4.099371
2603.000000;3.170682
2602.000000;3.194654
2601.000000;3.286899
2600.000000;3.196818
2599.000000;3.055333
2598.000000;3.037843
2597.000000;3.056262
2596.000000;3.004526
2595.000000;2.874340
2594.000000;2.759724
2593.000000;2.681209
2592.000000;2.643655
2591.000000;2.675385
2590.000000;2.810782
2589.000000;3.074675
2588.000000;3.526125
2587.000000;3.817116
2586.000000;3.390577
2585.000000;3.122133
2584.000000;3.049782
2583.000000;3.096454
2582.000000;3.192588
2581.000000;3.384392
2580.000000;3.439278
2579.000000;3.214602
2578.000000;3.145738
2577.000000;3.310055
2576.000000;3.637385
2575.000000;3.317118
2574.000000;3.089979
2573.000000;2.937004
2572.000000;2.867007
2571.000000;2.893960
2570.000000;3.034274
2569.000000;3.172348
2568.000000;3.089438
2567.000000;3.014191
2566.000000;3.039467
2565.000000;3.092802
2564.000000;3.093734
2563.000000;3.059174
2562.000000;3.066273
2561.000000;3.209448
2560.000000;3.185261
2559.000000;2.942661
2558.000000;2.851026
2557.000000;2.877990
2556.000000;2.928613
2555.000000;2.938189
2554.000000;2.911571
2553.000000;2.883521
2552.000000;2.883347
2551.000000;2.902860
2550.000000;2.932031
2549.000000;3.088990
2548.000000;3.201698
2547.000000;2.883708
2546.000000;2.738086
2545.000000;2.756855
2544.000000;2.914165
2543.000000;3.157302
2542.000000;3.270487
2541.000000;3.138573
2540.000000;2.999889
2539.000000;2.923578
2538.000000;2.940531
2537.000000;3.079731
2536.000000;3.388880
2535.000000;3.571920
2534.000000;3.408073
2533.000000;3.392991
2532.000000;3.726515
2531.000000;3.167165
2530.000000;2.914114
2529.000000;2.877098
2528.000000;2.986411
2527.000000;3.111761
2526.000000;3.032033
2525.000000;2.917873
2524.000000;2.895248
2523.000000;3.025239
2522.000000;3.176360
2521.000000;3.019678
2520.000000;2.936089
2519.000000;3.020879
2518.000000;3.281503
2517.000000;3.356237
2516.000000;3.172972
2515.000000;3.101948
2514.000000;3.030606
2513.000000;2.951767
2512.000000;2.963359
2511.000000;3.160801
2510.000000;3.502891
2509.000000;3.862922
2508.000000;3.802438
2507.000000;3.243923
2506.000000;2.965971
2505.000000;2.844065
2504.000000;2.871450
2503.000000;3.086673
2502.000000;3.772374
2501.000000;3.490997
2500.000000;3.290781
2499.000000;3.113054
2498.000000;2.911273
2497.000000;2.774306
2496.000000;2.733908
2495.000000;2.799736
2494.000000;2.960977
2493.000000;3.056586
2492.000000;3.063797
2491.000000;3.233196
2490.000000;3.785408
2489.000000;3.594948
2488.000000;3.187911
2487.000000;3.104514
2486.000000;3.113308
2485.000000;3.090372
2484.000000;2.942553
2483.000000;2.835283
2482.000000;2.823172
2481.000000;2.875896
2480.000000;2.937436
2479.000000;2.959024
2478.000000;2.915489
2477.000000;2.842174
2476.000000;2.775924
2475.000000;2.760921
2474.000000;2.857360
2473.000000;3.129341
2472.000000;3.234470
2471.000000;3.020718
2470.000000;2.973635
2469.000000;3.027942
2468.000000;3.119765
2467.000000;3.098126
2466.000000;3.021556
2465.000000;2.953365
2464.000000;2.874007
2463.000000;2.784297
2462.000000;2.736166
2461.000000;2.765017
2460.000000;2.821656
2459.000000;2.845647
2458.000000;2.897853
2457.000000;2.946508
2456.000000;2.925552
2455.000000;2.953606
2454.000000;3.123367
2453.000000;3.298550
2452.000000;3.238752
2451.000000;3.316198
2450.000000;3.749730
2449.000000;3.740940
2448.000000;3.384689
2447.000000;3.160864
2446.000000;3.054554
2445.000000;2.974693
2444.000000;2.910344
2443.000000;2.940705
2442.000000;3.066183
2441.000000;3.164558
2440.000000;3.132918
2439.000000;3.103167
2438.000000;3.159310
2437.000000;3.227961
2436.000000;3.115263
2435.000000;2.949246
2434.000000;2.895486
2433.000000;2.994683
2432.000000;3.084335
2431.000000;3.054904
2430.000000;3.163220
2429.000000;3.404932
2428.000000;3.488313
2427.000000;3.586564
2426.000000;3.713468
2425.000000;3.980628
2424.000000;3.559259
2423.000000;3.424045
2422.000000;3.252232
2421.000000;3.015004
2420.000000;2.909517
2419.000000;2.940296
2418.000000;3.162037
2417.000000;3.412324
2416.000000;3.048611
2415.000000;2.925622
2414.000000;2.908609
2413.000000;2.952021
2412.000000;3.028748
2411.000000;3.169743
2410.000000;3.168750
2409.000000;2.993311
2408.000000;2.930214
2407.000000;3.040432
2406.000000;3.208478
2405.000000;3.057285
2404.000000;2.940866
2403.000000;2.964686
2402.000000;3.009696
2401.000000;3.052686
2400.000000;3.193505
2399.000000;3.035091
2398.000000;2.827772
2397.000000;2.798971
2396.000000;2.897274
2395.000000;3.018624
2394.000000;3.149386
2393.000000;3.299033
2392.000000;3.394473
2391.000000;3.540442
2390.000000;3.331500
2389.000000;3.121408
2388.000000;3.008759
2387.000000;2.916989
2386.000000;2.849793
2385.000000;2.855591
2384.000000;2.965116
2383.000000;3.198941
2382.000000;3.343666
2381.000000;3.253403
2380.000000;3.219410
2379.000000;3.248631
2378.000000;3.352299
2377.000000;3.506441
2376.000000;4.073302
2375.000000;3.847269
2374.000000;3.448849
2373.000000;3.384543
2372.000000;3.505304
2371.000000;3.632414
2370.000000;3.473477
2369.000000;3.437388
2368.000000;3.573304
2367.000000;4.010592
2366.000000;3.690369
2365.000000;3.472686
2364.000000;3.504920
2363.000000;3.742559
2362.000000;4.250996
2361.000000;5.000847
2360.000000;4.544004
2359.000000;4.176943
2358.000000;3.660406
2357.000000;3.344600
2356.000000;3.190348
2355.000000;3.168795
2354.000000;3.274153
2353.000000;3.549723
2352.000000;3.895342
2351.000000;3.763908
2350.000000;3.666958
2349.000000;3.668098
2348.000000;3.671333
2347.000000;3.622638
2346.000000;3.559510
2345.000000;3.640117
2344.000000;4.032586
2343.000000;4.520635
2342.000000;4.178266
2341.000000;4.304492
2340.000000;4.298569
2339.000000;3.872578
2338.000000;3.596043
2337.000000;3.421716
2336.000000;3.396975
2335.000000;3.518404
2334.000000;3.696773
2333.000000;3.837387
2332.000000;3.977954
2331.000000;4.070214
2330.000000;3.935520
2329.000000;3.880402
2328.000000;3.821922
2327.000000;3.516302
2326.000000;3.320573
2325.000000;3.285171
2324.000000;3.400773
2323.000000;3.546023
2322.000000;3.431212
2321.000000;3.311082
2320.000000;3.292059
2319.000000;3.328910
2318.000000;3.393278
2317.000000;3.484347
2316.000000;3.595572
2315.000000;3.718811
2314.000000;3.835285
2313.000000;3.966294
2312.000000;3.698515
2311.000000;3.487520
2310.000000;3.440839
2309.000000;3.527123
2308.000000;3.678584
2307.000000;3.779440
2306.000000;3.760064
2305.000000;3.744608
2304.000000;3.849046
2303.000000;3.897453
2302.000000;3.740078
2301.000000;3.594308
2300.000000;3.477015
2299.000000;3.370401
2298.000000;3.321335
2297.000000;3.390953
2296.000000;3.641122
2295.000000;3.573663
2294.000000;3.410578
2293.000000;3.435407
2292.000000;3.524314
2291.000000;3.440340
2290.000000;3.180343
2289.000000;2.984016
2288.000000;2.902140
2287.000000;2.923473
2286.000000;2.977458
2285.000000;2.982749
2284.000000;3.001470
2283.000000;3.025796
2282.000000;2.992047
2281.000000;2.992148
2280.000000;3.094900
2279.000000;3.387809
2278.000000;3.949446
2277.000000;3.611843
2276.000000;3.247989
2275.000000;3.005182
2274.000000;2.914672
2273.000000;2.986180
2272.000000;3.348070
2271.000000;3.577674
2270.000000;3.310268
2269.000000;3.209051
2268.000000;3.108596
2267.000000;3.025218
2266.000000;2.994945
2265.000000;3.074937
2264.000000;3.306528
2263.000000;3.328794
2262.000000;3.091669
2261.000000;2.936158
2260.000000;2.878422
2259.000000;2.921758
2258.000000;3.089643
2257.000000;3.405966
2256.000000;3.344453
2255.000000;3.261790
2254.000000;3.414354
2253.000000;3.260472
2252.000000;3.209780
2251.000000;3.204916
2250.000000;2.981909
2249.000000;2.900025
2248.000000;2.905670
2247.000000;2.875955
2246.000000;2.795975
2245.000000;2.746956
2244.000000;2.796332
2243.000000;2.945845
2242.000000;3.356047
2241.000000;3.486613
2240.000000;3.050667
2239.000000;2.859191
2238.000000;2.769594
2237.000000;2.726657
2236.000000;2.728715
2235.000000;2.811226
2234.000000;3.016521
2233.000000;3.343055
2232.000000;3.382487
2231.000000;3.280108
2230.000000;3.090671
2229.000000;2.981055
2228.000000;3.107966
2227.000000;3.102629
2226.000000;2.859769
2225.000000;2.888197
2224.000000;3.246487
2223.000000;3.703711
2222.000000;3.393495
2221.000000;3.424372
2220.000000;3.278051
2219.000000;3.261240
2218.000000;3.075417
2217.000000;2.884340
2216.000000;2.860058
2215.000000;3.018418
2214.000000;3.286115
2213.000000;3.175625
2212.000000;3.051573
2211.000000;3.067688
2210.000000;3.170260
2209.000000;3.273577
2208.000000;3.263709
2207.000000;3.134316
2206.000000;3.020694
2205.000000;2.949304
2204.000000;2.838487
2203.000000;2.736239
2202.000000;2.743242
2201.000000;2.906628
2200.000000;3.087824
2199.000000;2.957390
2198.000000;2.845343
2197.000000;2.811431
2196.000000;2.812233
2195.000000;2.769497
2194.000000;2.774400
2193.000000;2.897743
2192.000000;3.392010
2191.000000;3.577955
2190.000000;3.098069
2189.000000;2.950042
2188.000000;2.888826
2187.000000;2.963536
2186.000000;3.303350
2185.000000;3.573732
2184.000000;3.274841
2183.000000;3.122892
2182.000000;3.066480
2181.000000;3.125158
2180.000000;3.085119
2179.000000;3.005616
2178.000000;3.116717
2177.000000;3.431190
2176.000000;3.063693
2175.000000;2.850481
2174.000000;2.766553
2173.000000;2.742804
2172.000000;2.730526
2171.000000;2.711891
2170.000000;2.705302
2169.000000;2.760618
2168.000000;2.923061
2167.000000;3.217945
2166.000000;3.438985
2165.000000;3.703876
2164.000000;3.463150
2163.000000;3.131264
2162.000000;3.062127
2161.000000;3.050846
2160.000000;3.032463
2159.000000;3.020519
2158.000000;3.089109
2157.000000;3.375911
2156.000000;3.680430
2155.000000;3.095037
2154.000000;2.895111
2153.000000;2.907430
2152.000000;3.190072
2151.000000;3.283808
2150.000000;2.885842
2149.000000;2.795372
2148.000000;2.850771
2147.000000;2.997742
2146.000000;3.045228
2145.000000;3.002983
2144.000000;3.095959
2143.000000;3.212213
2142.000000;3.072803
2141.000000;3.019817
2140.000000;3.120513
2139.000000;3.149805
2138.000000;3.065584
2137.000000;3.025124
2136.000000;2.975937
2135.000000;2.936577
2134.000000;2.983594
2133.000000;3.147154
2132.000000;3.277045
2131.000000;3.264957
2130.000000;3.288721
2129.000000;3.262108
2128.000000;3.118136
2127.000000;3.032573
2126.000000;3.077112
2125.000000;3.330598
2124.000000;3.150822
2123.000000;2.835418
2122.000000;2.709759
2121.000000;2.679081
2120.000000;2.697798
2119.000000;2.747804
2118.000000;2.834244
2117.000000;2.944089
2116.000000;3.128081
2115.000000;3.353192
2114.000000;3.093602
2113.000000;2.933183
2112.000000;3.058454
2111.000000;3.085670
2110.000000;2.946402
2109.000000;2.939093
2108.000000;2.977720
2107.000000;3.002572
2106.000000;2.994639
2105.000000;2.934081
2104.000000;2.916782
2103.000000;2.984654
2102.000000;3.007441
2101.000000;2.933940
2100.000000;2.885657
2099.000000;2.922535
2098.000000;3.085459
2097.000000;3.401381
2096.000000;3.452392
2095.000000;3.342802
2094.000000;3.291537
2093.000000;3.219166
2092.000000;3.177083
2091.000000;3.223695
2090.000000;3.366270
2089.000000;3.361612
2088.000000;3.103340
2087.000000;2.904345
2086.000000;2.811592
2085.000000;2.800866
2084.000000;2.835743
2083.000000;2.884494
2082.000000;2.921882
2081.000000;2.939707
2080.000000;2.954078
2079.000000;2.947611
2078.000000;2.863729
2077.000000;2.760525
2076.000000;2.731508
2075.000000;2.797094
2074.000000;2.884029
2073.000000;2.908335
2072.000000;2.918605
2071.000000;2.978169
2070.000000;3.212726
2069.000000;3.408458
2068.000000;3.126267
2067.000000;3.215223
2066.000000;3.694517
2065.000000;3.719115
2064.000000;3.394128
2063.000000;3.150813
2062.000000;2.934203
2061.000000;2.887519
2060.000000;2.960783
2059.000000;3.287563
2058.000000;3.441443
2057.000000;3.065245
2056.000000;2.984812
2055.000000;3.123411
2054.000000;3.384877
2053.000000;3.306057
2052.000000;3.213526
2051.000000;3.119957
2050.000000;3.038200
2049.000000;3.097564
2048.000000;3.275941
2047.000000;3.280155
2046.000000;3.476267
2045.000000;3.167565
2044.000000;2.880720
2043.000000;2.798103
2042.000000;2.830482
2041.000000;2.937057
2040.000000;3.090079
2039.000000;3.178901
2038.000000;3.152221
2037.000000;3.138994
2036.000000;3.140814
2035.000000;3.087288
2034.000000;2.971399
2033.000000;2.900668
2032.000000;2.900198
2031.000000;2.930466
2030.000000;3.083502
2029.000000;3.283108
2028.000000;2.918864
2027.000000;2.692636
2026.000000;2.658920
2025.000000;2.736630
2024.000000;2.912453
2023.000000;3.162970
2022.000000;3.348228
2021.000000;3.400154
2020.000000;3.335789
2019.000000;3.241532
2018.000000;3.306939
2017.000000;3.404434
2016.000000;3.190977
2015.000000;2.970683
2014.000000;2.832598
2013.000000;2.795911
2012.000000;2.862599
2011.000000;2.938502
2010.000000;2.898024
2009.000000;2.874590
2008.000000;2.928358
2007.000000;3.041573
2006.000000;3.091942
2005.000000;3.037833
2004.000000;3.021156
2003.000000;3.412275
2002.000000;3.088570
2001.000000;2.742291
2000.000000;2.741508
1999.000000;2.971367
1998.000000;3.326086
1997.000000;3.084397
1996.000000;2.936858
1995.000000;2.905488
1994.000000;2.958739
1993.000000;3.107721
1992.000000;3.027382
1991.000000;2.945003
1990.000000;3.059798
1989.000000;3.303245
1988.000000;3.378165
1987.000000;3.103621
1986.000000;2.877497
1985.000000;2.861053
1984.000000;2.999316
1983.000000;3.000433
1982.000000;2.884804
1981.000000;2.869639
1980.000000;2.827342
1979.000000;2.746633
1978.000000;2.713581
1977.000000;2.741760
1976.000000;2.832446
1975.000000;2.988842
1974.000000;3.416374
1973.000000;3.361443
1972.000000;3.027703
1971.000000;2.929238
1970.000000;2.929976
1969.000000;3.008417
1968.000000;3.099782
1967.000000;3.144520
1966.000000;3.154419
1965.000000;3.168298
1964.000000;3.212112
1963.000000;3.330555
1962.000000;3.494068
1961.000000;3.540430
1960.000000;3.407431
1959.000000;3.155154
1958.000000;2.973133
1957.000000;2.906131
1956.000000;2.977575
1955.000000;3.235414
1954.000000;3.349761
1953.000000;3.172009
1952.000000;3.161152
1951.000000;3.174194
1950.000000;3.089311
1949.000000;2.973520
1948.000000;2.985705
1947.000000;3.150410
1946.000000;3.658746
1945.000000;4.054301
1944.000000;3.633009
1943.000000;3.295128
1942.000000;3.037178
1941.000000;2.898913
1940.000000;2.866284
1939.000000;2.938494
1938.000000;3.008413
1937.000000;2.898767
1936.000000;2.856621
1935.000000;2.977971
1934.000000;2.935292
1933.000000;2.741435
1932.000000;2.702999
1931.000000;2.771905
1930.000000;2.863222
1929.000000;2.884420
1928.000000;2.882565
1927.000000;2.934885
1926.000000;3.043969
1925.000000;3.260192
1924.000000;3.501094
1923.000000;3.183545
1922.000000;2.964797
1921.000000;2.910568
1920.000000;2.905382
1919.000000;2.902358
1918.000000;2.870103
1917.000000;2.818414
1916.000000;2.818079
1915.000000;2.916486
1914.000000;3.081587
1913.000000;3.231697
1912.000000;3.374372
1911.000000;3.662289
1910.000000;3.263452
1909.000000;3.068859
1908.000000;3.158381
1907.000000;3.760106
1906.000000;3.149456
1905.000000;2.912643
1904.000000;2.897424
1903.000000;2.998232
1902.000000;3.050246
1901.000000;3.038853
1900.000000;3.006982
1899.000000;2.893722
1898.000000;2.791395
1897.000000;2.769982
1896.000000;2.831131
1895.000000;2.928115
1894.000000;3.003077
1893.000000;3.117054
1892.000000;3.260202
1891.000000;3.150274
1890.000000;3.027782
1889.000000;2.988994
1888.000000;2.939340
1887.000000;2.885104
1886.000000;2.860916
1885.000000;2.847537
1884.000000;2.807029
1883.000000;2.748922
1882.000000;2.723383
1881.000000;2.776258
1880.000000;2.949768
1879.000000;3.309352
1878.000000;3.421111
1877.000000;3.174971
1876.000000;3.148892
1875.000000;3.238730
1874.000000;3.463032
1873.000000;3.372563
1872.000000;3.096826
1871.000000;2.976901
1870.000000;2.972414
1869.000000;3.097730
1868.000000;3.330150
1867.000000;3.129216
1866.000000;2.907381
1865.000000;2.902334
1864.000000;3.054410
1863.000000;3.481388
1862.000000;3.614692
1861.000000;3.642327
1860.000000;3.404844
1859.000000;3.111932
1858.000000;3.001013
1857.000000;2.961250
1856.000000;3.024685
1855.000000;3.388950
1854.000000;3.312016
1853.000000;3.082941
1852.000000;3.007413
1851.000000;2.827557
1850.000000;2.699094
1849.000000;2.658219
1848.000000;2.677038
1847.000000;2.741379
1846.000000;2.871191
1845.000000;3.258440
1844.000000;3.760679
1843.000000;3.222844
1842.000000;3.108269
1841.000000;3.149871
1840.000000;3.637358
1839.000000;3.369985
1838.000000;2.968997
1837.000000;2.827154
1836.000000;2.799104
1835.000000;2.917366
1834.000000;3.285147
1833.000000;3.745133
1832.000000;3.265360
1831.000000;3.139305
1830.000000;3.068730
1829.000000;2.868650
1828.000000;2.727584
1827.000000;2.713886
1826.000000;2.813029
1825.000000;2.913535
1824.000000;2.896375
1823.000000;2.979013
1822.000000;3.116579
1821.000000;3.032564
1820.000000;3.019394
1819.000000;3.416642
1818.000000;3.474750
1817.000000;3.023963
1816.000000;2.953945
1815.000000;2.906625
1814.000000;2.898170
1813.000000;2.867604
1812.000000;2.824688
1811.000000;2.778283
1810.000000;2.778466
1809.000000;2.900733
1808.000000;3.261171
1807.000000;3.139835
1806.000000;3.001846
1805.000000;3.068726
1804.000000;3.283934
1803.000000;3.462342
1802.000000;3.202234
1801.000000;3.093153
1800.000000;3.111586
1799.000000;3.163481
1798.000000;3.115427
1797.000000;2.972027
1796.000000;2.835543
1795.000000;2.768601
1794.000000;2.814829
1793.000000;2.890848
1792.000000;2.814770
1791.000000;2.785484
1790.000000;2.984696
1789.000000;3.471029
1788.000000;3.100662
1787.000000;2.811864
1786.000000;2.764086
1785.000000;2.829323
1784.000000;2.955310
1783.000000;2.906555
1782.000000;2.801205
1781.000000;2.749470
1780.000000;2.748232
1779.000000;2.823950
1778.000000;3.036437
1777.000000;3.471019
1776.000000;4.027465
1775.000000;3.338224
1774.000000;3.033797
1773.000000;3.026705
1772.000000;3.218520
1771.000000;3.070591
1770.000000;2.961384
1769.000000;3.031143
1768.000000;3.059701
1767.000000;3.029294
1766.000000;2.985842
1765.000000;2.940595
1764.000000;2.941293
1763.000000;2.965111
1762.000000;2.944286
1761.000000;2.936686
1760.000000;3.061913
1759.000000;3.402986
1758.000000;3.852441
1757.000000;3.497775
1756.000000;3.289354
1755.000000;4.234468
1754.000000;3.210493
1753.000000;2.837357
1752.000000;2.708023
1751.000000;2.655219
1750.000000;2.622966
1749.000000;2.590059
1748.000000;2.601882
1747.000000;2.686862
1746.000000;2.823650
1745.000000;2.962373
1744.000000;3.050629
1743.000000;2.972450
1742.000000;2.877694
1741.000000;2.868983
1740.000000;2.925050
1739.000000;3.193870
1738.000000;3.545119
1737.000000;3.025168
1736.000000;2.805611
1735.000000;2.761061
1734.000000;2.771626
1733.000000;2.771862
1732.000000;2.761176
1731.000000;2.757187
1730.000000;2.767472
1729.000000;2.859579
1728.000000;3.069052
1727.000000;4.052905
1726.000000;3.250355
1725.000000;2.973174
1724.000000;2.897316
1723.000000;2.901463
1722.000000;3.014794
1721.000000;3.139975
1720.000000;2.947031
1719.000000;2.803898
1718.000000;2.805693
1717.000000;2.913825
1716.000000;3.053461
1715.000000;3.260744
1714.000000;3.743433
1713.000000;3.465063
1712.000000;3.187494
1711.000000;3.123775
1710.000000;3.066521
1709.000000;3.040773
1708.000000;3.119687
1707.000000;3.069925
1706.000000;2.851639
1705.000000;2.751742
1704.000000;2.709724
1703.000000;2.672682
1702.000000;2.658506
1701.000000;2.679677
1700.000000;2.697240
1699.000000;2.770137
1698.000000;3.024670
1697.000000;3.395422
1696.000000;3.308213
1695.000000;3.296368
1694.000000;3.512543
1693.000000;4.136170
1692.000000;3.305962
1691.000000;3.099675
1690.000000;3.004977
1689.000000;3.017437
1688.000000;3.089695
1687.000000;3.111219
1686.000000;3.083978
1685.000000;3.069836
1684.000000;3.047810
1683.000000;3.071177
1682.000000;3.056490
1681.000000;2.910821
1680.000000;2.833248
1679.000000;2.801840
1678.000000;2.786762
1677.000000;2.823717
1676.000000;2.965010
1675.000000;3.225106
1674.000000;3.155879
1673.000000;3.110516
1672.000000;3.244011
1671.000000;3.548201
1670.000000;3.112069
1669.000000;2.810313
1668.000000;2.700483
1667.000000;2.693069
1666.000000;2.717318
1665.000000;2.745632
1664.000000;2.731797
1663.000000;2.656117
1662.000000;2.652267
1661.000000;2.800706
1660.000000;3.066017
1659.000000;3.157585
1658.000000;3.306797
1657.000000;3.532302
1656.000000;3.099104
1655.000000;2.913195
1654.000000;2.960110
1653.000000;3.117375
1652.000000;3.113071
1651.000000;3.079082
1650.000000;2.988653
1649.000000;2.734160
1648.000000;2.630600
1647.000000;2.728654
1646.000000;3.279698
1645.000000;3.118827
1644.000000;2.803123
1643.000000;2.727185
1642.000000;2.773773
1641.000000;2.927617
1640.000000;3.006322
1639.000000;2.839663
1638.000000;2.747740
1637.000000;2.798327
1636.000000;2.924955
1635.000000;2.983084
1634.000000;3.026243
1633.000000;3.067658
1632.000000;3.126045
1631.000000;3.243628
1630.000000;3.345325
1629.000000;3.363419
1628.000000;3.325585
1627.000000;3.244511
1626.000000;3.179320
1625.000000;3.403546
1624.000000;3.642836
1623.000000;3.370740
1622.000000;3.877160
1621.000000;3.238720
1620.000000;2.920954
1619.000000;2.877849
1618.000000;2.970157
1617.000000;3.174947
1616.000000;3.319576
1615.000000;3.233503
1614.000000;3.076178
1613.000000;2.984928
1612.000000;3.071354
1611.000000;3.502025
1610.000000;3.415809
1609.000000;3.020161
1608.000000;2.892915
1607.000000;2.798052
1606.000000;2.760532
1605.000000;2.783844
1604.000000;2.787534
1603.000000;2.758068
1602.000000;2.790051
1601.000000;2.879526
1600.000000;2.966720
1599.000000;3.064118
1598.000000;3.180860
1597.000000;3.225154
1596.000000;3.215516
1595.000000;3.238018
1594.000000;3.307025
1593.000000;3.594160
1592.000000;3.685014
1591.000000;3.203763
1590.000000;3.066584
1589.000000;3.172078
1588.000000;3.783671
1587.000000;3.564274
1586.000000;3.472188
1585.000000;3.942403
1584.000000;3.574031
1583.000000;3.367934
1582.000000;3.167828
1581.000000;2.965112
1580.000000;2.884565
1579.000000;2.954448
1578.000000;3.244567
1577.000000;3.284346
1576.000000;3.039559
1575.000000;2.985008
1574.000000;3.034033
1573.000000;3.095261
1572.000000;3.032549
1571.000000;2.993630
1570.000000;3.034890
1569.000000;3.242156
1568.000000;3.639378
1567.000000;3.386174
1566.000000;3.128545
1565.000000;2.959718
1564.000000;2.870627
1563.000000;2.874324
1562.000000;2.908262
1561.000000;2.906076
1560.000000;2.917799
1559.000000;3.159132
1558.000000;3.278401
1557.000000;3.085640
1556.000000;3.172605
1555.000000;3.238455
1554.000000;3.192343
1553.000000;3.177335
1552.000000;3.357070
1551.000000;3.749820
1550.000000;3.304058
1549.000000;3.118628
1548.000000;3.162382
1547.000000;3.702582
1546.000000;3.529068
1545.000000;3.064178
1544.000000;3.099668
1543.000000;3.036423
1542.000000;2.833405
1541.000000;2.746133
1540.000000;2.749944
1539.000000;2.747854
1538.000000;2.786269
1537.000000;2.904928
1536.000000;3.235402
1535.000000;3.143896
1534.000000;2.875384
1533.000000;2.801297
1532.000000;2.810615
1531.000000;2.873097
1530.000000;2.974541
1529.000000;3.069379
1528.000000;3.153721
1527.000000;3.420745
1526.000000;3.425732
1525.000000;3.036186
1524.000000;2.958289
1523.000000;2.991976
1522.000000;3.027813
1521.000000;2.957261
1520.000000;2.841741
1519.000000;2.750073
1518.000000;2.752482
1517.000000;2.951700
1516.000000;3.238784
1515.000000;3.061904
1514.000000;2.938606
1513.000000;2.843340
1512.000000;2.716113
1511.000000;2.649491
1510.000000;2.675531
1509.000000;2.777675
1508.000000;2.857915
1507.000000;2.880606
1506.000000;2.866580
1505.000000;2.941676
1504.000000;3.140256
1503.000000;3.303220
1502.000000;3.245536
1501.000000;3.026885
1500.000000;2.844468
1499.000000;2.770040
1498.000000;2.831973
1497.000000;2.948451
1496.000000;2.973811
1495.000000;3.020006
1494.000000;3.115283
1493.000000;3.046187
1492.000000;2.810975
1491.000000;2.622179
1490.000000;2.562290
1489.000000;2.618789
1488.000000;2.716928
1487.000000;2.770737
1486.000000;2.788646
1485.000000;2.843384
1484.000000;2.927020
1483.000000;2.954698
1482.000000;2.908757
1481.000000;2.874581
1480.000000;2.896789
1479.000000;2.939876
1478.000000;2.953793
1477.000000;2.986157
1476.000000;3.091033
1475.000000;3.182619
1474.000000;3.370896
1473.000000;3.698875
1472.000000;3.318504
1471.000000;3.097259
1470.000000;2.956932
1469.000000;2.884574
1468.000000;2.877313
1467.000000;2.942925
1466.000000;3.084361
1465.000000;3.293025
1464.000000;3.443238
1463.000000;3.130775
1462.000000;2.852996
1461.000000;2.742584
1460.000000;2.789407
1459.000000;2.981877
1458.000000;2.843237
1457.000000;2.735883
1456.000000;2.809788
1455.000000;2.973235
1454.000000;3.146146
1453.000000;3.256674
1452.000000;3.327584
1451.000000;3.533153
1450.000000;4.108403
1449.000000;3.630955
1448.000000;3.708677
1447.000000;3.202433
1446.000000;2.953333
1445.000000;2.902701
1444.000000;2.954704
1443.000000;2.969659
1442.000000;2.866319
1441.000000;2.790114
1440.000000;2.817060
1439.000000;2.975781
1438.000000;3.306014
1437.000000;3.151525
1436.000000;2.857690
1435.000000;2.747067
1434.000000;2.743542
1433.000000;2.840012
1432.000000;3.003327
1431.000000;3.019644
1430.000000;2.832971
1429.000000;2.694443
1428.000000;2.685610
1427.000000;2.831583
1426.000000;3.049279
1425.000000;2.887897
1424.000000;2.762957
1423.000000;2.760730
1422.000000;2.853190
1421.000000;3.046078
1420.000000;3.302571
1419.000000;3.128749
1418.000000;2.960336
1417.000000;2.957423
1416.000000;3.064946
1415.000000;3.233498
1414.000000;3.291233
1413.000000;3.479691
1412.000000;3.637438
1411.000000;3.296210
1410.000000;3.195110
1409.000000;3.130207
1408.000000;2.989819
1407.000000;2.881590
1406.000000;2.817161
1405.000000;2.743766
1404.000000;2.641529
1403.000000;2.555363
1402.000000;2.524184
1401.000000;2.561968
1400.000000;2.656086
1399.000000;2.718602
1398.000000;2.691985
1397.000000;2.712539
1396.000000;2.901909
1395.000000;3.450147
1394.000000;3.388902
1393.000000;3.175253
1392.000000;3.317781
1391.000000;3.322379
1390.000000;3.131257
1389.000000;3.064133
1388.000000;3.041336
1387.000000;3.025358
1386.000000;2.996683
1385.000000;2.909441
1384.000000;2.783708
1383.000000;2.699595
1382.000000;2.693024
1381.000000;2.749527
1380.000000;2.806191
1379.000000;2.805239
1378.000000;2.764916
1377.000000;2.731644
1376.000000;2.752918
1375.000000;2.894097
1374.000000;3.272345
1373.000000;3.902369
1372.000000;3.551103
1371.000000;4.028501
1370.000000;3.392985
1369.000000;3.050258
1368.000000;2.897526
1367.000000;2.829290
1366.000000;2.813029
1365.000000;2.861961
1364.000000;2.988605
1363.000000;3.101980
1362.000000;3.125878
1361.000000;3.165450
1360.000000;3.217210
1359.000000;3.370719
1358.000000;3.255336
1357.000000;3.035935
1356.000000;3.000127
1355.000000;3.030361
1354.000000;3.053495
1353.000000;3.145359
1352.000000;3.358130
1351.000000;3.314040
1350.000000;3.217857
1349.000000;3.245061
1348.000000;3.254589
1347.000000;3.179133
1346.000000;3.124565
1345.000000;3.110728
1344.000000;3.122385
1343.000000;3.099918
1342.000000;2.904998
1341.000000;2.729285
1340.000000;2.662912
1339.000000;2.700760
1338.000000;2.876853
1337.000000;3.058798
1336.000000;2.876539
1335.000000;2.773774
1334.000000;2.800150
1333.000000;2.905000
1332.000000;3.015511
1331.000000;3.379712
1330.000000;3.650062
1329.000000;3.167441
1328.000000;3.061559
1327.000000;3.108701
1326.000000;3.108617
1325.000000;3.018235
1324.000000;3.006613
1323.000000;3.280875
1322.000000;3.043417
1321.000000;2.795111
1320.000000;2.767440
1319.000000;2.851421
1318.000000;2.928079
1317.000000;2.994845
1316.000000;3.078296
1315.000000;3.331844
1314.000000;3.933803
1313.000000;3.050279
1312.000000;2.970529
1311.000000;3.069418
1310.000000;3.153369
1309.000000;3.092986
1308.000000;3.183261
1307.000000;3.463048
1306.000000;3.770795
1305.000000;3.530485
1304.000000;3.420612
1303.000000;3.459426
1302.000000;3.324508
1301.000000;3.104293
1300.000000;2.962276
1299.000000;2.895242
1298.000000;2.908481
1297.000000;3.014275
1296.000000;3.212633
1295.000000;3.340117
1294.000000;3.303190
1293.000000;3.337932
1292.000000;3.377736
1291.000000;3.189715
1290.000000;3.069719
1289.000000;3.120809
1288.000000;3.237546
1287.000000;3.007090
1286.000000;2.850818
1285.000000;2.839008
1284.000000;2.933648
1283.000000;3.091415
1282.000000;3.177229
1281.000000;3.106617
1280.000000;3.052670
1279.000000;3.102413
1278.000000;3.221542
1277.000000;3.260334
1276.000000;3.319692
1275.000000;3.377724
1274.000000;3.273416
1273.000000;3.153313
1272.000000;3.032166
1271.000000;2.928260
1270.000000;2.850088
1269.000000;2.779848
1268.000000;2.719091
1267.000000;2.692436
1266.000000;2.729483
1265.000000;2.843987
1264.000000;3.027953
1263.000000;3.271371
1262.000000;3.493281
1261.000000;3.533720
1260.000000;3.825397
1259.000000;4.511103
1258.000000;3.897375
1257.000000;3.686930
1256.000000;3.257872
1255.000000;3.093291
1254.000000;3.051142
1253.000000;3.123666
1252.000000;3.297870
1251.000000;3.574250
1250.000000;3.811452
1249.000000;3.534140
1248.000000;3.170773
1247.000000;2.958162
1246.000000;2.858184
1245.000000;2.883421
1244.000000;3.019358
1243.000000;3.656740
1242.000000;3.377017
1241.000000;3.059448
1240.000000;3.031239
1239.000000;3.082696
1238.000000;3.092051
1237.000000;3.275384
1236.000000;3.337242
1235.000000;2.887568
1234.000000;2.789262
1233.000000;2.867635
1232.000000;3.090158
1231.000000;3.300910
1230.000000;3.239374
1229.000000;3.069431
1228.000000;2.978351
1227.000000;3.013958
1226.000000;3.122529
1225.000000;3.028476
1224.000000;2.855016
1223.000000;2.784694
1222.000000;2.796500
1221.000000;2.882925
1220.000000;3.021244
1219.000000;3.165029
1218.000000;3.275535
1217.000000;3.394420
1216.000000;3.556314
1215.000000;3.916869
1214.000000;4.023583
1213.000000;3.573575
1212.000000;3.468607
1211.000000;3.407962
1210.000000;3.187656
1209.000000;3.037988
1208.000000;3.082128
1207.000000;3.248295
1206.000000;2.988346
1205.000000;2.847953
1204.000000;2.907882
1203.000000;3.104441
1202.000000;3.189488
1201.000000;3.126743
1200.000000;3.124336
