Criado como novo conjunto de dados;"e0108.spp","-4244562.6 Secs"
cm-1;Abs
10000.000000;0.999081
9999.000000;0.999808
9998.000000;1.001242
9997.000000;1.002418
9996.000000;1.002636
9995.000000;1.002094
9994.000000;1.000928
9993.000000;0.999296
9992.000000;0.997523
9991.000000;0.996404
9990.000000;0.996416
9989.000000;0.997095
9988.000000;0.997341
9987.000000;0.996511
9986.000000;0.994974
9985.000000;0.993600
9984.000000;0.992943
9983.000000;0.992999
9982.000000;0.993477
9981.000000;0.994062
9980.000000;0.994560
9979.000000;0.994986
9978.000000;0.995510
9977.000000;0.996145
9976.000000;0.996528
9975.000000;0.996229
9974.000000;0.995276
9973.000000;0.994120
9972.000000;0.993084
9971.000000;0.992091
9970.000000;0.991069
9969.000000;0.990377
9968.000000;0.990514
9967.000000;0.991420
9966.000000;0.992320
9965.000000;0.992354
9964.000000;0.991263
9963.000000;0.989491
9962.000000;0.987768
9961.000000;0.986651
9960.000000;0.986333
9959.000000;0.986590
9958.000000;0.986858
9957.000000;0.986535
9956.000000;0.985426
9955.000000;0.983897
9954.000000;0.982462
9953.000000;0.981292
9952.000000;0.980313
9951.000000;0.979692
9950.000000;0.979847
9949.000000;0.980779
9948.000000;0.981683
9947.000000;0.981551
9946.000000;0.980130
9945.000000;0.978111
9944.000000;0.976492
9943.000000;0.975988
9942.000000;0.976841
9941.000000;0.978709
9940.000000;0.980679
9939.000000;0.981773
9938.000000;0.981701
9937.000000;0.980987
9936.000000;0.980309
9935.000000;0.979930
9934.000000;0.979784
9933.000000;0.979732
9932.000000;0.979533
9931.000000;0.978876
9930.000000;0.977781
9929.000000;0.976808
9928.000000;0.976541
9927.000000;0.976940
9926.000000;0.977414
9925.000000;0.977380
9924.000000;0.976557
9923.000000;0.974909
9922.000000;0.972725
9921.000000;0.970787
9920.000000;0.970037
9919.000000;0.970851
9918.000000;0.972729
9917.000000;0.974736
9916.000000;0.976140
9915.000000;0.976599
9914.000000;0.975993
9913.000000;0.974309
9912.000000;0.971753
9911.000000;0.968884
9910.000000;0.966555
9909.000000;0.965530
9908.000000;0.965941
9907.000000;0.967117
9906.000000;0.968114
9905.000000;0.968513
9904.000000;0.968596
9903.000000;0.968717
9902.000000;0.968743
9901.000000;0.968240
9900.000000;0.967066
9899.000000;0.965582
9898.000000;0.964342
9897.000000;0.963718
9896.000000;0.963789
9895.000000;0.964367
9894.000000;0.965023
9893.000000;0.965234
9892.000000;0.964714
9891.000000;0.963688
9890.000000;0.962736
9889.000000;0.962318
9888.000000;0.962479
9887.000000;0.962995
9886.000000;0.963650
9885.000000;0.964213
9884.000000;0.964277
9883.000000;0.963504
9882.000000;0.962098
9881.000000;0.960776
9880.000000;0.960085
9879.000000;0.959974
9878.000000;0.960137
9877.000000;0.960475
9876.000000;0.960869
9875.000000;0.960751
9874.000000;0.959439
9873.000000;0.956975
9872.000000;0.954283
9871.000000;0.952394
9870.000000;0.951778
9869.000000;0.952326
9868.000000;0.953553
9867.000000;0.954702
9866.000000;0.955068
9865.000000;0.954583
9864.000000;0.953932
9863.000000;0.953775
9862.000000;0.954011
9861.000000;0.953975
9860.000000;0.953186
9859.000000;0.951731
9858.000000;0.950132
9857.000000;0.949084
9856.000000;0.949129
9855.000000;0.950236
9854.000000;0.951702
9853.000000;0.952692
9852.000000;0.952882
9851.000000;0.952502
9850.000000;0.951972
9849.000000;0.951705
9848.000000;0.951996
9847.000000;0.952662
9846.000000;0.952892
9845.000000;0.951946
9844.000000;0.950105
9843.000000;0.948522
9842.000000;0.947952
9841.000000;0.948009
9840.000000;0.947788
9839.000000;0.946845
9838.000000;0.945310
9837.000000;0.943438
9836.000000;0.941517
9835.000000;0.940060
9834.000000;0.939579
9833.000000;0.940093
9832.000000;0.941094
9831.000000;0.942038
9830.000000;0.942696
9829.000000;0.943006
9828.000000;0.942855
9827.000000;0.942224
9826.000000;0.941381
9825.000000;0.940740
9824.000000;0.940534
9823.000000;0.940744
9822.000000;0.941252
9821.000000;0.941863
9820.000000;0.942147
9819.000000;0.941533
9818.000000;0.939869
9817.000000;0.937829
9816.000000;0.936496
9815.000000;0.936387
9814.000000;0.937017
9813.000000;0.937564
9812.000000;0.937792
9811.000000;0.938006
9810.000000;0.938193
9809.000000;0.937739
9808.000000;0.936315
9807.000000;0.934696
9806.000000;0.934174
9805.000000;0.935160
9804.000000;0.936711
9803.000000;0.937519
9802.000000;0.937166
9801.000000;0.936266
9800.000000;0.935569
9799.000000;0.935170
9798.000000;0.934533
9797.000000;0.933151
9796.000000;0.931248
9795.000000;0.929841
9794.000000;0.929925
9793.000000;0.931430
9792.000000;0.933114
9791.000000;0.933653
9790.000000;0.932818
9789.000000;0.931463
9788.000000;0.930478
9787.000000;0.930042
9786.000000;0.929829
9785.000000;0.929540
9784.000000;0.929062
9783.000000;0.928390
9782.000000;0.927712
9781.000000;0.927452
9780.000000;0.927915
9779.000000;0.928823
9778.000000;0.929397
9777.000000;0.929091
9776.000000;0.928199
9775.000000;0.927613
9774.000000;0.927935
9773.000000;0.928883
9772.000000;0.929595
9771.000000;0.929477
9770.000000;0.928629
9769.000000;0.927450
9768.000000;0.926036
9767.000000;0.924220
9766.000000;0.922145
9765.000000;0.920467
9764.000000;0.919851
9763.000000;0.920375
9762.000000;0.921529
9761.000000;0.922599
9760.000000;0.922963
9759.000000;0.922290
9758.000000;0.920791
9757.000000;0.919246
9756.000000;0.918473
9755.000000;0.918614
9754.000000;0.919071
9753.000000;0.919232
9752.000000;0.919106
9751.000000;0.919123
9750.000000;0.919431
9749.000000;0.919645
9748.000000;0.919334
9747.000000;0.918603
9746.000000;0.917982
9745.000000;0.917734
9744.000000;0.917460
9743.000000;0.916536
9742.000000;0.914901
9741.000000;0.913227
9740.000000;0.912276
9739.000000;0.912262
9738.000000;0.912848
9737.000000;0.913543
9736.000000;0.913963
9735.000000;0.913935
9734.000000;0.913581
9733.000000;0.913250
9732.000000;0.913158
9731.000000;0.913155
9730.000000;0.912956
9729.000000;0.912510
9728.000000;0.911949
9727.000000;0.911313
9726.000000;0.910650
9725.000000;0.910346
9724.000000;0.910919
9723.000000;0.912257
9722.000000;0.913274
9721.000000;0.912717
9720.000000;0.910395
9719.000000;0.907473
9718.000000;0.905539
9717.000000;0.905392
9716.000000;0.906564
9715.000000;0.907862
9714.000000;0.908422
9713.000000;0.908339
9712.000000;0.908319
9711.000000;0.908822
9710.000000;0.909621
9709.000000;0.910126
9708.000000;0.909965
9707.000000;0.909250
9706.000000;0.908417
9705.000000;0.907842
9704.000000;0.907485
9703.000000;0.906890
9702.000000;0.905713
9701.000000;0.904262
9700.000000;0.903281
9699.000000;0.903160
9698.000000;0.903555
9697.000000;0.903813
9696.000000;0.903593
9695.000000;0.903020
9694.000000;0.902483
9693.000000;0.902355
9692.000000;0.902663
9691.000000;0.902853
9690.000000;0.902204
9689.000000;0.900688
9688.000000;0.899150
9687.000000;0.898359
9686.000000;0.898172
9685.000000;0.897957
9684.000000;0.897592
9683.000000;0.897536
9682.000000;0.897957
9681.000000;0.898370
9680.000000;0.898353
9679.000000;0.898221
9678.000000;0.898639
9677.000000;0.899743
9676.000000;0.900910
9675.000000;0.901374
9674.000000;0.900907
9673.000000;0.899856
9672.000000;0.898653
9671.000000;0.897418
9670.000000;0.896105
9669.000000;0.894928
9668.000000;0.894426
9667.000000;0.894954
9666.000000;0.896205
9665.000000;0.897372
9664.000000;0.897754
9663.000000;0.897178
9662.000000;0.895976
9661.000000;0.894746
9660.000000;0.894000
9659.000000;0.893716
9658.000000;0.893287
9657.000000;0.892228
9656.000000;0.890934
9655.000000;0.890364
9654.000000;0.890877
9653.000000;0.891750
9652.000000;0.892023
9651.000000;0.891478
9650.000000;0.890541
9649.000000;0.889572
9648.000000;0.888705
9647.000000;0.888157
9646.000000;0.888181
9645.000000;0.888617
9644.000000;0.888890
9643.000000;0.888573
9642.000000;0.887723
9641.000000;0.886641
9640.000000;0.885625
9639.000000;0.885060
9638.000000;0.885351
9637.000000;0.886459
9636.000000;0.887710
9635.000000;0.888418
9634.000000;0.888593
9633.000000;0.888731
9632.000000;0.888985
9631.000000;0.888871
9630.000000;0.887896
9629.000000;0.886223
9628.000000;0.884523
9627.000000;0.883335
9626.000000;0.882711
9625.000000;0.882382
9624.000000;0.882085
9623.000000;0.881761
9622.000000;0.881522
9621.000000;0.881431
9620.000000;0.881310
9619.000000;0.880831
9618.000000;0.879874
9617.000000;0.878727
9616.000000;0.877846
9615.000000;0.877494
9614.000000;0.877652
9613.000000;0.878161
9612.000000;0.878801
9611.000000;0.879269
9610.000000;0.879279
9609.000000;0.878791
9608.000000;0.878081
9607.000000;0.877535
9606.000000;0.877321
9605.000000;0.877221
9604.000000;0.876782
9603.000000;0.875728
9602.000000;0.874327
9601.000000;0.873273
9600.000000;0.873124
9599.000000;0.873863
9598.000000;0.875028
9597.000000;0.876157
9596.000000;0.876988
9595.000000;0.877378
9594.000000;0.877290
9593.000000;0.876866
9592.000000;0.876338
9591.000000;0.875800
9590.000000;0.875139
9589.000000;0.874230
9588.000000;0.873080
9587.000000;0.871819
9586.000000;0.870642
9585.000000;0.869755
9584.000000;0.869269
9583.000000;0.869206
9582.000000;0.869649
9581.000000;0.870686
9580.000000;0.871991
9579.000000;0.872702
9578.000000;0.872181
9577.000000;0.870860
9576.000000;0.869847
9575.000000;0.869573
9574.000000;0.869347
9573.000000;0.868506
9572.000000;0.867482
9571.000000;0.867183
9570.000000;0.867604
9569.000000;0.867747
9568.000000;0.866941
9567.000000;0.865720
9566.000000;0.865119
9565.000000;0.865457
9564.000000;0.866122
9563.000000;0.866406
9562.000000;0.866233
9561.000000;0.866021
9560.000000;0.866067
9559.000000;0.866222
9558.000000;0.866091
9557.000000;0.865374
9556.000000;0.864041
9555.000000;0.862365
9554.000000;0.860905
9553.000000;0.860254
9552.000000;0.860565
9551.000000;0.861352
9550.000000;0.861949
9549.000000;0.862130
9548.000000;0.862048
9547.000000;0.861690
9546.000000;0.860859
9545.000000;0.859727
9544.000000;0.858952
9543.000000;0.858948
9542.000000;0.859358
9541.000000;0.859566
9540.000000;0.859504
9539.000000;0.859563
9538.000000;0.859866
9537.000000;0.860149
9536.000000;0.860265
9535.000000;0.860381
9534.000000;0.860592
9533.000000;0.860681
9532.000000;0.860396
9531.000000;0.859778
9530.000000;0.859111
9529.000000;0.858699
9528.000000;0.858691
9527.000000;0.858981
9526.000000;0.859266
9525.000000;0.859333
9524.000000;0.859226
9523.000000;0.858986
9522.000000;0.858371
9521.000000;0.857156
9520.000000;0.855627
9519.000000;0.854446
9518.000000;0.854014
9517.000000;0.854168
9516.000000;0.854508
9515.000000;0.854773
9514.000000;0.854858
9513.000000;0.854705
9512.000000;0.854311
9511.000000;0.853767
9510.000000;0.853273
9509.000000;0.853190
9508.000000;0.853836
9507.000000;0.854956
9506.000000;0.855547
9505.000000;0.854706
9504.000000;0.852759
9503.000000;0.851092
9502.000000;0.850721
9501.000000;0.851369
9500.000000;0.852048
9499.000000;0.852139
9498.000000;0.851640
9497.000000;0.850755
9496.000000;0.849736
9495.000000;0.848953
9494.000000;0.848630
9493.000000;0.848473
9492.000000;0.847936
9491.000000;0.846977
9490.000000;0.846234
9489.000000;0.846257
9488.000000;0.846803
9487.000000;0.847119
9486.000000;0.846883
9485.000000;0.846627
9484.000000;0.847099
9483.000000;0.848346
9482.000000;0.849591
9481.000000;0.849976
9480.000000;0.849314
9479.000000;0.848082
9478.000000;0.846908
9477.000000;0.846174
9476.000000;0.845921
9475.000000;0.845877
9474.000000;0.845632
9473.000000;0.845016
9472.000000;0.844273
9471.000000;0.843726
9470.000000;0.843372
9469.000000;0.843004
9468.000000;0.842633
9467.000000;0.842471
9466.000000;0.842495
9465.000000;0.842420
9464.000000;0.842170
9463.000000;0.842011
9462.000000;0.842058
9461.000000;0.841992
9460.000000;0.841547
9459.000000;0.841024
9458.000000;0.840964
9457.000000;0.841416
9456.000000;0.841825
9455.000000;0.841642
9454.000000;0.840836
9453.000000;0.839830
9452.000000;0.839105
9451.000000;0.838883
9450.000000;0.839038
9449.000000;0.839282
9448.000000;0.839445
9447.000000;0.839527
9446.000000;0.839474
9445.000000;0.839125
9444.000000;0.838528
9443.000000;0.838114
9442.000000;0.838266
9441.000000;0.838745
9440.000000;0.838830
9439.000000;0.838097
9438.000000;0.836882
9437.000000;0.835846
9436.000000;0.835260
9435.000000;0.834858
9434.000000;0.834297
9433.000000;0.833571
9432.000000;0.832940
9431.000000;0.832597
9430.000000;0.832502
9429.000000;0.832529
9428.000000;0.832633
9427.000000;0.832830
9426.000000;0.833107
9425.000000;0.833468
9424.000000;0.833988
9423.000000;0.834631
9422.000000;0.835053
9421.000000;0.834820
9420.000000;0.833900
9419.000000;0.832809
9418.000000;0.832176
9417.000000;0.832262
9416.000000;0.832891
9415.000000;0.833644
9414.000000;0.834031
9413.000000;0.833749
9412.000000;0.832978
9411.000000;0.832298
9410.000000;0.832062
9409.000000;0.831966
9408.000000;0.831463
9407.000000;0.830537
9406.000000;0.829784
9405.000000;0.829670
9404.000000;0.830004
9403.000000;0.830279
9402.000000;0.830329
9401.000000;0.830401
9400.000000;0.830682
9399.000000;0.830967
9398.000000;0.830880
9397.000000;0.830291
9396.000000;0.829412
9395.000000;0.828508
9394.000000;0.827695
9393.000000;0.827042
9392.000000;0.826712
9391.000000;0.826829
9390.000000;0.827261
9389.000000;0.827714
9388.000000;0.828047
9387.000000;0.828337
9386.000000;0.828576
9385.000000;0.828503
9384.000000;0.827867
9383.000000;0.826768
9382.000000;0.825644
9381.000000;0.824956
9380.000000;0.824870
9379.000000;0.825140
9378.000000;0.825263
9377.000000;0.824944
9376.000000;0.824440
9375.000000;0.824268
9374.000000;0.824541
9373.000000;0.824850
9372.000000;0.824890
9371.000000;0.824898
9370.000000;0.825219
9369.000000;0.825692
9368.000000;0.825834
9367.000000;0.825520
9366.000000;0.825064
9365.000000;0.824646
9364.000000;0.824053
9363.000000;0.823097
9362.000000;0.821964
9361.000000;0.821013
9360.000000;0.820448
9359.000000;0.820274
9358.000000;0.820351
9357.000000;0.820394
9356.000000;0.820152
9355.000000;0.819688
9354.000000;0.819326
9353.000000;0.819217
9352.000000;0.819159
9351.000000;0.818955
9350.000000;0.818676
9349.000000;0.818408
9348.000000;0.818008
9347.000000;0.817383
9346.000000;0.816828
9345.000000;0.816739
9344.000000;0.817050
9343.000000;0.817264
9342.000000;0.817065
9341.000000;0.816653
9340.000000;0.816420
9339.000000;0.816530
9338.000000;0.816887
9337.000000;0.817313
9336.000000;0.817601
9335.000000;0.817562
9334.000000;0.817186
9333.000000;0.816722
9332.000000;0.816464
9331.000000;0.816477
9330.000000;0.816578
9329.000000;0.816577
9328.000000;0.816452
9327.000000;0.816311
9326.000000;0.816277
9325.000000;0.816415
9324.000000;0.816684
9323.000000;0.816885
9322.000000;0.816742
9321.000000;0.816168
9320.000000;0.815438
9319.000000;0.814978
9318.000000;0.814908
9317.000000;0.814893
9316.000000;0.814527
9315.000000;0.813790
9314.000000;0.812964
9313.000000;0.812150
9312.000000;0.811141
9311.000000;0.809890
9310.000000;0.808857
9309.000000;0.808652
9308.000000;0.809371
9307.000000;0.810489
9306.000000;0.811359
9305.000000;0.811679
9304.000000;0.811492
9303.000000;0.810961
9302.000000;0.810230
9301.000000;0.809375
9300.000000;0.808392
9299.000000;0.807364
9298.000000;0.806654
9297.000000;0.806815
9296.000000;0.808092
9295.000000;0.810024
9294.000000;0.811644
9293.000000;0.812165
9292.000000;0.811506
9291.000000;0.810231
9290.000000;0.809033
9289.000000;0.808249
9288.000000;0.807766
9287.000000;0.807353
9286.000000;0.807016
9285.000000;0.806962
9284.000000;0.807218
9283.000000;0.807448
9282.000000;0.807245
9281.000000;0.806536
9280.000000;0.805593
9279.000000;0.804748
9278.000000;0.804238
9277.000000;0.804216
9276.000000;0.804675
9275.000000;0.805352
9274.000000;0.805905
9273.000000;0.806232
9272.000000;0.806435
9271.000000;0.806436
9270.000000;0.805923
9269.000000;0.804858
9268.000000;0.803847
9267.000000;0.803675
9266.000000;0.804453
9265.000000;0.805437
9264.000000;0.805769
9263.000000;0.805255
9262.000000;0.804377
9261.000000;0.803720
9260.000000;0.803484
9259.000000;0.803481
9258.000000;0.803416
9257.000000;0.803147
9256.000000;0.802767
9255.000000;0.802473
9254.000000;0.802361
9253.000000;0.802345
9252.000000;0.802295
9251.000000;0.802158
9250.000000;0.801889
9249.000000;0.801371
9248.000000;0.800568
9247.000000;0.799761
9246.000000;0.799400
9245.000000;0.799566
9244.000000;0.799731
9243.000000;0.799304
9242.000000;0.798394
9241.000000;0.797767
9240.000000;0.798002
9239.000000;0.798913
9238.000000;0.799882
9237.000000;0.800547
9236.000000;0.800952
9235.000000;0.801190
9234.000000;0.801242
9233.000000;0.801149
9232.000000;0.801055
9231.000000;0.800980
9230.000000;0.800772
9229.000000;0.800354
9228.000000;0.799840
9227.000000;0.799311
9226.000000;0.798689
9225.000000;0.797995
9224.000000;0.797570
9223.000000;0.797791
9222.000000;0.798587
9221.000000;0.799365
9220.000000;0.799485
9219.000000;0.798786
9218.000000;0.797687
9217.000000;0.796830
9216.000000;0.796574
9215.000000;0.796769
9214.000000;0.797039
9213.000000;0.797263
9212.000000;0.797599
9211.000000;0.798047
9210.000000;0.798232
9209.000000;0.797813
9208.000000;0.796987
9207.000000;0.796342
9206.000000;0.796205
9205.000000;0.796308
9204.000000;0.796095
9203.000000;0.795296
9202.000000;0.794213
9201.000000;0.793496
9200.000000;0.793543
9199.000000;0.794069
9198.000000;0.794374
9197.000000;0.794076
9196.000000;0.793424
9195.000000;0.792824
9194.000000;0.792347
9193.000000;0.791930
9192.000000;0.791769
9191.000000;0.792115
9190.000000;0.792771
9189.000000;0.793210
9188.000000;0.793220
9187.000000;0.793088
9186.000000;0.793094
9185.000000;0.793167
9184.000000;0.793125
9183.000000;0.792926
9182.000000;0.792572
9181.000000;0.792033
9180.000000;0.791437
9179.000000;0.791063
9178.000000;0.791015
9177.000000;0.791096
9176.000000;0.791146
9175.000000;0.791267
9174.000000;0.791549
9173.000000;0.791798
9172.000000;0.791773
9171.000000;0.791486
9170.000000;0.791054
9169.000000;0.790441
9168.000000;0.789621
9167.000000;0.788881
9166.000000;0.788659
9165.000000;0.789071
9164.000000;0.789775
9163.000000;0.790269
9162.000000;0.790218
9161.000000;0.789612
9160.000000;0.788840
9159.000000;0.788512
9158.000000;0.788938
9157.000000;0.789743
9156.000000;0.790159
9155.000000;0.789729
9154.000000;0.788643
9153.000000;0.787495
9152.000000;0.786868
9151.000000;0.787056
9150.000000;0.787882
9149.000000;0.788742
9148.000000;0.789075
9147.000000;0.788853
9146.000000;0.788475
9145.000000;0.788203
9144.000000;0.787897
9143.000000;0.787354
9142.000000;0.786673
9141.000000;0.786148
9140.000000;0.785942
9139.000000;0.785999
9138.000000;0.786173
9137.000000;0.786335
9136.000000;0.786424
9135.000000;0.786515
9134.000000;0.786770
9133.000000;0.787247
9132.000000;0.787727
9131.000000;0.787783
9130.000000;0.787084
9129.000000;0.785695
9128.000000;0.784138
9127.000000;0.783099
9126.000000;0.782971
9125.000000;0.783613
9124.000000;0.784551
9123.000000;0.785339
9122.000000;0.785735
9121.000000;0.785676
9120.000000;0.785279
9119.000000;0.784800
9118.000000;0.784394
9117.000000;0.783953
9116.000000;0.783398
9115.000000;0.783066
9114.000000;0.783454
9113.000000;0.784458
9112.000000;0.785211
9111.000000;0.784928
9110.000000;0.783759
9109.000000;0.782550
9108.000000;0.781913
9107.000000;0.781814
9106.000000;0.781931
9105.000000;0.782046
9104.000000;0.782044
9103.000000;0.781852
9102.000000;0.781593
9101.000000;0.781549
9100.000000;0.781768
9099.000000;0.781853
9098.000000;0.781353
9097.000000;0.780303
9096.000000;0.779210
9095.000000;0.778551
9094.000000;0.778457
9093.000000;0.778813
9092.000000;0.779414
9091.000000;0.779953
9090.000000;0.780083
9089.000000;0.779715
9088.000000;0.779198
9087.000000;0.779028
9086.000000;0.779345
9085.000000;0.779760
9084.000000;0.779719
9083.000000;0.779028
9082.000000;0.778058
9081.000000;0.777473
9080.000000;0.777699
9079.000000;0.778586
9078.000000;0.779565
9077.000000;0.780116
9076.000000;0.780113
9075.000000;0.779779
9074.000000;0.779451
9073.000000;0.779350
9072.000000;0.779413
9071.000000;0.779301
9070.000000;0.778723
9069.000000;0.777877
9068.000000;0.777382
9067.000000;0.777636
9066.000000;0.778389
9065.000000;0.779080
9064.000000;0.779397
9063.000000;0.779316
9062.000000;0.778814
9061.000000;0.777998
9060.000000;0.777392
9059.000000;0.777557
9058.000000;0.778288
9057.000000;0.778637
9056.000000;0.778011
9055.000000;0.776917
9054.000000;0.776285
9053.000000;0.776378
9052.000000;0.776745
9051.000000;0.777016
9050.000000;0.777251
9049.000000;0.777512
9048.000000;0.777577
9047.000000;0.777289
9046.000000;0.776877
9045.000000;0.776692
9044.000000;0.776765
9043.000000;0.776797
9042.000000;0.776548
9041.000000;0.776104
9040.000000;0.775761
9039.000000;0.775671
9038.000000;0.775659
9037.000000;0.775454
9036.000000;0.775111
9035.000000;0.775009
9034.000000;0.775334
9033.000000;0.775731
9032.000000;0.775700
9031.000000;0.775231
9030.000000;0.774814
9029.000000;0.774811
9028.000000;0.775099
9027.000000;0.775354
9026.000000;0.775434
9025.000000;0.775379
9024.000000;0.775248
9023.000000;0.775099
9022.000000;0.775002
9021.000000;0.774921
9020.000000;0.774665
9019.000000;0.774056
9018.000000;0.773143
9017.000000;0.772235
9016.000000;0.771759
9015.000000;0.772000
9014.000000;0.772838
9013.000000;0.773710
9012.000000;0.774034
9011.000000;0.773753
9010.000000;0.773342
9009.000000;0.773222
9008.000000;0.773326
9007.000000;0.773329
9006.000000;0.773154
9005.000000;0.773081
9004.000000;0.773417
9003.000000;0.774165
9002.000000;0.774972
9001.000000;0.775351
9000.000000;0.775068
8999.000000;0.774378
8998.000000;0.773798
8997.000000;0.773591
8996.000000;0.773548
8995.000000;0.773334
8994.000000;0.772914
8993.000000;0.772564
8992.000000;0.772560
8991.000000;0.772948
8990.000000;0.773503
8989.000000;0.773823
8988.000000;0.773603
8987.000000;0.772937
8986.000000;0.772224
8985.000000;0.771702
8984.000000;0.771241
8983.000000;0.770739
8982.000000;0.770497
8981.000000;0.770876
8980.000000;0.771700
8979.000000;0.772345
8978.000000;0.772421
8977.000000;0.772055
8976.000000;0.771468
8975.000000;0.770660
8974.000000;0.769701
8973.000000;0.769044
8972.000000;0.769168
8971.000000;0.770016
8970.000000;0.771032
8969.000000;0.771749
8968.000000;0.772109
8967.000000;0.772220
8966.000000;0.772067
8965.000000;0.771618
8964.000000;0.771046
8963.000000;0.770653
8962.000000;0.770569
8961.000000;0.770652
8960.000000;0.770664
8959.000000;0.770491
8958.000000;0.770206
8957.000000;0.769999
8956.000000;0.770053
8955.000000;0.770370
8954.000000;0.770659
8953.000000;0.770520
8952.000000;0.769837
8951.000000;0.768974
8950.000000;0.768483
8949.000000;0.768615
8948.000000;0.769182
8947.000000;0.769826
8946.000000;0.770278
8945.000000;0.770370
8944.000000;0.770018
8943.000000;0.769346
8942.000000;0.768747
8941.000000;0.768640
8940.000000;0.769108
8939.000000;0.769804
8938.000000;0.770228
8937.000000;0.770085
8936.000000;0.769496
8935.000000;0.768924
8934.000000;0.768829
8933.000000;0.769234
8932.000000;0.769635
8931.000000;0.769450
8930.000000;0.768597
8929.000000;0.767550
8928.000000;0.766839
8927.000000;0.766619
8926.000000;0.766754
8925.000000;0.767125
8924.000000;0.767719
8923.000000;0.768485
8922.000000;0.769243
8921.000000;0.769746
8920.000000;0.769788
8919.000000;0.769331
8918.000000;0.768614
8917.000000;0.768052
8916.000000;0.767870
8915.000000;0.767887
8914.000000;0.767771
8913.000000;0.767458
8912.000000;0.767162
8911.000000;0.767018
8910.000000;0.766953
8909.000000;0.766939
8908.000000;0.767128
8907.000000;0.767551
8906.000000;0.767887
8905.000000;0.767753
8904.000000;0.767154
8903.000000;0.766465
8902.000000;0.766030
8901.000000;0.765935
8900.000000;0.766111
8899.000000;0.766420
8898.000000;0.766692
8897.000000;0.766884
8896.000000;0.767202
8895.000000;0.767843
8894.000000;0.768562
8893.000000;0.768802
8892.000000;0.768364
8891.000000;0.767735
8890.000000;0.767537
8889.000000;0.767832
8888.000000;0.768159
8887.000000;0.768150
8886.000000;0.767850
8885.000000;0.767517
8884.000000;0.767312
8883.000000;0.767228
8882.000000;0.767130
8881.000000;0.766857
8880.000000;0.766425
8879.000000;0.766076
8878.000000;0.766031
8877.000000;0.766231
8876.000000;0.766415
8875.000000;0.766418
8874.000000;0.766256
8873.000000;0.765996
8872.000000;0.765744
8871.000000;0.765739
8870.000000;0.766211
8869.000000;0.767063
8868.000000;0.767863
8867.000000;0.768308
8866.000000;0.768576
8865.000000;0.769081
8864.000000;0.769922
8863.000000;0.770671
8862.000000;0.770738
8861.000000;0.769948
8860.000000;0.768768
8859.000000;0.767920
8858.000000;0.767709
8857.000000;0.767786
8856.000000;0.767607
8855.000000;0.767046
8854.000000;0.766429
8853.000000;0.766044
8852.000000;0.765854
8851.000000;0.765710
8850.000000;0.765621
8849.000000;0.765709
8848.000000;0.766018
8847.000000;0.766478
8846.000000;0.766968
8845.000000;0.767337
8844.000000;0.767453
8843.000000;0.767319
8842.000000;0.767119
8841.000000;0.767088
8840.000000;0.767314
8839.000000;0.767656
8838.000000;0.767794
8837.000000;0.767457
8836.000000;0.766730
8835.000000;0.766119
8834.000000;0.766142
8833.000000;0.766820
8832.000000;0.767681
8831.000000;0.768280
8830.000000;0.768536
8829.000000;0.768555
8828.000000;0.768369
8827.000000;0.768018
8826.000000;0.767695
8825.000000;0.767634
8824.000000;0.767866
8823.000000;0.768219
8822.000000;0.768487
8821.000000;0.768548
8820.000000;0.768398
8819.000000;0.768143
8818.000000;0.767869
8817.000000;0.767502
8816.000000;0.766915
8815.000000;0.766229
8814.000000;0.765830
8813.000000;0.765971
8812.000000;0.766520
8811.000000;0.767206
8810.000000;0.767933
8809.000000;0.768687
8808.000000;0.769328
8807.000000;0.769717
8806.000000;0.769944
8805.000000;0.770148
8804.000000;0.770206
8803.000000;0.769876
8802.000000;0.769258
8801.000000;0.768826
8800.000000;0.768936
8799.000000;0.769497
8798.000000;0.770203
8797.000000;0.770877
8796.000000;0.771486
8795.000000;0.771972
8794.000000;0.772224
8793.000000;0.772174
8792.000000;0.771831
8791.000000;0.771311
8790.000000;0.770826
8789.000000;0.770558
8788.000000;0.770488
8787.000000;0.770468
8786.000000;0.770459
8785.000000;0.770565
8784.000000;0.770777
8783.000000;0.770864
8782.000000;0.770682
8781.000000;0.770480
8780.000000;0.770699
8779.000000;0.771477
8778.000000;0.772462
8777.000000;0.773152
8776.000000;0.773301
8775.000000;0.773008
8774.000000;0.772551
8773.000000;0.772221
8772.000000;0.772234
8771.000000;0.772639
8770.000000;0.773280
8769.000000;0.773901
8768.000000;0.774286
8767.000000;0.774293
8766.000000;0.773839
8765.000000;0.773027
8764.000000;0.772296
8763.000000;0.772195
8762.000000;0.772830
8761.000000;0.773634
8760.000000;0.773939
8759.000000;0.773754
8758.000000;0.773758
8757.000000;0.774483
8756.000000;0.775717
8755.000000;0.776781
8754.000000;0.777194
8753.000000;0.776966
8752.000000;0.776444
8751.000000;0.776055
8750.000000;0.776057
8749.000000;0.776304
8748.000000;0.776323
8747.000000;0.775840
8746.000000;0.775207
8745.000000;0.775084
8744.000000;0.775695
8743.000000;0.776584
8742.000000;0.777109
8741.000000;0.777034
8740.000000;0.776586
8739.000000;0.776152
8738.000000;0.776045
8737.000000;0.776443
8736.000000;0.777347
8735.000000;0.778548
8734.000000;0.779684
8733.000000;0.780386
8732.000000;0.780459
8731.000000;0.780019
8730.000000;0.779440
8729.000000;0.779074
8728.000000;0.779003
8727.000000;0.779071
8726.000000;0.779142
8725.000000;0.779216
8724.000000;0.779328
8723.000000;0.779483
8722.000000;0.779732
8721.000000;0.780186
8720.000000;0.780868
8719.000000;0.781598
8718.000000;0.782112
8717.000000;0.782303
8716.000000;0.782310
8715.000000;0.782382
8714.000000;0.782660
8713.000000;0.783078
8712.000000;0.783462
8711.000000;0.783679
8710.000000;0.783710
8709.000000;0.783578
8708.000000;0.783331
8707.000000;0.783084
8706.000000;0.783001
8705.000000;0.783130
8704.000000;0.783333
8703.000000;0.783445
8702.000000;0.783473
8701.000000;0.783533
8700.000000;0.783692
8699.000000;0.783963
8698.000000;0.784375
8697.000000;0.784866
8696.000000;0.785151
8695.000000;0.784924
8694.000000;0.784225
8693.000000;0.783485
8692.000000;0.783140
8691.000000;0.783276
8690.000000;0.783661
8689.000000;0.784000
8688.000000;0.784141
8687.000000;0.784136
8686.000000;0.784152
8685.000000;0.784289
8684.000000;0.784518
8683.000000;0.784857
8682.000000;0.785470
8681.000000;0.786407
8680.000000;0.787304
8679.000000;0.787649
8678.000000;0.787407
8677.000000;0.787139
8676.000000;0.787375
8675.000000;0.788047
8674.000000;0.788665
8673.000000;0.788850
8672.000000;0.788555
8671.000000;0.787937
8670.000000;0.787295
8669.000000;0.787016
8668.000000;0.787304
8667.000000;0.787949
8666.000000;0.788557
8665.000000;0.789000
8664.000000;0.789461
8663.000000;0.790002
8662.000000;0.790343
8661.000000;0.790181
8660.000000;0.789585
8659.000000;0.788927
8658.000000;0.788477
8657.000000;0.788212
8656.000000;0.788019
8655.000000;0.787957
8654.000000;0.788231
8653.000000;0.788938
8652.000000;0.789901
8651.000000;0.790798
8650.000000;0.791397
8649.000000;0.791659
8648.000000;0.791661
8647.000000;0.791510
8646.000000;0.791317
8645.000000;0.791150
8644.000000;0.791001
8643.000000;0.790830
8642.000000;0.790676
8641.000000;0.790642
8640.000000;0.790735
8639.000000;0.790800
8638.000000;0.790672
8637.000000;0.790360
8636.000000;0.790022
8635.000000;0.789831
8634.000000;0.789882
8633.000000;0.790185
8632.000000;0.790666
8631.000000;0.791193
8630.000000;0.791627
8629.000000;0.791862
8628.000000;0.791821
8627.000000;0.791507
8626.000000;0.791096
8625.000000;0.790851
8624.000000;0.790841
8623.000000;0.790838
8622.000000;0.790615
8621.000000;0.790311
8620.000000;0.790347
8619.000000;0.790956
8618.000000;0.791893
8617.000000;0.792665
8616.000000;0.792979
8615.000000;0.792925
8614.000000;0.792798
8613.000000;0.792814
8612.000000;0.792958
8611.000000;0.793032
8610.000000;0.792855
8609.000000;0.792439
8608.000000;0.792024
8607.000000;0.791921
8606.000000;0.792282
8605.000000;0.792980
8604.000000;0.793688
8603.000000;0.794117
8602.000000;0.794213
8601.000000;0.794134
8600.000000;0.794058
8599.000000;0.794050
8598.000000;0.794116
8597.000000;0.794273
8596.000000;0.794485
8595.000000;0.794571
8594.000000;0.794316
8593.000000;0.793737
8592.000000;0.793152
8591.000000;0.792903
8590.000000;0.793023
8589.000000;0.793246
8588.000000;0.793341
8587.000000;0.793345
8586.000000;0.793423
8585.000000;0.793598
8584.000000;0.793712
8583.000000;0.793649
8582.000000;0.793499
8581.000000;0.793474
8580.000000;0.793708
8579.000000;0.794157
8578.000000;0.794631
8577.000000;0.794898
8576.000000;0.794839
8575.000000;0.794563
8574.000000;0.794323
8573.000000;0.794252
8572.000000;0.794226
8571.000000;0.794072
8570.000000;0.793828
8569.000000;0.793697
8568.000000;0.793782
8567.000000;0.793999
8566.000000;0.794238
8565.000000;0.794454
8564.000000;0.794586
8563.000000;0.794526
8562.000000;0.794261
8561.000000;0.793957
8560.000000;0.793794
8559.000000;0.793758
8558.000000;0.793663
8557.000000;0.793348
8556.000000;0.792819
8555.000000;0.792260
8554.000000;0.791936
8553.000000;0.792025
8552.000000;0.792446
8551.000000;0.792889
8550.000000;0.793077
8549.000000;0.793009
8548.000000;0.792941
8547.000000;0.793147
8546.000000;0.793690
8545.000000;0.794377
8544.000000;0.794940
8543.000000;0.795289
8542.000000;0.795559
8541.000000;0.795831
8540.000000;0.795903
8539.000000;0.795508
8538.000000;0.794761
8537.000000;0.794168
8536.000000;0.794087
8535.000000;0.794359
8534.000000;0.794585
8533.000000;0.794596
8532.000000;0.794485
8531.000000;0.794319
8530.000000;0.794064
8529.000000;0.793762
8528.000000;0.793551
8527.000000;0.793483
8526.000000;0.793501
8525.000000;0.793644
8524.000000;0.794096
8523.000000;0.794914
8522.000000;0.795786
8521.000000;0.796215
8520.000000;0.795968
8519.000000;0.795338
8518.000000;0.794901
8517.000000;0.794977
8516.000000;0.795313
8515.000000;0.795404
8514.000000;0.795141
8513.000000;0.794946
8512.000000;0.795177
8511.000000;0.795576
8510.000000;0.795562
8509.000000;0.794975
8508.000000;0.794272
8507.000000;0.793973
8506.000000;0.794189
8505.000000;0.794700
8504.000000;0.795221
8503.000000;0.795461
8502.000000;0.795190
8501.000000;0.794463
8500.000000;0.793663
8499.000000;0.793175
8498.000000;0.793090
8497.000000;0.793315
8496.000000;0.793785
8495.000000;0.794402
8494.000000;0.794900
8493.000000;0.795020
8492.000000;0.794812
8491.000000;0.794591
8490.000000;0.794560
8489.000000;0.794623
8488.000000;0.794572
8487.000000;0.794380
8486.000000;0.794264
8485.000000;0.794516
8484.000000;0.795236
8483.000000;0.796177
8482.000000;0.796884
8481.000000;0.797072
8480.000000;0.796833
8479.000000;0.796434
8478.000000;0.796003
8477.000000;0.795542
8476.000000;0.795131
8475.000000;0.794933
8474.000000;0.794979
8473.000000;0.795126
8472.000000;0.795233
8471.000000;0.795294
8470.000000;0.795381
8469.000000;0.795562
8468.000000;0.795851
8467.000000;0.796132
8466.000000;0.796184
8465.000000;0.795931
8464.000000;0.795622
8463.000000;0.795583
8462.000000;0.795783
8461.000000;0.795891
8460.000000;0.795782
8459.000000;0.795719
8458.000000;0.795908
8457.000000;0.796134
8456.000000;0.796070
8455.000000;0.795740
8454.000000;0.795437
8453.000000;0.795308
8452.000000;0.795320
8451.000000;0.795535
8450.000000;0.796066
8449.000000;0.796750
8448.000000;0.797151
8447.000000;0.797054
8446.000000;0.796731
8445.000000;0.796582
8444.000000;0.796695
8443.000000;0.796888
8442.000000;0.797050
8441.000000;0.797210
8440.000000;0.797339
8439.000000;0.797290
8438.000000;0.796973
8437.000000;0.796514
8436.000000;0.796175
8435.000000;0.796139
8434.000000;0.796347
8433.000000;0.796524
8432.000000;0.796403
8431.000000;0.795977
8430.000000;0.795525
8429.000000;0.795350
8428.000000;0.795504
8427.000000;0.795795
8426.000000;0.795992
8425.000000;0.795987
8424.000000;0.795807
8423.000000;0.795578
8422.000000;0.795471
8421.000000;0.795611
8420.000000;0.795991
8419.000000;0.796491
8418.000000;0.796955
8417.000000;0.797237
8416.000000;0.797249
8415.000000;0.797035
8414.000000;0.796817
8413.000000;0.796849
8412.000000;0.797180
8411.000000;0.797569
8410.000000;0.797703
8409.000000;0.797481
8408.000000;0.797086
8407.000000;0.796775
8406.000000;0.796634
8405.000000;0.796555
8404.000000;0.796427
8403.000000;0.796292
8402.000000;0.796288
8401.000000;0.796489
8400.000000;0.796859
8399.000000;0.797344
8398.000000;0.797900
8397.000000;0.798400
8396.000000;0.798653
8395.000000;0.798589
8394.000000;0.798388
8393.000000;0.798314
8392.000000;0.798467
8391.000000;0.798734
8390.000000;0.798940
8389.000000;0.798961
8388.000000;0.798759
8387.000000;0.798436
8386.000000;0.798221
8385.000000;0.798248
8384.000000;0.798324
8383.000000;0.798068
8382.000000;0.797367
8381.000000;0.796591
8380.000000;0.796246
8379.000000;0.796474
8378.000000;0.797002
8377.000000;0.797509
8376.000000;0.797896
8375.000000;0.798200
8374.000000;0.798400
8373.000000;0.798410
8372.000000;0.798205
8371.000000;0.797908
8370.000000;0.797739
8369.000000;0.797899
8368.000000;0.798434
8367.000000;0.799170
8366.000000;0.799764
8365.000000;0.799918
8364.000000;0.799622
8363.000000;0.799197
8362.000000;0.799052
8361.000000;0.799326
8360.000000;0.799766
8359.000000;0.799981
8358.000000;0.799817
8357.000000;0.799449
8356.000000;0.799121
8355.000000;0.798914
8354.000000;0.798779
8353.000000;0.798722
8352.000000;0.798837
8351.000000;0.799171
8350.000000;0.799625
8349.000000;0.799996
8348.000000;0.800103
8347.000000;0.799898
8346.000000;0.799529
8345.000000;0.799246
8344.000000;0.799185
8343.000000;0.799247
8342.000000;0.799225
8341.000000;0.799043
8340.000000;0.798791
8339.000000;0.798578
8338.000000;0.798466
8337.000000;0.798525
8336.000000;0.798808
8335.000000;0.799218
8334.000000;0.799523
8333.000000;0.799590
8332.000000;0.799519
8331.000000;0.799458
8330.000000;0.799384
8329.000000;0.799192
8328.000000;0.798920
8327.000000;0.798738
8326.000000;0.798736
8325.000000;0.798876
8324.000000;0.799132
8323.000000;0.799502
8322.000000;0.799865
8321.000000;0.800003
8320.000000;0.799890
8319.000000;0.799780
8318.000000;0.799853
8317.000000;0.799905
8316.000000;0.799594
8315.000000;0.798952
8314.000000;0.798425
8313.000000;0.798346
8312.000000;0.798551
8311.000000;0.798616
8310.000000;0.798348
8309.000000;0.797938
8308.000000;0.797709
8307.000000;0.797829
8306.000000;0.798257
8305.000000;0.798827
8304.000000;0.799350
8303.000000;0.799707
8302.000000;0.799907
8301.000000;0.800050
8300.000000;0.800240
8299.000000;0.800504
8298.000000;0.800750
8297.000000;0.800786
8296.000000;0.800465
8295.000000;0.799887
8294.000000;0.799404
8293.000000;0.799297
8292.000000;0.799489
8291.000000;0.799706
8290.000000;0.799883
8289.000000;0.800221
8288.000000;0.800765
8287.000000;0.801158
8286.000000;0.801018
8285.000000;0.800475
8284.000000;0.800058
8283.000000;0.800065
8282.000000;0.800267
8281.000000;0.800321
8280.000000;0.800270
8279.000000;0.800440
8278.000000;0.800954
8277.000000;0.801534
8276.000000;0.801788
8275.000000;0.801562
8274.000000;0.801028
8273.000000;0.800525
8272.000000;0.800336
8271.000000;0.800492
8270.000000;0.800729
8269.000000;0.800718
8268.000000;0.800399
8267.000000;0.800036
8266.000000;0.799925
8265.000000;0.800100
8264.000000;0.800363
8263.000000;0.800538
8262.000000;0.800633
8261.000000;0.800780
8260.000000;0.801063
8259.000000;0.801398
8258.000000;0.801554
8257.000000;0.801344
8256.000000;0.800855
8255.000000;0.800446
8254.000000;0.800427
8253.000000;0.800737
8252.000000;0.801006
8251.000000;0.800928
8250.000000;0.800545
8249.000000;0.800158
8248.000000;0.800034
8247.000000;0.800226
8246.000000;0.800601
8245.000000;0.800978
8244.000000;0.801253
8243.000000;0.801446
8242.000000;0.801631
8241.000000;0.801827
8240.000000;0.801976
8239.000000;0.802073
8238.000000;0.802236
8237.000000;0.802563
8236.000000;0.802913
8235.000000;0.802944
8234.000000;0.802473
8233.000000;0.801742
8232.000000;0.801243
8231.000000;0.801252
8230.000000;0.801605
8229.000000;0.801948
8228.000000;0.802113
8227.000000;0.802194
8226.000000;0.802320
8225.000000;0.802491
8224.000000;0.802659
8223.000000;0.802858
8222.000000;0.803144
8221.000000;0.803422
8220.000000;0.803470
8219.000000;0.803174
8218.000000;0.802680
8217.000000;0.802222
8216.000000;0.801876
8215.000000;0.801579
8214.000000;0.801387
8213.000000;0.801533
8212.000000;0.802113
8211.000000;0.802844
8210.000000;0.803322
8209.000000;0.803472
8208.000000;0.803561
8207.000000;0.803730
8206.000000;0.803763
8205.000000;0.803451
8204.000000;0.803009
8203.000000;0.802887
8202.000000;0.803224
8201.000000;0.803687
8200.000000;0.803864
8199.000000;0.803660
8198.000000;0.803260
8197.000000;0.802869
8196.000000;0.802580
8195.000000;0.802382
8194.000000;0.802228
8193.000000;0.802092
8192.000000;0.801992
8191.000000;0.801921
8190.000000;0.801807
8189.000000;0.801640
8188.000000;0.801590
8187.000000;0.801840
8186.000000;0.802275
8185.000000;0.802531
8184.000000;0.802457
8183.000000;0.802355
8182.000000;0.802592
8181.000000;0.803104
8180.000000;0.803465
8179.000000;0.803438
8178.000000;0.803236
8177.000000;0.803219
8176.000000;0.803473
8175.000000;0.803767
8174.000000;0.803830
8173.000000;0.803599
8172.000000;0.803238
8171.000000;0.802978
8170.000000;0.802931
8169.000000;0.803021
8168.000000;0.803123
8167.000000;0.803221
8166.000000;0.803413
8165.000000;0.803724
8164.000000;0.803993
8163.000000;0.803989
8162.000000;0.803678
8161.000000;0.803341
8160.000000;0.803365
8159.000000;0.803886
8158.000000;0.804659
8157.000000;0.805337
8156.000000;0.805813
8155.000000;0.806204
8154.000000;0.806547
8153.000000;0.806677
8152.000000;0.806455
8151.000000;0.805979
8150.000000;0.805502
8149.000000;0.805206
8148.000000;0.805113
8147.000000;0.805101
8146.000000;0.804959
8145.000000;0.804539
8144.000000;0.803972
8143.000000;0.803619
8142.000000;0.803732
8141.000000;0.804213
8140.000000;0.804781
8139.000000;0.805242
8138.000000;0.805507
8137.000000;0.805513
8136.000000;0.805344
8135.000000;0.805305
8134.000000;0.805625
8133.000000;0.806091
8132.000000;0.806212
8131.000000;0.805786
8130.000000;0.805141
8129.000000;0.804779
8128.000000;0.804929
8127.000000;0.805453
8126.000000;0.806021
8125.000000;0.806295
8124.000000;0.806118
8123.000000;0.805635
8122.000000;0.805173
8121.000000;0.804962
8120.000000;0.805011
8119.000000;0.805254
8118.000000;0.805646
8117.000000;0.806105
8116.000000;0.806479
8115.000000;0.806669
8114.000000;0.806709
8113.000000;0.806693
8112.000000;0.806690
8111.000000;0.806738
8110.000000;0.806817
8109.000000;0.806807
8108.000000;0.806591
8107.000000;0.806243
8106.000000;0.806013
8105.000000;0.806071
8104.000000;0.806345
8103.000000;0.806623
8102.000000;0.806722
8101.000000;0.806536
8100.000000;0.806083
8099.000000;0.805566
8098.000000;0.805292
8097.000000;0.805430
8096.000000;0.805887
8095.000000;0.806435
8094.000000;0.806878
8093.000000;0.807102
8092.000000;0.807091
8091.000000;0.806954
8090.000000;0.806838
8089.000000;0.806769
8088.000000;0.806691
8087.000000;0.806654
8086.000000;0.806807
8085.000000;0.807174
8084.000000;0.807585
8083.000000;0.807900
8082.000000;0.808145
8081.000000;0.808339
8080.000000;0.808393
8079.000000;0.808277
8078.000000;0.808121
8077.000000;0.808009
8076.000000;0.807808
8075.000000;0.807392
8074.000000;0.806890
8073.000000;0.806555
8072.000000;0.806475
8071.000000;0.806590
8070.000000;0.806885
8069.000000;0.807368
8068.000000;0.807893
8067.000000;0.808216
8066.000000;0.808237
8065.000000;0.808075
8064.000000;0.807919
8063.000000;0.807908
8062.000000;0.808099
8061.000000;0.808400
8060.000000;0.808592
8059.000000;0.808554
8058.000000;0.808415
8057.000000;0.808361
8056.000000;0.808374
8055.000000;0.808323
8054.000000;0.808229
8053.000000;0.808221
8052.000000;0.808283
8051.000000;0.808286
8050.000000;0.808254
8049.000000;0.808370
8048.000000;0.808669
8047.000000;0.808952
8046.000000;0.809088
8045.000000;0.809167
8044.000000;0.809267
8043.000000;0.809274
8042.000000;0.809088
8041.000000;0.808854
8040.000000;0.808792
8039.000000;0.808924
8038.000000;0.809117
8037.000000;0.809327
8036.000000;0.809615
8035.000000;0.809941
8034.000000;0.810095
8033.000000;0.809909
8032.000000;0.809453
8031.000000;0.808998
8030.000000;0.808806
8029.000000;0.808943
8028.000000;0.809233
8027.000000;0.809410
8026.000000;0.809323
8025.000000;0.809023
8024.000000;0.808684
8023.000000;0.808494
8022.000000;0.808611
8021.000000;0.809062
8020.000000;0.809626
8019.000000;0.809915
8018.000000;0.809726
8017.000000;0.809294
8016.000000;0.809091
8015.000000;0.809354
8014.000000;0.809884
8013.000000;0.810281
8012.000000;0.810330
8011.000000;0.810130
8010.000000;0.809934
8009.000000;0.809913
8008.000000;0.810056
8007.000000;0.810275
8006.000000;0.810573
8005.000000;0.811060
8004.000000;0.811740
8003.000000;0.812351
8002.000000;0.812545
8001.000000;0.812272
8000.000000;0.811884
7999.000000;0.811765
7998.000000;0.811926
7997.000000;0.812062
7996.000000;0.811979
7995.000000;0.811818
7994.000000;0.811792
7993.000000;0.811871
7992.000000;0.811841
7991.000000;0.811630
7990.000000;0.811411
7989.000000;0.811375
7988.000000;0.811511
7987.000000;0.811661
7986.000000;0.811723
7985.000000;0.811735
7984.000000;0.811800
7983.000000;0.811982
7982.000000;0.812248
7981.000000;0.812473
7980.000000;0.812539
7979.000000;0.812452
7978.000000;0.812327
7977.000000;0.812252
7976.000000;0.812226
7975.000000;0.812247
7974.000000;0.812381
7973.000000;0.812655
7972.000000;0.812936
7971.000000;0.813037
7970.000000;0.812911
7969.000000;0.812678
7968.000000;0.812454
7967.000000;0.812252
7966.000000;0.812081
7965.000000;0.812047
7964.000000;0.812282
7963.000000;0.812781
7962.000000;0.813356
7961.000000;0.813752
7960.000000;0.813803
7959.000000;0.813502
7958.000000;0.812993
7957.000000;0.812528
7956.000000;0.812376
7955.000000;0.812683
7954.000000;0.813328
7953.000000;0.813956
7952.000000;0.814240
7951.000000;0.814134
7950.000000;0.813855
7949.000000;0.813623
7948.000000;0.813484
7947.000000;0.813365
7946.000000;0.813216
7945.000000;0.813082
7944.000000;0.813065
7943.000000;0.813254
7942.000000;0.813609
7941.000000;0.813935
7940.000000;0.814055
7939.000000;0.814036
7938.000000;0.814111
7937.000000;0.814330
7936.000000;0.814436
7935.000000;0.814210
7934.000000;0.813814
7933.000000;0.813651
7932.000000;0.813904
7931.000000;0.814367
7930.000000;0.814710
7929.000000;0.814792
7928.000000;0.814696
7927.000000;0.814605
7926.000000;0.814671
7925.000000;0.814921
7924.000000;0.815235
7923.000000;0.815467
7922.000000;0.815595
7921.000000;0.815708
7920.000000;0.815872
7919.000000;0.816090
7918.000000;0.816362
7917.000000;0.816678
7916.000000;0.816925
7915.000000;0.816942
7914.000000;0.816727
7913.000000;0.816492
7912.000000;0.816443
7911.000000;0.816561
7910.000000;0.816656
7909.000000;0.816593
7908.000000;0.816405
7907.000000;0.816210
7906.000000;0.816097
7905.000000;0.816086
7904.000000;0.816152
7903.000000;0.816251
7902.000000;0.816347
7901.000000;0.816417
7900.000000;0.816458
7899.000000;0.816494
7898.000000;0.816568
7897.000000;0.816698
7896.000000;0.816847
7895.000000;0.816975
7894.000000;0.817097
7893.000000;0.817255
7892.000000;0.817438
7891.000000;0.817568
7890.000000;0.817590
7889.000000;0.817526
7888.000000;0.817444
7887.000000;0.817398
7886.000000;0.817412
7885.000000;0.817477
7884.000000;0.817552
7883.000000;0.817591
7882.000000;0.817580
7881.000000;0.817554
7880.000000;0.817582
7879.000000;0.817734
7878.000000;0.818028
7877.000000;0.818368
7876.000000;0.818577
7875.000000;0.818549
7874.000000;0.818373
7873.000000;0.818268
7872.000000;0.818376
7871.000000;0.818640
7870.000000;0.818905
7869.000000;0.819082
7868.000000;0.819210
7867.000000;0.819363
7866.000000;0.819527
7865.000000;0.819601
7864.000000;0.819520
7863.000000;0.819341
7862.000000;0.819172
7861.000000;0.819039
7860.000000;0.818897
7859.000000;0.818794
7858.000000;0.818885
7857.000000;0.819236
7856.000000;0.819671
7855.000000;0.819941
7854.000000;0.820009
7853.000000;0.820041
7852.000000;0.820155
7851.000000;0.820275
7850.000000;0.820257
7849.000000;0.820084
7848.000000;0.819887
7847.000000;0.819834
7846.000000;0.820012
7845.000000;0.820363
7844.000000;0.820718
7843.000000;0.820938
7842.000000;0.821028
7841.000000;0.821077
7840.000000;0.821121
7839.000000;0.821128
7838.000000;0.821102
7837.000000;0.821094
7836.000000;0.821105
7835.000000;0.821063
7834.000000;0.820918
7833.000000;0.820712
7832.000000;0.820540
7831.000000;0.820508
7830.000000;0.820722
7829.000000;0.821218
7828.000000;0.821851
7827.000000;0.822348
7826.000000;0.822541
7825.000000;0.822518
7824.000000;0.822490
7823.000000;0.822565
7822.000000;0.822690
7821.000000;0.822781
7820.000000;0.822838
7819.000000;0.822905
7818.000000;0.822954
7817.000000;0.822858
7816.000000;0.822560
7815.000000;0.822268
7814.000000;0.822369
7813.000000;0.823000
7812.000000;0.823798
7811.000000;0.824221
7810.000000;0.824125
7809.000000;0.823838
7808.000000;0.823668
7807.000000;0.823564
7806.000000;0.823369
7805.000000;0.823171
7804.000000;0.823196
7803.000000;0.823472
7802.000000;0.823824
7801.000000;0.824170
7800.000000;0.824583
7799.000000;0.825060
7798.000000;0.825409
7797.000000;0.825477
7796.000000;0.825354
7795.000000;0.825252
7794.000000;0.825264
7793.000000;0.825310
7792.000000;0.825276
7791.000000;0.825157
7790.000000;0.825083
7789.000000;0.825219
7788.000000;0.825584
7787.000000;0.825962
7786.000000;0.826083
7785.000000;0.825925
7784.000000;0.825757
7783.000000;0.825828
7782.000000;0.826105
7781.000000;0.826406
7780.000000;0.826689
7779.000000;0.827051
7778.000000;0.827463
7777.000000;0.827680
7776.000000;0.827499
7775.000000;0.827032
7774.000000;0.826631
7773.000000;0.826557
7772.000000;0.826790
7771.000000;0.827138
7770.000000;0.827450
7769.000000;0.827684
7768.000000;0.827839
7767.000000;0.827905
7766.000000;0.827891
7765.000000;0.827844
7764.000000;0.827806
7763.000000;0.827762
7762.000000;0.827681
7761.000000;0.827609
7760.000000;0.827645
7759.000000;0.827818
7758.000000;0.828036
7757.000000;0.828234
7756.000000;0.828496
7755.000000;0.828946
7754.000000;0.829506
7753.000000;0.829893
7752.000000;0.829902
7751.000000;0.829630
7750.000000;0.829369
7749.000000;0.829333
7748.000000;0.829527
7747.000000;0.829821
7746.000000;0.830065
7745.000000;0.830180
7744.000000;0.830227
7743.000000;0.830366
7742.000000;0.830667
7741.000000;0.830979
7740.000000;0.831085
7739.000000;0.830966
7738.000000;0.830810
7737.000000;0.830764
7736.000000;0.830788
7735.000000;0.830802
7734.000000;0.830867
7733.000000;0.831097
7732.000000;0.831462
7731.000000;0.831763
7730.000000;0.831835
7729.000000;0.831728
7728.000000;0.831676
7727.000000;0.831901
7726.000000;0.832413
7725.000000;0.833000
7724.000000;0.833419
7723.000000;0.833597
7722.000000;0.833625
7721.000000;0.833599
7720.000000;0.833557
7719.000000;0.833556
7718.000000;0.833676
7717.000000;0.833900
7716.000000;0.834093
7715.000000;0.834185
7714.000000;0.834267
7713.000000;0.834443
7712.000000;0.834649
7711.000000;0.834720
7710.000000;0.834626
7709.000000;0.834518
7708.000000;0.834569
7707.000000;0.834816
7706.000000;0.835147
7705.000000;0.835383
7704.000000;0.835404
7703.000000;0.835269
7702.000000;0.835188
7701.000000;0.835322
7700.000000;0.835626
7699.000000;0.835935
7698.000000;0.836154
7697.000000;0.836296
7696.000000;0.836394
7695.000000;0.836463
7694.000000;0.836522
7693.000000;0.836577
7692.000000;0.836607
7691.000000;0.836642
7690.000000;0.836808
7689.000000;0.837164
7688.000000;0.837542
7687.000000;0.837698
7686.000000;0.837633
7685.000000;0.837606
7684.000000;0.837798
7683.000000;0.838093
7682.000000;0.838277
7681.000000;0.838329
7680.000000;0.838409
7679.000000;0.838639
7678.000000;0.838997
7677.000000;0.839378
7676.000000;0.839670
7675.000000;0.839816
7674.000000;0.839875
7673.000000;0.840006
7672.000000;0.840314
7671.000000;0.840718
7670.000000;0.841031
7669.000000;0.841155
7668.000000;0.841157
7667.000000;0.841172
7666.000000;0.841282
7665.000000;0.841475
7664.000000;0.841659
7663.000000;0.841718
7662.000000;0.841619
7661.000000;0.841475
7660.000000;0.841447
7659.000000;0.841567
7658.000000;0.841691
7657.000000;0.841677
7656.000000;0.841593
7655.000000;0.841664
7654.000000;0.842045
7653.000000;0.842656
7652.000000;0.843294
7651.000000;0.843827
7650.000000;0.844261
7649.000000;0.844607
7648.000000;0.844810
7647.000000;0.844816
7646.000000;0.844681
7645.000000;0.844536
7644.000000;0.844475
7643.000000;0.844517
7642.000000;0.844655
7641.000000;0.844893
7640.000000;0.845213
7639.000000;0.845553
7638.000000;0.845841
7637.000000;0.846051
7636.000000;0.846244
7635.000000;0.846532
7634.000000;0.846971
7633.000000;0.847466
7632.000000;0.847832
7631.000000;0.847980
7630.000000;0.848012
7629.000000;0.848092
7628.000000;0.848276
7627.000000;0.848505
7626.000000;0.848714
7625.000000;0.848883
7624.000000;0.849016
7623.000000;0.849145
7622.000000;0.849343
7621.000000;0.849658
7620.000000;0.850027
7619.000000;0.850334
7618.000000;0.850528
7617.000000;0.850658
7616.000000;0.850783
7615.000000;0.850935
7614.000000;0.851147
7613.000000;0.851436
7612.000000;0.851764
7611.000000;0.852058
7610.000000;0.852291
7609.000000;0.852471
7608.000000;0.852595
7607.000000;0.852684
7606.000000;0.852837
7605.000000;0.853140
7604.000000;0.853531
7603.000000;0.853875
7602.000000;0.854183
7601.000000;0.854599
7600.000000;0.855129
7599.000000;0.855539
7598.000000;0.855655
7597.000000;0.855631
7596.000000;0.855776
7595.000000;0.856159
7594.000000;0.856535
7593.000000;0.856690
7592.000000;0.856691
7591.000000;0.856765
7590.000000;0.857009
7589.000000;0.857309
7588.000000;0.857528
7587.000000;0.857697
7586.000000;0.857978
7585.000000;0.858460
7584.000000;0.859040
7583.000000;0.859529
7582.000000;0.859842
7581.000000;0.860018
7580.000000;0.860104
7579.000000;0.860091
7578.000000;0.860010
7577.000000;0.859995
7576.000000;0.860209
7575.000000;0.860706
7574.000000;0.861409
7573.000000;0.862143
7572.000000;0.862706
7571.000000;0.862965
7570.000000;0.862954
7569.000000;0.862841
7568.000000;0.862788
7567.000000;0.862858
7566.000000;0.863059
7565.000000;0.863399
7564.000000;0.863841
7563.000000;0.864295
7562.000000;0.864710
7561.000000;0.865129
7560.000000;0.865592
7559.000000;0.866050
7558.000000;0.866426
7557.000000;0.866719
7556.000000;0.866962
7555.000000;0.867126
7554.000000;0.867164
7553.000000;0.867125
7552.000000;0.867147
7551.000000;0.867329
7550.000000;0.867683
7549.000000;0.868190
7548.000000;0.868803
7547.000000;0.869404
7546.000000;0.869869
7545.000000;0.870198
7544.000000;0.870507
7543.000000;0.870854
7542.000000;0.871166
7541.000000;0.871387
7540.000000;0.871603
7539.000000;0.871943
7538.000000;0.872413
7537.000000;0.872913
7536.000000;0.873370
7535.000000;0.873758
7534.000000;0.874005
7533.000000;0.874032
7532.000000;0.873933
7531.000000;0.873984
7530.000000;0.874371
7529.000000;0.874943
7528.000000;0.875378
7527.000000;0.875565
7526.000000;0.875717
7525.000000;0.876053
7524.000000;0.876512
7523.000000;0.876887
7522.000000;0.877159
7521.000000;0.877514
7520.000000;0.878041
7519.000000;0.878566
7518.000000;0.878886
7517.000000;0.879046
7516.000000;0.879261
7515.000000;0.879631
7514.000000;0.880057
7513.000000;0.880431
7512.000000;0.880769
7511.000000;0.881113
7510.000000;0.881428
7509.000000;0.881672
7508.000000;0.881905
7507.000000;0.882239
7506.000000;0.882696
7505.000000;0.883199
7504.000000;0.883678
7503.000000;0.884156
7502.000000;0.884618
7501.000000;0.884977
7500.000000;0.885138
7499.000000;0.885123
7498.000000;0.885087
7497.000000;0.885206
7496.000000;0.885579
7495.000000;0.886175
7494.000000;0.886831
7493.000000;0.887327
7492.000000;0.887557
7491.000000;0.887652
7490.000000;0.887866
7489.000000;0.888318
7488.000000;0.888895
7487.000000;0.889413
7486.000000;0.889813
7485.000000;0.890137
7484.000000;0.890418
7483.000000;0.890686
7482.000000;0.891048
7481.000000;0.891620
7480.000000;0.892338
7479.000000;0.892958
7478.000000;0.893282
7477.000000;0.893347
7476.000000;0.893350
7475.000000;0.893458
7474.000000;0.893715
7473.000000;0.894074
7472.000000;0.894443
7471.000000;0.894724
7470.000000;0.894889
7469.000000;0.895031
7468.000000;0.895294
7467.000000;0.895759
7466.000000;0.896377
7465.000000;0.897028
7464.000000;0.897604
7463.000000;0.898070
7462.000000;0.898466
7461.000000;0.898851
7460.000000;0.899252
7459.000000;0.899663
7458.000000;0.900068
7457.000000;0.900453
7456.000000;0.900792
7455.000000;0.901085
7454.000000;0.901391
7453.000000;0.901766
7452.000000;0.902158
7451.000000;0.902439
7450.000000;0.902570
7449.000000;0.902656
7448.000000;0.902799
7447.000000;0.902975
7446.000000;0.903133
7445.000000;0.903368
7444.000000;0.903864
7443.000000;0.904651
7442.000000;0.905518
7441.000000;0.906206
7440.000000;0.906633
7439.000000;0.906888
7438.000000;0.907080
7437.000000;0.907269
7436.000000;0.907512
7435.000000;0.907862
7434.000000;0.908297
7433.000000;0.908721
7432.000000;0.909068
7431.000000;0.909378
7430.000000;0.909718
7429.000000;0.910064
7428.000000;0.910325
7427.000000;0.910480
7426.000000;0.910615
7425.000000;0.910804
7424.000000;0.911041
7423.000000;0.911307
7422.000000;0.911655
7421.000000;0.912136
7420.000000;0.912697
7419.000000;0.913209
7418.000000;0.913608
7417.000000;0.913918
7416.000000;0.914151
7415.000000;0.914271
7414.000000;0.914282
7413.000000;0.914294
7412.000000;0.914445
7411.000000;0.914809
7410.000000;0.915373
7409.000000;0.916060
7408.000000;0.916731
7407.000000;0.917238
7406.000000;0.917559
7405.000000;0.917829
7404.000000;0.918187
7403.000000;0.918617
7402.000000;0.918996
7401.000000;0.919283
7400.000000;0.919588
7399.000000;0.920013
7398.000000;0.920508
7397.000000;0.920904
7396.000000;0.921082
7395.000000;0.921090
7394.000000;0.921079
7393.000000;0.921166
7392.000000;0.921377
7391.000000;0.921712
7390.000000;0.922200
7389.000000;0.922836
7388.000000;0.923491
7387.000000;0.923982
7386.000000;0.924240
7385.000000;0.924359
7384.000000;0.924479
7383.000000;0.924665
7382.000000;0.924935
7381.000000;0.925292
7380.000000;0.925691
7379.000000;0.926016
7378.000000;0.926196
7377.000000;0.926293
7376.000000;0.926441
7375.000000;0.926714
7374.000000;0.927078
7373.000000;0.927442
7372.000000;0.927710
7371.000000;0.927840
7370.000000;0.927933
7369.000000;0.928219
7368.000000;0.928858
7367.000000;0.929730
7366.000000;0.930525
7365.000000;0.931024
7364.000000;0.931232
7363.000000;0.931279
7362.000000;0.931327
7361.000000;0.931560
7360.000000;0.932084
7359.000000;0.932739
7358.000000;0.933160
7357.000000;0.933168
7356.000000;0.933054
7355.000000;0.933322
7354.000000;0.934138
7353.000000;0.935153
7352.000000;0.935901
7351.000000;0.936248
7350.000000;0.936403
7349.000000;0.936588
7348.000000;0.936809
7347.000000;0.936931
7346.000000;0.936885
7345.000000;0.936771
7344.000000;0.936758
7343.000000;0.936931
7342.000000;0.937276
7341.000000;0.937767
7340.000000;0.938400
7339.000000;0.939111
7338.000000;0.939743
7337.000000;0.940178
7336.000000;0.940463
7335.000000;0.940742
7334.000000;0.941115
7333.000000;0.941585
7332.000000;0.942087
7331.000000;0.942473
7330.000000;0.942560
7329.000000;0.942331
7328.000000;0.942102
7327.000000;0.942302
7326.000000;0.943029
7325.000000;0.943974
7324.000000;0.944853
7323.000000;0.945703
7322.000000;0.946659
7321.000000;0.947591
7320.000000;0.948203
7319.000000;0.948425
7318.000000;0.948527
7317.000000;0.948801
7316.000000;0.949280
7315.000000;0.949799
7314.000000;0.950212
7313.000000;0.950504
7312.000000;0.950765
7311.000000;0.951134
7310.000000;0.951676
7309.000000;0.952294
7308.000000;0.952833
7307.000000;0.953278
7306.000000;0.953790
7305.000000;0.954476
7304.000000;0.955245
7303.000000;0.955959
7302.000000;0.956612
7301.000000;0.957254
7300.000000;0.957843
7299.000000;0.958305
7298.000000;0.958692
7297.000000;0.959150
7296.000000;0.959718
7295.000000;0.960294
7294.000000;0.960816
7293.000000;0.961368
7292.000000;0.962052
7291.000000;0.962851
7290.000000;0.963708
7289.000000;0.964621
7288.000000;0.965590
7287.000000;0.966511
7286.000000;0.967257
7285.000000;0.967872
7284.000000;0.968569
7283.000000;0.969504
7282.000000;0.970605
7281.000000;0.971665
7280.000000;0.972571
7279.000000;0.973365
7278.000000;0.974105
7277.000000;0.974766
7276.000000;0.975327
7275.000000;0.975885
7274.000000;0.976596
7273.000000;0.977491
7272.000000;0.978433
7271.000000;0.979274
7270.000000;0.980012
7269.000000;0.980783
7268.000000;0.981738
7267.000000;0.982944
7266.000000;0.984333
7265.000000;0.985719
7264.000000;0.986910
7263.000000;0.987882
7262.000000;0.988801
7261.000000;0.989843
7260.000000;0.991022
7259.000000;0.992244
7258.000000;0.993477
7257.000000;0.994759
7256.000000;0.996074
7255.000000;0.997323
7254.000000;0.998432
7253.000000;0.999408
7252.000000;1.000313
7251.000000;1.001264
7250.000000;1.002421
7249.000000;1.003851
7248.000000;1.005402
7247.000000;1.006801
7246.000000;1.007922
7245.000000;1.008895
7244.000000;1.009954
7243.000000;1.011253
7242.000000;1.012846
7241.000000;1.014709
7240.000000;1.016710
7239.000000;1.018637
7238.000000;1.020363
7237.000000;1.021948
7236.000000;1.023490
7235.000000;1.024953
7234.000000;1.026263
7233.000000;1.027533
7232.000000;1.029028
7231.000000;1.030877
7230.000000;1.032952
7229.000000;1.035064
7228.000000;1.037166
7227.000000;1.039313
7226.000000;1.041543
7225.000000;1.043853
7224.000000;1.046189
7223.000000;1.048414
7222.000000;1.050361
7221.000000;1.052028
7220.000000;1.053665
7219.000000;1.055587
7218.000000;1.057882
7217.000000;1.060380
7216.000000;1.062891
7215.000000;1.065381
7214.000000;1.067938
7213.000000;1.070641
7212.000000;1.073471
7211.000000;1.076303
7210.000000;1.078984
7209.000000;1.081440
7208.000000;1.083731
7207.000000;1.085958
7206.000000;1.088164
7205.000000;1.090386
7204.000000;1.092780
7203.000000;1.095571
7202.000000;1.098822
7201.000000;1.102314
7200.000000;1.105717
7199.000000;1.108856
7198.000000;1.111769
7197.000000;1.114579
7196.000000;1.117377
7195.000000;1.120219
7194.000000;1.123144
7193.000000;1.126155
7192.000000;1.129216
7191.000000;1.132308
7190.000000;1.135467
7189.000000;1.138737
7188.000000;1.142088
7187.000000;1.145432
7186.000000;1.148713
7185.000000;1.151969
7184.000000;1.155302
7183.000000;1.158817
7182.000000;1.162564
7181.000000;1.166497
7180.000000;1.170445
7179.000000;1.174173
7178.000000;1.177564
7177.000000;1.180767
7176.000000;1.184111
7175.000000;1.187828
7174.000000;1.191868
7173.000000;1.196002
7172.000000;1.200044
7171.000000;1.203922
7170.000000;1.207612
7169.000000;1.211151
7168.000000;1.214758
7167.000000;1.218787
7166.000000;1.223422
7165.000000;1.228414
7164.000000;1.233212
7163.000000;1.237406
7162.000000;1.241056
7161.000000;1.244593
7160.000000;1.248427
7159.000000;1.252642
7158.000000;1.257049
7157.000000;1.261463
7156.000000;1.265852
7155.000000;1.270263
7154.000000;1.274705
7153.000000;1.279140
7152.000000;1.283504
7151.000000;1.287690
7150.000000;1.291599
7149.000000;1.295321
7148.000000;1.299190
7147.000000;1.303494
7146.000000;1.308144
7145.000000;1.312765
7144.000000;1.317123
7143.000000;1.321326
7142.000000;1.325566
7141.000000;1.329883
7140.000000;1.334287
7139.000000;1.338917
7138.000000;1.343856
7137.000000;1.348872
7136.000000;1.353543
7135.000000;1.357671
7134.000000;1.361467
7133.000000;1.365364
7132.000000;1.369705
7131.000000;1.374549
7130.000000;1.379625
7129.000000;1.384510
7128.000000;1.389017
7127.000000;1.393381
7126.000000;1.397922
7125.000000;1.402526
7124.000000;1.406715
7123.000000;1.410268
7122.000000;1.413588
7121.000000;1.417292
7120.000000;1.421616
7119.000000;1.426357
7118.000000;1.431217
7117.000000;1.435990
7116.000000;1.440511
7115.000000;1.444672
7114.000000;1.448532
7113.000000;1.452298
7112.000000;1.456167
7111.000000;1.460219
7110.000000;1.464416
7109.000000;1.468623
7108.000000;1.472686
7107.000000;1.476612
7106.000000;1.480607
7105.000000;1.484814
7104.000000;1.489059
7103.000000;1.493047
7102.000000;1.496750
7101.000000;1.500393
7100.000000;1.504086
7099.000000;1.507716
7098.000000;1.511269
7097.000000;1.514955
7096.000000;1.518856
7095.000000;1.522670
7094.000000;1.526102
7093.000000;1.529364
7092.000000;1.532966
7091.000000;1.537039
7090.000000;1.541156
7089.000000;1.544847
7088.000000;1.548076
7087.000000;1.551142
7086.000000;1.554341
7085.000000;1.557842
7084.000000;1.561691
7083.000000;1.565744
7082.000000;1.569686
7081.000000;1.573308
7080.000000;1.576713
7079.000000;1.580094
7078.000000;1.583395
7077.000000;1.586396
7076.000000;1.589107
7075.000000;1.591824
7074.000000;1.594652
7073.000000;1.597222
7072.000000;1.599176
7071.000000;1.600834
7070.000000;1.603054
7069.000000;1.606359
7068.000000;1.610421
7067.000000;1.614448
7066.000000;1.617881
7065.000000;1.620642
7064.000000;1.622969
7063.000000;1.625296
7062.000000;1.628123
7061.000000;1.631617
7060.000000;1.635273
7059.000000;1.638246
7058.000000;1.640144
7057.000000;1.641371
7056.000000;1.642628
7055.000000;1.644242
7054.000000;1.646038
7053.000000;1.647690
7052.000000;1.649114
7051.000000;1.650622
7050.000000;1.652695
7049.000000;1.655443
7048.000000;1.658266
7047.000000;1.660323
7046.000000;1.661490
7045.000000;1.662629
7044.000000;1.664701
7043.000000;1.667772
7042.000000;1.671059
7041.000000;1.673818
7040.000000;1.675943
7039.000000;1.677803
7038.000000;1.679766
7037.000000;1.681921
7036.000000;1.684096
7035.000000;1.686039
7034.000000;1.687644
7033.000000;1.689011
7032.000000;1.690289
7031.000000;1.691537
7030.000000;1.692787
7029.000000;1.694097
7028.000000;1.695462
7027.000000;1.696799
7026.000000;1.698080
7025.000000;1.699365
7024.000000;1.700640
7023.000000;1.701859
7022.000000;1.703275
7021.000000;1.705413
7020.000000;1.708441
7019.000000;1.711758
7018.000000;1.714526
7017.000000;1.716435
7016.000000;1.717689
7015.000000;1.718456
7014.000000;1.718826
7013.000000;1.719138
7012.000000;1.719723
7011.000000;1.720326
7010.000000;1.720432
7009.000000;1.720236
7008.000000;1.720676
7007.000000;1.722268
7006.000000;1.724421
7005.000000;1.726249
7004.000000;1.727640
7003.000000;1.729053
7002.000000;1.730591
7001.000000;1.731885
7000.000000;1.732743
6999.000000;1.733357
6998.000000;1.733832
6997.000000;1.734010
6996.000000;1.733855
6995.000000;1.733670
6994.000000;1.733738
6993.000000;1.734028
6992.000000;1.734411
6991.000000;1.734957
6990.000000;1.735848
6989.000000;1.737117
6988.000000;1.738588
6987.000000;1.739993
6986.000000;1.741099
6985.000000;1.741847
6984.000000;1.742476
6983.000000;1.743376
6982.000000;1.744659
6981.000000;1.745960
6980.000000;1.746805
6979.000000;1.747141
6978.000000;1.747414
6977.000000;1.748076
6976.000000;1.749155
6975.000000;1.750362
6974.000000;1.751530
6973.000000;1.752745
6972.000000;1.753970
6971.000000;1.754701
6970.000000;1.754335
6969.000000;1.752968
6968.000000;1.751599
6967.000000;1.751235
6966.000000;1.751903
6965.000000;1.752742
6964.000000;1.753074
6963.000000;1.753045
6962.000000;1.753071
6961.000000;1.753048
6960.000000;1.752556
6959.000000;1.751739
6958.000000;1.751446
6957.000000;1.752360
6956.000000;1.754317
6955.000000;1.756584
6954.000000;1.758516
6953.000000;1.759754
6952.000000;1.760138
6951.000000;1.759853
6950.000000;1.759442
6949.000000;1.759244
6948.000000;1.758893
6947.000000;1.757874
6946.000000;1.756578
6945.000000;1.756204
6944.000000;1.757365
6943.000000;1.759192
6942.000000;1.760234
6941.000000;1.760082
6940.000000;1.759670
6939.000000;1.760058
6938.000000;1.761296
6937.000000;1.762497
6936.000000;1.762751
6935.000000;1.761914
6934.000000;1.760620
6933.000000;1.759667
6932.000000;1.759360
6931.000000;1.759391
6930.000000;1.759311
6929.000000;1.759037
6928.000000;1.758884
6927.000000;1.759228
6926.000000;1.760141
6925.000000;1.761145
6924.000000;1.761348
6923.000000;1.760209
6922.000000;1.758348
6921.000000;1.757188
6920.000000;1.757422
6919.000000;1.758148
6918.000000;1.757885
6917.000000;1.756312
6916.000000;1.754494
6915.000000;1.753511
6914.000000;1.753505
6913.000000;1.754105
6912.000000;1.755153
6911.000000;1.756611
6910.000000;1.758137
6909.000000;1.759170
6908.000000;1.759382
6907.000000;1.758880
6906.000000;1.758076
6905.000000;1.757495
6904.000000;1.757474
6903.000000;1.757813
6902.000000;1.757923
6901.000000;1.757549
6900.000000;1.757181
6899.000000;1.757459
6898.000000;1.758316
6897.000000;1.759022
6896.000000;1.759066
6895.000000;1.758660
6894.000000;1.758297
6893.000000;1.758120
6892.000000;1.757922
6891.000000;1.757516
6890.000000;1.756864
6889.000000;1.755918
6888.000000;1.754651
6887.000000;1.753345
6886.000000;1.752635
6885.000000;1.753037
6884.000000;1.754365
6883.000000;1.755756
6882.000000;1.756327
6881.000000;1.755831
6880.000000;1.754714
6879.000000;1.753668
6878.000000;1.753182
6877.000000;1.753300
6876.000000;1.753660
6875.000000;1.753813
6874.000000;1.753638
6873.000000;1.753400
6872.000000;1.753315
6871.000000;1.753188
6870.000000;1.752637
6869.000000;1.751588
6868.000000;1.750432
6867.000000;1.749732
6866.000000;1.749942
6865.000000;1.751265
6864.000000;1.753429
6863.000000;1.755553
6862.000000;1.756507
6861.000000;1.755675
6860.000000;1.753413
6859.000000;1.750772
6858.000000;1.748831
6857.000000;1.748132
6856.000000;1.748439
6855.000000;1.748949
6854.000000;1.748955
6853.000000;1.748441
6852.000000;1.747970
6851.000000;1.748009
6850.000000;1.748478
6849.000000;1.748848
6848.000000;1.748502
6847.000000;1.747060
6846.000000;1.744714
6845.000000;1.742349
6844.000000;1.741059
6843.000000;1.741306
6842.000000;1.742567
6841.000000;1.743802
6840.000000;1.744205
6839.000000;1.743561
6838.000000;1.742209
6837.000000;1.740801
6836.000000;1.739914
6835.000000;1.739641
6834.000000;1.739583
6833.000000;1.739255
6832.000000;1.738437
6831.000000;1.737124
6830.000000;1.735406
6829.000000;1.733572
6828.000000;1.732088
6827.000000;1.731205
6826.000000;1.730653
6825.000000;1.729872
6824.000000;1.728569
6823.000000;1.727018
6822.000000;1.725842
6821.000000;1.725536
6820.000000;1.726057
6819.000000;1.726790
6818.000000;1.727008
6817.000000;1.726454
6816.000000;1.725402
6815.000000;1.724199
6814.000000;1.722940
6813.000000;1.721613
6812.000000;1.720210
6811.000000;1.718545
6810.000000;1.716344
6809.000000;1.713816
6808.000000;1.711867
6807.000000;1.711296
6806.000000;1.711846
6805.000000;1.712368
6804.000000;1.711953
6803.000000;1.710635
6802.000000;1.708977
6801.000000;1.707347
6800.000000;1.705748
6799.000000;1.704064
6798.000000;1.702228
6797.000000;1.700245
6796.000000;1.698230
6795.000000;1.696394
6794.000000;1.694904
6793.000000;1.693772
6792.000000;1.692846
6791.000000;1.691842
6790.000000;1.690455
6789.000000;1.688598
6788.000000;1.686558
6787.000000;1.684713
6786.000000;1.683040
6785.000000;1.681085
6784.000000;1.678574
6783.000000;1.675920
6782.000000;1.673901
6781.000000;1.672848
6780.000000;1.672329
6779.000000;1.671662
6778.000000;1.670583
6777.000000;1.669288
6776.000000;1.667951
6775.000000;1.666440
6774.000000;1.664569
6773.000000;1.662450
6772.000000;1.660405
6771.000000;1.658582
6770.000000;1.656881
6769.000000;1.655212
6768.000000;1.653658
6767.000000;1.652298
6766.000000;1.651010
6765.000000;1.649561
6764.000000;1.647812
6763.000000;1.645797
6762.000000;1.643696
6761.000000;1.641825
6760.000000;1.640474
6759.000000;1.639607
6758.000000;1.638774
6757.000000;1.637492
6756.000000;1.635725
6755.000000;1.633883
6754.000000;1.632371
6753.000000;1.631228
6752.000000;1.630163
6751.000000;1.628790
6750.000000;1.626883
6749.000000;1.624558
6748.000000;1.622234
6747.000000;1.620304
6746.000000;1.618749
6745.000000;1.617137
6744.000000;1.615026
6743.000000;1.612338
6742.000000;1.609384
6741.000000;1.606632
6740.000000;1.604431
6739.000000;1.602793
6738.000000;1.601397
6737.000000;1.599873
6736.000000;1.598135
6735.000000;1.596393
6734.000000;1.594843
6733.000000;1.593481
6732.000000;1.592202
6731.000000;1.590920
6730.000000;1.589535
6729.000000;1.587942
6728.000000;1.586173
6727.000000;1.584423
6726.000000;1.582793
6725.000000;1.581119
6724.000000;1.579204
6723.000000;1.577143
6722.000000;1.575237
6721.000000;1.573589
6720.000000;1.571959
6719.000000;1.570104
6718.000000;1.568116
6717.000000;1.566349
6716.000000;1.565027
6715.000000;1.563987
6714.000000;1.562776
6713.000000;1.561010
6712.000000;1.558708
6711.000000;1.556306
6710.000000;1.554265
6709.000000;1.552655
6708.000000;1.551113
6707.000000;1.549252
6706.000000;1.547109
6705.000000;1.545059
6704.000000;1.543376
6703.000000;1.541966
6702.000000;1.540549
6701.000000;1.538955
6700.000000;1.537209
6699.000000;1.535411
6698.000000;1.533651
6697.000000;1.532013
6696.000000;1.530542
6695.000000;1.529161
6694.000000;1.527675
6693.000000;1.525915
6692.000000;1.523874
6691.000000;1.521732
6690.000000;1.519782
6689.000000;1.518322
6688.000000;1.517486
6687.000000;1.517079
6686.000000;1.516588
6685.000000;1.515462
6684.000000;1.513474
6683.000000;1.510879
6682.000000;1.508241
6681.000000;1.506064
6680.000000;1.504465
6679.000000;1.503117
6678.000000;1.501532
6677.000000;1.499507
6676.000000;1.497310
6675.000000;1.495416
6674.000000;1.494065
6673.000000;1.493115
6672.000000;1.492239
6671.000000;1.491205
6670.000000;1.489941
6669.000000;1.488462
6668.000000;1.486812
6667.000000;1.485058
6666.000000;1.483280
6665.000000;1.481536
6664.000000;1.479830
6663.000000;1.478123
6662.000000;1.476391
6661.000000;1.474697
6660.000000;1.473156
6659.000000;1.471743
6658.000000;1.470208
6657.000000;1.468295
6656.000000;1.466077
6655.000000;1.463968
6654.000000;1.462304
6653.000000;1.461010
6652.000000;1.459759
6651.000000;1.458386
6650.000000;1.457035
6649.000000;1.455883
6648.000000;1.454889
6647.000000;1.453827
6646.000000;1.452498
6645.000000;1.450841
6644.000000;1.448943
6643.000000;1.447003
6642.000000;1.445249
6641.000000;1.443778
6640.000000;1.442478
6639.000000;1.441161
6638.000000;1.439766
6637.000000;1.438385
6636.000000;1.437108
6635.000000;1.435929
6634.000000;1.434789
6633.000000;1.433642
6632.000000;1.432427
6631.000000;1.431048
6630.000000;1.429468
6629.000000;1.427804
6628.000000;1.426262
6627.000000;1.424947
6626.000000;1.423754
6625.000000;1.422440
6624.000000;1.420794
6623.000000;1.418793
6622.000000;1.416638
6621.000000;1.414637
6620.000000;1.412992
6619.000000;1.411682
6618.000000;1.410569
6617.000000;1.409566
6616.000000;1.408643
6615.000000;1.407710
6614.000000;1.406608
6613.000000;1.405285
6612.000000;1.403865
6611.000000;1.402479
6610.000000;1.401112
6609.000000;1.399708
6608.000000;1.398347
6607.000000;1.397165
6606.000000;1.396126
6605.000000;1.395039
6604.000000;1.393841
6603.000000;1.392699
6602.000000;1.391760
6601.000000;1.390910
6600.000000;1.389898
6599.000000;1.388612
6598.000000;1.387131
6597.000000;1.385581
6596.000000;1.384080
6595.000000;1.382771
6594.000000;1.381741
6593.000000;1.380861
6592.000000;1.379828
6591.000000;1.378440
6590.000000;1.376768
6589.000000;1.375021
6588.000000;1.373359
6587.000000;1.371865
6586.000000;1.370608
6585.000000;1.369575
6584.000000;1.368586
6583.000000;1.367411
6582.000000;1.366016
6581.000000;1.364610
6580.000000;1.363402
6579.000000;1.362352
6578.000000;1.361235
6577.000000;1.359934
6576.000000;1.358606
6575.000000;1.357536
6574.000000;1.356811
6573.000000;1.356175
6572.000000;1.355223
6571.000000;1.353752
6570.000000;1.351939
6569.000000;1.350186
6568.000000;1.348808
6567.000000;1.347869
6566.000000;1.347256
6565.000000;1.346825
6564.000000;1.346453
6563.000000;1.345981
6562.000000;1.345235
6561.000000;1.344139
6560.000000;1.342789
6559.000000;1.341355
6558.000000;1.339938
6557.000000;1.338555
6556.000000;1.337229
6555.000000;1.336014
6554.000000;1.334898
6553.000000;1.333792
6552.000000;1.332664
6551.000000;1.331631
6550.000000;1.330814
6549.000000;1.330129
6548.000000;1.329303
6547.000000;1.328142
6546.000000;1.326738
6545.000000;1.325387
6544.000000;1.324343
6543.000000;1.323644
6542.000000;1.323128
6541.000000;1.322574
6540.000000;1.321848
6539.000000;1.320949
6538.000000;1.319925
6537.000000;1.318778
6536.000000;1.317477
6535.000000;1.316051
6534.000000;1.314615
6533.000000;1.313303
6532.000000;1.312193
6531.000000;1.311278
6530.000000;1.310480
6529.000000;1.309698
6528.000000;1.308897
6527.000000;1.308129
6526.000000;1.307411
6525.000000;1.306618
6524.000000;1.305591
6523.000000;1.304364
6522.000000;1.303155
6521.000000;1.302098
6520.000000;1.301086
6519.000000;1.299955
6518.000000;1.298732
6517.000000;1.297596
6516.000000;1.296648
6515.000000;1.295833
6514.000000;1.295073
6513.000000;1.294345
6512.000000;1.293627
6511.000000;1.292880
6510.000000;1.292106
6509.000000;1.291369
6508.000000;1.290672
6507.000000;1.289895
6506.000000;1.288900
6505.000000;1.287711
6504.000000;1.286528
6503.000000;1.285564
6502.000000;1.284873
6501.000000;1.284341
6500.000000;1.283802
6499.000000;1.283160
6498.000000;1.282393
6497.000000;1.281486
6496.000000;1.280409
6495.000000;1.279194
6494.000000;1.277996
6493.000000;1.277019
6492.000000;1.276356
6491.000000;1.275919
6490.000000;1.275531
6489.000000;1.275054
6488.000000;1.274453
6487.000000;1.273750
6486.000000;1.272979
6485.000000;1.272167
6484.000000;1.271336
6483.000000;1.270485
6482.000000;1.269585
6481.000000;1.268624
6480.000000;1.267672
6479.000000;1.266859
6478.000000;1.266233
6477.000000;1.265673
6476.000000;1.265003
6475.000000;1.264185
6474.000000;1.263333
6473.000000;1.262530
6472.000000;1.261725
6471.000000;1.260854
6470.000000;1.259971
6469.000000;1.259158
6468.000000;1.258395
6467.000000;1.257609
6466.000000;1.256834
6465.000000;1.256185
6464.000000;1.255674
6463.000000;1.255140
6462.000000;1.254427
6461.000000;1.253549
6460.000000;1.252621
6459.000000;1.251705
6458.000000;1.250775
6457.000000;1.249811
6456.000000;1.248854
6455.000000;1.247982
6454.000000;1.247263
6453.000000;1.246739
6452.000000;1.246377
6451.000000;1.246032
6450.000000;1.245512
6449.000000;1.244733
6448.000000;1.243798
6447.000000;1.242892
6446.000000;1.242095
6445.000000;1.241348
6444.000000;1.240587
6443.000000;1.239853
6442.000000;1.239219
6441.000000;1.238661
6440.000000;1.238091
6439.000000;1.237501
6438.000000;1.236978
6437.000000;1.236552
6436.000000;1.236100
6435.000000;1.235460
6434.000000;1.234615
6433.000000;1.233704
6432.000000;1.232879
6431.000000;1.232213
6430.000000;1.231690
6429.000000;1.231240
6428.000000;1.230757
6427.000000;1.230164
6426.000000;1.229470
6425.000000;1.228741
6424.000000;1.228020
6423.000000;1.227302
6422.000000;1.226591
6421.000000;1.225922
6420.000000;1.225325
6419.000000;1.224766
6418.000000;1.224161
6417.000000;1.223449
6416.000000;1.222665
6415.000000;1.221937
6414.000000;1.221382
6413.000000;1.220985
6412.000000;1.220610
6411.000000;1.220140
6410.000000;1.219563
6409.000000;1.218916
6408.000000;1.218201
6407.000000;1.217427
6406.000000;1.216695
6405.000000;1.216132
6404.000000;1.215722
6403.000000;1.215288
6402.000000;1.214675
6401.000000;1.213895
6400.000000;1.213077
6399.000000;1.212315
6398.000000;1.211618
6397.000000;1.210989
6396.000000;1.210476
6395.000000;1.210120
6394.000000;1.209859
6393.000000;1.209529
6392.000000;1.208992
6391.000000;1.208261
6390.000000;1.207482
6389.000000;1.206792
6388.000000;1.206208
6387.000000;1.205680
6386.000000;1.205192
6385.000000;1.204742
6384.000000;1.204281
6383.000000;1.203727
6382.000000;1.203063
6381.000000;1.202365
6380.000000;1.201717
6379.000000;1.201147
6378.000000;1.200647
6377.000000;1.200207
6376.000000;1.199797
6375.000000;1.199382
6374.000000;1.198963
6373.000000;1.198577
6372.000000;1.198217
6371.000000;1.197787
6370.000000;1.197188
6369.000000;1.196436
6368.000000;1.195673
6367.000000;1.195041
6366.000000;1.194584
6365.000000;1.194246
6364.000000;1.193937
6363.000000;1.193604
6362.000000;1.193234
6361.000000;1.192809
6360.000000;1.192280
6359.000000;1.191609
6358.000000;1.190840
6357.000000;1.190094
6356.000000;1.189483
6355.000000;1.189032
6354.000000;1.188679
6353.000000;1.188341
6352.000000;1.187952
6351.000000;1.187475
6350.000000;1.186899
6349.000000;1.186232
6348.000000;1.185498
6347.000000;1.184724
6346.000000;1.183961
6345.000000;1.183296
6344.000000;1.182842
6343.000000;1.182664
6342.000000;1.182680
6341.000000;1.182662
6340.000000;1.182382
6339.000000;1.181790
6338.000000;1.181044
6337.000000;1.180347
6336.000000;1.179793
6335.000000;1.179357
6334.000000;1.178974
6333.000000;1.178579
6332.000000;1.178098
6331.000000;1.177490
6330.000000;1.176815
6329.000000;1.176218
6328.000000;1.175810
6327.000000;1.175560
6326.000000;1.175325
6325.000000;1.174982
6324.000000;1.174528
6323.000000;1.174056
6322.000000;1.173632
6321.000000;1.173238
6320.000000;1.172830
6319.000000;1.172419
6318.000000;1.172037
6317.000000;1.171632
6316.000000;1.171103
6315.000000;1.170464
6314.000000;1.169903
6313.000000;1.169577
6312.000000;1.169420
6311.000000;1.169226
6310.000000;1.168900
6309.000000;1.168528
6308.000000;1.168195
6307.000000;1.167863
6306.000000;1.167460
6305.000000;1.167005
6304.000000;1.166570
6303.000000;1.166183
6302.000000;1.165826
6301.000000;1.165500
6300.000000;1.165227
6299.000000;1.164983
6298.000000;1.164683
6297.000000;1.164281
6296.000000;1.163827
6295.000000;1.163412
6294.000000;1.163058
6293.000000;1.162692
6292.000000;1.162250
6291.000000;1.161766
6290.000000;1.161334
6289.000000;1.160980
6288.000000;1.160634
6287.000000;1.160219
6286.000000;1.159745
6285.000000;1.159276
6284.000000;1.158855
6283.000000;1.158506
6282.000000;1.158267
6281.000000;1.158158
6280.000000;1.158115
6279.000000;1.158000
6278.000000;1.157708
6277.000000;1.157223
6276.000000;1.156616
6275.000000;1.156012
6274.000000;1.155546
6273.000000;1.155307
6272.000000;1.155272
6271.000000;1.155314
6270.000000;1.155269
6269.000000;1.155001
6268.000000;1.154475
6267.000000;1.153809
6266.000000;1.153236
6265.000000;1.152919
6264.000000;1.152799
6263.000000;1.152664
6262.000000;1.152358
6261.000000;1.151883
6260.000000;1.151322
6259.000000;1.150768
6258.000000;1.150319
6257.000000;1.150053
6256.000000;1.149940
6255.000000;1.149830
6254.000000;1.149589
6253.000000;1.149218
6252.000000;1.148811
6251.000000;1.148448
6250.000000;1.148158
6249.000000;1.147945
6248.000000;1.147791
6247.000000;1.147646
6246.000000;1.147471
6245.000000;1.147276
6244.000000;1.147080
6243.000000;1.146856
6242.000000;1.146550
6241.000000;1.146140
6240.000000;1.145657
6239.000000;1.145169
6238.000000;1.144769
6237.000000;1.144550
6236.000000;1.144514
6235.000000;1.144518
6234.000000;1.144372
6233.000000;1.144010
6232.000000;1.143543
6231.000000;1.143128
6230.000000;1.142823
6229.000000;1.142605
6228.000000;1.142453
6227.000000;1.142353
6226.000000;1.142243
6225.000000;1.142021
6224.000000;1.141651
6223.000000;1.141204
6222.000000;1.140784
6221.000000;1.140440
6220.000000;1.140178
6219.000000;1.140002
6218.000000;1.139892
6217.000000;1.139764
6216.000000;1.139534
6215.000000;1.139216
6214.000000;1.138908
6213.000000;1.138670
6212.000000;1.138476
6211.000000;1.138292
6210.000000;1.138135
6209.000000;1.138017
6208.000000;1.137901
6207.000000;1.137741
6206.000000;1.137533
6205.000000;1.137278
6204.000000;1.136965
6203.000000;1.136629
6202.000000;1.136358
6201.000000;1.136187
6200.000000;1.136037
6199.000000;1.135818
6198.000000;1.135552
6197.000000;1.135326
6196.000000;1.135148
6195.000000;1.134936
6194.000000;1.134637
6193.000000;1.134271
6192.000000;1.133880
6191.000000;1.133505
6190.000000;1.133209
6189.000000;1.133050
6188.000000;1.133003
6187.000000;1.132990
6186.000000;1.132962
6185.000000;1.132906
6184.000000;1.132766
6183.000000;1.132477
6182.000000;1.132089
6181.000000;1.131769
6180.000000;1.131629
6179.000000;1.131608
6178.000000;1.131562
6177.000000;1.131399
6176.000000;1.131114
6175.000000;1.130752
6174.000000;1.130402
6173.000000;1.130175
6172.000000;1.130119
6171.000000;1.130177
6170.000000;1.130246
6169.000000;1.130252
6168.000000;1.130159
6167.000000;1.129959
6166.000000;1.129693
6165.000000;1.129459
6164.000000;1.129321
6163.000000;1.129243
6162.000000;1.129140
6161.000000;1.128970
6160.000000;1.128743
6159.000000;1.128465
6158.000000;1.128140
6157.000000;1.127818
6156.000000;1.127585
6155.000000;1.127474
6154.000000;1.127409
6153.000000;1.127262
6152.000000;1.126968
6151.000000;1.126604
6150.000000;1.126337
6149.000000;1.126284
6148.000000;1.126403
6147.000000;1.126522
6146.000000;1.126484
6145.000000;1.126254
6144.000000;1.125934
6143.000000;1.125672
6142.000000;1.125549
6141.000000;1.125513
6140.000000;1.125424
6139.000000;1.125202
6138.000000;1.124897
6137.000000;1.124617
6136.000000;1.124412
6135.000000;1.124283
6134.000000;1.124240
6133.000000;1.124281
6132.000000;1.124321
6131.000000;1.124242
6130.000000;1.124028
6129.000000;1.123779
6128.000000;1.123582
6127.000000;1.123431
6126.000000;1.123297
6125.000000;1.123185
6124.000000;1.123087
6123.000000;1.122959
6122.000000;1.122789
6121.000000;1.122634
6120.000000;1.122523
6119.000000;1.122384
6118.000000;1.122121
6117.000000;1.121760
6116.000000;1.121422
6115.000000;1.121201
6114.000000;1.121091
6113.000000;1.121029
6112.000000;1.120958
6111.000000;1.120869
6110.000000;1.120791
6109.000000;1.120760
6108.000000;1.120758
6107.000000;1.120736
6106.000000;1.120684
6105.000000;1.120645
6104.000000;1.120639
6103.000000;1.120619
6102.000000;1.120541
6101.000000;1.120436
6100.000000;1.120345
6099.000000;1.120236
6098.000000;1.120038
6097.000000;1.119754
6096.000000;1.119471
6095.000000;1.119269
6094.000000;1.119148
6093.000000;1.119072
6092.000000;1.119024
6091.000000;1.119019
6090.000000;1.119065
6089.000000;1.119131
6088.000000;1.119139
6087.000000;1.119011
6086.000000;1.118751
6085.000000;1.118466
6084.000000;1.118305
6083.000000;1.118332
6082.000000;1.118469
6081.000000;1.118546
6080.000000;1.118435
6079.000000;1.118168
6078.000000;1.117938
6077.000000;1.117920
6076.000000;1.118093
6075.000000;1.118261
6074.000000;1.118260
6073.000000;1.118092
6072.000000;1.117848
6071.000000;1.117600
6070.000000;1.117403
6069.000000;1.117341
6068.000000;1.117449
6067.000000;1.117633
6066.000000;1.117743
6065.000000;1.117725
6064.000000;1.117655
6063.000000;1.117614
6062.000000;1.117625
6061.000000;1.117696
6060.000000;1.117851
6059.000000;1.118064
6058.000000;1.118205
6057.000000;1.118117
6056.000000;1.117759
6055.000000;1.117268
6054.000000;1.116878
6053.000000;1.116753
6052.000000;1.116873
6051.000000;1.117076
6050.000000;1.117204
6049.000000;1.117208
6048.000000;1.117134
6047.000000;1.117028
6046.000000;1.116902
6045.000000;1.116756
6044.000000;1.116599
6043.000000;1.116455
6042.000000;1.116380
6041.000000;1.116445
6040.000000;1.116647
6039.000000;1.116864
6038.000000;1.116936
6037.000000;1.116818
6036.000000;1.116620
6035.000000;1.116495
6034.000000;1.116501
6033.000000;1.116581
6032.000000;1.116640
6031.000000;1.116640
6030.000000;1.116638
6029.000000;1.116731
6028.000000;1.116955
6027.000000;1.117224
6026.000000;1.117402
6025.000000;1.117421
6024.000000;1.117314
6023.000000;1.117157
6022.000000;1.117011
6021.000000;1.116908
6020.000000;1.116865
6019.000000;1.116858
6018.000000;1.116837
6017.000000;1.116761
6016.000000;1.116648
6015.000000;1.116559
6014.000000;1.116540
6013.000000;1.116573
6012.000000;1.116585
6011.000000;1.116525
6010.000000;1.116439
6009.000000;1.116447
6008.000000;1.116623
6007.000000;1.116908
6006.000000;1.117180
6005.000000;1.117381
6004.000000;1.117555
6003.000000;1.117753
6002.000000;1.117948
6001.000000;1.118080
6000.000000;1.118136
5999.000000;1.118167
5998.000000;1.118226
5997.000000;1.118327
5996.000000;1.118458
5995.000000;1.118622
5994.000000;1.118843
5993.000000;1.119125
5992.000000;1.119417
5991.000000;1.119634
5990.000000;1.119733
5989.000000;1.119759
5988.000000;1.119796
5987.000000;1.119885
5986.000000;1.120002
5985.000000;1.120114
5984.000000;1.120226
5983.000000;1.120362
5982.000000;1.120523
5981.000000;1.120695
5980.000000;1.120873
5979.000000;1.121074
5978.000000;1.121311
5977.000000;1.121572
5976.000000;1.121833
5975.000000;1.122079
5974.000000;1.122299
5973.000000;1.122481
5972.000000;1.122619
5971.000000;1.122747
5970.000000;1.122922
5969.000000;1.123178
5968.000000;1.123497
5967.000000;1.123834
5966.000000;1.124168
5965.000000;1.124498
5964.000000;1.124823
5963.000000;1.125136
5962.000000;1.125443
5961.000000;1.125759
5960.000000;1.126080
5959.000000;1.126384
5958.000000;1.126665
5957.000000;1.126960
5956.000000;1.127303
5955.000000;1.127676
5954.000000;1.128009
5953.000000;1.128245
5952.000000;1.128391
5951.000000;1.128519
5950.000000;1.128718
5949.000000;1.129031
5948.000000;1.129444
5947.000000;1.129918
5946.000000;1.130403
5945.000000;1.130835
5944.000000;1.131151
5943.000000;1.131347
5942.000000;1.131495
5941.000000;1.131656
5940.000000;1.131816
5939.000000;1.131950
5938.000000;1.132125
5937.000000;1.132464
5936.000000;1.132988
5935.000000;1.133560
5934.000000;1.134031
5933.000000;1.134375
5932.000000;1.134655
5931.000000;1.134909
5930.000000;1.135113
5929.000000;1.135254
5928.000000;1.135367
5927.000000;1.135504
5926.000000;1.135712
5925.000000;1.136010
5924.000000;1.136368
5923.000000;1.136709
5922.000000;1.136971
5921.000000;1.137162
5920.000000;1.137339
5919.000000;1.137544
5918.000000;1.137778
5917.000000;1.138024
5916.000000;1.138259
5915.000000;1.138454
5914.000000;1.138600
5913.000000;1.138722
5912.000000;1.138850
5911.000000;1.138967
5910.000000;1.139018
5909.000000;1.138974
5908.000000;1.138880
5907.000000;1.138839
5906.000000;1.138936
5905.000000;1.139167
5904.000000;1.139418
5903.000000;1.139546
5902.000000;1.139512
5901.000000;1.139423
5900.000000;1.139415
5899.000000;1.139513
5898.000000;1.139633
5897.000000;1.139692
5896.000000;1.139687
5895.000000;1.139649
5894.000000;1.139598
5893.000000;1.139546
5892.000000;1.139523
5891.000000;1.139566
5890.000000;1.139682
5889.000000;1.139841
5888.000000;1.139995
5887.000000;1.140097
5886.000000;1.140132
5885.000000;1.140127
5884.000000;1.140126
5883.000000;1.140143
5882.000000;1.140161
5881.000000;1.140166
5880.000000;1.140178
5879.000000;1.140224
5878.000000;1.140320
5877.000000;1.140484
5876.000000;1.140739
5875.000000;1.141063
5874.000000;1.141355
5873.000000;1.141501
5872.000000;1.141505
5871.000000;1.141515
5870.000000;1.141695
5869.000000;1.142069
5868.000000;1.142511
5867.000000;1.142883
5866.000000;1.143148
5865.000000;1.143349
5864.000000;1.143535
5863.000000;1.143736
5862.000000;1.143994
5861.000000;1.144352
5860.000000;1.144792
5859.000000;1.145233
5858.000000;1.145603
5857.000000;1.145912
5856.000000;1.146225
5855.000000;1.146586
5854.000000;1.146987
5853.000000;1.147395
5852.000000;1.147784
5851.000000;1.148145
5850.000000;1.148483
5849.000000;1.148829
5848.000000;1.149215
5847.000000;1.149660
5846.000000;1.150174
5845.000000;1.150755
5844.000000;1.151367
5843.000000;1.151942
5842.000000;1.152421
5841.000000;1.152828
5840.000000;1.153252
5839.000000;1.153752
5838.000000;1.154296
5837.000000;1.154807
5836.000000;1.155276
5835.000000;1.155780
5834.000000;1.156385
5833.000000;1.157033
5832.000000;1.157581
5831.000000;1.157939
5830.000000;1.158174
5829.000000;1.158430
5828.000000;1.158772
5827.000000;1.159156
5826.000000;1.159558
5825.000000;1.160066
5824.000000;1.160780
5823.000000;1.161646
5822.000000;1.162469
5821.000000;1.163101
5820.000000;1.163576
5819.000000;1.164001
5818.000000;1.164403
5817.000000;1.164743
5816.000000;1.165052
5815.000000;1.165467
5814.000000;1.166066
5813.000000;1.166743
5812.000000;1.167317
5811.000000;1.167735
5810.000000;1.168114
5809.000000;1.168590
5808.000000;1.169178
5807.000000;1.169802
5806.000000;1.170396
5805.000000;1.170955
5804.000000;1.171514
5803.000000;1.172119
5802.000000;1.172796
5801.000000;1.173510
5800.000000;1.174181
5799.000000;1.174762
5798.000000;1.175278
5797.000000;1.175772
5796.000000;1.176248
5795.000000;1.176719
5794.000000;1.177255
5793.000000;1.177918
5792.000000;1.178647
5791.000000;1.179300
5790.000000;1.179818
5789.000000;1.180298
5788.000000;1.180844
5787.000000;1.181431
5786.000000;1.181955
5785.000000;1.182384
5784.000000;1.182788
5783.000000;1.183256
5782.000000;1.183817
5781.000000;1.184442
5780.000000;1.185090
5779.000000;1.185734
5778.000000;1.186377
5777.000000;1.187032
5776.000000;1.187683
5775.000000;1.188279
5774.000000;1.188791
5773.000000;1.189248
5772.000000;1.189701
5771.000000;1.190172
5770.000000;1.190676
5769.000000;1.191256
5768.000000;1.191950
5767.000000;1.192713
5766.000000;1.193434
5765.000000;1.194044
5764.000000;1.194561
5763.000000;1.195033
5762.000000;1.195464
5761.000000;1.195848
5760.000000;1.196227
5759.000000;1.196666
5758.000000;1.197180
5757.000000;1.197716
5756.000000;1.198223
5755.000000;1.198696
5754.000000;1.199160
5753.000000;1.199641
5752.000000;1.200166
5751.000000;1.200765
5750.000000;1.201427
5749.000000;1.202075
5748.000000;1.202619
5747.000000;1.203044
5746.000000;1.203416
5745.000000;1.203793
5744.000000;1.204158
5743.000000;1.204473
5742.000000;1.204768
5741.000000;1.205135
5740.000000;1.205635
5739.000000;1.206244
5738.000000;1.206908
5737.000000;1.207605
5736.000000;1.208331
5735.000000;1.209035
5734.000000;1.209615
5733.000000;1.210000
5732.000000;1.210226
5731.000000;1.210443
5730.000000;1.210825
5729.000000;1.211444
5728.000000;1.212221
5727.000000;1.213005
5726.000000;1.213694
5725.000000;1.214290
5724.000000;1.214829
5723.000000;1.215303
5722.000000;1.215676
5721.000000;1.215960
5720.000000;1.216247
5719.000000;1.216643
5718.000000;1.217196
5717.000000;1.217884
5716.000000;1.218649
5715.000000;1.219417
5714.000000;1.220119
5713.000000;1.220707
5712.000000;1.221192
5711.000000;1.221635
5710.000000;1.222102
5709.000000;1.222615
5708.000000;1.223155
5707.000000;1.223693
5706.000000;1.224198
5705.000000;1.224636
5704.000000;1.225013
5703.000000;1.225408
5702.000000;1.225924
5701.000000;1.226580
5700.000000;1.227277
5699.000000;1.227923
5698.000000;1.228537
5697.000000;1.229186
5696.000000;1.229850
5695.000000;1.230438
5694.000000;1.230910
5693.000000;1.231305
5692.000000;1.231646
5691.000000;1.231920
5690.000000;1.232179
5689.000000;1.232586
5688.000000;1.233259
5687.000000;1.234118
5686.000000;1.234954
5685.000000;1.235628
5684.000000;1.236155
5683.000000;1.236616
5682.000000;1.237071
5681.000000;1.237558
5680.000000;1.238103
5679.000000;1.238678
5678.000000;1.239202
5677.000000;1.239619
5676.000000;1.239960
5675.000000;1.240309
5674.000000;1.240725
5673.000000;1.241211
5672.000000;1.241735
5671.000000;1.242252
5670.000000;1.242726
5669.000000;1.243159
5668.000000;1.243599
5667.000000;1.244098
5666.000000;1.244662
5665.000000;1.245251
5664.000000;1.245828
5663.000000;1.246368
5662.000000;1.246836
5661.000000;1.247197
5660.000000;1.247478
5659.000000;1.247783
5658.000000;1.248199
5657.000000;1.248700
5656.000000;1.249164
5655.000000;1.249517
5654.000000;1.249806
5653.000000;1.250124
5652.000000;1.250491
5651.000000;1.250852
5650.000000;1.251193
5649.000000;1.251589
5648.000000;1.252126
5647.000000;1.252780
5646.000000;1.253425
5645.000000;1.253946
5644.000000;1.254329
5643.000000;1.254647
5642.000000;1.254986
5641.000000;1.255401
5640.000000;1.255926
5639.000000;1.256557
5638.000000;1.257199
5637.000000;1.257688
5636.000000;1.257921
5635.000000;1.257976
5634.000000;1.258067
5633.000000;1.258344
5632.000000;1.258781
5631.000000;1.259249
5630.000000;1.259651
5629.000000;1.259971
5628.000000;1.260241
5627.000000;1.260524
5626.000000;1.260881
5625.000000;1.261319
5624.000000;1.261750
5623.000000;1.262079
5622.000000;1.262307
5621.000000;1.262516
5620.000000;1.262763
5619.000000;1.263037
5618.000000;1.263326
5617.000000;1.263661
5616.000000;1.264055
5615.000000;1.264460
5614.000000;1.264796
5613.000000;1.265025
5612.000000;1.265178
5611.000000;1.265340
5610.000000;1.265620
5609.000000;1.266080
5608.000000;1.266669
5607.000000;1.267260
5606.000000;1.267751
5605.000000;1.268122
5604.000000;1.268397
5603.000000;1.268601
5602.000000;1.268777
5601.000000;1.268974
5600.000000;1.269182
5599.000000;1.269317
5598.000000;1.269339
5597.000000;1.269334
5596.000000;1.269435
5595.000000;1.269651
5594.000000;1.269848
5593.000000;1.269893
5592.000000;1.269793
5591.000000;1.269674
5590.000000;1.269664
5589.000000;1.269792
5588.000000;1.269985
5587.000000;1.270134
5586.000000;1.270182
5585.000000;1.270156
5584.000000;1.270149
5583.000000;1.270266
5582.000000;1.270569
5581.000000;1.271022
5580.000000;1.271482
5579.000000;1.271779
5578.000000;1.271846
5577.000000;1.271772
5576.000000;1.271702
5575.000000;1.271715
5574.000000;1.271796
5573.000000;1.271904
5572.000000;1.272019
5571.000000;1.272139
5570.000000;1.272254
5569.000000;1.272335
5568.000000;1.272359
5567.000000;1.272341
5566.000000;1.272334
5565.000000;1.272370
5564.000000;1.272419
5563.000000;1.272413
5562.000000;1.272331
5561.000000;1.272221
5560.000000;1.272131
5559.000000;1.272067
5558.000000;1.272022
5557.000000;1.272012
5556.000000;1.272041
5555.000000;1.272072
5554.000000;1.272064
5553.000000;1.272030
5552.000000;1.272020
5551.000000;1.272060
5550.000000;1.272144
5549.000000;1.272258
5548.000000;1.272382
5547.000000;1.272470
5546.000000;1.272479
5545.000000;1.272409
5544.000000;1.272308
5543.000000;1.272209
5542.000000;1.272104
5541.000000;1.271982
5540.000000;1.271864
5539.000000;1.271811
5538.000000;1.271864
5537.000000;1.272008
5536.000000;1.272175
5535.000000;1.272300
5534.000000;1.272376
5533.000000;1.272431
5532.000000;1.272484
5531.000000;1.272528
5530.000000;1.272549
5529.000000;1.272522
5528.000000;1.272424
5527.000000;1.272267
5526.000000;1.272127
5525.000000;1.272088
5524.000000;1.272159
5523.000000;1.272281
5522.000000;1.272414
5521.000000;1.272556
5520.000000;1.272671
5519.000000;1.272685
5518.000000;1.272592
5517.000000;1.272501
5516.000000;1.272523
5515.000000;1.272636
5514.000000;1.272745
5513.000000;1.272814
5512.000000;1.272880
5511.000000;1.272946
5510.000000;1.272959
5509.000000;1.272895
5508.000000;1.272796
5507.000000;1.272709
5506.000000;1.272638
5505.000000;1.272568
5504.000000;1.272500
5503.000000;1.272441
5502.000000;1.272384
5501.000000;1.272344
5500.000000;1.272396
5499.000000;1.272620
5498.000000;1.273002
5497.000000;1.273402
5496.000000;1.273654
5495.000000;1.273720
5494.000000;1.273728
5493.000000;1.273836
5492.000000;1.274043
5491.000000;1.274183
5490.000000;1.274134
5489.000000;1.273997
5488.000000;1.273999
5487.000000;1.274259
5486.000000;1.274687
5485.000000;1.275126
5484.000000;1.275506
5483.000000;1.275841
5482.000000;1.276147
5481.000000;1.276412
5480.000000;1.276620
5479.000000;1.276756
5478.000000;1.276799
5477.000000;1.276749
5476.000000;1.276661
5475.000000;1.276623
5474.000000;1.276680
5473.000000;1.276812
5472.000000;1.276992
5471.000000;1.277261
5470.000000;1.277693
5469.000000;1.278288
5468.000000;1.278938
5467.000000;1.279521
5466.000000;1.279993
5465.000000;1.280380
5464.000000;1.280699
5463.000000;1.280968
5462.000000;1.281242
5461.000000;1.281587
5460.000000;1.281996
5459.000000;1.282394
5458.000000;1.282736
5457.000000;1.283075
5456.000000;1.283524
5455.000000;1.284147
5454.000000;1.284882
5453.000000;1.285582
5452.000000;1.286141
5451.000000;1.286598
5450.000000;1.287048
5449.000000;1.287508
5448.000000;1.287918
5447.000000;1.288301
5446.000000;1.288805
5445.000000;1.289513
5444.000000;1.290295
5443.000000;1.290960
5442.000000;1.291523
5441.000000;1.292182
5440.000000;1.293025
5439.000000;1.293912
5438.000000;1.294674
5437.000000;1.295316
5436.000000;1.295971
5435.000000;1.296741
5434.000000;1.297631
5433.000000;1.298584
5432.000000;1.299534
5431.000000;1.300463
5430.000000;1.301442
5429.000000;1.302558
5428.000000;1.303787
5427.000000;1.304998
5426.000000;1.306127
5425.000000;1.307250
5424.000000;1.308453
5423.000000;1.309691
5422.000000;1.310852
5421.000000;1.311909
5420.000000;1.312933
5419.000000;1.313996
5418.000000;1.315131
5417.000000;1.316366
5416.000000;1.317727
5415.000000;1.319189
5414.000000;1.320694
5413.000000;1.322226
5412.000000;1.323832
5411.000000;1.325583
5410.000000;1.327518
5409.000000;1.329595
5408.000000;1.331690
5407.000000;1.333679
5406.000000;1.335533
5405.000000;1.337322
5404.000000;1.339148
5403.000000;1.341102
5402.000000;1.343231
5401.000000;1.345504
5400.000000;1.347807
5399.000000;1.350039
5398.000000;1.352242
5397.000000;1.354568
5396.000000;1.357108
5395.000000;1.359791
5394.000000;1.362481
5393.000000;1.365144
5392.000000;1.367862
5391.000000;1.370717
5390.000000;1.373724
5389.000000;1.376818
5388.000000;1.379909
5387.000000;1.382976
5386.000000;1.386130
5385.000000;1.389507
5384.000000;1.393087
5383.000000;1.396704
5382.000000;1.400270
5381.000000;1.403918
5380.000000;1.407835
5379.000000;1.412034
5378.000000;1.416366
5377.000000;1.420716
5376.000000;1.425114
5375.000000;1.429654
5374.000000;1.434377
5373.000000;1.439240
5372.000000;1.444152
5371.000000;1.449047
5370.000000;1.453967
5369.000000;1.459037
5368.000000;1.464354
5367.000000;1.469904
5366.000000;1.475602
5365.000000;1.481378
5364.000000;1.487236
5363.000000;1.493270
5362.000000;1.499623
5361.000000;1.506373
5360.000000;1.513439
5359.000000;1.520634
5358.000000;1.527789
5357.000000;1.534830
5356.000000;1.541818
5355.000000;1.549006
5354.000000;1.556760
5353.000000;1.565243
5352.000000;1.574188
5351.000000;1.583112
5350.000000;1.591790
5349.000000;1.600380
5348.000000;1.609171
5347.000000;1.618401
5346.000000;1.628293
5345.000000;1.638988
5344.000000;1.650283
5343.000000;1.661594
5342.000000;1.672426
5341.000000;1.682853
5340.000000;1.693452
5339.000000;1.704829
5338.000000;1.717135
5337.000000;1.729957
5336.000000;1.742805
5335.000000;1.755678
5334.000000;1.769057
5333.000000;1.783295
5332.000000;1.798166
5331.000000;1.813115
5330.000000;1.827903
5329.000000;1.842824
5328.000000;1.858350
5327.000000;1.874741
5326.000000;1.891896
5325.000000;1.909361
5324.000000;1.926569
5323.000000;1.943328
5322.000000;1.960139
5321.000000;1.977784
5320.000000;1.996532
5319.000000;2.015941
5318.000000;2.035494
5317.000000;2.055166
5316.000000;2.075317
5315.000000;2.096271
5314.000000;2.118088
5313.000000;2.140581
5312.000000;2.163479
5311.000000;2.186703
5310.000000;2.210478
5309.000000;2.234968
5308.000000;2.259841
5307.000000;2.284446
5306.000000;2.308442
5305.000000;2.332010
5304.000000;2.355439
5303.000000;2.378773
5302.000000;2.401840
5301.000000;2.424459
5300.000000;2.446777
5299.000000;2.469525
5298.000000;2.493529
5297.000000;2.518699
5296.000000;2.543814
5295.000000;2.567611
5294.000000;2.589807
5293.000000;2.610898
5292.000000;2.631691
5291.000000;2.653271
5290.000000;2.676061
5289.000000;2.698372
5288.000000;2.717502
5287.000000;2.733098
5286.000000;2.748220
5285.000000;2.765989
5284.000000;2.786000
5283.000000;2.805080
5282.000000;2.820989
5281.000000;2.834218
5280.000000;2.846272
5279.000000;2.857633
5278.000000;2.867578
5277.000000;2.875000
5276.000000;2.879942
5275.000000;2.884938
5274.000000;2.893102
5273.000000;2.904727
5272.000000;2.917493
5271.000000;2.929000
5270.000000;2.937362
5269.000000;2.940222
5268.000000;2.936659
5267.000000;2.931446
5266.000000;2.932803
5265.000000;2.943642
5264.000000;2.957662
5263.000000;2.966189
5262.000000;2.967599
5261.000000;2.966196
5260.000000;2.964970
5259.000000;2.964279
5258.000000;2.964688
5257.000000;2.967193
5256.000000;2.971121
5255.000000;2.974656
5254.000000;2.977333
5253.000000;2.979488
5252.000000;2.980937
5251.000000;2.982318
5250.000000;2.984922
5249.000000;2.987474
5248.000000;2.986338
5247.000000;2.981402
5246.000000;2.977672
5245.000000;2.978057
5244.000000;2.979172
5243.000000;2.977425
5242.000000;2.975413
5241.000000;2.977318
5240.000000;2.980944
5239.000000;2.979769
5238.000000;2.972276
5237.000000;2.963730
5236.000000;2.958795
5235.000000;2.958326
5234.000000;2.962484
5233.000000;2.971223
5232.000000;2.981152
5231.000000;2.986397
5230.000000;2.985440
5229.000000;2.984166
5228.000000;2.988118
5227.000000;2.994647
5226.000000;2.995829
5225.000000;2.988438
5224.000000;2.977903
5223.000000;2.971220
5222.000000;2.970070
5221.000000;2.971587
5220.000000;2.972719
5219.000000;2.972607
5218.000000;2.971373
5217.000000;2.968238
5216.000000;2.962495
5215.000000;2.956125
5214.000000;2.953327
5213.000000;2.956644
5212.000000;2.964852
5211.000000;2.975009
5210.000000;2.985079
5209.000000;2.993537
5208.000000;2.997527
5207.000000;2.994625
5206.000000;2.987446
5205.000000;2.982574
5204.000000;2.983537
5203.000000;2.987432
5202.000000;2.988933
5201.000000;2.986381
5200.000000;2.983057
5199.000000;2.983220
5198.000000;2.987767
5197.000000;2.992683
5196.000000;2.991663
5195.000000;2.982733
5194.000000;2.971370
5193.000000;2.964955
5192.000000;2.965904
5191.000000;2.970612
5190.000000;2.974062
5189.000000;2.974729
5188.000000;2.974174
5187.000000;2.973364
5186.000000;2.971839
5185.000000;2.969950
5184.000000;2.969493
5183.000000;2.971499
5182.000000;2.975011
5181.000000;2.978957
5180.000000;2.983557
5179.000000;2.988379
5178.000000;2.990627
5177.000000;2.987626
5176.000000;2.980725
5175.000000;2.974511
5174.000000;2.971522
5173.000000;2.969589
5172.000000;2.965406
5171.000000;2.959629
5170.000000;2.956507
5169.000000;2.958835
5168.000000;2.964966
5167.000000;2.970818
5166.000000;2.973948
5165.000000;2.975105
5164.000000;2.976259
5163.000000;2.977773
5162.000000;2.977639
5161.000000;2.974153
5160.000000;2.969077
5159.000000;2.966512
5158.000000;2.968328
5157.000000;2.971613
5156.000000;2.972125
5155.000000;2.970172
5154.000000;2.969923
5153.000000;2.973360
5152.000000;2.978027
5151.000000;2.980171
5150.000000;2.978307
5149.000000;2.973946
5148.000000;2.970312
5147.000000;2.970329
5146.000000;2.974056
5145.000000;2.977802
5144.000000;2.977263
5143.000000;2.971551
5142.000000;2.962701
5141.000000;2.952339
5140.000000;2.941527
5139.000000;2.933147
5138.000000;2.931191
5137.000000;2.936762
5136.000000;2.946501
5135.000000;2.955667
5134.000000;2.961561
5133.000000;2.963477
5132.000000;2.961953
5131.000000;2.959993
5130.000000;2.962570
5129.000000;2.972195
5128.000000;2.985424
5127.000000;2.995059
5126.000000;2.996290
5125.000000;2.990117
5124.000000;2.981212
5123.000000;2.974018
5122.000000;2.970056
5121.000000;2.967333
5120.000000;2.962734
5119.000000;2.955754
5118.000000;2.949330
5117.000000;2.946652
5116.000000;2.948279
5115.000000;2.952454
5114.000000;2.956673
5113.000000;2.958418
5112.000000;2.956312
5111.000000;2.951995
5110.000000;2.949353
5109.000000;2.950703
5108.000000;2.954614
5107.000000;2.958140
5106.000000;2.960288
5105.000000;2.961469
5104.000000;2.960299
5103.000000;2.954281
5102.000000;2.944583
5101.000000;2.937564
5100.000000;2.939838
5099.000000;2.952318
5098.000000;2.968770
5097.000000;2.979886
5096.000000;2.980393
5095.000000;2.972492
5094.000000;2.961715
5093.000000;2.951576
5092.000000;2.943195
5091.000000;2.937810
5090.000000;2.937159
5089.000000;2.941348
5088.000000;2.947824
5087.000000;2.953227
5086.000000;2.955952
5085.000000;2.956458
5084.000000;2.955792
5083.000000;2.954659
5082.000000;2.953085
5081.000000;2.950119
5080.000000;2.945056
5079.000000;2.939340
5078.000000;2.935385
5077.000000;2.933338
5076.000000;2.931322
5075.000000;2.929632
5074.000000;2.931957
5073.000000;2.940479
5072.000000;2.951440
5071.000000;2.957800
5070.000000;2.957078
5069.000000;2.954017
5068.000000;2.953699
5067.000000;2.954886
5066.000000;2.952003
5065.000000;2.943058
5064.000000;2.933404
5063.000000;2.930164
5062.000000;2.934374
5061.000000;2.939453
5060.000000;2.937714
5059.000000;2.928515
5058.000000;2.918112
5057.000000;2.912335
5056.000000;2.911986
5055.000000;2.914123
5054.000000;2.915435
5053.000000;2.914605
5052.000000;2.913205
5051.000000;2.914708
5050.000000;2.921179
5049.000000;2.929992
5048.000000;2.935044
5047.000000;2.932955
5046.000000;2.926684
5045.000000;2.921415
5044.000000;2.919061
5043.000000;2.918094
5042.000000;2.916443
5041.000000;2.912801
5040.000000;2.906884
5039.000000;2.900608
5038.000000;2.897608
5037.000000;2.899766
5036.000000;2.904887
5035.000000;2.908912
5034.000000;2.909925
5033.000000;2.908596
5032.000000;2.905696
5031.000000;2.901451
5030.000000;2.896763
5029.000000;2.893180
5028.000000;2.891623
5027.000000;2.892095
5026.000000;2.893976
5025.000000;2.895676
5024.000000;2.894797
5023.000000;2.890111
5022.000000;2.883294
5021.000000;2.876951
5020.000000;2.871260
5019.000000;2.864641
5018.000000;2.857505
5017.000000;2.852864
5016.000000;2.852562
5015.000000;2.854606
5014.000000;2.855124
5013.000000;2.852289
5012.000000;2.847543
5011.000000;2.843634
5010.000000;2.842273
5009.000000;2.842919
5008.000000;2.842955
5007.000000;2.839912
5006.000000;2.834460
5005.000000;2.830249
5004.000000;2.829919
5003.000000;2.832292
5002.000000;2.834249
5001.000000;2.834403
5000.000000;2.833919
4999.000000;2.834136
4998.000000;2.834465
4997.000000;2.833355
4996.000000;2.830343
4995.000000;2.825788
4994.000000;2.819337
4993.000000;2.810773
4992.000000;2.802455
4991.000000;2.798668
4990.000000;2.801153
4989.000000;2.806003
4988.000000;2.806667
4987.000000;2.801013
4986.000000;2.793557
4985.000000;2.789770
4984.000000;2.790309
4983.000000;2.791331
4982.000000;2.789204
4981.000000;2.783504
4980.000000;2.775670
4979.000000;2.767349
4978.000000;2.760534
4977.000000;2.757070
4976.000000;2.756801
4975.000000;2.756922
4974.000000;2.754343
4973.000000;2.748912
4972.000000;2.743494
4971.000000;2.740781
4970.000000;2.740615
4969.000000;2.740355
4968.000000;2.737368
4967.000000;2.731048
4966.000000;2.722967
4965.000000;2.715792
4964.000000;2.711716
4963.000000;2.710871
4962.000000;2.710954
4961.000000;2.709043
4960.000000;2.704257
4959.000000;2.698124
4958.000000;2.692338
4957.000000;2.687242
4956.000000;2.682670
4955.000000;2.679075
4954.000000;2.676930
4953.000000;2.675697
4952.000000;2.674552
4951.000000;2.673849
4950.000000;2.674480
4949.000000;2.675876
4948.000000;2.676085
4947.000000;2.673946
4946.000000;2.669989
4945.000000;2.665130
4944.000000;2.659755
4943.000000;2.654548
4942.000000;2.650891
4941.000000;2.649205
4940.000000;2.647660
4939.000000;2.643855
4938.000000;2.637672
4937.000000;2.631524
4936.000000;2.627870
4935.000000;2.627149
4934.000000;2.627989
4933.000000;2.628489
4932.000000;2.627189
4931.000000;2.623660
4930.000000;2.618710
4929.000000;2.613714
4928.000000;2.609460
4927.000000;2.605788
4926.000000;2.602242
4925.000000;2.598626
4924.000000;2.594951
4923.000000;2.591141
4922.000000;2.586981
4921.000000;2.582520
4920.000000;2.578452
4919.000000;2.575745
4918.000000;2.574529
4917.000000;2.573455
4916.000000;2.570721
4915.000000;2.565944
4914.000000;2.560524
4913.000000;2.556009
4912.000000;2.552699
4911.000000;2.549974
4910.000000;2.547246
4909.000000;2.544225
4908.000000;2.540821
4907.000000;2.537213
4906.000000;2.533697
4905.000000;2.530174
4904.000000;2.526186
4903.000000;2.521793
4902.000000;2.517849
4901.000000;2.514859
4900.000000;2.512116
4899.000000;2.508656
4898.000000;2.504679
4897.000000;2.501287
4896.000000;2.498984
4895.000000;2.497064
4894.000000;2.494500
4893.000000;2.490964
4892.000000;2.486961
4891.000000;2.483354
4890.000000;2.480703
4889.000000;2.478760
4888.000000;2.476690
4887.000000;2.474010
4886.000000;2.471068
4885.000000;2.468353
4884.000000;2.465736
4883.000000;2.462849
4882.000000;2.459696
4881.000000;2.456225
4880.000000;2.451906
4879.000000;2.446690
4878.000000;2.441981
4877.000000;2.439506
4876.000000;2.439203
4875.000000;2.439138
4874.000000;2.437802
4873.000000;2.435588
4872.000000;2.433560
4871.000000;2.431752
4870.000000;2.429481
4869.000000;2.426701
4868.000000;2.424227
4867.000000;2.422729
4866.000000;2.422006
4865.000000;2.421091
4864.000000;2.418786
4863.000000;2.414458
4862.000000;2.408674
4861.000000;2.402745
4860.000000;2.397416
4859.000000;2.392338
4858.000000;2.387047
4857.000000;2.381994
4856.000000;2.378165
4855.000000;2.376030
4854.000000;2.375334
4853.000000;2.375546
4852.000000;2.375872
4851.000000;2.375132
4850.000000;2.372488
4849.000000;2.368506
4848.000000;2.364825
4847.000000;2.362456
4846.000000;2.360796
4845.000000;2.358557
4844.000000;2.355276
4843.000000;2.351540
4842.000000;2.348013
4841.000000;2.344798
4840.000000;2.341680
4839.000000;2.338651
4838.000000;2.336074
4837.000000;2.334424
4836.000000;2.333737
4835.000000;2.333149
4834.000000;2.331188
4833.000000;2.327039
4832.000000;2.321619
4831.000000;2.316977
4830.000000;2.314350
4829.000000;2.312898
4828.000000;2.310603
4827.000000;2.306504
4826.000000;2.301768
4825.000000;2.298356
4824.000000;2.296978
4823.000000;2.296699
4822.000000;2.296253
4821.000000;2.295224
4820.000000;2.293800
4819.000000;2.291924
4818.000000;2.289241
4817.000000;2.285719
4816.000000;2.281804
4815.000000;2.277919
4814.000000;2.274145
4813.000000;2.270447
4812.000000;2.266894
4811.000000;2.263428
4810.000000;2.259852
4809.000000;2.256339
4808.000000;2.253605
4807.000000;2.252146
4806.000000;2.251505
4805.000000;2.250704
4804.000000;2.249232
4803.000000;2.247194
4802.000000;2.244704
4801.000000;2.241766
4800.000000;2.238739
4799.000000;2.236205
4798.000000;2.234100
4797.000000;2.231534
4796.000000;2.227836
4795.000000;2.223430
4794.000000;2.219356
4793.000000;2.216293
4792.000000;2.214286
4791.000000;2.212926
4790.000000;2.211314
4789.000000;2.208336
4788.000000;2.203725
4787.000000;2.198716
4786.000000;2.194965
4785.000000;2.192824
4784.000000;2.191154
4783.000000;2.188854
4782.000000;2.185986
4781.000000;2.183258
4780.000000;2.181036
4779.000000;2.179275
4778.000000;2.177914
4777.000000;2.176737
4776.000000;2.175015
4775.000000;2.171933
4774.000000;2.167588
4773.000000;2.163253
4772.000000;2.160355
4771.000000;2.159152
4770.000000;2.158438
4769.000000;2.156668
4768.000000;2.153517
4767.000000;2.150223
4766.000000;2.148229
4765.000000;2.147651
4764.000000;2.147289
4763.000000;2.146024
4762.000000;2.143788
4761.000000;2.141039
4760.000000;2.137783
4759.000000;2.133635
4758.000000;2.128737
4757.000000;2.124129
4756.000000;2.121012
4755.000000;2.119687
4754.000000;2.119246
4753.000000;2.118281
4752.000000;2.116030
4751.000000;2.112891
4750.000000;2.109829
4749.000000;2.107363
4748.000000;2.105250
4747.000000;2.103003
4746.000000;2.100459
4745.000000;2.097783
4744.000000;2.095194
4743.000000;2.092852
4742.000000;2.090799
4741.000000;2.088826
4740.000000;2.086560
4739.000000;2.083859
4738.000000;2.081024
4737.000000;2.078414
4736.000000;2.075946
4735.000000;2.073197
4734.000000;2.070021
4733.000000;2.066873
4732.000000;2.064436
4731.000000;2.062944
4730.000000;2.061888
4729.000000;2.060433
4728.000000;2.058170
4727.000000;2.055460
4726.000000;2.052973
4725.000000;2.050957
4724.000000;2.049015
4723.000000;2.046555
4722.000000;2.043342
4721.000000;2.039693
4720.000000;2.036323
4719.000000;2.033933
4718.000000;2.032656
4717.000000;2.031845
4716.000000;2.030673
4715.000000;2.029007
4714.000000;2.027361
4713.000000;2.025998
4712.000000;2.024469
4711.000000;2.022285
4710.000000;2.019685
4709.000000;2.017382
4708.000000;2.015690
4707.000000;2.014215
4706.000000;2.012328
4705.000000;2.009765
4704.000000;2.006815
4703.000000;2.004069
4702.000000;2.001892
4701.000000;2.000019
4700.000000;1.997835
4699.000000;1.995180
4698.000000;1.992680
4697.000000;1.991046
4696.000000;1.990237
4695.000000;1.989503
4694.000000;1.988070
4693.000000;1.985604
4692.000000;1.982303
4691.000000;1.978899
4690.000000;1.976351
4689.000000;1.975053
4688.000000;1.974304
4687.000000;1.972894
4686.000000;1.970326
4685.000000;1.967231
4684.000000;1.964584
4683.000000;1.962795
4682.000000;1.961555
4681.000000;1.960278
4680.000000;1.958632
4679.000000;1.956828
4678.000000;1.955375
4677.000000;1.954419
4676.000000;1.953402
4675.000000;1.951625
4674.000000;1.949061
4673.000000;1.946317
4672.000000;1.943925
4671.000000;1.941987
4670.000000;1.940448
4669.000000;1.939254
4668.000000;1.938157
4667.000000;1.936749
4666.000000;1.934857
4665.000000;1.932682
4664.000000;1.930461
4663.000000;1.928296
4662.000000;1.926369
4661.000000;1.924936
4660.000000;1.923920
4659.000000;1.922811
4658.000000;1.921248
4657.000000;1.919495
4656.000000;1.918100
4655.000000;1.917215
4654.000000;1.916446
4653.000000;1.915243
4652.000000;1.913312
4651.000000;1.910833
4650.000000;1.908427
4649.000000;1.906718
4648.000000;1.905731
4647.000000;1.904767
4646.000000;1.903030
4645.000000;1.900351
4644.000000;1.897271
4643.000000;1.894568
4642.000000;1.892759
4641.000000;1.891820
4640.000000;1.891208
4639.000000;1.890277
4638.000000;1.888809
4637.000000;1.887069
4636.000000;1.885358
4635.000000;1.883773
4634.000000;1.882418
4633.000000;1.881463
4632.000000;1.880747
4631.000000;1.879641
4630.000000;1.877665
4629.000000;1.875080
4628.000000;1.872593
4627.000000;1.870619
4626.000000;1.869092
4625.000000;1.867810
4624.000000;1.866654
4623.000000;1.865548
4622.000000;1.864469
4621.000000;1.863467
4620.000000;1.862456
4619.000000;1.861131
4618.000000;1.859355
4617.000000;1.857519
4616.000000;1.856159
4615.000000;1.855273
4614.000000;1.854316
4613.000000;1.852898
4612.000000;1.851177
4611.000000;1.849524
4610.000000;1.848102
4609.000000;1.846881
4608.000000;1.845844
4607.000000;1.845024
4606.000000;1.844474
4605.000000;1.844198
4604.000000;1.843952
4603.000000;1.843171
4602.000000;1.841436
4601.000000;1.839090
4600.000000;1.837089
4599.000000;1.836060
4598.000000;1.835692
4597.000000;1.835210
4596.000000;1.834274
4595.000000;1.833212
4594.000000;1.832503
4593.000000;1.832242
4592.000000;1.832105
4591.000000;1.831646
4590.000000;1.830613
4589.000000;1.829077
4588.000000;1.827357
4587.000000;1.825780
4586.000000;1.824474
4585.000000;1.823291
4584.000000;1.821923
4583.000000;1.820204
4582.000000;1.818418
4581.000000;1.817171
4580.000000;1.816794
4579.000000;1.816919
4578.000000;1.816823
4577.000000;1.816203
4576.000000;1.815358
4575.000000;1.814609
4574.000000;1.813866
4573.000000;1.812900
4572.000000;1.811777
4571.000000;1.810761
4570.000000;1.809959
4569.000000;1.809299
4568.000000;1.808776
4567.000000;1.808472
4566.000000;1.808323
4565.000000;1.808059
4564.000000;1.807421
4563.000000;1.806362
4562.000000;1.805022
4561.000000;1.803616
4560.000000;1.802303
4559.000000;1.801072
4558.000000;1.799728
4557.000000;1.798122
4556.000000;1.796409
4555.000000;1.794982
4554.000000;1.794124
4553.000000;1.793782
4552.000000;1.793686
4551.000000;1.793598
4550.000000;1.793393
4549.000000;1.792976
4548.000000;1.792249
4547.000000;1.791190
4546.000000;1.789939
4545.000000;1.788730
4544.000000;1.787713
4543.000000;1.786858
4542.000000;1.786045
4541.000000;1.785210
4540.000000;1.784395
4539.000000;1.783641
4538.000000;1.782890
4537.000000;1.781995
4536.000000;1.780843
4535.000000;1.779500
4534.000000;1.778268
4533.000000;1.777526
4532.000000;1.777394
4531.000000;1.777572
4530.000000;1.777604
4529.000000;1.777336
4528.000000;1.776975
4527.000000;1.776673
4526.000000;1.776216
4525.000000;1.775290
4524.000000;1.773990
4523.000000;1.772893
4522.000000;1.772539
4521.000000;1.772899
4520.000000;1.773357
4519.000000;1.773203
4518.000000;1.772208
4517.000000;1.770786
4516.000000;1.769625
4515.000000;1.769136
4514.000000;1.769229
4513.000000;1.769538
4512.000000;1.769740
4511.000000;1.769641
4510.000000;1.769136
4509.000000;1.768349
4508.000000;1.767740
4507.000000;1.767778
4506.000000;1.768340
4505.000000;1.768642
4504.000000;1.767984
4503.000000;1.766515
4502.000000;1.765036
4501.000000;1.764129
4500.000000;1.763769
4499.000000;1.763766
4498.000000;1.764114
4497.000000;1.764650
4496.000000;1.764713
4495.000000;1.763664
4494.000000;1.761756
4493.000000;1.760074
4492.000000;1.759502
4491.000000;1.759986
4490.000000;1.760832
4489.000000;1.761422
4488.000000;1.761521
4487.000000;1.761185
4486.000000;1.760680
4485.000000;1.760379
4484.000000;1.760451
4483.000000;1.760692
4482.000000;1.760773
4481.000000;1.760603
4480.000000;1.760319
4479.000000;1.760061
4478.000000;1.759935
4477.000000;1.760068
4476.000000;1.760470
4475.000000;1.760907
4474.000000;1.761163
4473.000000;1.761349
4472.000000;1.761722
4471.000000;1.762214
4470.000000;1.762414
4469.000000;1.762080
4468.000000;1.761431
4467.000000;1.760895
4466.000000;1.760763
4465.000000;1.761181
4464.000000;1.762228
4463.000000;1.763857
4462.000000;1.765854
4461.000000;1.767923
4460.000000;1.769723
4459.000000;1.770871
4458.000000;1.771170
4457.000000;1.770933
4456.000000;1.770904
4455.000000;1.771638
4454.000000;1.773014
4453.000000;1.774409
4452.000000;1.775296
4451.000000;1.775652
4450.000000;1.775902
4449.000000;1.776522
4448.000000;1.777625
4447.000000;1.778897
4446.000000;1.779978
4445.000000;1.780954
4444.000000;1.782331
4443.000000;1.784425
4442.000000;1.786927
4441.000000;1.789159
4440.000000;1.790671
4439.000000;1.791550
4438.000000;1.792277
4437.000000;1.793358
4436.000000;1.795010
4435.000000;1.797067
4434.000000;1.799206
4433.000000;1.801244
4432.000000;1.803188
4431.000000;1.805075
4430.000000;1.806936
4429.000000;1.808844
4428.000000;1.810799
4427.000000;1.812630
4426.000000;1.814252
4425.000000;1.816024
4424.000000;1.818513
4423.000000;1.821814
4422.000000;1.825415
4421.000000;1.828846
4420.000000;1.832167
4419.000000;1.835573
4418.000000;1.838826
4417.000000;1.841436
4416.000000;1.843313
4415.000000;1.844956
4414.000000;1.846988
4413.000000;1.849657
4412.000000;1.852726
4411.000000;1.855723
4410.000000;1.858371
4409.000000;1.860872
4408.000000;1.863687
4407.000000;1.867004
4406.000000;1.870551
4405.000000;1.873932
4404.000000;1.876909
4403.000000;1.879279
4402.000000;1.880857
4401.000000;1.881871
4400.000000;1.883131
4399.000000;1.885498
4398.000000;1.889205
4397.000000;1.893829
4396.000000;1.898788
4395.000000;1.903675
4394.000000;1.908160
4393.000000;1.911814
4392.000000;1.914199
4391.000000;1.915245
4390.000000;1.915642
4389.000000;1.916637
4388.000000;1.919122
4387.000000;1.922855
4386.000000;1.926801
4385.000000;1.930181
4384.000000;1.932809
4383.000000;1.934519
4382.000000;1.935081
4381.000000;1.934983
4380.000000;1.935547
4379.000000;1.937659
4378.000000;1.940837
4377.000000;1.944075
4376.000000;1.947129
4375.000000;1.950279
4374.000000;1.953268
4373.000000;1.955428
4372.000000;1.956816
4371.000000;1.958323
4370.000000;1.960529
4369.000000;1.963122
4368.000000;1.965549
4367.000000;1.967591
4366.000000;1.969099
4365.000000;1.969877
4364.000000;1.970278
4363.000000;1.971438
4362.000000;1.974288
4361.000000;1.978407
4360.000000;1.982246
4359.000000;1.984681
4358.000000;1.986176
4357.000000;1.988178
4356.000000;1.991408
4355.000000;1.994914
4354.000000;1.997028
4353.000000;1.997303
4352.000000;1.997113
4351.000000;1.998164
4350.000000;2.000852
4349.000000;2.004242
4348.000000;2.007175
4347.000000;2.009115
4346.000000;2.010335
4345.000000;2.011761
4344.000000;2.014502
4343.000000;2.018922
4342.000000;2.024136
4341.000000;2.028828
4340.000000;2.032501
4339.000000;2.035489
4338.000000;2.037977
4337.000000;2.039663
4336.000000;2.040222
4335.000000;2.039454
4334.000000;2.037156
4333.000000;2.033702
4332.000000;2.030701
4331.000000;2.030035
4330.000000;2.031925
4329.000000;2.034495
4328.000000;2.035670
4327.000000;2.035232
4326.000000;2.034628
4325.000000;2.035245
4324.000000;2.037379
4323.000000;2.040426
4322.000000;2.043480
4321.000000;2.045837
4320.000000;2.047307
4319.000000;2.048049
4318.000000;2.048217
4317.000000;2.047950
4316.000000;2.047491
4315.000000;2.047202
4314.000000;2.047414
4313.000000;2.048163
4312.000000;2.049027
4311.000000;2.049291
4310.000000;2.048625
4309.000000;2.047828
4308.000000;2.048512
4307.000000;2.051646
4306.000000;2.056609
4305.000000;2.061949
4304.000000;2.066816
4303.000000;2.071270
4302.000000;2.075507
4301.000000;2.079412
4300.000000;2.082633
4299.000000;2.084549
4298.000000;2.084546
4297.000000;2.083094
4296.000000;2.082219
4295.000000;2.083857
4294.000000;2.087896
4293.000000;2.092813
4292.000000;2.097865
4291.000000;2.103340
4290.000000;2.108658
4289.000000;2.111816
4288.000000;2.111784
4287.000000;2.110267
4286.000000;2.109728
4285.000000;2.110698
4284.000000;2.111980
4283.000000;2.113077
4282.000000;2.115576
4281.000000;2.121701
4280.000000;2.131438
4279.000000;2.141261
4278.000000;2.146717
4277.000000;2.147124
4276.000000;2.146367
4275.000000;2.147864
4274.000000;2.150367
4273.000000;2.150466
4272.000000;2.148360
4271.000000;2.148195
4270.000000;2.152394
4269.000000;2.158592
4268.000000;2.162886
4267.000000;2.164022
4266.000000;2.163084
4265.000000;2.161569
4264.000000;2.161804
4263.000000;2.166809
4262.000000;2.177084
4261.000000;2.188431
4260.000000;2.195511
4259.000000;2.197519
4258.000000;2.197980
4257.000000;2.199959
4256.000000;2.204249
4255.000000;2.210835
4254.000000;2.218826
4253.000000;2.225391
4252.000000;2.227859
4251.000000;2.227497
4250.000000;2.228617
4249.000000;2.233599
4248.000000;2.240232
4247.000000;2.244684
4246.000000;2.246159
4245.000000;2.247190
4244.000000;2.249970
4243.000000;2.254414
4242.000000;2.259778
4241.000000;2.266524
4240.000000;2.275331
4239.000000;2.285272
4238.000000;2.294172
4237.000000;2.300635
4236.000000;2.304739
4235.000000;2.306386
4234.000000;2.305173
4233.000000;2.302882
4232.000000;2.303877
4231.000000;2.310907
4230.000000;2.320212
4229.000000;2.324371
4228.000000;2.321861
4227.000000;2.318858
4226.000000;2.320670
4225.000000;2.325820
4224.000000;2.329352
4223.000000;2.329260
4222.000000;2.327591
4221.000000;2.326813
4220.000000;2.328099
4219.000000;2.331791
4218.000000;2.335782
4217.000000;2.335337
4216.000000;2.329957
4215.000000;2.328627
4214.000000;2.342606
4213.000000;2.373635
4212.000000;2.409360
4211.000000;2.431290
4210.000000;2.431309
4209.000000;2.417219
4208.000000;2.402191
4207.000000;2.394918
4206.000000;2.397447
4205.000000;2.407590
4204.000000;2.421944
4203.000000;2.436368
4202.000000;2.444228
4201.000000;2.438769
4200.000000;2.422113
4199.000000;2.409022
4198.000000;2.414382
4197.000000;2.435448
4196.000000;2.450538
4195.000000;2.445449
4194.000000;2.433800
4193.000000;2.435482
4192.000000;2.452007
4191.000000;2.470278
4190.000000;2.484733
4189.000000;2.503354
4188.000000;2.529152
4187.000000;2.545951
4186.000000;2.532659
4185.000000;2.496983
4184.000000;2.469974
4183.000000;2.471856
4182.000000;2.498161
4181.000000;2.524853
4180.000000;2.531419
4179.000000;2.521754
4178.000000;2.511861
4177.000000;2.508457
4176.000000;2.504761
4175.000000;2.493379
4174.000000;2.480723
4173.000000;2.481916
4172.000000;2.502343
4171.000000;2.528059
4170.000000;2.538938
4169.000000;2.531838
4168.000000;2.520983
4167.000000;2.521713
4166.000000;2.537076
4165.000000;2.556686
4164.000000;2.567406
4163.000000;2.567647
4162.000000;2.565196
4161.000000;2.556869
4160.000000;2.532322
4159.000000;2.503846
4158.000000;2.495133
4157.000000;2.508642
4156.000000;2.525404
4155.000000;2.526300
4154.000000;2.511863
4153.000000;2.499137
4152.000000;2.501960
4151.000000;2.520474
4150.000000;2.544168
4149.000000;2.560839
4148.000000;2.565056
4147.000000;2.557289
4146.000000;2.540521
4145.000000;2.519762
4144.000000;2.505007
4143.000000;2.505969
4142.000000;2.523230
4141.000000;2.553329
4140.000000;2.590634
4139.000000;2.629102
4138.000000;2.658464
4137.000000;2.657275
4136.000000;2.634993
4135.000000;2.627312
4134.000000;2.643433
4133.000000;2.664673
4132.000000;2.670798
4131.000000;2.661144
4130.000000;2.649010
4129.000000;2.653013
4128.000000;2.696799
4127.000000;2.794117
4126.000000;2.901374
4125.000000;2.889560
4124.000000;2.750526
4123.000000;2.621670
4122.000000;2.557621
4121.000000;2.544205
4120.000000;2.549495
4119.000000;2.551225
4118.000000;2.555784
4117.000000;2.582615
4116.000000;2.638830
4115.000000;2.709126
4114.000000;2.742210
4113.000000;2.701487
4112.000000;2.641144
4111.000000;2.622722
4110.000000;2.645964
4109.000000;2.655615
4108.000000;2.636330
4107.000000;2.624822
4106.000000;2.634424
4105.000000;2.666549
4104.000000;2.707561
4103.000000;2.739755
4102.000000;2.761825
4101.000000;2.772039
4100.000000;2.772978
4099.000000;2.782213
4098.000000;2.794070
4097.000000;2.754212
4096.000000;2.645070
4095.000000;2.532860
4094.000000;2.468197
4093.000000;2.458210
4092.000000;2.487867
4091.000000;2.528499
4090.000000;2.537185
4089.000000;2.482583
4088.000000;2.388337
4087.000000;2.316933
4086.000000;2.312503
4085.000000;2.381222
4084.000000;2.495096
4083.000000;2.614195
4082.000000;2.729247
4081.000000;2.915571
4080.000000;3.129498
4079.000000;2.919479
4078.000000;2.710228
4077.000000;2.662467
4076.000000;2.683463
4075.000000;2.673640
4074.000000;2.600910
4073.000000;2.540727
4072.000000;2.533573
4071.000000;2.558155
4070.000000;2.566071
4069.000000;2.559849
4068.000000;2.569884
4067.000000;2.577171
4066.000000;2.538294
4065.000000;2.473945
4064.000000;2.435760
4063.000000;2.444103
4062.000000;2.498494
4061.000000;2.577249
4060.000000;2.608492
4059.000000;2.543438
4058.000000;2.461277
4057.000000;2.441173
4056.000000;2.493566
4055.000000;2.570661
4054.000000;2.595081
4053.000000;2.574471
4052.000000;2.575798
4051.000000;2.601027
4050.000000;2.618215
4049.000000;2.632832
4048.000000;2.665435
4047.000000;2.694880
4046.000000;2.697921
4045.000000;2.712806
4044.000000;2.780490
4043.000000;2.853038
4042.000000;2.804111
4041.000000;2.671260
4040.000000;2.583403
4039.000000;2.576754
4038.000000;2.618581
4037.000000;2.656242
4036.000000;2.664714
4035.000000;2.677502
4034.000000;2.744304
4033.000000;2.815742
4032.000000;2.803756
4031.000000;2.763767
4030.000000;2.729337
4029.000000;2.663378
4028.000000;2.546250
4027.000000;2.447065
4026.000000;2.428572
4025.000000;2.479581
4024.000000;2.501903
4023.000000;2.461070
4022.000000;2.429569
4021.000000;2.436834
4020.000000;2.502596
4019.000000;2.619271
4018.000000;2.707131
4017.000000;2.688629
4016.000000;2.613368
4015.000000;2.573323
4014.000000;2.585062
4013.000000;2.611212
4012.000000;2.628137
4011.000000;2.658717
4010.000000;2.725016
4009.000000;2.783795
4008.000000;2.715879
4007.000000;2.547887
4006.000000;2.415465
4005.000000;2.348827
4004.000000;2.339049
4003.000000;2.390535
4002.000000;2.528405
4001.000000;2.734157
4000.000000;3.056394
3999.000000;3.177332
3998.000000;2.797766
3997.000000;2.711267
3996.000000;2.836505
3995.000000;3.137362
3994.000000;3.776749
3993.000000;3.490840
3992.000000;3.135304
3991.000000;3.020132
3990.000000;2.872175
3989.000000;2.696773
3988.000000;2.544871
3987.000000;2.475981
3986.000000;2.526903
3985.000000;2.717120
3984.000000;3.063919
3983.000000;3.454178
3982.000000;3.153653
3981.000000;2.833071
3980.000000;2.708438
3979.000000;2.714877
3978.000000;2.809369
3977.000000;2.921211
3976.000000;3.118645
3975.000000;3.538727
3974.000000;3.309380
3973.000000;3.111086
3972.000000;3.020856
3971.000000;2.754889
3970.000000;2.587764
3969.000000;2.559178
3968.000000;2.596949
3967.000000;2.605951
3966.000000;2.558244
3965.000000;2.499468
3964.000000;2.470433
3963.000000;2.462290
3962.000000;2.474743
3961.000000;2.528247
3960.000000;2.760377
3959.000000;3.166941
3958.000000;3.003501
3957.000000;3.318001
3956.000000;3.062898
3955.000000;2.794422
3954.000000;2.902818
3953.000000;3.044433
3952.000000;3.090601
3951.000000;2.992749
3950.000000;2.932863
3949.000000;2.924875
3948.000000;2.827828
3947.000000;2.801101
3946.000000;2.881811
3945.000000;2.986979
3944.000000;3.017398
3943.000000;2.953349
3942.000000;2.907856
3941.000000;3.013155
3940.000000;3.420935
3939.000000;3.216433
3938.000000;2.895002
3937.000000;2.760046
3936.000000;2.613086
3935.000000;2.488299
3934.000000;2.404960
3933.000000;2.364622
3932.000000;2.356304
3931.000000;2.382956
3930.000000;2.478387
3929.000000;2.672240
3928.000000;2.866855
3927.000000;2.932035
3926.000000;2.915630
3925.000000;2.820584
3924.000000;2.821701
3923.000000;2.921355
3922.000000;3.173181
3921.000000;3.608266
3920.000000;3.361828
3919.000000;3.087800
3918.000000;2.887774
3917.000000;2.774165
3916.000000;2.800753
3915.000000;2.910468
3914.000000;2.994981
3913.000000;3.082390
3912.000000;3.359427
3911.000000;3.461005
3910.000000;3.039230
3909.000000;2.736349
3908.000000;2.734354
3907.000000;3.290378
3906.000000;3.098849
3905.000000;2.774609
3904.000000;2.788963
3903.000000;2.821660
3902.000000;2.835247
3901.000000;2.815964
3900.000000;2.828300
3899.000000;2.878131
3898.000000;3.190266
3897.000000;3.285983
3896.000000;2.760349
3895.000000;2.692044
3894.000000;2.777125
3893.000000;2.794627
3892.000000;2.728000
3891.000000;2.705644
3890.000000;2.780926
3889.000000;2.900227
3888.000000;3.015699
3887.000000;2.869612
3886.000000;2.699559
3885.000000;2.761816
3884.000000;2.922722
3883.000000;2.959251
3882.000000;2.908869
3881.000000;3.076372
3880.000000;3.249971
3879.000000;3.318590
3878.000000;3.295592
3877.000000;3.033881
3876.000000;2.892995
3875.000000;2.876328
3874.000000;2.998560
3873.000000;3.293774
3872.000000;3.604728
3871.000000;3.362099
3870.000000;3.175041
3869.000000;3.248467
3868.000000;3.650737
3867.000000;3.459608
3866.000000;3.075570
3865.000000;2.949197
3864.000000;2.880247
3863.000000;2.811847
3862.000000;2.705484
3861.000000;2.618012
3860.000000;2.624763
3859.000000;2.738235
3858.000000;3.061125
3857.000000;3.533827
3856.000000;3.186224
3855.000000;3.041217
3854.000000;3.126757
3853.000000;3.149730
3852.000000;3.216996
3851.000000;3.467221
3850.000000;3.390826
3849.000000;3.251127
3848.000000;3.293233
3847.000000;3.311486
3846.000000;3.526341
3845.000000;3.912529
3844.000000;3.718448
3843.000000;3.329892
3842.000000;2.932361
3841.000000;2.755388
3840.000000;2.735359
3839.000000;2.792412
3838.000000;2.863375
3837.000000;2.925447
3836.000000;3.097957
3835.000000;3.400052
3834.000000;3.269090
3833.000000;2.971286
3832.000000;2.841259
3831.000000;2.830706
3830.000000;3.024072
3829.000000;3.414627
3828.000000;3.329843
3827.000000;3.201478
3826.000000;3.169646
3825.000000;3.080846
3824.000000;3.190378
3823.000000;3.378121
3822.000000;3.024926
3821.000000;2.818985
3820.000000;2.852863
3819.000000;2.915139
3818.000000;2.767012
3817.000000;2.656403
3816.000000;2.677053
3815.000000;2.777260
3814.000000;2.967023
3813.000000;3.195712
3812.000000;3.271919
3811.000000;3.249203
3810.000000;3.235073
3809.000000;3.112086
3808.000000;3.129231
3807.000000;3.498324
3806.000000;3.290404
3805.000000;2.895034
3804.000000;3.024003
3803.000000;2.935419
3802.000000;3.191354
3801.000000;4.180077
3800.000000;3.203576
3799.000000;3.178559
3798.000000;3.146387
3797.000000;3.294181
3796.000000;3.437861
3795.000000;2.941944
3794.000000;2.650270
3793.000000;2.563636
3792.000000;2.612610
3791.000000;2.800212
3790.000000;3.249061
3789.000000;3.444592
3788.000000;2.946509
3787.000000;2.759589
3786.000000;2.670783
3785.000000;2.733357
3784.000000;2.905162
3783.000000;2.900371
3782.000000;2.724161
3781.000000;2.657354
3780.000000;2.751114
3779.000000;2.973911
3778.000000;3.621180
3777.000000;3.287136
3776.000000;2.804544
3775.000000;2.666651
3774.000000;2.625285
3773.000000;2.683896
3772.000000;2.794062
3771.000000;2.860777
3770.000000;2.697200
3769.000000;2.759624
3768.000000;2.877297
3767.000000;2.784253
3766.000000;2.760436
3765.000000;2.695257
3764.000000;2.705632
3763.000000;2.779892
3762.000000;2.887956
3761.000000;2.946025
3760.000000;2.980640
3759.000000;3.039665
3758.000000;3.036533
3757.000000;2.884655
3756.000000;2.760410
3755.000000;2.785272
3754.000000;3.043801
3753.000000;3.595313
3752.000000;3.407329
3751.000000;3.257017
3750.000000;3.732173
3749.000000;3.657933
3748.000000;3.188708
3747.000000;2.913453
3746.000000;2.768170
3745.000000;2.738828
3744.000000;2.896259
3743.000000;3.558359
3742.000000;3.221493
3741.000000;2.885500
3740.000000;2.849286
3739.000000;3.015944
3738.000000;3.398872
3737.000000;3.158750
3736.000000;3.056518
3735.000000;3.080118
3734.000000;3.086912
3733.000000;3.144281
3732.000000;3.357666
3731.000000;3.654941
3730.000000;3.550601
3729.000000;3.122389
3728.000000;2.897474
3727.000000;2.856800
3726.000000;2.781636
3725.000000;2.672468
3724.000000;2.683562
3723.000000;2.834091
3722.000000;2.954128
3721.000000;3.013229
3720.000000;3.012025
3719.000000;2.903537
3718.000000;2.847407
3717.000000;3.039867
3716.000000;2.827966
3715.000000;2.813915
3714.000000;3.379496
3713.000000;2.959679
3712.000000;2.707759
3711.000000;2.643389
3710.000000;2.619672
3709.000000;2.616114
3708.000000;2.569133
3707.000000;2.526760
3706.000000;2.531684
3705.000000;2.597148
3704.000000;2.656713
3703.000000;2.672013
3702.000000;2.685746
3701.000000;2.749406
3700.000000;2.869119
3699.000000;3.100435
3698.000000;3.384886
3697.000000;3.161772
3696.000000;2.822948
3695.000000;2.727395
3694.000000;2.481933
3693.000000;2.678727
3692.000000;3.368491
3691.000000;2.942428
3690.000000;2.999645
3689.000000;2.945989
3688.000000;3.051542
3687.000000;3.116280
3686.000000;3.272677
3685.000000;3.467621
3684.000000;3.542951
3683.000000;3.740565
3682.000000;3.765549
3681.000000;3.397351
3680.000000;3.162993
3679.000000;3.199620
3678.000000;3.187556
3677.000000;3.924573
3676.000000;2.897277
3675.000000;2.607903
3674.000000;2.686189
3673.000000;2.587893
3672.000000;2.587340
3671.000000;2.696877
3670.000000;3.026710
3669.000000;3.377455
3668.000000;3.108035
3667.000000;2.992094
3666.000000;3.047236
3665.000000;3.235719
3664.000000;3.917088
3663.000000;3.443730
3662.000000;2.929292
3661.000000;2.705764
3660.000000;2.631585
3659.000000;2.640668
3658.000000;2.607001
3657.000000;2.502120
3656.000000;2.363887
3655.000000;2.215431
3654.000000;2.058221
3653.000000;1.979406
3652.000000;2.013170
3651.000000;2.058193
3650.000000;2.082544
3649.000000;2.125181
3648.000000;2.195594
3647.000000;2.324970
3646.000000;2.520840
3645.000000;2.968270
3644.000000;3.299373
3643.000000;2.754572
3642.000000;2.523741
3641.000000;2.417244
3640.000000;2.391715
3639.000000;2.436693
3638.000000;2.543422
3637.000000;2.631431
3636.000000;2.622579
3635.000000;2.563143
3634.000000;2.777098
3633.000000;3.603300
3632.000000;3.378250
3631.000000;3.607320
3630.000000;3.269389
3629.000000;2.880878
3628.000000;2.713196
3627.000000;2.637497
3626.000000;2.603597
3625.000000;2.830612
3624.000000;3.262174
3623.000000;2.693173
3622.000000;2.531720
3621.000000;2.607779
3620.000000;2.791546
3619.000000;2.874742
3618.000000;2.841990
3617.000000;3.030464
3616.000000;3.279222
3615.000000;3.492693
3614.000000;3.201204
3613.000000;2.826847
3612.000000;2.685999
3611.000000;2.699533
3610.000000;2.897130
3609.000000;3.379893
3608.000000;3.138016
3607.000000;2.915995
3606.000000;2.872885
3605.000000;2.728585
3604.000000;2.624527
3603.000000;2.710036
3602.000000;2.981129
3601.000000;3.001748
3600.000000;2.969378
3599.000000;3.183835
3598.000000;3.055563
3597.000000;2.820643
3596.000000;2.805988
3595.000000;2.913303
3594.000000;2.944635
3593.000000;2.825599
3592.000000;2.781983
3591.000000;2.832631
3590.000000;2.876591
3589.000000;2.913567
3588.000000;3.010915
3587.000000;3.142877
3586.000000;3.301279
3585.000000;3.694641
3584.000000;3.579799
3583.000000;3.211473
3582.000000;3.039901
3581.000000;2.952816
3580.000000;2.972266
3579.000000;3.062901
3578.000000;3.079119
3577.000000;3.050200
3576.000000;3.015411
3575.000000;2.899004
3574.000000;2.753509
3573.000000;2.664518
3572.000000;2.671861
3571.000000;2.733447
3570.000000;2.851064
3569.000000;3.006677
3568.000000;3.033268
3567.000000;3.290364
3566.000000;3.619954
3565.000000;3.165247
3564.000000;3.064396
3563.000000;3.105065
3562.000000;3.206133
3561.000000;3.573685
3560.000000;3.665887
3559.000000;3.193862
3558.000000;3.037465
3557.000000;3.074297
3556.000000;3.310044
3555.000000;3.740322
3554.000000;3.508865
3553.000000;3.359432
3552.000000;3.119773
3551.000000;2.916449
3550.000000;2.906129
3549.000000;3.108246
3548.000000;3.367287
3547.000000;3.173060
3546.000000;3.073030
3545.000000;3.164477
3544.000000;3.572817
3543.000000;3.512843
3542.000000;3.138935
3541.000000;3.199671
3540.000000;3.168965
3539.000000;2.941443
3538.000000;2.805388
3537.000000;2.744413
3536.000000;2.735322
3535.000000;2.806168
3534.000000;2.932984
3533.000000;2.877776
3532.000000;2.750671
3531.000000;2.773265
3530.000000;2.935480
3529.000000;3.262929
3528.000000;3.811776
3527.000000;3.255978
3526.000000;2.985091
3525.000000;2.946129
3524.000000;3.110904
3523.000000;3.531525
3522.000000;3.623302
3521.000000;3.612997
3520.000000;3.522720
3519.000000;3.717509
3518.000000;3.497814
3517.000000;3.102999
3516.000000;3.202326
3515.000000;3.288149
3514.000000;3.050974
3513.000000;3.155655
3512.000000;3.592061
3511.000000;3.263094
3510.000000;2.992386
3509.000000;2.985932
3508.000000;3.011110
3507.000000;2.961886
3506.000000;2.913809
3505.000000;2.916644
3504.000000;2.925448
3503.000000;3.062367
3502.000000;3.349014
3501.000000;3.118175
3500.000000;2.989179
3499.000000;3.028515
3498.000000;2.925159
3497.000000;2.775266
3496.000000;2.730137
3495.000000;2.809883
3494.000000;2.980439
3493.000000;3.023590
3492.000000;2.923701
3491.000000;2.944398
3490.000000;3.084279
3489.000000;3.282355
3488.000000;3.442420
3487.000000;3.327656
3486.000000;3.391827
3485.000000;3.617546
3484.000000;3.187005
3483.000000;2.926872
3482.000000;2.865147
3481.000000;2.875111
3480.000000;2.865486
3479.000000;2.827350
3478.000000;2.858216
3477.000000;2.972854
3476.000000;3.056709
3475.000000;3.121384
3474.000000;3.165531
3473.000000;3.121462
3472.000000;3.166116
3471.000000;3.452821
3470.000000;3.737554
3469.000000;3.247451
3468.000000;3.020562
3467.000000;2.965855
3466.000000;3.003555
3465.000000;3.073977
3464.000000;3.102186
3463.000000;3.091248
3462.000000;3.077924
3461.000000;3.030629
3460.000000;3.024114
3459.000000;3.048429
3458.000000;2.930063
3457.000000;2.844602
3456.000000;2.943224
3455.000000;3.170891
3454.000000;3.126906
3453.000000;2.976323
3452.000000;2.956328
3451.000000;3.069583
3450.000000;3.153268
3449.000000;2.971373
3448.000000;2.908368
3447.000000;2.965857
3446.000000;2.918598
3445.000000;2.873740
3444.000000;2.929844
3443.000000;3.030025
3442.000000;3.178325
3441.000000;3.316301
3440.000000;3.040771
3439.000000;2.821616
3438.000000;2.770095
3437.000000;2.829443
3436.000000;2.937914
3435.000000;3.175093
3434.000000;3.411611
3433.000000;3.070982
3432.000000;2.882353
3431.000000;2.831517
3430.000000;2.806787
3429.000000;2.779080
3428.000000;2.787378
3427.000000;2.869020
3426.000000;2.918061
3425.000000;2.893359
3424.000000;2.934792
3423.000000;3.169966
3422.000000;3.814505
3421.000000;3.354040
3420.000000;3.091617
3419.000000;3.016650
3418.000000;2.975131
3417.000000;2.894544
3416.000000;2.792373
3415.000000;2.781089
3414.000000;2.909053
3413.000000;3.281734
3412.000000;3.659979
3411.000000;3.338534
3410.000000;3.403604
3409.000000;3.403267
3408.000000;3.158166
3407.000000;3.002224
3406.000000;2.996055
3405.000000;3.167100
3404.000000;3.141820
3403.000000;2.954816
3402.000000;2.966567
3401.000000;3.125711
3400.000000;3.258906
3399.000000;3.296348
3398.000000;3.234109
3397.000000;3.041734
3396.000000;2.940564
3395.000000;2.979591
3394.000000;3.079772
3393.000000;3.152836
3392.000000;3.254069
3391.000000;3.543231
3390.000000;3.588396
3389.000000;3.034185
3388.000000;2.792846
3387.000000;2.738613
3386.000000;2.800850
3385.000000;2.847916
3384.000000;2.800131
3383.000000;2.767342
3382.000000;2.819576
3381.000000;2.961796
3380.000000;3.082416
3379.000000;3.007629
3378.000000;2.864325
3377.000000;2.804233
3376.000000;2.850112
3375.000000;3.000925
3374.000000;3.313127
3373.000000;3.851563
3372.000000;3.555783
3371.000000;3.177110
3370.000000;3.013483
3369.000000;3.015248
3368.000000;3.192348
3367.000000;3.209000
3366.000000;3.054091
3365.000000;2.976071
3364.000000;2.943320
3363.000000;3.036846
3362.000000;3.108825
3361.000000;2.881768
3360.000000;2.807254
3359.000000;2.904662
3358.000000;3.083502
3357.000000;3.150413
3356.000000;3.201672
3355.000000;3.245248
3354.000000;3.087373
3353.000000;3.018668
3352.000000;3.053807
3351.000000;3.032248
3350.000000;2.970689
3349.000000;2.989998
3348.000000;3.260000
3347.000000;3.310677
3346.000000;2.988755
3345.000000;2.878454
3344.000000;2.904372
3343.000000;3.076093
3342.000000;3.572281
3341.000000;3.316782
3340.000000;3.026005
3339.000000;2.929243
3338.000000;2.910917
3337.000000;2.944633
3336.000000;2.980493
3335.000000;2.965695
3334.000000;2.973341
3333.000000;3.183266
3332.000000;3.306596
3331.000000;2.952296
3330.000000;2.893957
3329.000000;2.992109
3328.000000;3.224237
3327.000000;3.267522
3326.000000;2.958599
3325.000000;2.771835
3324.000000;2.744080
3323.000000;2.871552
3322.000000;3.193838
3321.000000;3.565636
3320.000000;3.413865
3319.000000;3.239206
3318.000000;3.030810
3317.000000;2.897009
3316.000000;2.900501
3315.000000;3.020433
3314.000000;3.247044
3313.000000;4.184400
3312.000000;3.346019
3311.000000;3.097856
3310.000000;3.100742
3309.000000;3.165520
3308.000000;3.097061
3307.000000;2.964338
3306.000000;2.920708
3305.000000;3.012722
3304.000000;3.288336
3303.000000;3.730262
3302.000000;3.988919
3301.000000;3.414304
3300.000000;3.076389
3299.000000;2.932387
3298.000000;2.819409
3297.000000;2.801563
3296.000000;2.925684
3295.000000;3.153784
3294.000000;3.250046
3293.000000;3.188888
3292.000000;3.164614
3291.000000;3.195528
3290.000000;3.457583
3289.000000;3.734922
3288.000000;3.260861
3287.000000;3.150112
3286.000000;3.229080
3285.000000;3.132481
3284.000000;3.004743
3283.000000;2.993704
3282.000000;3.069289
3281.000000;3.130561
3280.000000;3.115157
3279.000000;3.128949
3278.000000;3.162964
3277.000000;3.002431
3276.000000;2.872407
3275.000000;2.873171
3274.000000;2.950858
3273.000000;2.932012
3272.000000;2.798354
3271.000000;2.725700
3270.000000;2.747674
3269.000000;2.817531
3268.000000;2.846064
3267.000000;2.833224
3266.000000;2.867026
3265.000000;3.009309
3264.000000;3.165099
3263.000000;3.312399
3262.000000;3.607843
3261.000000;3.226400
3260.000000;3.070249
3259.000000;3.174387
3258.000000;3.360398
3257.000000;3.567322
3256.000000;3.691969
3255.000000;3.213754
3254.000000;3.103552
3253.000000;3.169483
3252.000000;3.276932
3251.000000;3.288820
3250.000000;3.203106
3249.000000;3.070274
3248.000000;2.982142
3247.000000;2.985818
3246.000000;3.099914
3245.000000;3.285617
3244.000000;3.338934
3243.000000;3.303506
3242.000000;3.391204
3241.000000;3.152652
3240.000000;2.901123
3239.000000;2.824096
3238.000000;2.821666
3237.000000;2.865701
3236.000000;2.925006
3235.000000;2.936348
3234.000000;2.892101
3233.000000;2.898558
3232.000000;3.038313
3231.000000;3.379775
3230.000000;3.232189
3229.000000;3.009342
3228.000000;2.925485
3227.000000;2.958972
3226.000000;3.102023
3225.000000;3.293364
3224.000000;3.483464
3223.000000;3.694988
3222.000000;3.387846
3221.000000;3.112640
3220.000000;3.048391
3219.000000;3.337481
3218.000000;3.581900
3217.000000;3.063235
3216.000000;3.018283
3215.000000;3.132115
3214.000000;3.373892
3213.000000;3.171082
3212.000000;2.918528
3211.000000;2.892087
3210.000000;3.013144
3209.000000;3.094973
3208.000000;3.086845
3207.000000;3.043225
3206.000000;2.887645
3205.000000;2.752296
3204.000000;2.715596
3203.000000;2.803001
3202.000000;3.055782
3201.000000;3.374226
3200.000000;3.345559
3199.000000;3.224197
3198.000000;3.055553
3197.000000;2.949523
3196.000000;2.863022
3195.000000;2.841314
3194.000000;2.896251
3193.000000;2.906184
3192.000000;2.766380
3191.000000;2.630438
3190.000000;2.585542
3189.000000;2.642660
3188.000000;2.767178
3187.000000;2.895402
3186.000000;3.009058
3185.000000;3.213646
3184.000000;3.471711
3183.000000;3.414508
3182.000000;3.653752
3181.000000;3.487856
3180.000000;3.454417
3179.000000;3.770936
3178.000000;3.404828
3177.000000;3.660947
3176.000000;3.285937
3175.000000;2.922597
3174.000000;2.830595
3173.000000;2.934214
3172.000000;3.179961
3171.000000;3.032149
3170.000000;2.883148
3169.000000;2.864552
3168.000000;2.919535
3167.000000;3.030692
3166.000000;3.163577
3165.000000;3.221186
3164.000000;3.092390
3163.000000;2.976212
3162.000000;3.002396
3161.000000;3.136964
3160.000000;3.188949
3159.000000;3.100000
3158.000000;3.065457
3157.000000;2.997195
3156.000000;2.855783
3155.000000;2.788846
3154.000000;2.818675
3153.000000;2.851906
3152.000000;2.843945
3151.000000;2.839911
3150.000000;2.866928
3149.000000;2.950206
3148.000000;3.170430
3147.000000;3.108937
3146.000000;2.831880
3145.000000;2.694758
3144.000000;2.642078
3143.000000;2.663352
3142.000000;2.742052
3141.000000;2.857310
3140.000000;2.967143
3139.000000;3.070484
3138.000000;3.123713
3137.000000;3.504288
3136.000000;3.611931
3135.000000;2.905733
3134.000000;2.703649
3133.000000;2.665422
3132.000000;2.751504
3131.000000;2.862715
3130.000000;2.973600
3129.000000;3.142168
3128.000000;3.022610
3127.000000;2.802449
3126.000000;2.698424
3125.000000;2.701852
3124.000000;2.838412
3123.000000;3.186444
3122.000000;3.814939
3121.000000;3.197599
3120.000000;3.071581
3119.000000;3.144215
3118.000000;3.315424
3117.000000;3.271539
3116.000000;3.042859
3115.000000;2.884781
3114.000000;2.878851
3113.000000;3.000523
3112.000000;3.047152
3111.000000;2.971618
3110.000000;2.884178
3109.000000;2.754894
3108.000000;2.655629
3107.000000;2.597718
3106.000000;2.568702
3105.000000;2.576451
3104.000000;2.650347
3103.000000;2.816395
3102.000000;3.051979
3101.000000;3.225185
3100.000000;3.222100
3099.000000;3.231211
3098.000000;3.396389
3097.000000;3.594688
3096.000000;3.365037
3095.000000;3.039548
3094.000000;2.864929
3093.000000;2.830057
3092.000000;2.911724
3091.000000;3.105936
3090.000000;3.539724
3089.000000;3.662016
3088.000000;3.150010
3087.000000;3.132253
3086.000000;3.130528
3085.000000;2.863575
3084.000000;2.700819
3083.000000;2.697290
3082.000000;2.815971
3081.000000;2.868752
3080.000000;2.749138
3079.000000;2.675558
3078.000000;2.690392
3077.000000;2.753331
3076.000000;2.826607
3075.000000;2.925400
3074.000000;3.000570
3073.000000;2.939633
3072.000000;2.823865
3071.000000;2.734989
3070.000000;2.722671
3069.000000;2.823645
3068.000000;3.014209
3067.000000;3.102629
3066.000000;2.984469
3065.000000;2.858934
3064.000000;2.840293
3063.000000;2.948774
3062.000000;3.160687
3061.000000;3.384834
3060.000000;3.416712
3059.000000;3.159268
3058.000000;2.937499
3057.000000;2.834668
3056.000000;2.840789
3055.000000;2.950105
3054.000000;3.228023
3053.000000;3.451638
3052.000000;3.336511
3051.000000;3.401341
3050.000000;3.465708
3049.000000;3.384079
3048.000000;3.261168
3047.000000;3.199982
3046.000000;3.300475
3045.000000;3.550903
3044.000000;3.370542
3043.000000;3.149851
3042.000000;3.062570
3041.000000;3.062639
3040.000000;3.121312
3039.000000;3.254638
3038.000000;3.547213
3037.000000;3.448018
3036.000000;3.183393
3035.000000;3.142262
3034.000000;3.227446
3033.000000;3.345348
3032.000000;3.369309
3031.000000;3.206328
3030.000000;3.001786
3029.000000;2.903187
3028.000000;2.925299
3027.000000;3.120879
3026.000000;3.376643
3025.000000;3.217462
3024.000000;3.034381
3023.000000;2.932009
3022.000000;2.871657
3021.000000;2.819085
3020.000000;2.763068
3019.000000;2.772964
3018.000000;2.891043
3017.000000;3.047520
3016.000000;2.954189
3015.000000;2.776790
3014.000000;2.689151
3013.000000;2.700568
3012.000000;2.807325
3011.000000;2.981581
3010.000000;2.985932
3009.000000;2.845889
3008.000000;2.829636
3007.000000;2.923069
3006.000000;3.017589
3005.000000;3.038043
3004.000000;3.035975
3003.000000;3.047845
3002.000000;3.084149
3001.000000;3.142967
3000.000000;3.111128
2999.000000;2.912063
2998.000000;2.754757
2997.000000;2.716744
2996.000000;2.767420
2995.000000;2.837019
2994.000000;2.877846
2993.000000;2.916360
2992.000000;3.036999
2991.000000;3.513597
2990.000000;3.607868
2989.000000;3.362335
2988.000000;3.587606
2987.000000;3.788883
2986.000000;3.332681
2985.000000;3.247674
2984.000000;3.588573
2983.000000;3.294514
2982.000000;2.903737
2981.000000;2.827280
2980.000000;2.896196
2979.000000;3.312769
2978.000000;3.758110
2977.000000;3.024753
2976.000000;2.950488
2975.000000;2.945100
2974.000000;2.916602
2973.000000;2.902574
2972.000000;2.928721
2971.000000;2.891226
2970.000000;2.793181
2969.000000;2.765169
2968.000000;2.863495
2967.000000;3.177870
2966.000000;3.811743
2965.000000;3.453564
2964.000000;3.279632
2963.000000;3.424890
2962.000000;3.445393
2961.000000;3.142889
2960.000000;3.022945
2959.000000;3.065876
2958.000000;3.178133
2957.000000;3.395516
2956.000000;3.480406
2955.000000;3.037576
2954.000000;2.822060
2953.000000;2.785808
2952.000000;2.878751
2951.000000;2.890093
2950.000000;2.760600
2949.000000;2.704159
2948.000000;2.716483
2947.000000;2.762166
2946.000000;2.814860
2945.000000;2.861780
2944.000000;2.950284
2943.000000;3.097058
2942.000000;3.296919
2941.000000;3.771709
2940.000000;4.034143
2939.000000;3.985765
2938.000000;3.338815
2937.000000;3.042026
2936.000000;2.998496
2935.000000;3.011321
2934.000000;2.930091
2933.000000;2.780295
2932.000000;2.653058
2931.000000;2.578633
2930.000000;2.579476
2929.000000;2.681905
2928.000000;2.923316
2927.000000;3.310492
2926.000000;3.552187
2925.000000;3.242192
2924.000000;2.919874
2923.000000;2.791154
2922.000000;2.807851
2921.000000;2.931973
2920.000000;3.118881
2919.000000;3.290035
2918.000000;3.227831
2917.000000;3.074108
2916.000000;3.010985
2915.000000;3.009638
2914.000000;3.055974
2913.000000;3.162359
2912.000000;3.356298
2911.000000;3.295435
2910.000000;3.126113
2909.000000;3.107504
2908.000000;3.066530
2907.000000;2.920657
2906.000000;2.809448
2905.000000;2.805376
2904.000000;2.960542
2903.000000;3.107542
2902.000000;2.989813
2901.000000;2.962188
2900.000000;2.991551
2899.000000;3.008951
2898.000000;3.114005
2897.000000;3.445497
2896.000000;3.491291
2895.000000;3.108618
2894.000000;3.003366
2893.000000;3.000653
2892.000000;2.823188
2891.000000;2.632738
2890.000000;2.595403
2889.000000;2.738476
2888.000000;3.063490
2887.000000;2.969107
2886.000000;2.766952
2885.000000;2.720132
2884.000000;2.699896
2883.000000;2.689545
2882.000000;2.714556
2881.000000;2.821729
2880.000000;3.122628
2879.000000;3.465487
2878.000000;3.151327
2877.000000;3.032802
2876.000000;2.933118
2875.000000;2.826559
2874.000000;2.833645
2873.000000;2.984815
2872.000000;3.235428
2871.000000;3.208791
2870.000000;3.003696
2869.000000;2.897534
2868.000000;2.950341
2867.000000;3.146341
2866.000000;3.226536
2865.000000;3.185165
2864.000000;3.213660
2863.000000;3.259354
2862.000000;3.275235
2861.000000;3.233588
2860.000000;3.150301
2859.000000;3.082134
2858.000000;3.067789
2857.000000;3.257411
2856.000000;3.832014
2855.000000;3.375663
2854.000000;3.113327
2853.000000;3.048598
2852.000000;3.031937
2851.000000;3.206086
2850.000000;3.518056
2849.000000;3.254822
2848.000000;2.957752
2847.000000;2.804114
2846.000000;2.796398
2845.000000;2.995735
2844.000000;3.331043
2843.000000;3.240480
2842.000000;3.043930
2841.000000;2.914397
2840.000000;2.882024
2839.000000;3.026655
2838.000000;3.332796
2837.000000;3.608670
2836.000000;3.399106
2835.000000;3.182090
2834.000000;3.150666
2833.000000;3.242528
2832.000000;3.337719
2831.000000;3.209995
2830.000000;3.017538
2829.000000;2.890557
2828.000000;2.810112
2827.000000;2.781592
2826.000000;2.801062
2825.000000;2.863140
2824.000000;2.929311
2823.000000;2.879517
2822.000000;2.802807
2821.000000;2.815841
2820.000000;2.894706
2819.000000;2.988904
2818.000000;3.068921
2817.000000;3.084939
2816.000000;3.057055
2815.000000;3.181679
2814.000000;3.420295
2813.000000;3.373607
2812.000000;3.426612
2811.000000;3.615833
2810.000000;3.513967
2809.000000;3.213781
2808.000000;2.917463
2807.000000;2.753727
2806.000000;2.737024
2805.000000;2.870620
2804.000000;3.223610
2803.000000;3.852262
2802.000000;3.754281
2801.000000;3.606046
2800.000000;3.613008
2799.000000;3.406924
2798.000000;3.152622
2797.000000;2.988765
2796.000000;2.907544
2795.000000;2.927875
2794.000000;3.007572
2793.000000;3.003350
2792.000000;2.947261
2791.000000;2.905251
2790.000000;2.881839
2789.000000;2.883124
2788.000000;2.882482
2787.000000;2.896213
2786.000000;2.982080
2785.000000;3.079754
2784.000000;3.137468
2783.000000;3.089503
2782.000000;2.964828
2781.000000;2.906863
2780.000000;3.059481
2779.000000;3.650197
2778.000000;3.306612
2777.000000;3.161965
2776.000000;3.480761
2775.000000;3.204217
2774.000000;2.981712
2773.000000;2.968725
2772.000000;3.051362
2771.000000;3.128271
2770.000000;3.163165
2769.000000;3.333123
2768.000000;3.680686
2767.000000;3.545417
2766.000000;3.255103
2765.000000;3.176112
2764.000000;3.216850
2763.000000;3.171343
2762.000000;3.036259
2761.000000;3.017052
2760.000000;3.060411
2759.000000;2.983759
2758.000000;2.953772
2757.000000;3.140996
2756.000000;3.513351
2755.000000;3.713006
2754.000000;3.202830
2753.000000;2.914559
2752.000000;2.883230
2751.000000;2.959212
2750.000000;3.023453
2749.000000;3.013736
2748.000000;3.017350
2747.000000;3.046439
2746.000000;3.015788
2745.000000;3.062944
2744.000000;3.246069
2743.000000;3.272246
2742.000000;3.125797
2741.000000;3.024808
2740.000000;3.016076
2739.000000;3.080400
2738.000000;3.133759
2737.000000;3.121004
2736.000000;3.115056
2735.000000;3.150893
2734.000000;3.180819
2733.000000;3.465589
2732.000000;3.503983
2731.000000;3.018589
2730.000000;2.839787
2729.000000;2.806839
2728.000000;2.867050
2727.000000;2.966111
2726.000000;3.084424
2725.000000;3.265047
2724.000000;3.238372
2723.000000;3.157431
2722.000000;3.217511
2721.000000;3.223595
2720.000000;3.088455
2719.000000;2.967173
2718.000000;2.893884
2717.000000;2.867157
2716.000000;2.901567
2715.000000;3.008226
2714.000000;3.196161
2713.000000;3.255471
2712.000000;3.093821
2711.000000;3.006077
2710.000000;2.959253
2709.000000;2.927690
2708.000000;2.955439
2707.000000;3.100755
2706.000000;3.366362
2705.000000;3.483487
2704.000000;3.394784
2703.000000;3.423398
2702.000000;3.787371
2701.000000;3.556001
2700.000000;3.202857
2699.000000;3.229229
2698.000000;3.401421
2697.000000;3.126152
2696.000000;2.906528
2695.000000;2.886552
2694.000000;3.159091
2693.000000;3.663472
2692.000000;3.102900
2691.000000;2.913778
2690.000000;2.944510
2689.000000;3.011049
2688.000000;2.957459
2687.000000;2.858901
2686.000000;2.888108
2685.000000;3.025674
2684.000000;3.317649
2683.000000;3.686195
2682.000000;3.587629
2681.000000;3.409957
2680.000000;3.376952
2679.000000;3.487382
2678.000000;3.599350
2677.000000;3.341452
2676.000000;3.124645
2675.000000;3.053457
2674.000000;3.046677
2673.000000;3.053139
2672.000000;3.054824
2671.000000;3.053009
2670.000000;3.067455
2669.000000;3.106892
2668.000000;3.124836
2667.000000;3.101624
2666.000000;3.032216
2665.000000;2.914316
2664.000000;2.810926
2663.000000;2.772802
2662.000000;2.793163
2661.000000;2.796182
2660.000000;2.763437
2659.000000;2.766134
2658.000000;2.801373
2657.000000;2.802508
2656.000000;2.768903
2655.000000;2.765754
2654.000000;2.803646
2653.000000;2.820866
2652.000000;2.802751
2651.000000;2.821714
2650.000000;2.918696
2649.000000;3.077635
2648.000000;3.228758
2647.000000;3.179256
2646.000000;2.966474
2645.000000;2.814687
2644.000000;2.771380
2643.000000;2.848865
2642.000000;2.958856
2641.000000;2.942026
2640.000000;2.865068
2639.000000;2.811654
2638.000000;2.795371
2637.000000;2.936102
2636.000000;3.196338
2635.000000;3.032009
2634.000000;2.914552
2633.000000;2.974694
2632.000000;3.034414
2631.000000;3.047709
2630.000000;3.037969
2629.000000;3.337830
2628.000000;3.537877
2627.000000;3.042672
2626.000000;2.883984
2625.000000;2.741448
2624.000000;2.619132
2623.000000;2.623660
2622.000000;2.709629
2621.000000;2.758207
2620.000000;2.768192
2619.000000;2.844857
2618.000000;2.913198
2617.000000;2.874814
2616.000000;2.797864
2615.000000;2.778782
2614.000000;2.834461
2613.000000;2.943929
2612.000000;3.091837
2611.000000;3.134759
2610.000000;3.005912
2609.000000;2.949818
2608.000000;2.915730
2607.000000;2.862119
2606.000000;2.849916
2605.000000;3.055102
2604.000000;3.611892
2603.000000;3.259756
2602.000000;3.477083
2601.000000;3.909225
2600.000000;3.050262
2599.000000;2.862067
2598.000000;2.754518
2597.000000;2.704484
2596.000000;2.690085
2595.000000;2.687026
2594.000000;2.729575
2593.000000;2.790801
2592.000000;2.883610
2591.000000;3.136151
2590.000000;3.531570
2589.000000;3.287820
2588.000000;3.192815
2587.000000;3.397135
2586.000000;3.398145
2585.000000;3.203748
2584.000000;3.171345
2583.000000;3.146012
2582.000000;3.058333
2581.000000;3.063523
2580.000000;3.137130
2579.000000;3.164045
2578.000000;3.191812
2577.000000;3.274441
2576.000000;3.312572
2575.000000;3.244956
2574.000000;3.136710
2573.000000;3.029362
2572.000000;2.907868
2571.000000;2.817779
2570.000000;2.822796
2569.000000;2.951366
2568.000000;3.265966
2567.000000;3.588240
2566.000000;3.313316
2565.000000;3.120612
2564.000000;3.090826
2563.000000;3.199984
2562.000000;3.412290
2561.000000;3.279178
2560.000000;3.100095
2559.000000;3.046560
2558.000000;3.290074
2557.000000;3.555080
2556.000000;3.030261
2555.000000;2.916574
2554.000000;3.042581
2553.000000;3.280818
2552.000000;3.587378
2551.000000;3.442435
2550.000000;3.158726
2549.000000;3.108572
2548.000000;3.214402
2547.000000;3.098155
2546.000000;2.935857
2545.000000;2.923140
2544.000000;3.039488
2543.000000;3.155075
2542.000000;3.126041
2541.000000;3.055936
2540.000000;2.890364
2539.000000;2.726566
2538.000000;2.667237
2537.000000;2.690258
2536.000000;2.769494
2535.000000;2.892060
2534.000000;3.013570
2533.000000;3.028459
2532.000000;2.984575
2531.000000;3.046288
2530.000000;3.413375
2529.000000;3.647232
2528.000000;3.248048
2527.000000;3.193604
2526.000000;3.188600
2525.000000;3.036409
2524.000000;2.871721
2523.000000;2.789566
2522.000000;2.801791
2521.000000;2.882708
2520.000000;2.961373
2519.000000;2.893008
2518.000000;2.773514
2517.000000;2.721544
2516.000000;2.762663
2515.000000;2.825199
2514.000000;2.804645
2513.000000;2.785397
2512.000000;2.922110
2511.000000;3.294753
2510.000000;3.059695
2509.000000;2.836335
2508.000000;2.833042
2507.000000;3.024207
2506.000000;3.771288
2505.000000;3.361913
2504.000000;3.103262
2503.000000;2.966240
2502.000000;2.855712
2501.000000;2.926204
2500.000000;3.082046
2499.000000;3.160424
2498.000000;3.226785
2497.000000;3.474578
2496.000000;3.348771
2495.000000;3.099530
2494.000000;3.065121
2493.000000;3.137163
2492.000000;3.226240
2491.000000;3.334227
2490.000000;3.425182
2489.000000;3.429715
2488.000000;3.774242
2487.000000;3.564590
2486.000000;3.093406
2485.000000;2.974115
2484.000000;2.971897
2483.000000;2.912827
2482.000000;2.774207
2481.000000;2.694524
2480.000000;2.722942
2479.000000;2.843437
2478.000000;2.958408
2477.000000;2.889344
2476.000000;2.734864
2475.000000;2.653730
2474.000000;2.685706
2473.000000;2.812833
2472.000000;2.923608
2471.000000;2.903773
2470.000000;2.847374
2469.000000;2.820421
2468.000000;2.845938
2467.000000;2.917644
2466.000000;2.889418
2465.000000;2.774027
2464.000000;2.743104
2463.000000;2.895867
2462.000000;3.087404
2461.000000;2.958769
2460.000000;3.080681
2459.000000;3.428568
2458.000000;3.023345
2457.000000;2.915550
2456.000000;3.192845
2455.000000;3.581329
2454.000000;3.302504
2453.000000;3.057951
2452.000000;2.992554
2451.000000;3.110835
2450.000000;3.295002
2449.000000;3.141888
2448.000000;2.975738
2447.000000;2.865205
2446.000000;2.775569
2445.000000;2.732088
2444.000000;2.758401
2443.000000;2.892005
2442.000000;3.160060
2441.000000;3.330019
2440.000000;3.228203
2439.000000;3.247683
2438.000000;3.626531
2437.000000;3.479572
2436.000000;3.016731
2435.000000;2.846812
2434.000000;2.786056
2433.000000;2.809110
2432.000000;2.929775
2431.000000;3.362235
2430.000000;3.310161
2429.000000;2.979580
2428.000000;3.001798
2427.000000;3.040485
2426.000000;2.934545
2425.000000;2.870519
2424.000000;2.885501
2423.000000;2.991365
2422.000000;3.186658
2421.000000;3.496983
2420.000000;3.670753
2419.000000;3.162995
2418.000000;2.973264
2417.000000;2.957330
2416.000000;2.967199
2415.000000;3.016048
2414.000000;3.395361
2413.000000;3.548637
2412.000000;3.130904
2411.000000;3.302615
2410.000000;3.525445
2409.000000;3.316902
2408.000000;3.167136
2407.000000;3.115720
2406.000000;3.162172
2405.000000;3.027296
2404.000000;2.848090
2403.000000;2.825173
2402.000000;2.934276
2401.000000;2.991996
2400.000000;2.893059
2399.000000;2.824921
2398.000000;2.836721
2397.000000;2.883511
2396.000000;2.926549
2395.000000;3.016281
2394.000000;3.070598
2393.000000;2.913484
2392.000000;2.773082
2391.000000;2.725580
2390.000000;2.769932
2389.000000;2.886091
2388.000000;2.995848
2387.000000;3.060752
2386.000000;3.147428
2385.000000;3.261261
2384.000000;3.272613
2383.000000;3.553625
2382.000000;3.639026
2381.000000;3.073743
2380.000000;2.885511
2379.000000;2.856357
2378.000000;2.937149
2377.000000;3.181026
2376.000000;3.543919
2375.000000;3.294200
2374.000000;3.145549
2373.000000;3.174981
2372.000000;3.114324
2371.000000;3.024649
2370.000000;3.010901
2369.000000;3.082874
2368.000000;3.175981
2367.000000;3.175884
2366.000000;3.165283
2365.000000;3.140283
2364.000000;3.048279
2363.000000;3.076998
2362.000000;3.450657
2361.000000;3.761844
2360.000000;3.383348
2359.000000;3.387366
2358.000000;3.164557
2357.000000;3.033448
2356.000000;3.076127
2355.000000;3.337171
2354.000000;3.593523
2353.000000;3.365737
2352.000000;3.250918
2351.000000;3.213038
2350.000000;3.213498
2349.000000;3.262029
2348.000000;3.335496
2347.000000;3.320857
2346.000000;3.219271
2345.000000;3.154699
2344.000000;3.167377
2343.000000;3.273057
2342.000000;3.422822
2341.000000;3.365408
2340.000000;3.248436
2339.000000;3.211544
2338.000000;3.219099
2337.000000;3.302852
2336.000000;3.631358
2335.000000;3.644300
2334.000000;3.246370
2333.000000;3.216950
2332.000000;3.261414
2331.000000;3.219215
2330.000000;3.182890
2329.000000;3.205754
2328.000000;3.146417
2327.000000;3.019173
2326.000000;2.995507
2325.000000;3.138994
2324.000000;3.474879
2323.000000;3.322075
2322.000000;3.216192
2321.000000;3.849705
2320.000000;3.206543
2319.000000;2.923113
2318.000000;2.949353
2317.000000;3.089602
2316.000000;3.359500
2315.000000;4.113201
2314.000000;3.519984
2313.000000;3.181299
2312.000000;3.042243
2311.000000;2.961453
2310.000000;2.931838
2309.000000;2.974115
2308.000000;3.113091
2307.000000;3.290795
2306.000000;3.525186
2305.000000;3.671074
2304.000000;3.374866
2303.000000;3.373268
2302.000000;3.111855
2301.000000;2.847383
2300.000000;2.834735
2299.000000;3.022755
2298.000000;3.404990
2297.000000;3.630487
2296.000000;3.497791
2295.000000;3.463866
2294.000000;3.355373
2293.000000;3.024566
2292.000000;2.849400
2291.000000;2.869605
2290.000000;3.066211
2289.000000;3.431179
2288.000000;3.630435
2287.000000;3.575426
2286.000000;3.311620
2285.000000;3.034187
2284.000000;2.917431
2283.000000;2.940446
2282.000000;3.089043
2281.000000;3.331669
2280.000000;3.525666
2279.000000;3.437509
2278.000000;3.194719
2277.000000;3.030337
2276.000000;3.005965
2275.000000;3.082929
2274.000000;3.014360
2273.000000;2.854090
2272.000000;2.795739
2271.000000;2.852057
2270.000000;3.047759
2269.000000;3.466304
2268.000000;3.427675
2267.000000;3.213061
2266.000000;3.207360
2265.000000;3.353185
2264.000000;4.003084
2263.000000;3.706869
2262.000000;3.290174
2261.000000;3.204503
2260.000000;3.412496
2259.000000;3.628276
2258.000000;3.346708
2257.000000;3.376341
2256.000000;3.480226
2255.000000;3.468085
2254.000000;3.509647
2253.000000;3.761193
2252.000000;3.983161
2251.000000;3.416684
2250.000000;3.096530
2249.000000;2.936618
2248.000000;2.893862
2247.000000;2.959684
2246.000000;3.083297
2245.000000;3.123878
2244.000000;3.044914
2243.000000;2.900416
2242.000000;2.812553
2241.000000;2.858104
2240.000000;3.114001
2239.000000;3.178324
2238.000000;3.033699
2237.000000;3.130359
2236.000000;3.817357
2235.000000;3.275942
2234.000000;3.098499
2233.000000;3.136779
2232.000000;3.191219
2231.000000;3.220502
2230.000000;3.316959
2229.000000;3.558800
2228.000000;3.241084
2227.000000;2.949317
2226.000000;2.873691
2225.000000;2.959151
2224.000000;3.248766
2223.000000;3.248393
2222.000000;3.021262
2221.000000;3.005685
2220.000000;3.362685
2219.000000;3.553290
2218.000000;2.957417
2217.000000;2.753823
2216.000000;2.687649
2215.000000;2.718828
2214.000000;2.801854
2213.000000;2.917520
2212.000000;3.052239
2211.000000;3.458492
2210.000000;3.497782
2209.000000;3.070258
2208.000000;2.958118
2207.000000;2.987830
2206.000000;3.123837
2205.000000;3.386352
2204.000000;3.543250
2203.000000;3.433432
2202.000000;3.453709
2201.000000;3.380042
2200.000000;3.227936
2199.000000;3.169380
2198.000000;3.246630
2197.000000;3.341088
2196.000000;3.257851
2195.000000;3.206524
2194.000000;3.297081
2193.000000;3.691418
2192.000000;3.507399
2191.000000;3.141246
2190.000000;3.048345
2189.000000;3.056852
2188.000000;3.111488
2187.000000;3.116288
2186.000000;3.069928
2185.000000;3.030040
2184.000000;3.070504
2183.000000;3.284684
2182.000000;3.518524
2181.000000;3.236554
2180.000000;3.126277
2179.000000;3.095678
2178.000000;3.032448
2177.000000;2.964250
2176.000000;2.972254
2175.000000;3.116729
2174.000000;3.402461
2173.000000;3.426937
2172.000000;3.148774
2171.000000;2.957352
2170.000000;2.914526
2169.000000;2.984997
2168.000000;3.090354
2167.000000;3.167933
2166.000000;3.395945
2165.000000;3.746096
2164.000000;3.311593
2163.000000;3.033902
2162.000000;2.936068
2161.000000;2.970484
2160.000000;3.163329
2159.000000;3.263275
2158.000000;3.473453
2157.000000;3.425535
2156.000000;3.046763
2155.000000;2.986666
2154.000000;3.186226
2153.000000;3.454886
2152.000000;3.272975
2151.000000;3.201619
2150.000000;3.165849
2149.000000;3.161614
2148.000000;3.220498
2147.000000;3.186400
2146.000000;2.921235
2145.000000;2.769713
2144.000000;2.805641
2143.000000;2.972707
2142.000000;2.930974
2141.000000;2.850754
2140.000000;2.978225
2139.000000;3.307901
2138.000000;3.869924
2137.000000;3.611804
2136.000000;3.135752
2135.000000;2.869919
2134.000000;2.734291
2133.000000;2.702960
2132.000000;2.772839
2131.000000;2.944322
2130.000000;3.105496
2129.000000;3.052408
2128.000000;2.941931
2127.000000;2.884126
2126.000000;2.900230
2125.000000;2.904179
2124.000000;2.803781
2123.000000;2.724161
2122.000000;2.740747
2121.000000;2.839407
2120.000000;2.946979
2119.000000;3.248825
2118.000000;3.942548
2117.000000;3.277924
2116.000000;3.224764
2115.000000;3.208490
2114.000000;3.218006
2113.000000;3.054667
2112.000000;2.910679
2111.000000;2.900783
2110.000000;3.319458
2109.000000;3.470769
2108.000000;2.959018
2107.000000;2.793409
2106.000000;2.735885
2105.000000;2.766905
2104.000000;2.881540
2103.000000;3.098188
2102.000000;3.579856
2101.000000;3.348948
2100.000000;3.103195
2099.000000;3.106306
2098.000000;3.305897
2097.000000;3.492863
2096.000000;3.527582
2095.000000;3.433616
2094.000000;3.204537
2093.000000;3.089752
2092.000000;3.086310
2091.000000;3.202973
2090.000000;3.392762
2089.000000;3.454318
2088.000000;3.185233
2087.000000;2.970984
2086.000000;2.940143
2085.000000;3.041162
2084.000000;3.105525
2083.000000;3.027101
2082.000000;2.943185
2081.000000;2.917707
2080.000000;2.965208
2079.000000;3.099917
2078.000000;3.307419
2077.000000;3.905233
2076.000000;3.464696
2075.000000;3.087878
2074.000000;2.917380
2073.000000;2.874855
2072.000000;2.964578
2071.000000;3.089217
2070.000000;3.123241
2069.000000;3.150839
2068.000000;3.153891
2067.000000;3.122982
2066.000000;2.960566
2065.000000;2.827359
2064.000000;2.751783
2063.000000;2.735236
2062.000000;2.825623
2061.000000;3.043231
2060.000000;3.272609
2059.000000;3.475036
2058.000000;3.504810
2057.000000;3.308403
2056.000000;3.334475
2055.000000;3.770212
2054.000000;3.416033
2053.000000;3.184513
2052.000000;3.268810
2051.000000;3.169922
2050.000000;3.082457
2049.000000;3.264814
2048.000000;3.584546
2047.000000;3.055644
2046.000000;2.900802
2045.000000;2.987437
2044.000000;3.357767
2043.000000;3.225605
2042.000000;2.967471
2041.000000;2.902739
2040.000000;2.949540
2039.000000;3.112260
2038.000000;3.395835
2037.000000;3.499740
2036.000000;3.250797
2035.000000;3.051827
2034.000000;2.973911
2033.000000;3.008387
2032.000000;3.343497
2031.000000;3.269234
2030.000000;2.871151
2029.000000;2.778082
2028.000000;2.826487
2027.000000;3.001278
2026.000000;3.184026
2025.000000;3.254017
2024.000000;3.266126
2023.000000;3.218256
2022.000000;3.162917
2021.000000;3.065010
2020.000000;2.882690
2019.000000;2.749734
2018.000000;2.724295
2017.000000;2.813776
2016.000000;3.024468
2015.000000;3.473228
2014.000000;3.827560
2013.000000;3.423442
2012.000000;3.665438
2011.000000;3.321533
2010.000000;3.005694
2009.000000;2.918062
2008.000000;2.928882
2007.000000;3.001792
2006.000000;3.084746
2005.000000;3.034831
2004.000000;2.911562
2003.000000;2.873911
2002.000000;2.901819
2001.000000;2.921049
2000.000000;2.908582
1999.000000;2.906566
1998.000000;2.975365
1997.000000;3.204313
1996.000000;3.400568
1995.000000;3.237387
1994.000000;3.160033
1993.000000;3.118404
1992.000000;3.058338
1991.000000;3.059400
1990.000000;3.185695
1989.000000;3.259570
1988.000000;3.159509
1987.000000;3.151878
1986.000000;3.117918
1985.000000;3.035020
1984.000000;3.048598
1983.000000;3.165608
1982.000000;3.102504
1981.000000;2.972306
1980.000000;3.048706
1979.000000;3.225524
1978.000000;3.044005
1977.000000;2.829638
1976.000000;2.754013
1975.000000;2.749560
1974.000000;2.823454
1973.000000;3.025504
1972.000000;3.438055
1971.000000;3.139254
1970.000000;2.973103
1969.000000;3.111171
1968.000000;3.467617
1967.000000;4.109122
1966.000000;4.008780
1965.000000;3.369282
1964.000000;3.062127
1963.000000;2.945924
1962.000000;2.957931
1961.000000;3.107850
1960.000000;3.429528
1959.000000;3.180544
1958.000000;2.931047
1957.000000;2.896328
1956.000000;3.008637
1955.000000;3.307126
1954.000000;3.299104
1953.000000;3.102228
1952.000000;3.241280
1951.000000;3.234388
1950.000000;3.003268
1949.000000;2.923443
1948.000000;2.942406
1947.000000;3.000815
1946.000000;3.100845
1945.000000;3.264474
1944.000000;3.357392
1943.000000;3.404081
1942.000000;3.541120
1941.000000;3.717132
1940.000000;3.400283
1939.000000;3.163698
1938.000000;3.018765
1937.000000;2.932398
1936.000000;2.937403
1935.000000;2.916237
1934.000000;2.874695
1933.000000;2.972599
1932.000000;3.149389
1931.000000;3.105694
1930.000000;2.973422
1929.000000;2.830519
1928.000000;2.738751
1927.000000;2.756969
1926.000000;2.893167
1925.000000;3.492059
1924.000000;3.670439
1923.000000;3.111196
1922.000000;3.170339
1921.000000;3.197280
1920.000000;3.072052
1919.000000;2.972441
1918.000000;3.043967
1917.000000;3.079445
1916.000000;2.947870
1915.000000;2.886710
1914.000000;2.925776
1913.000000;3.048292
1912.000000;3.243049
1911.000000;3.383482
1910.000000;3.487831
1909.000000;3.462307
1908.000000;3.246900
1907.000000;3.199305
1906.000000;3.171410
1905.000000;2.999944
1904.000000;2.889168
1903.000000;3.025899
1902.000000;3.444819
1901.000000;3.442817
1900.000000;3.672813
1899.000000;3.548989
1898.000000;3.103641
1897.000000;2.988692
1896.000000;2.934777
1895.000000;2.989222
1894.000000;3.166929
1893.000000;3.234532
1892.000000;3.020465
1891.000000;2.823988
1890.000000;2.719923
1889.000000;2.709707
1888.000000;2.798873
1887.000000;2.960219
1886.000000;3.094946
1885.000000;3.173915
1884.000000;3.340135
1883.000000;3.820406
1882.000000;3.591200
1881.000000;3.250403
1880.000000;3.208353
1879.000000;3.273210
1878.000000;3.289955
1877.000000;3.229270
1876.000000;3.205857
1875.000000;3.235661
1874.000000;3.320149
1873.000000;3.353587
1872.000000;3.217856
1871.000000;3.130165
1870.000000;3.197317
1869.000000;3.792212
1868.000000;3.680797
1867.000000;3.233848
1866.000000;3.153304
1865.000000;2.949661
1864.000000;2.798426
1863.000000;2.776165
1862.000000;2.864869
1861.000000;3.113091
1860.000000;3.672145
1859.000000;3.357450
1858.000000;3.138631
1857.000000;3.170360
1856.000000;3.273959
1855.000000;3.259482
1854.000000;3.103642
1853.000000;2.986555
1852.000000;2.954400
1851.000000;3.040036
1850.000000;3.192321
1849.000000;3.174267
1848.000000;3.139868
1847.000000;3.300117
1846.000000;3.201040
1845.000000;2.944955
1844.000000;2.842975
1843.000000;2.846145
1842.000000;2.948886
1841.000000;3.149748
1840.000000;3.371407
1839.000000;3.392320
1838.000000;3.252541
1837.000000;3.222497
1836.000000;3.521991
1835.000000;3.688533
1834.000000;3.328935
1833.000000;3.412045
1832.000000;3.601785
1831.000000;3.218031
1830.000000;3.150986
1829.000000;3.304660
1828.000000;3.705528
1827.000000;4.279120
1826.000000;3.403949
1825.000000;3.138204
1824.000000;3.195543
1823.000000;3.577177
1822.000000;3.461820
1821.000000;3.196832
1820.000000;3.108194
1819.000000;3.066381
1818.000000;3.181989
1817.000000;3.496479
1816.000000;3.861904
1815.000000;3.595863
1814.000000;3.308394
1813.000000;3.253497
1812.000000;3.533645
1811.000000;3.653213
1810.000000;3.268042
1809.000000;3.074425
1808.000000;2.885260
1807.000000;2.742530
1806.000000;2.730817
1805.000000;2.813332
1804.000000;2.825429
1803.000000;2.751027
1802.000000;2.734464
1801.000000;2.790227
1800.000000;2.807355
1799.000000;2.745010
1798.000000;2.707546
1797.000000;2.725327
1796.000000;2.792395
1795.000000;2.914257
1794.000000;2.971341
1793.000000;2.912595
1792.000000;2.907291
1791.000000;2.956464
1790.000000;3.001617
1789.000000;3.091535
1788.000000;3.346647
1787.000000;3.618054
1786.000000;3.470453
1785.000000;3.218287
1784.000000;3.076376
1783.000000;3.093828
1782.000000;3.302154
1781.000000;3.814973
1780.000000;4.353022
1779.000000;4.321010
1778.000000;3.779480
1777.000000;3.406856
1776.000000;3.263808
1775.000000;3.286443
1774.000000;3.189606
1773.000000;2.976165
1772.000000;2.888112
1771.000000;2.866216
1770.000000;2.837913
1769.000000;2.806245
1768.000000;2.806956
1767.000000;2.826333
1766.000000;2.780103
1765.000000;2.652566
1764.000000;2.533148
1763.000000;2.510059
1762.000000;2.607930
1761.000000;2.820973
1760.000000;3.087649
1759.000000;3.119415
1758.000000;2.910128
1757.000000;2.808025
1756.000000;2.853094
1755.000000;3.114952
1754.000000;3.845101
1753.000000;3.324738
1752.000000;3.120416
1751.000000;3.232020
1750.000000;3.427427
1749.000000;3.554280
1748.000000;3.330353
1747.000000;3.236391
1746.000000;3.327402
1745.000000;3.538088
1744.000000;3.750209
1743.000000;3.578082
1742.000000;3.193660
1741.000000;2.921548
1740.000000;2.807358
1739.000000;2.831034
1738.000000;2.948182
1737.000000;3.346350
1736.000000;3.484391
1735.000000;3.221397
1734.000000;3.462829
1733.000000;3.698172
1732.000000;3.391790
1731.000000;3.181548
1730.000000;3.128359
1729.000000;3.240666
1728.000000;3.369175
1727.000000;3.356419
1726.000000;3.404407
1725.000000;3.313167
1724.000000;3.075830
1723.000000;2.921830
1722.000000;2.851106
1721.000000;2.892702
1720.000000;3.139420
1719.000000;3.289464
1718.000000;3.089943
1717.000000;3.073171
1716.000000;3.164759
1715.000000;3.189818
1714.000000;3.142003
1713.000000;3.121030
1712.000000;3.128612
1711.000000;3.212597
1710.000000;3.604885
1709.000000;3.399618
1708.000000;2.939622
1707.000000;2.728845
1706.000000;2.615255
1705.000000;2.576953
1704.000000;2.562634
1703.000000;2.571529
1702.000000;2.542649
1701.000000;2.569832
1700.000000;2.757653
1699.000000;2.972566
1698.000000;3.212091
1697.000000;3.382199
1696.000000;3.183164
1695.000000;3.170979
1694.000000;3.215031
1693.000000;3.023390
1692.000000;2.830355
1691.000000;2.753718
1690.000000;2.800025
1689.000000;2.910006
1688.000000;2.992841
1687.000000;2.996837
1686.000000;3.000976
1685.000000;3.063173
1684.000000;3.207934
1683.000000;3.401815
1682.000000;3.369709
1681.000000;3.151353
1680.000000;2.954202
1679.000000;2.807676
1678.000000;2.691123
1677.000000;2.585281
1676.000000;2.552262
1675.000000;2.612980
1674.000000;2.717888
1673.000000;2.833780
1672.000000;2.991887
1671.000000;3.070777
1670.000000;2.889770
1669.000000;2.761741
1668.000000;2.771334
1667.000000;2.882077
1666.000000;3.064948
1665.000000;3.095753
1664.000000;2.893814
1663.000000;2.777857
1662.000000;2.806756
1661.000000;2.930208
1660.000000;3.107294
1659.000000;3.204547
1658.000000;3.155109
1657.000000;3.064967
1656.000000;3.133505
1655.000000;3.160915
1654.000000;2.851639
1653.000000;2.744803
1652.000000;2.762344
1651.000000;2.742959
1650.000000;2.758504
1649.000000;2.921990
1648.000000;3.242591
1647.000000;3.316559
1646.000000;3.112492
1645.000000;2.889021
1644.000000;2.799994
1643.000000;2.821749
1642.000000;2.828316
1641.000000;2.797989
1640.000000;2.756175
1639.000000;2.741898
1638.000000;2.765384
1637.000000;2.994406
1636.000000;3.493681
1635.000000;3.233912
1634.000000;3.063233
1633.000000;3.061134
1632.000000;3.083971
1631.000000;3.040429
1630.000000;2.906572
1629.000000;2.845927
1628.000000;2.861782
1627.000000;2.911009
1626.000000;2.961260
1625.000000;3.013556
1624.000000;3.113625
1623.000000;3.196315
1622.000000;3.109650
1621.000000;3.027790
1620.000000;3.041075
1619.000000;2.990610
1618.000000;2.949365
1617.000000;3.060152
1616.000000;3.035717
1615.000000;2.869057
1614.000000;2.843397
1613.000000;2.957414
1612.000000;3.100032
1611.000000;3.134033
1610.000000;3.340179
1609.000000;3.863159
1608.000000;3.596245
1607.000000;3.535786
1606.000000;3.806118
1605.000000;4.046120
1604.000000;4.380905
1603.000000;4.175749
1602.000000;3.608296
1601.000000;3.373172
1600.000000;3.256751
1599.000000;3.264534
1598.000000;3.348694
1597.000000;3.217557
1596.000000;3.086612
1595.000000;3.154435
1594.000000;3.573768
1593.000000;3.747475
1592.000000;3.439463
1591.000000;3.531564
1590.000000;3.466115
1589.000000;3.227348
1588.000000;3.393947
1587.000000;3.516968
1586.000000;3.075728
1585.000000;3.010491
1584.000000;3.376929
1583.000000;3.393813
1582.000000;2.978956
1581.000000;2.946930
1580.000000;3.111538
1579.000000;3.395198
1578.000000;3.854682
1577.000000;4.240272
1576.000000;4.204624
1575.000000;3.872795
1574.000000;3.579248
1573.000000;3.254662
1572.000000;3.063488
1571.000000;3.001707
1570.000000;3.038266
1569.000000;3.063964
1568.000000;3.052094
1567.000000;3.004810
1566.000000;2.894153
1565.000000;2.825909
1564.000000;2.867774
1563.000000;3.041093
1562.000000;2.856874
1561.000000;2.618240
1560.000000;2.689870
1559.000000;3.047165
1558.000000;3.368202
1557.000000;3.141220
1556.000000;2.923359
1555.000000;2.881885
1554.000000;2.991183
1553.000000;3.163791
1552.000000;3.278747
1551.000000;3.263912
1550.000000;3.700634
1549.000000;3.764430
1548.000000;3.070577
1547.000000;2.891189
1546.000000;2.851486
1545.000000;2.870184
1544.000000;2.896900
1543.000000;2.889651
1542.000000;2.966019
1541.000000;3.224052
1540.000000;3.125982
1539.000000;2.875660
1538.000000;2.811212
1537.000000;2.815740
1536.000000;2.927291
1535.000000;3.094816
1534.000000;3.199180
1533.000000;3.544789
1532.000000;3.463040
1531.000000;2.998590
1530.000000;2.847933
1529.000000;2.836584
1528.000000;2.978435
1527.000000;3.206949
1526.000000;3.437115
1525.000000;3.712613
1524.000000;3.161418
1523.000000;2.874037
1522.000000;2.855079
1521.000000;3.024920
1520.000000;3.257750
1519.000000;3.186858
1518.000000;3.121222
1517.000000;3.187084
1516.000000;3.238720
1515.000000;3.198885
1514.000000;3.071537
1513.000000;2.924468
1512.000000;2.810678
1511.000000;2.751685
1510.000000;2.733876
1509.000000;2.734691
1508.000000;2.696283
1507.000000;2.718192
1506.000000;2.949059
1505.000000;3.268487
1504.000000;3.368681
1503.000000;3.384612
1502.000000;3.259780
1501.000000;3.137396
1500.000000;3.076234
1499.000000;2.991198
1498.000000;2.902735
1497.000000;2.831631
1496.000000;2.805366
1495.000000;2.841660
1494.000000;2.872196
1493.000000;2.740396
1492.000000;2.578501
1491.000000;2.519199
1490.000000;2.547954
1489.000000;2.650518
1488.000000;2.813184
1487.000000;2.975332
1486.000000;3.073777
1485.000000;3.199999
1484.000000;3.466407
1483.000000;3.464309
1482.000000;3.153904
1481.000000;2.959153
1480.000000;2.854705
1479.000000;2.873931
1478.000000;3.085622
1477.000000;3.084036
1476.000000;2.850504
1475.000000;2.786777
1474.000000;2.809251
1473.000000;2.853989
1472.000000;2.887961
1471.000000;2.840437
1470.000000;2.735186
1469.000000;2.638426
1468.000000;2.622809
1467.000000;2.728598
1466.000000;2.997515
1465.000000;3.633174
1464.000000;3.666830
1463.000000;3.236991
1462.000000;3.143407
1461.000000;3.125703
1460.000000;3.147105
1459.000000;3.102979
1458.000000;3.032561
1457.000000;3.016562
1456.000000;2.981002
1455.000000;2.892343
1454.000000;2.802350
1453.000000;2.762634
1452.000000;2.796528
1451.000000;2.878109
1450.000000;2.922147
1449.000000;2.902141
1448.000000;2.894867
1447.000000;2.870901
1446.000000;2.799649
1445.000000;2.814676
1444.000000;2.969946
1443.000000;3.175507
1442.000000;3.440947
1441.000000;3.801576
1440.000000;3.693424
1439.000000;3.442738
1438.000000;3.528739
1437.000000;3.915202
1436.000000;3.473967
1435.000000;3.151547
1434.000000;3.006431
1433.000000;2.971271
1432.000000;3.067570
1431.000000;3.253808
1430.000000;3.431939
1429.000000;3.585673
1428.000000;3.525692
1427.000000;3.272718
1426.000000;3.182138
1425.000000;3.204279
1424.000000;3.116528
1423.000000;2.949924
1422.000000;2.844678
1421.000000;2.856089
1420.000000;3.012939
1419.000000;3.464411
1418.000000;3.516623
1417.000000;3.028368
1416.000000;2.891284
1415.000000;2.898453
1414.000000;3.042578
1413.000000;3.121469
1412.000000;2.961884
1411.000000;2.800562
1410.000000;2.707048
1409.000000;2.701970
1408.000000;2.811149
1407.000000;3.160415
1406.000000;3.185374
1405.000000;2.830824
1404.000000;2.699174
1403.000000;2.708565
1402.000000;2.844250
1401.000000;2.932600
1400.000000;2.948382
1399.000000;3.139033
1398.000000;3.076565
1397.000000;2.845855
1396.000000;2.799110
1395.000000;2.894429
1394.000000;3.011122
1393.000000;2.952884
1392.000000;2.807841
1391.000000;2.726652
1390.000000;2.754503
1389.000000;2.948735
1388.000000;3.216031
1387.000000;3.127069
1386.000000;2.978835
1385.000000;2.909556
1384.000000;2.880921
1383.000000;2.934218
1382.000000;3.073884
1381.000000;3.324151
1380.000000;3.475942
1379.000000;3.516196
1378.000000;4.025100
1377.000000;3.454766
1376.000000;3.084152
1375.000000;2.955351
1374.000000;2.999605
1373.000000;3.203456
1372.000000;3.075152
1371.000000;2.882317
1370.000000;2.793522
1369.000000;2.757405
1368.000000;2.787413
1367.000000;2.879561
1366.000000;2.996338
1365.000000;3.061888
1364.000000;3.062089
1363.000000;3.079737
1362.000000;3.180320
1361.000000;3.446134
1360.000000;3.589992
1359.000000;3.282253
1358.000000;3.155545
1357.000000;3.345451
1356.000000;3.636494
1355.000000;3.324288
1354.000000;2.974581
1353.000000;2.747749
1352.000000;2.676759
1351.000000;2.752191
1350.000000;2.906330
1349.000000;3.048750
1348.000000;3.136618
1347.000000;3.258693
1346.000000;3.491772
1345.000000;3.374573
1344.000000;3.109388
1343.000000;2.943088
1342.000000;2.845960
1341.000000;2.809364
1340.000000;2.815913
1339.000000;2.896007
1338.000000;3.056873
1337.000000;2.993287
1336.000000;2.807846
1335.000000;2.765720
1334.000000;2.842412
1333.000000;2.957813
1332.000000;2.908404
1331.000000;2.795001
1330.000000;2.781408
1329.000000;2.941978
1328.000000;3.227838
1327.000000;3.063926
1326.000000;2.922531
1325.000000;2.933784
1324.000000;2.929905
1323.000000;2.898792
1322.000000;2.881120
1321.000000;2.892955
1320.000000;2.900504
1319.000000;2.924774
1318.000000;3.014426
1317.000000;3.268984
1316.000000;3.408039
1315.000000;3.037419
1314.000000;2.876766
1313.000000;2.814100
1312.000000;2.774715
1311.000000;2.743505
1310.000000;2.731454
1309.000000;2.759900
1308.000000;2.840954
1307.000000;2.919159
1306.000000;2.912949
1305.000000;2.919359
1304.000000;3.040262
1303.000000;3.501657
1302.000000;3.531881
1301.000000;3.194356
1300.000000;3.379847
1299.000000;3.556897
1298.000000;3.222423
1297.000000;3.151634
1296.000000;3.235187
1295.000000;3.257761
1294.000000;3.234707
1293.000000;3.385160
1292.000000;4.005393
1291.000000;3.464973
1290.000000;3.246157
1289.000000;3.435510
1288.000000;4.048184
1287.000000;3.202247
1286.000000;2.929660
1285.000000;2.829611
1284.000000;2.869754
1283.000000;3.079513
1282.000000;3.413372
1281.000000;3.491159
1280.000000;3.335329
1279.000000;3.187165
1278.000000;3.029238
1277.000000;2.898409
1276.000000;2.818489
1275.000000;2.791578
1274.000000;2.811199
1273.000000;2.880351
1272.000000;3.005123
1271.000000;3.212559
1270.000000;3.314289
1269.000000;3.204656
1268.000000;3.324584
1267.000000;3.434626
1266.000000;3.009952
1265.000000;2.842828
1264.000000;2.848979
1263.000000;3.014306
1262.000000;3.353030
1261.000000;3.145465
1260.000000;2.924424
1259.000000;2.874980
1258.000000;2.875255
1257.000000;2.843068
1256.000000;2.805492
1255.000000;2.839219
1254.000000;3.032529
1253.000000;3.582763
1252.000000;3.477622
1251.000000;3.147901
1250.000000;3.084057
1249.000000;2.952657
1248.000000;2.825147
1247.000000;2.749771
1246.000000;2.745529
1245.000000;2.790316
1244.000000;2.848782
1243.000000;2.928170
1242.000000;3.021741
1241.000000;2.967802
1240.000000;2.843380
1239.000000;2.821117
1238.000000;2.981070
1237.000000;3.134437
1236.000000;2.860018
1235.000000;2.727968
1234.000000;2.698664
1233.000000;2.736857
1232.000000;2.850223
1231.000000;2.989919
1230.000000;3.088668
1229.000000;3.325921
1228.000000;3.532695
1227.000000;3.118544
1226.000000;2.938906
1225.000000;2.947991
1224.000000;3.113000
1223.000000;3.543670
1222.000000;3.805964
1221.000000;3.573477
1220.000000;3.482460
1219.000000;3.270700
1218.000000;3.070754
1217.000000;2.963652
1216.000000;3.016303
1215.000000;3.325012
1214.000000;3.256799
1213.000000;3.052943
1212.000000;2.876702
1211.000000;2.713040
1210.000000;2.664469
1209.000000;2.753983
1208.000000;2.960172
1207.000000;3.011613
1206.000000;2.883673
1205.000000;2.836897
1204.000000;2.856394
1203.000000;2.936292
1202.000000;3.058019
1201.000000;3.149124
1200.000000;3.273800
