Criado como novo conjunto de dados;"e0108.spp","-4222961.5 Secs"
cm-1;Abs
10000.000000;2.079842
9999.000000;2.077185
9998.000000;2.074543
9997.000000;2.071918
9996.000000;2.069309
9995.000000;2.066710
9994.000000;2.064141
9993.000000;2.061562
9992.000000;2.059043
9991.000000;2.056459
9990.000000;2.054037
9989.000000;2.051253
9988.000000;2.049721
9987.000000;2.050918
9986.000000;2.052124
9985.000000;2.050609
9984.000000;2.046970
9983.000000;2.042914
9982.000000;2.039240
9981.000000;2.037748
9980.000000;2.040133
9979.000000;2.045351
9978.000000;2.050902
9977.000000;2.056774
9976.000000;2.065370
9975.000000;2.075734
9974.000000;2.080920
9973.000000;2.075260
9972.000000;2.063074
9971.000000;2.055122
9970.000000;2.057570
9969.000000;2.066635
9968.000000;2.072875
9967.000000;2.070916
9966.000000;2.063869
9965.000000;2.058210
9964.000000;2.057036
9963.000000;2.058519
9962.000000;2.059921
9961.000000;2.061287
9960.000000;2.063488
9959.000000;2.064458
9958.000000;2.060697
9957.000000;2.052093
9956.000000;2.041779
9955.000000;2.031681
9954.000000;2.022234
9953.000000;2.015907
9952.000000;2.016164
9951.000000;2.022029
9950.000000;2.027342
9949.000000;2.028022
9948.000000;2.027531
9947.000000;2.031070
9946.000000;2.037561
9945.000000;2.042045
9944.000000;2.044062
9943.000000;2.047699
9942.000000;2.053015
9941.000000;2.053638
9940.000000;2.045780
9939.000000;2.034535
9938.000000;2.027089
9937.000000;2.024468
9936.000000;2.023052
9935.000000;2.021105
9934.000000;2.020128
9933.000000;2.020996
9932.000000;2.022747
9931.000000;2.024918
9930.000000;2.028390
9929.000000;2.033428
9928.000000;2.038293
9927.000000;2.040401
9926.000000;2.037184
9925.000000;2.027594
9924.000000;2.016051
9923.000000;2.011087
9922.000000;2.017839
9921.000000;2.032983
9920.000000;2.046637
9919.000000;2.051126
9918.000000;2.047626
9917.000000;2.042060
9916.000000;2.037522
9915.000000;2.033782
9914.000000;2.032051
9913.000000;2.035060
9912.000000;2.042409
9911.000000;2.050185
9910.000000;2.055734
9909.000000;2.059839
9908.000000;2.062879
9907.000000;2.062129
9906.000000;2.055242
9905.000000;2.043866
9904.000000;2.032519
9903.000000;2.025499
9902.000000;2.025061
9901.000000;2.030273
9900.000000;2.035926
9899.000000;2.036381
9898.000000;2.033030
9897.000000;2.033134
9896.000000;2.040005
9895.000000;2.048336
9894.000000;2.051230
9893.000000;2.049076
9892.000000;2.046361
9891.000000;2.042724
9890.000000;2.034618
9889.000000;2.025046
9888.000000;2.022984
9887.000000;2.032550
9886.000000;2.047464
9885.000000;2.056229
9884.000000;2.053046
9883.000000;2.041826
9882.000000;2.029602
9881.000000;2.020479
9880.000000;2.015027
9879.000000;2.011937
9878.000000;2.009553
9877.000000;2.007243
9876.000000;2.005501
9875.000000;2.003555
9874.000000;1.999536
9873.000000;1.993959
9872.000000;1.990198
9871.000000;1.991228
9870.000000;1.996242
9869.000000;2.000987
9868.000000;2.001961
9867.000000;1.999194
9866.000000;1.994862
9865.000000;1.991086
9864.000000;1.989252
9863.000000;1.989180
9862.000000;1.988601
9861.000000;1.985494
9860.000000;1.981219
9859.000000;1.979902
9858.000000;1.984436
9857.000000;1.993659
9856.000000;2.003294
9855.000000;2.009903
9854.000000;2.014116
9853.000000;2.018715
9852.000000;2.024604
9851.000000;2.030101
9850.000000;2.032774
9849.000000;2.030958
9848.000000;2.023840
9847.000000;2.011650
9846.000000;1.996348
9845.000000;1.980910
9844.000000;1.968558
9843.000000;1.962206
9842.000000;1.963132
9841.000000;1.970334
9840.000000;1.980714
9839.000000;1.989773
9838.000000;1.993617
9837.000000;1.991634
9836.000000;1.987183
9835.000000;1.985232
9834.000000;1.989038
9833.000000;1.998561
9832.000000;2.011269
9831.000000;2.023405
9830.000000;2.030349
9829.000000;2.027686
9828.000000;2.015142
9827.000000;1.999103
9826.000000;1.988350
9825.000000;1.987385
9824.000000;1.993808
9823.000000;2.001121
9822.000000;2.004646
9821.000000;2.004850
9820.000000;2.004431
9819.000000;2.003565
9818.000000;2.000334
9817.000000;1.995101
9816.000000;1.991211
9815.000000;1.991426
9814.000000;1.995699
9813.000000;2.002079
9812.000000;2.008411
9811.000000;2.012827
9810.000000;2.013807
9809.000000;2.011292
9808.000000;2.007269
9807.000000;2.004101
9806.000000;2.002545
9805.000000;2.001774
9804.000000;2.001059
9803.000000;2.001075
9802.000000;2.003156
9801.000000;2.006122
9800.000000;2.005097
9799.000000;1.997339
9798.000000;1.987943
9797.000000;1.985039
9796.000000;1.990876
9795.000000;2.000688
9794.000000;2.008541
9793.000000;2.011897
9792.000000;2.010723
9791.000000;2.004867
9790.000000;1.996101
9789.000000;1.990082
9788.000000;1.990712
9787.000000;1.994171
9786.000000;1.992931
9785.000000;1.985908
9784.000000;1.979915
9783.000000;1.980279
9782.000000;1.984360
9781.000000;1.985253
9780.000000;1.980046
9779.000000;1.972429
9778.000000;1.968046
9777.000000;1.970036
9776.000000;1.977831
9775.000000;1.987564
9774.000000;1.993791
9773.000000;1.992568
9772.000000;1.984662
9771.000000;1.975676
9770.000000;1.971387
9769.000000;1.972911
9768.000000;1.976547
9767.000000;1.978651
9766.000000;1.980458
9765.000000;1.985756
9764.000000;1.993628
9763.000000;1.996503
9762.000000;1.988576
9761.000000;1.974795
9760.000000;1.965289
9759.000000;1.963469
9758.000000;1.964931
9757.000000;1.965249
9756.000000;1.965149
9755.000000;1.967850
9754.000000;1.974015
9753.000000;1.980471
9752.000000;1.982636
9751.000000;1.978528
9750.000000;1.971222
9749.000000;1.966336
9748.000000;1.966450
9747.000000;1.968680
9746.000000;1.968961
9745.000000;1.967897
9744.000000;1.969138
9743.000000;1.972551
9742.000000;1.973136
9741.000000;1.967782
9740.000000;1.959298
9739.000000;1.952062
9738.000000;1.947959
9737.000000;1.947976
9736.000000;1.953365
9735.000000;1.962327
9734.000000;1.968561
9733.000000;1.967495
9732.000000;1.962530
9731.000000;1.960492
9730.000000;1.962528
9729.000000;1.963285
9728.000000;1.958317
9727.000000;1.948931
9726.000000;1.939307
9725.000000;1.932238
9724.000000;1.928476
9723.000000;1.927770
9722.000000;1.929694
9721.000000;1.934552
9720.000000;1.943250
9719.000000;1.955254
9718.000000;1.967965
9717.000000;1.978575
9716.000000;1.984370
9715.000000;1.984030
9714.000000;1.979233
9713.000000;1.972715
9712.000000;1.968114
9711.000000;1.967872
9710.000000;1.969474
9709.000000;1.968472
9708.000000;1.964104
9707.000000;1.959039
9706.000000;1.954920
9705.000000;1.950947
9704.000000;1.946719
9703.000000;1.943831
9702.000000;1.943778
9701.000000;1.946356
9700.000000;1.951049
9699.000000;1.957650
9698.000000;1.963838
9697.000000;1.964533
9696.000000;1.957074
9695.000000;1.945986
9694.000000;1.939122
9693.000000;1.939933
9692.000000;1.945084
9691.000000;1.948564
9690.000000;1.947267
9689.000000;1.942729
9688.000000;1.938866
9687.000000;1.939206
9686.000000;1.944813
9685.000000;1.952836
9684.000000;1.957620
9683.000000;1.955727
9682.000000;1.949993
9681.000000;1.946570
9680.000000;1.948450
9679.000000;1.953324
9678.000000;1.957261
9677.000000;1.958734
9676.000000;1.958088
9675.000000;1.955285
9674.000000;1.950369
9673.000000;1.944624
9672.000000;1.939423
9671.000000;1.934980
9670.000000;1.932209
9669.000000;1.934272
9668.000000;1.942892
9667.000000;1.953649
9666.000000;1.958338
9665.000000;1.953866
9664.000000;1.945872
9663.000000;1.941716
9662.000000;1.943732
9661.000000;1.950165
9660.000000;1.959021
9659.000000;1.968459
9658.000000;1.974958
9657.000000;1.974552
9656.000000;1.966972
9655.000000;1.956751
9654.000000;1.949207
9653.000000;1.946156
9652.000000;1.945680
9651.000000;1.945481
9650.000000;1.945848
9649.000000;1.949284
9648.000000;1.957122
9647.000000;1.965762
9646.000000;1.968613
9645.000000;1.963315
9644.000000;1.953757
9643.000000;1.945398
9642.000000;1.941432
9641.000000;1.942256
9640.000000;1.945758
9639.000000;1.947402
9638.000000;1.943676
9637.000000;1.936828
9636.000000;1.932334
9635.000000;1.930991
9634.000000;1.927273
9633.000000;1.917855
9632.000000;1.908292
9631.000000;1.906221
9630.000000;1.912010
9629.000000;1.920526
9628.000000;1.929318
9627.000000;1.939809
9626.000000;1.950188
9625.000000;1.953688
9624.000000;1.947628
9623.000000;1.938342
9622.000000;1.932734
9621.000000;1.930514
9620.000000;1.928250
9619.000000;1.926790
9618.000000;1.929566
9617.000000;1.936102
9616.000000;1.941795
9615.000000;1.943340
9614.000000;1.941772
9613.000000;1.940021
9612.000000;1.939684
9611.000000;1.940502
9610.000000;1.941196
9609.000000;1.940717
9608.000000;1.939936
9607.000000;1.941536
9606.000000;1.946763
9605.000000;1.953013
9604.000000;1.956166
9603.000000;1.955002
9602.000000;1.952289
9601.000000;1.951498
9600.000000;1.953110
9599.000000;1.954177
9598.000000;1.950633
9597.000000;1.940653
9596.000000;1.926846
9595.000000;1.914769
9594.000000;1.909201
9593.000000;1.911665
9592.000000;1.920555
9591.000000;1.932774
9590.000000;1.944619
9589.000000;1.951860
9588.000000;1.951514
9587.000000;1.944854
9586.000000;1.937076
9585.000000;1.932885
9584.000000;1.932861
9583.000000;1.934076
9582.000000;1.933661
9581.000000;1.931477
9580.000000;1.929717
9579.000000;1.930084
9578.000000;1.931518
9577.000000;1.931187
9576.000000;1.927595
9575.000000;1.921701
9574.000000;1.915064
9573.000000;1.908583
9572.000000;1.903422
9571.000000;1.901134
9570.000000;1.901599
9569.000000;1.902290
9568.000000;1.901425
9567.000000;1.901235
9566.000000;1.905705
9565.000000;1.914941
9564.000000;1.924020
9563.000000;1.928212
9562.000000;1.927490
9561.000000;1.924776
9560.000000;1.922466
9559.000000;1.922069
9558.000000;1.924317
9557.000000;1.927404
9556.000000;1.927014
9555.000000;1.921221
9554.000000;1.914224
9553.000000;1.911859
9552.000000;1.914793
9551.000000;1.918571
9550.000000;1.919151
9549.000000;1.916436
9548.000000;1.912254
9547.000000;1.907396
9546.000000;1.902644
9545.000000;1.900497
9544.000000;1.903120
9543.000000;1.909147
9542.000000;1.914370
9541.000000;1.916173
9540.000000;1.916265
9539.000000;1.918250
9538.000000;1.923183
9537.000000;1.927843
9536.000000;1.927451
9535.000000;1.920596
9534.000000;1.911083
9533.000000;1.904380
9532.000000;1.902896
9531.000000;1.904916
9530.000000;1.907414
9529.000000;1.908889
9528.000000;1.909450
9527.000000;1.909760
9526.000000;1.910894
9525.000000;1.913980
9524.000000;1.918634
9523.000000;1.922359
9522.000000;1.922741
9521.000000;1.920070
9520.000000;1.916558
9519.000000;1.913465
9518.000000;1.910378
9517.000000;1.906648
9516.000000;1.902337
9515.000000;1.898170
9514.000000;1.895582
9513.000000;1.896276
9512.000000;1.900193
9511.000000;1.904163
9510.000000;1.904467
9509.000000;1.901555
9508.000000;1.900051
9507.000000;1.902603
9506.000000;1.906143
9505.000000;1.905888
9504.000000;1.901058
9503.000000;1.894953
9502.000000;1.891190
9501.000000;1.891315
9500.000000;1.894730
9499.000000;1.899297
9498.000000;1.902386
9497.000000;1.902941
9496.000000;1.902494
9495.000000;1.902927
9494.000000;1.904082
9493.000000;1.904064
9492.000000;1.901332
9491.000000;1.896582
9490.000000;1.891640
9489.000000;1.887670
9488.000000;1.885547
9487.000000;1.886235
9486.000000;1.890151
9485.000000;1.895795
9484.000000;1.899384
9483.000000;1.897749
9482.000000;1.892143
9481.000000;1.887465
9480.000000;1.886964
9479.000000;1.888898
9478.000000;1.889124
9477.000000;1.886115
9476.000000;1.881929
9475.000000;1.878916
9474.000000;1.877975
9473.000000;1.879782
9472.000000;1.885109
9471.000000;1.892941
9470.000000;1.899953
9469.000000;1.903395
9468.000000;1.903743
9467.000000;1.903120
9466.000000;1.902377
9465.000000;1.901562
9464.000000;1.901436
9463.000000;1.902435
9462.000000;1.903204
9461.000000;1.901523
9460.000000;1.896580
9459.000000;1.889480
9458.000000;1.882191
9457.000000;1.876882
9456.000000;1.874904
9455.000000;1.875292
9454.000000;1.875205
9453.000000;1.873083
9452.000000;1.870717
9451.000000;1.870936
9450.000000;1.874125
9449.000000;1.878293
9448.000000;1.881888
9447.000000;1.884640
9446.000000;1.886169
9445.000000;1.886080
9444.000000;1.884876
9443.000000;1.883454
9442.000000;1.882200
9441.000000;1.881028
9440.000000;1.879522
9439.000000;1.876665
9438.000000;1.872007
9437.000000;1.868156
9436.000000;1.869966
9435.000000;1.878951
9434.000000;1.889168
9433.000000;1.891690
9432.000000;1.884752
9431.000000;1.875614
9430.000000;1.871203
9429.000000;1.871563
9428.000000;1.873291
9427.000000;1.875751
9426.000000;1.880709
9425.000000;1.887100
9424.000000;1.890459
9423.000000;1.888590
9422.000000;1.884371
9421.000000;1.881588
9420.000000;1.880793
9419.000000;1.880129
9418.000000;1.878341
9417.000000;1.875775
9416.000000;1.873531
9415.000000;1.872990
9414.000000;1.875129
9413.000000;1.879023
9412.000000;1.881486
9411.000000;1.879412
9410.000000;1.873091
9409.000000;1.865940
9408.000000;1.860713
9407.000000;1.857933
9406.000000;1.858170
9405.000000;1.863184
9404.000000;1.872723
9403.000000;1.882010
9402.000000;1.885536
9401.000000;1.883023
9400.000000;1.878916
9399.000000;1.876082
9398.000000;1.873013
9397.000000;1.867825
9396.000000;1.862142
9395.000000;1.859199
9394.000000;1.859900
9393.000000;1.862362
9392.000000;1.863857
9391.000000;1.862220
9390.000000;1.857545
9389.000000;1.853184
9388.000000;1.853412
9387.000000;1.859124
9386.000000;1.866104
9385.000000;1.868661
9384.000000;1.865467
9383.000000;1.859769
9382.000000;1.854792
9381.000000;1.852328
9380.000000;1.853733
9379.000000;1.858757
9378.000000;1.863883
9377.000000;1.864717
9376.000000;1.860951
9375.000000;1.856518
9374.000000;1.854398
9373.000000;1.854203
9372.000000;1.855113
9371.000000;1.858046
9370.000000;1.863478
9369.000000;1.869501
9368.000000;1.873893
9367.000000;1.876494
9366.000000;1.877690
9365.000000;1.876218
9364.000000;1.870895
9363.000000;1.863425
9362.000000;1.857237
9361.000000;1.854251
9360.000000;1.854191
9359.000000;1.856167
9358.000000;1.859518
9357.000000;1.863510
9356.000000;1.867769
9355.000000;1.872749
9354.000000;1.878049
9353.000000;1.881063
9352.000000;1.879595
9351.000000;1.875488
9350.000000;1.873043
9349.000000;1.873380
9348.000000;1.872424
9347.000000;1.865930
9346.000000;1.855548
9345.000000;1.847830
9344.000000;1.847688
9343.000000;1.853908
9342.000000;1.860343
9341.000000;1.861566
9340.000000;1.857975
9339.000000;1.854627
9338.000000;1.855352
9337.000000;1.859391
9336.000000;1.863569
9335.000000;1.866663
9334.000000;1.870304
9333.000000;1.875066
9332.000000;1.877794
9331.000000;1.874605
9330.000000;1.865775
9329.000000;1.856161
9328.000000;1.850892
9327.000000;1.851562
9326.000000;1.855701
9325.000000;1.859134
9324.000000;1.859566
9323.000000;1.858178
9322.000000;1.857602
9321.000000;1.858225
9320.000000;1.857239
9319.000000;1.852621
9318.000000;1.846862
9317.000000;1.844629
9316.000000;1.847426
9315.000000;1.851681
9314.000000;1.852098
9313.000000;1.846807
9312.000000;1.839132
9311.000000;1.834878
9310.000000;1.838401
9309.000000;1.849821
9308.000000;1.864163
9307.000000;1.873835
9306.000000;1.874051
9305.000000;1.866244
9304.000000;1.855864
9303.000000;1.847745
9302.000000;1.843719
9301.000000;1.843147
9300.000000;1.844494
9299.000000;1.846701
9298.000000;1.849887
9297.000000;1.854817
9296.000000;1.861366
9295.000000;1.867626
9294.000000;1.870891
9293.000000;1.869632
9292.000000;1.864246
9291.000000;1.856104
9290.000000;1.846809
9289.000000;1.838588
9288.000000;1.834225
9287.000000;1.835162
9286.000000;1.839307
9285.000000;1.841727
9284.000000;1.839084
9283.000000;1.833573
9282.000000;1.831264
9281.000000;1.836240
9280.000000;1.846622
9279.000000;1.856000
9278.000000;1.859344
9277.000000;1.857206
9276.000000;1.853113
9275.000000;1.849431
9274.000000;1.847421
9273.000000;1.848514
9272.000000;1.853017
9271.000000;1.858459
9270.000000;1.861292
9269.000000;1.860643
9268.000000;1.859090
9267.000000;1.858994
9266.000000;1.859335
9265.000000;1.857318
9264.000000;1.851896
9263.000000;1.844515
9262.000000;1.837483
9261.000000;1.832720
9260.000000;1.831206
9259.000000;1.832267
9258.000000;1.833687
9257.000000;1.833682
9256.000000;1.832708
9255.000000;1.832480
9254.000000;1.833321
9253.000000;1.833541
9252.000000;1.831898
9251.000000;1.829576
9250.000000;1.828727
9249.000000;1.829860
9248.000000;1.831202
9247.000000;1.830123
9246.000000;1.825597
9245.000000;1.819682
9244.000000;1.816185
9243.000000;1.817774
9242.000000;1.823923
9241.000000;1.830789
9240.000000;1.833685
9239.000000;1.830771
9238.000000;1.824293
9237.000000;1.818482
9236.000000;1.816546
9235.000000;1.818792
9234.000000;1.822875
9233.000000;1.826079
9232.000000;1.827789
9231.000000;1.829498
9230.000000;1.832780
9229.000000;1.837869
9228.000000;1.843368
9227.000000;1.846901
9226.000000;1.846667
9225.000000;1.842761
9224.000000;1.836963
9223.000000;1.831403
9222.000000;1.827868
9221.000000;1.827894
9220.000000;1.831984
9219.000000;1.838017
9218.000000;1.841680
9217.000000;1.840602
9216.000000;1.837847
9215.000000;1.838799
9214.000000;1.844974
9213.000000;1.852347
9212.000000;1.855136
9211.000000;1.850588
9210.000000;1.840628
9209.000000;1.830229
9208.000000;1.824495
9207.000000;1.825409
9206.000000;1.829958
9205.000000;1.832761
9204.000000;1.832035
9203.000000;1.831189
9202.000000;1.833328
9201.000000;1.836642
9200.000000;1.837143
9199.000000;1.834275
9198.000000;1.830822
9197.000000;1.828530
9196.000000;1.826573
9195.000000;1.824071
9194.000000;1.822024
9193.000000;1.822213
9192.000000;1.826012
9191.000000;1.833961
9190.000000;1.843971
9189.000000;1.850180
9188.000000;1.847193
9187.000000;1.836767
9186.000000;1.827017
9185.000000;1.824234
9184.000000;1.827387
9183.000000;1.830320
9182.000000;1.828294
9181.000000;1.821651
9180.000000;1.813869
9179.000000;1.808336
9178.000000;1.806866
9177.000000;1.809071
9176.000000;1.812502
9175.000000;1.814656
9174.000000;1.815428
9173.000000;1.816891
9172.000000;1.820640
9171.000000;1.826077
9170.000000;1.830792
9169.000000;1.832071
9168.000000;1.828563
9167.000000;1.820972
9166.000000;1.811770
9165.000000;1.804076
9164.000000;1.800153
9163.000000;1.800673
9162.000000;1.804339
9161.000000;1.808058
9160.000000;1.808888
9159.000000;1.807036
9158.000000;1.806398
9157.000000;1.810753
9156.000000;1.819240
9155.000000;1.826232
9154.000000;1.826519
9153.000000;1.820543
9152.000000;1.813483
9151.000000;1.809867
9150.000000;1.809984
9149.000000;1.810785
9148.000000;1.809889
9147.000000;1.808799
9146.000000;1.811701
9145.000000;1.820587
9144.000000;1.831769
9143.000000;1.838332
9142.000000;1.837105
9141.000000;1.831851
9140.000000;1.828264
9139.000000;1.828069
9138.000000;1.829227
9137.000000;1.829871
9136.000000;1.830027
9135.000000;1.829884
9134.000000;1.828551
9133.000000;1.825404
9132.000000;1.821299
9131.000000;1.817771
9130.000000;1.815790
9129.000000;1.815467
9128.000000;1.816251
9127.000000;1.817025
9126.000000;1.816566
9125.000000;1.814490
9124.000000;1.811710
9123.000000;1.809758
9122.000000;1.809561
9121.000000;1.810580
9120.000000;1.810932
9119.000000;1.808945
9118.000000;1.805239
9117.000000;1.802791
9116.000000;1.804140
9115.000000;1.808598
9114.000000;1.812714
9113.000000;1.813692
9112.000000;1.811754
9111.000000;1.808996
9110.000000;1.807321
9109.000000;1.807938
9108.000000;1.811461
9107.000000;1.817198
9106.000000;1.822744
9105.000000;1.825557
9104.000000;1.825159
9103.000000;1.823259
9102.000000;1.821753
9101.000000;1.820660
9100.000000;1.818305
9099.000000;1.813743
9098.000000;1.808275
9097.000000;1.804338
9096.000000;1.803311
9095.000000;1.804601
9094.000000;1.806608
9093.000000;1.808283
9092.000000;1.809696
9091.000000;1.811330
9090.000000;1.813499
9089.000000;1.816459
9088.000000;1.820035
9087.000000;1.822863
9086.000000;1.823155
9085.000000;1.820632
9084.000000;1.816840
9083.000000;1.813421
9082.000000;1.811098
9081.000000;1.810409
9080.000000;1.811945
9079.000000;1.815175
9078.000000;1.818307
9077.000000;1.820235
9076.000000;1.821512
9075.000000;1.822485
9074.000000;1.821881
9073.000000;1.818701
9072.000000;1.814359
9071.000000;1.811191
9070.000000;1.809798
9069.000000;1.809431
9068.000000;1.809945
9067.000000;1.811401
9066.000000;1.812536
9065.000000;1.812159
9064.000000;1.811835
9063.000000;1.814466
9062.000000;1.819745
9061.000000;1.823398
9060.000000;1.822302
9059.000000;1.818362
9058.000000;1.815483
9057.000000;1.814848
9056.000000;1.814877
9055.000000;1.814087
9054.000000;1.812158
9053.000000;1.809176
9052.000000;1.805684
9051.000000;1.802892
9050.000000;1.801309
9049.000000;1.799877
9048.000000;1.797805
9047.000000;1.796391
9046.000000;1.797505
9045.000000;1.800864
9044.000000;1.804242
9043.000000;1.806210
9042.000000;1.807410
9041.000000;1.809074
9040.000000;1.811509
9039.000000;1.813933
9038.000000;1.814828
9037.000000;1.813019
9036.000000;1.809464
9035.000000;1.807039
9034.000000;1.806970
9033.000000;1.806282
9032.000000;1.801349
9031.000000;1.793726
9030.000000;1.789245
9029.000000;1.791619
9028.000000;1.799456
9027.000000;1.808806
9026.000000;1.816000
9025.000000;1.817569
9024.000000;1.811096
9023.000000;1.798893
9022.000000;1.788144
9021.000000;1.784820
9020.000000;1.788689
9019.000000;1.795150
9018.000000;1.800532
9017.000000;1.803779
9016.000000;1.804224
9015.000000;1.801205
9014.000000;1.796133
9013.000000;1.792195
9012.000000;1.791094
9011.000000;1.791607
9010.000000;1.791675
9009.000000;1.790278
9008.000000;1.787489
9007.000000;1.784447
9006.000000;1.783125
9005.000000;1.784923
9004.000000;1.788685
9003.000000;1.791453
9002.000000;1.791875
9001.000000;1.791019
9000.000000;1.790073
8999.000000;1.788985
8998.000000;1.787716
8997.000000;1.787466
8996.000000;1.789241
8995.000000;1.792128
8994.000000;1.794495
8993.000000;1.796280
8992.000000;1.798711
8991.000000;1.802245
8990.000000;1.806022
8989.000000;1.808841
8988.000000;1.809424
8987.000000;1.806296
8986.000000;1.799162
8985.000000;1.790454
8984.000000;1.783923
8983.000000;1.781483
8982.000000;1.782269
8981.000000;1.784582
8980.000000;1.787779
8979.000000;1.791977
8978.000000;1.796879
8977.000000;1.801492
8976.000000;1.804422
8975.000000;1.804267
8974.000000;1.800530
8973.000000;1.794457
8972.000000;1.788534
8971.000000;1.785189
8970.000000;1.786086
8969.000000;1.791733
8968.000000;1.800333
8967.000000;1.807126
8966.000000;1.807118
8965.000000;1.800284
8964.000000;1.792561
8963.000000;1.790093
8962.000000;1.793563
8961.000000;1.798703
8960.000000;1.801564
8959.000000;1.801940
8958.000000;1.801296
8957.000000;1.799597
8956.000000;1.795964
8955.000000;1.791223
8954.000000;1.787863
8953.000000;1.787594
8952.000000;1.790051
8951.000000;1.793815
8950.000000;1.797913
8949.000000;1.801716
8948.000000;1.803901
8947.000000;1.802947
8946.000000;1.799074
8945.000000;1.794486
8944.000000;1.791213
8943.000000;1.789568
8942.000000;1.788946
8941.000000;1.789346
8940.000000;1.791424
8939.000000;1.794954
8938.000000;1.798030
8937.000000;1.798557
8936.000000;1.796315
8935.000000;1.793147
8934.000000;1.791262
8933.000000;1.791403
8932.000000;1.792333
8931.000000;1.792609
8930.000000;1.792653
8929.000000;1.793698
8928.000000;1.795237
8927.000000;1.795239
8926.000000;1.793055
8925.000000;1.790693
8924.000000;1.790363
8923.000000;1.791749
8922.000000;1.792605
8921.000000;1.791698
8920.000000;1.790112
8919.000000;1.789326
8918.000000;1.789238
8917.000000;1.788777
8916.000000;1.787606
8915.000000;1.786464
8914.000000;1.786157
8913.000000;1.786944
8912.000000;1.788769
8911.000000;1.791299
8910.000000;1.793662
8909.000000;1.794826
8908.000000;1.794405
8907.000000;1.793023
8906.000000;1.791946
8905.000000;1.791999
8904.000000;1.792377
8903.000000;1.790906
8902.000000;1.786379
8901.000000;1.780862
8900.000000;1.778567
8899.000000;1.781626
8898.000000;1.787697
8897.000000;1.792349
8896.000000;1.793465
8895.000000;1.792788
8894.000000;1.793450
8893.000000;1.796793
8892.000000;1.801390
8891.000000;1.804428
8890.000000;1.804260
8889.000000;1.801873
8888.000000;1.799505
8887.000000;1.798044
8886.000000;1.796594
8885.000000;1.794740
8884.000000;1.793761
8883.000000;1.794230
8882.000000;1.793826
8881.000000;1.789996
8880.000000;1.784429
8879.000000;1.782178
8878.000000;1.785700
8877.000000;1.791460
8876.000000;1.793490
8875.000000;1.789799
8874.000000;1.783721
8873.000000;1.779543
8872.000000;1.778686
8871.000000;1.779739
8870.000000;1.780637
8869.000000;1.780501
8868.000000;1.780071
8867.000000;1.780732
8866.000000;1.783017
8865.000000;1.785822
8864.000000;1.787165
8863.000000;1.786028
8862.000000;1.783301
8861.000000;1.780696
8860.000000;1.779228
8859.000000;1.778949
8858.000000;1.779629
8857.000000;1.781273
8856.000000;1.783863
8855.000000;1.786673
8854.000000;1.788076
8853.000000;1.786688
8852.000000;1.783167
8851.000000;1.780100
8850.000000;1.779209
8849.000000;1.779209
8848.000000;1.777586
8847.000000;1.774558
8846.000000;1.773773
8845.000000;1.778416
8844.000000;1.787664
8843.000000;1.797234
8842.000000;1.802968
8841.000000;1.803528
8840.000000;1.800026
8839.000000;1.794679
8838.000000;1.790205
8837.000000;1.788864
8836.000000;1.790966
8835.000000;1.794482
8834.000000;1.796535
8833.000000;1.795436
8832.000000;1.791374
8831.000000;1.785960
8830.000000;1.781741
8829.000000;1.781148
8828.000000;1.784356
8827.000000;1.788117
8826.000000;1.788268
8825.000000;1.784318
8824.000000;1.780337
8823.000000;1.780656
8822.000000;1.785638
8821.000000;1.791722
8820.000000;1.795218
8819.000000;1.795718
8818.000000;1.795383
8817.000000;1.795720
8816.000000;1.796198
8815.000000;1.795812
8814.000000;1.794926
8813.000000;1.794763
8812.000000;1.795401
8811.000000;1.795466
8810.000000;1.794126
8809.000000;1.792300
8808.000000;1.791379
8807.000000;1.791308
8806.000000;1.790578
8805.000000;1.788113
8804.000000;1.784547
8803.000000;1.781548
8802.000000;1.780556
8801.000000;1.782206
8800.000000;1.786236
8799.000000;1.791258
8798.000000;1.795035
8797.000000;1.796053
8796.000000;1.794855
8795.000000;1.793288
8794.000000;1.792627
8793.000000;1.792711
8792.000000;1.793087
8791.000000;1.794215
8790.000000;1.796315
8789.000000;1.798217
8788.000000;1.798634
8787.000000;1.797819
8786.000000;1.797321
8785.000000;1.798128
8784.000000;1.799716
8783.000000;1.800822
8782.000000;1.800278
8781.000000;1.797536
8780.000000;1.793216
8779.000000;1.788941
8778.000000;1.786187
8777.000000;1.785161
8776.000000;1.785207
8775.000000;1.786286
8774.000000;1.789106
8773.000000;1.793395
8772.000000;1.797020
8771.000000;1.797890
8770.000000;1.796422
8769.000000;1.794990
8768.000000;1.795096
8767.000000;1.796041
8766.000000;1.796340
8765.000000;1.795493
8764.000000;1.794111
8763.000000;1.793043
8762.000000;1.792791
8761.000000;1.793450
8760.000000;1.794840
8759.000000;1.796620
8758.000000;1.798248
8757.000000;1.798826
8756.000000;1.797213
8755.000000;1.793095
8754.000000;1.788331
8753.000000;1.786048
8752.000000;1.787648
8751.000000;1.791457
8750.000000;1.794586
8749.000000;1.795700
8748.000000;1.795716
8747.000000;1.795593
8746.000000;1.794664
8745.000000;1.792409
8744.000000;1.790625
8743.000000;1.792121
8742.000000;1.797311
8741.000000;1.803066
8740.000000;1.805682
8739.000000;1.804426
8738.000000;1.800973
8737.000000;1.796315
8736.000000;1.790459
8735.000000;1.785021
8734.000000;1.783466
8733.000000;1.787294
8732.000000;1.793259
8731.000000;1.796193
8730.000000;1.794389
8729.000000;1.790323
8728.000000;1.786641
8727.000000;1.784337
8726.000000;1.784593
8725.000000;1.789096
8724.000000;1.797062
8723.000000;1.803983
8722.000000;1.805578
8721.000000;1.802478
8720.000000;1.799111
8719.000000;1.798920
8718.000000;1.802187
8717.000000;1.806851
8716.000000;1.809679
8715.000000;1.808127
8714.000000;1.802945
8713.000000;1.798193
8712.000000;1.797440
8711.000000;1.800498
8710.000000;1.804516
8709.000000;1.807401
8708.000000;1.808920
8707.000000;1.809332
8706.000000;1.808746
8705.000000;1.807402
8704.000000;1.805235
8703.000000;1.801873
8702.000000;1.798320
8701.000000;1.797427
8700.000000;1.800614
8699.000000;1.804882
8698.000000;1.805600
8697.000000;1.802503
8696.000000;1.800071
8695.000000;1.801499
8694.000000;1.805380
8693.000000;1.808733
8692.000000;1.810134
8691.000000;1.808722
8690.000000;1.803391
8689.000000;1.795302
8688.000000;1.788821
8687.000000;1.787560
8686.000000;1.790769
8685.000000;1.794951
8684.000000;1.797977
8683.000000;1.800089
8682.000000;1.801938
8681.000000;1.803715
8680.000000;1.805457
8679.000000;1.806391
8678.000000;1.804729
8677.000000;1.799909
8676.000000;1.794295
8675.000000;1.791050
8674.000000;1.791127
8673.000000;1.793424
8672.000000;1.796762
8671.000000;1.800231
8670.000000;1.802290
8669.000000;1.801705
8668.000000;1.799682
8667.000000;1.799065
8666.000000;1.800869
8665.000000;1.803064
8664.000000;1.803275
8663.000000;1.801512
8662.000000;1.799654
8661.000000;1.799425
8660.000000;1.801386
8659.000000;1.804671
8658.000000;1.807218
8657.000000;1.807418
8656.000000;1.806110
8655.000000;1.805814
8654.000000;1.807500
8653.000000;1.809353
8652.000000;1.809467
8651.000000;1.808477
8650.000000;1.808348
8649.000000;1.809709
8648.000000;1.811462
8647.000000;1.812306
8646.000000;1.811793
8645.000000;1.810201
8644.000000;1.808192
8643.000000;1.806488
8642.000000;1.805196
8641.000000;1.803641
8640.000000;1.801586
8639.000000;1.800280
8638.000000;1.801236
8637.000000;1.803911
8636.000000;1.805589
8635.000000;1.804134
8634.000000;1.800410
8633.000000;1.797361
8632.000000;1.797108
8631.000000;1.799508
8630.000000;1.803107
8629.000000;1.806607
8628.000000;1.809158
8627.000000;1.810063
8626.000000;1.809137
8625.000000;1.807359
8624.000000;1.806425
8623.000000;1.807188
8622.000000;1.808777
8621.000000;1.809481
8620.000000;1.808287
8619.000000;1.805651
8618.000000;1.803103
8617.000000;1.802157
8616.000000;1.803344
8615.000000;1.805713
8614.000000;1.807515
8613.000000;1.808059
8612.000000;1.808345
8611.000000;1.809175
8610.000000;1.809472
8609.000000;1.807636
8608.000000;1.804139
8607.000000;1.801262
8606.000000;1.800160
8605.000000;1.799642
8604.000000;1.798427
8603.000000;1.797118
8602.000000;1.796873
8601.000000;1.797267
8600.000000;1.796879
8599.000000;1.795592
8598.000000;1.794864
8597.000000;1.795647
8596.000000;1.797244
8595.000000;1.798506
8594.000000;1.799281
8593.000000;1.800157
8592.000000;1.801264
8591.000000;1.801973
8590.000000;1.802051
8589.000000;1.802351
8588.000000;1.803728
8587.000000;1.806037
8586.000000;1.808142
8585.000000;1.808714
8584.000000;1.807463
8583.000000;1.805459
8582.000000;1.803972
8581.000000;1.803193
8580.000000;1.802474
8579.000000;1.801682
8578.000000;1.801863
8577.000000;1.804125
8576.000000;1.807837
8575.000000;1.810420
8574.000000;1.809260
8573.000000;1.803916
8572.000000;1.796553
8571.000000;1.790470
8570.000000;1.788177
8569.000000;1.790206
8568.000000;1.795017
8567.000000;1.800042
8566.000000;1.803405
8565.000000;1.805038
8564.000000;1.806079
8563.000000;1.807258
8562.000000;1.807984
8561.000000;1.806840
8560.000000;1.802986
8559.000000;1.797307
8558.000000;1.792156
8557.000000;1.789760
8556.000000;1.790575
8555.000000;1.793287
8554.000000;1.796596
8553.000000;1.800478
8552.000000;1.805208
8551.000000;1.809783
8550.000000;1.812426
8549.000000;1.812648
8548.000000;1.811644
8547.000000;1.810344
8546.000000;1.808258
8545.000000;1.804847
8544.000000;1.800946
8543.000000;1.797755
8542.000000;1.795171
8541.000000;1.792480
8540.000000;1.790398
8539.000000;1.790782
8538.000000;1.794006
8537.000000;1.797936
8536.000000;1.800266
8535.000000;1.801342
8534.000000;1.803584
8533.000000;1.808124
8532.000000;1.812933
8531.000000;1.814743
8530.000000;1.812639
8529.000000;1.809029
8528.000000;1.806870
8527.000000;1.806603
8526.000000;1.806262
8525.000000;1.804213
8524.000000;1.801142
8523.000000;1.799094
8522.000000;1.799135
8521.000000;1.800417
8520.000000;1.801293
8519.000000;1.800871
8518.000000;1.799486
8517.000000;1.798129
8516.000000;1.797624
8515.000000;1.797869
8514.000000;1.797901
8513.000000;1.797149
8512.000000;1.796459
8511.000000;1.797414
8510.000000;1.800487
8509.000000;1.804067
8508.000000;1.805619
8507.000000;1.804026
8506.000000;1.800594
8505.000000;1.797667
8504.000000;1.796553
8503.000000;1.796838
8502.000000;1.797442
8501.000000;1.798056
8500.000000;1.799390
8499.000000;1.802220
8498.000000;1.806399
8497.000000;1.810686
8496.000000;1.813245
8495.000000;1.812577
8494.000000;1.808729
8493.000000;1.803834
8492.000000;1.801002
8491.000000;1.802064
8490.000000;1.806091
8489.000000;1.810083
8488.000000;1.811278
8487.000000;1.809116
8486.000000;1.805318
8485.000000;1.802240
8484.000000;1.800989
8483.000000;1.800854
8482.000000;1.800681
8481.000000;1.800672
8480.000000;1.802186
8479.000000;1.805824
8478.000000;1.810418
8477.000000;1.814123
8476.000000;1.815791
8475.000000;1.814846
8474.000000;1.810949
8473.000000;1.805051
8472.000000;1.799927
8471.000000;1.798053
8470.000000;1.799089
8469.000000;1.800542
8468.000000;1.800950
8467.000000;1.801296
8466.000000;1.802943
8465.000000;1.805394
8464.000000;1.806797
8463.000000;1.806099
8462.000000;1.803954
8461.000000;1.801760
8460.000000;1.800616
8459.000000;1.801092
8458.000000;1.803204
8457.000000;1.806236
8456.000000;1.808902
8455.000000;1.810131
8454.000000;1.809884
8453.000000;1.809080
8452.000000;1.808539
8451.000000;1.807969
8450.000000;1.806302
8449.000000;1.803294
8448.000000;1.800316
8447.000000;1.798925
8446.000000;1.798916
8445.000000;1.798566
8444.000000;1.796926
8443.000000;1.795028
8442.000000;1.794302
8441.000000;1.794571
8440.000000;1.794442
8439.000000;1.793446
8438.000000;1.792965
8437.000000;1.794824
8436.000000;1.799328
8435.000000;1.804737
8434.000000;1.808547
8433.000000;1.809300
8432.000000;1.807314
8431.000000;1.803983
8430.000000;1.800636
8429.000000;1.798042
8428.000000;1.796370
8427.000000;1.795189
8426.000000;1.793912
8425.000000;1.792445
8424.000000;1.791227
8423.000000;1.790733
8422.000000;1.791077
8421.000000;1.792189
8420.000000;1.794251
8419.000000;1.797524
8418.000000;1.801682
8417.000000;1.805815
8416.000000;1.809112
8415.000000;1.811011
8414.000000;1.810852
8413.000000;1.808290
8412.000000;1.804271
8411.000000;1.800706
8410.000000;1.798768
8409.000000;1.798016
8408.000000;1.797557
8407.000000;1.797485
8406.000000;1.798525
8405.000000;1.800655
8404.000000;1.802931
8403.000000;1.804606
8402.000000;1.805664
8401.000000;1.806101
8400.000000;1.805447
8399.000000;1.803403
8398.000000;1.800505
8397.000000;1.797789
8396.000000;1.796118
8395.000000;1.796110
8394.000000;1.798197
8393.000000;1.802007
8392.000000;1.805710
8391.000000;1.806859
8390.000000;1.804593
8389.000000;1.800667
8388.000000;1.797681
8387.000000;1.796551
8386.000000;1.796192
8385.000000;1.795503
8384.000000;1.794937
8383.000000;1.795640
8382.000000;1.797534
8381.000000;1.799178
8380.000000;1.799611
8379.000000;1.799587
8378.000000;1.800476
8377.000000;1.802358
8376.000000;1.803690
8375.000000;1.802906
8374.000000;1.800218
8373.000000;1.797716
8372.000000;1.797477
8371.000000;1.799559
8370.000000;1.801783
8369.000000;1.801496
8368.000000;1.798001
8367.000000;1.793313
8366.000000;1.790269
8365.000000;1.790268
8364.000000;1.792879
8363.000000;1.796885
8362.000000;1.801190
8361.000000;1.804850
8360.000000;1.806936
8359.000000;1.807045
8358.000000;1.805827
8357.000000;1.804460
8356.000000;1.803417
8355.000000;1.802045
8354.000000;1.799614
8353.000000;1.796636
8352.000000;1.794640
8351.000000;1.794567
8350.000000;1.795862
8349.000000;1.797194
8348.000000;1.797738
8347.000000;1.797639
8346.000000;1.797486
8345.000000;1.797812
8344.000000;1.798970
8343.000000;1.800707
8342.000000;1.801970
8341.000000;1.801875
8340.000000;1.800798
8339.000000;1.799947
8338.000000;1.799981
8337.000000;1.800500
8336.000000;1.800790
8335.000000;1.800426
8334.000000;1.799135
8333.000000;1.796944
8332.000000;1.794838
8331.000000;1.794457
8330.000000;1.796349
8329.000000;1.798820
8328.000000;1.799329
8327.000000;1.797202
8326.000000;1.794309
8325.000000;1.792977
8324.000000;1.793971
8323.000000;1.796482
8322.000000;1.799313
8321.000000;1.801749
8320.000000;1.803684
8319.000000;1.805322
8318.000000;1.806625
8317.000000;1.806799
8316.000000;1.804715
8315.000000;1.800331
8314.000000;1.795466
8313.000000;1.792579
8312.000000;1.792606
8311.000000;1.794329
8310.000000;1.795928
8309.000000;1.796792
8308.000000;1.797446
8307.000000;1.798181
8306.000000;1.798684
8305.000000;1.798994
8304.000000;1.799798
8303.000000;1.801225
8302.000000;1.802125
8301.000000;1.801453
8300.000000;1.800028
8299.000000;1.799876
8298.000000;1.801684
8297.000000;1.803867
8296.000000;1.804492
8295.000000;1.803260
8294.000000;1.801096
8293.000000;1.798652
8292.000000;1.796144
8291.000000;1.794162
8290.000000;1.793527
8289.000000;1.794329
8288.000000;1.795875
8287.000000;1.797622
8286.000000;1.799464
8285.000000;1.800962
8284.000000;1.801004
8283.000000;1.798910
8282.000000;1.795633
8281.000000;1.793243
8280.000000;1.793187
8279.000000;1.795260
8278.000000;1.798082
8277.000000;1.800371
8276.000000;1.801800
8275.000000;1.802744
8274.000000;1.803308
8273.000000;1.802820
8272.000000;1.800552
8271.000000;1.797056
8270.000000;1.794322
8269.000000;1.794046
8268.000000;1.795798
8267.000000;1.797227
8266.000000;1.796395
8265.000000;1.793824
8264.000000;1.791793
8263.000000;1.791767
8262.000000;1.792958
8261.000000;1.793395
8260.000000;1.792264
8259.000000;1.790772
8258.000000;1.790494
8257.000000;1.791527
8256.000000;1.792609
8255.000000;1.792837
8254.000000;1.792795
8253.000000;1.793552
8252.000000;1.794974
8251.000000;1.795961
8250.000000;1.796386
8249.000000;1.797469
8248.000000;1.799653
8247.000000;1.801028
8246.000000;1.799005
8245.000000;1.793661
8244.000000;1.788361
8243.000000;1.786636
8242.000000;1.789126
8241.000000;1.793650
8240.000000;1.797667
8239.000000;1.800252
8238.000000;1.801944
8237.000000;1.803337
8236.000000;1.804187
8235.000000;1.803784
8234.000000;1.802018
8233.000000;1.799868
8232.000000;1.798674
8231.000000;1.798956
8230.000000;1.799988
8229.000000;1.800481
8228.000000;1.799741
8227.000000;1.798360
8226.000000;1.797776
8225.000000;1.798886
8224.000000;1.800789
8223.000000;1.801073
8222.000000;1.798074
8221.000000;1.792963
8220.000000;1.788977
8219.000000;1.788588
8218.000000;1.791753
8217.000000;1.796400
8216.000000;1.799967
8215.000000;1.800749
8214.000000;1.798819
8213.000000;1.796158
8212.000000;1.795196
8211.000000;1.796561
8210.000000;1.798535
8209.000000;1.799129
8208.000000;1.798295
8207.000000;1.797440
8206.000000;1.797442
8205.000000;1.798139
8204.000000;1.799303
8203.000000;1.800972
8202.000000;1.802656
8201.000000;1.803203
8200.000000;1.802103
8199.000000;1.800333
8198.000000;1.799264
8197.000000;1.799102
8196.000000;1.798876
8195.000000;1.797734
8194.000000;1.795920
8193.000000;1.794534
8192.000000;1.794438
8191.000000;1.795355
8190.000000;1.796031
8189.000000;1.795481
8188.000000;1.794044
8187.000000;1.792952
8186.000000;1.793089
8185.000000;1.794433
8184.000000;1.796262
8183.000000;1.797458
8182.000000;1.797017
8181.000000;1.794965
8180.000000;1.792744
8179.000000;1.792135
8178.000000;1.793700
8177.000000;1.796544
8176.000000;1.799576
8175.000000;1.802398
8174.000000;1.804805
8173.000000;1.806283
8172.000000;1.806482
8171.000000;1.805558
8170.000000;1.803606
8169.000000;1.800455
8168.000000;1.796538
8167.000000;1.793224
8166.000000;1.791509
8165.000000;1.790955
8164.000000;1.790732
8163.000000;1.791286
8162.000000;1.793888
8161.000000;1.798519
8160.000000;1.803099
8159.000000;1.805286
8158.000000;1.804588
8157.000000;1.802301
8156.000000;1.799879
8155.000000;1.797942
8154.000000;1.796624
8153.000000;1.796300
8152.000000;1.797437
8151.000000;1.799640
8150.000000;1.801204
8149.000000;1.800309
8148.000000;1.796999
8147.000000;1.793439
8146.000000;1.791756
8145.000000;1.792089
8144.000000;1.793083
8143.000000;1.793772
8142.000000;1.794175
8141.000000;1.794377
8140.000000;1.794210
8139.000000;1.793883
8138.000000;1.793948
8137.000000;1.794506
8136.000000;1.795078
8135.000000;1.795505
8134.000000;1.796249
8133.000000;1.797157
8132.000000;1.796866
8131.000000;1.794510
8130.000000;1.791455
8129.000000;1.790254
8128.000000;1.792016
8127.000000;1.795468
8126.000000;1.798388
8125.000000;1.799391
8124.000000;1.798522
8123.000000;1.796976
8122.000000;1.796352
8121.000000;1.797540
8120.000000;1.800021
8119.000000;1.802544
8118.000000;1.804476
8117.000000;1.805898
8116.000000;1.806443
8115.000000;1.805161
8114.000000;1.802124
8113.000000;1.799163
8112.000000;1.797990
8111.000000;1.798104
8110.000000;1.797510
8109.000000;1.795386
8108.000000;1.793145
8107.000000;1.792664
8106.000000;1.794235
8105.000000;1.796598
8104.000000;1.798479
8103.000000;1.799643
8102.000000;1.800536
8101.000000;1.801299
8100.000000;1.801423
8099.000000;1.800470
8098.000000;1.798981
8097.000000;1.798261
8096.000000;1.799005
8095.000000;1.800405
8094.000000;1.800992
8093.000000;1.800308
8092.000000;1.799252
8091.000000;1.798734
8090.000000;1.798569
8089.000000;1.797987
8088.000000;1.796780
8087.000000;1.795482
8086.000000;1.794683
8085.000000;1.794630
8084.000000;1.795355
8083.000000;1.796715
8082.000000;1.798222
8081.000000;1.799293
8080.000000;1.799773
8079.000000;1.799882
8078.000000;1.799636
8077.000000;1.798630
8076.000000;1.796493
8075.000000;1.793557
8074.000000;1.791067
8073.000000;1.790447
8072.000000;1.792146
8071.000000;1.795143
8070.000000;1.797690
8069.000000;1.798732
8068.000000;1.798663
8067.000000;1.798652
8066.000000;1.799350
8065.000000;1.800411
8064.000000;1.801147
8063.000000;1.801328
8062.000000;1.801200
8061.000000;1.800905
8060.000000;1.800216
8059.000000;1.798905
8058.000000;1.797065
8057.000000;1.794957
8056.000000;1.792805
8055.000000;1.790978
8054.000000;1.790149
8053.000000;1.790862
8052.000000;1.792942
8051.000000;1.795639
8050.000000;1.798221
8049.000000;1.800111
8048.000000;1.800587
8047.000000;1.799195
8046.000000;1.796871
8045.000000;1.795783
8044.000000;1.797221
8043.000000;1.799910
8042.000000;1.801163
8041.000000;1.799778
8040.000000;1.797124
8039.000000;1.795311
8038.000000;1.795203
8037.000000;1.796295
8036.000000;1.797579
8035.000000;1.798237
8034.000000;1.798081
8033.000000;1.797708
8032.000000;1.797912
8031.000000;1.798784
8030.000000;1.799714
8029.000000;1.800312
8028.000000;1.800739
8027.000000;1.800962
8026.000000;1.800449
8025.000000;1.799102
8024.000000;1.797861
8023.000000;1.797802
8022.000000;1.798959
8021.000000;1.800381
8020.000000;1.801058
8019.000000;1.800566
8018.000000;1.799227
8017.000000;1.798067
8016.000000;1.798129
8015.000000;1.799216
8014.000000;1.799727
8013.000000;1.798423
8012.000000;1.796051
8011.000000;1.794445
8010.000000;1.794328
8009.000000;1.794832
8008.000000;1.794975
8007.000000;1.794775
8006.000000;1.794822
8005.000000;1.795563
8004.000000;1.797224
8003.000000;1.799537
8002.000000;1.801384
8001.000000;1.801760
8000.000000;1.801013
7999.000000;1.800263
7998.000000;1.799875
7997.000000;1.799221
7996.000000;1.797984
7995.000000;1.796936
7994.000000;1.796951
7993.000000;1.797800
7992.000000;1.798488
7991.000000;1.798318
7990.000000;1.797131
7989.000000;1.795102
7988.000000;1.793068
7987.000000;1.792623
7986.000000;1.794858
7985.000000;1.798738
7984.000000;1.801357
7983.000000;1.800481
7982.000000;1.796906
7981.000000;1.793832
7980.000000;1.793875
7979.000000;1.796780
7978.000000;1.799960
7977.000000;1.801233
7976.000000;1.800864
7975.000000;1.800595
7974.000000;1.801114
7973.000000;1.801282
7972.000000;1.799883
7971.000000;1.797415
7970.000000;1.795621
7969.000000;1.795665
7968.000000;1.797236
7967.000000;1.799114
7966.000000;1.800231
7965.000000;1.800225
7964.000000;1.799236
7963.000000;1.797347
7962.000000;1.794456
7961.000000;1.790934
7960.000000;1.788246
7959.000000;1.788258
7958.000000;1.791578
7957.000000;1.796788
7956.000000;1.801456
7955.000000;1.803815
7954.000000;1.803590
7953.000000;1.801724
7952.000000;1.799612
7951.000000;1.798232
7950.000000;1.797592
7949.000000;1.797140
7948.000000;1.796782
7947.000000;1.797045
7946.000000;1.798041
7945.000000;1.798893
7944.000000;1.798769
7943.000000;1.798055
7942.000000;1.797867
7941.000000;1.798723
7940.000000;1.800285
7939.000000;1.802055
7938.000000;1.803542
7937.000000;1.803882
7936.000000;1.802209
7935.000000;1.798692
7934.000000;1.794737
7933.000000;1.792082
7932.000000;1.791944
7931.000000;1.794557
7930.000000;1.798683
7929.000000;1.801798
7928.000000;1.801907
7927.000000;1.799539
7926.000000;1.797092
7925.000000;1.796099
7924.000000;1.796089
7923.000000;1.796231
7922.000000;1.796873
7921.000000;1.798668
7920.000000;1.800972
7919.000000;1.802172
7918.000000;1.801442
7917.000000;1.799439
7916.000000;1.797449
7915.000000;1.796523
7914.000000;1.797187
7913.000000;1.799104
7912.000000;1.801084
7911.000000;1.802160
7910.000000;1.802561
7909.000000;1.802961
7908.000000;1.803014
7907.000000;1.801644
7906.000000;1.798868
7905.000000;1.796304
7904.000000;1.795440
7903.000000;1.796157
7902.000000;1.797451
7901.000000;1.798924
7900.000000;1.800727
7899.000000;1.802348
7898.000000;1.802413
7897.000000;1.800097
7896.000000;1.796312
7895.000000;1.793103
7894.000000;1.791874
7893.000000;1.792324
7892.000000;1.793091
7891.000000;1.793377
7890.000000;1.793795
7889.000000;1.795412
7888.000000;1.798106
7887.000000;1.800442
7886.000000;1.801351
7885.000000;1.801207
7884.000000;1.800829
7883.000000;1.800257
7882.000000;1.799249
7881.000000;1.798348
7880.000000;1.798415
7879.000000;1.799178
7878.000000;1.799221
7877.000000;1.797798
7876.000000;1.796046
7875.000000;1.795886
7874.000000;1.797979
7873.000000;1.801049
7872.000000;1.803074
7871.000000;1.802999
7870.000000;1.801393
7869.000000;1.799574
7868.000000;1.798357
7867.000000;1.797903
7866.000000;1.798417
7865.000000;1.800172
7864.000000;1.802561
7863.000000;1.803913
7862.000000;1.803189
7861.000000;1.801511
7860.000000;1.800980
7859.000000;1.802061
7858.000000;1.803133
7857.000000;1.802649
7856.000000;1.800767
7855.000000;1.798578
7854.000000;1.796790
7853.000000;1.795839
7852.000000;1.796372
7851.000000;1.798467
7850.000000;1.800642
7849.000000;1.800789
7848.000000;1.798444
7847.000000;1.795443
7846.000000;1.794012
7845.000000;1.794761
7844.000000;1.796596
7843.000000;1.798099
7842.000000;1.798873
7841.000000;1.799633
7840.000000;1.801053
7839.000000;1.802618
7838.000000;1.802830
7837.000000;1.800853
7836.000000;1.797789
7835.000000;1.795904
7834.000000;1.796552
7833.000000;1.798979
7832.000000;1.800979
7831.000000;1.800788
7830.000000;1.798693
7829.000000;1.796907
7828.000000;1.797505
7827.000000;1.800325
7826.000000;1.803081
7825.000000;1.803741
7824.000000;1.802517
7823.000000;1.801116
7822.000000;1.800566
7821.000000;1.800540
7820.000000;1.800386
7819.000000;1.799879
7818.000000;1.799085
7817.000000;1.798343
7816.000000;1.798427
7815.000000;1.799965
7814.000000;1.802464
7813.000000;1.804479
7812.000000;1.805018
7811.000000;1.804357
7810.000000;1.803292
7809.000000;1.802267
7808.000000;1.801524
7807.000000;1.801313
7806.000000;1.801382
7805.000000;1.800872
7804.000000;1.799466
7803.000000;1.798314
7802.000000;1.798963
7801.000000;1.801439
7800.000000;1.804045
7799.000000;1.805146
7798.000000;1.804708
7797.000000;1.803828
7796.000000;1.803217
7795.000000;1.802688
7794.000000;1.801884
7793.000000;1.800951
7792.000000;1.800347
7791.000000;1.800343
7790.000000;1.800929
7789.000000;1.802039
7788.000000;1.803567
7787.000000;1.805109
7786.000000;1.805947
7785.000000;1.805522
7784.000000;1.803894
7783.000000;1.801695
7782.000000;1.799713
7781.000000;1.798590
7780.000000;1.798664
7779.000000;1.799811
7778.000000;1.801439
7777.000000;1.802862
7776.000000;1.803780
7775.000000;1.804332
7774.000000;1.804778
7773.000000;1.805230
7772.000000;1.805528
7771.000000;1.805219
7770.000000;1.803948
7769.000000;1.802150
7768.000000;1.801065
7767.000000;1.801591
7766.000000;1.803229
7765.000000;1.804607
7764.000000;1.805018
7763.000000;1.804936
7762.000000;1.804953
7761.000000;1.804893
7760.000000;1.804268
7759.000000;1.803110
7758.000000;1.801927
7757.000000;1.801142
7756.000000;1.800863
7755.000000;1.800954
7754.000000;1.801080
7753.000000;1.800986
7752.000000;1.800961
7751.000000;1.801717
7750.000000;1.803484
7749.000000;1.805458
7748.000000;1.806447
7747.000000;1.805903
7746.000000;1.804185
7745.000000;1.802194
7744.000000;1.801074
7743.000000;1.801768
7742.000000;1.804150
7741.000000;1.806660
7740.000000;1.807417
7739.000000;1.805965
7738.000000;1.803689
7737.000000;1.802537
7736.000000;1.803574
7735.000000;1.806430
7734.000000;1.809605
7733.000000;1.811428
7732.000000;1.811323
7731.000000;1.810217
7730.000000;1.809348
7729.000000;1.808823
7728.000000;1.807792
7727.000000;1.805885
7726.000000;1.803895
7725.000000;1.802927
7724.000000;1.803329
7723.000000;1.804626
7722.000000;1.806049
7721.000000;1.806877
7720.000000;1.806707
7719.000000;1.805784
7718.000000;1.804896
7717.000000;1.804643
7716.000000;1.804919
7715.000000;1.805217
7714.000000;1.805153
7713.000000;1.804550
7712.000000;1.803401
7711.000000;1.802152
7710.000000;1.801730
7709.000000;1.802792
7708.000000;1.804969
7707.000000;1.807254
7706.000000;1.809129
7705.000000;1.810796
7704.000000;1.812153
7703.000000;1.812291
7702.000000;1.810697
7701.000000;1.808575
7700.000000;1.808027
7699.000000;1.809768
7698.000000;1.812219
7697.000000;1.813249
7696.000000;1.812552
7695.000000;1.811706
7694.000000;1.812059
7693.000000;1.813272
7692.000000;1.814029
7691.000000;1.813504
7690.000000;1.811850
7689.000000;1.809662
7688.000000;1.807516
7687.000000;1.805901
7686.000000;1.805143
7685.000000;1.805226
7684.000000;1.805918
7683.000000;1.807073
7682.000000;1.808566
7681.000000;1.809937
7680.000000;1.810562
7679.000000;1.810438
7678.000000;1.810455
7677.000000;1.811417
7676.000000;1.812903
7675.000000;1.813501
7674.000000;1.812307
7673.000000;1.810007
7672.000000;1.808375
7671.000000;1.808766
7670.000000;1.810966
7669.000000;1.813282
7668.000000;1.813835
7667.000000;1.812169
7666.000000;1.809692
7665.000000;1.808325
7664.000000;1.808662
7663.000000;1.809625
7662.000000;1.810072
7661.000000;1.810356
7660.000000;1.811714
7659.000000;1.814250
7658.000000;1.816291
7657.000000;1.816160
7656.000000;1.814163
7655.000000;1.812244
7654.000000;1.811949
7653.000000;1.813210
7652.000000;1.814800
7651.000000;1.815450
7650.000000;1.814677
7649.000000;1.813180
7648.000000;1.812510
7647.000000;1.813773
7646.000000;1.816354
7645.000000;1.818246
7644.000000;1.818050
7643.000000;1.816408
7642.000000;1.815126
7641.000000;1.815321
7640.000000;1.816802
7639.000000;1.818706
7638.000000;1.820166
7637.000000;1.820633
7636.000000;1.820195
7635.000000;1.819586
7634.000000;1.819491
7633.000000;1.819894
7632.000000;1.820456
7631.000000;1.821259
7630.000000;1.822484
7629.000000;1.823387
7628.000000;1.822536
7627.000000;1.819598
7626.000000;1.816274
7625.000000;1.814783
7624.000000;1.815704
7623.000000;1.817749
7622.000000;1.819436
7621.000000;1.820409
7620.000000;1.821032
7619.000000;1.821360
7618.000000;1.821046
7617.000000;1.820070
7616.000000;1.818998
7615.000000;1.818339
7614.000000;1.818007
7613.000000;1.817737
7612.000000;1.817789
7611.000000;1.818728
7610.000000;1.820446
7609.000000;1.821865
7608.000000;1.822126
7607.000000;1.821764
7606.000000;1.822053
7605.000000;1.823361
7604.000000;1.824777
7603.000000;1.825366
7602.000000;1.825296
7601.000000;1.825457
7600.000000;1.826374
7599.000000;1.827785
7598.000000;1.828941
7597.000000;1.829097
7596.000000;1.827986
7595.000000;1.826100
7594.000000;1.824384
7593.000000;1.823457
7592.000000;1.823230
7591.000000;1.823373
7590.000000;1.823851
7589.000000;1.824765
7588.000000;1.825902
7587.000000;1.826802
7586.000000;1.827179
7585.000000;1.827050
7584.000000;1.826576
7583.000000;1.826135
7582.000000;1.826384
7581.000000;1.827764
7580.000000;1.829875
7579.000000;1.831710
7578.000000;1.832673
7577.000000;1.833089
7576.000000;1.833479
7575.000000;1.833666
7574.000000;1.833005
7573.000000;1.831386
7572.000000;1.829630
7571.000000;1.828725
7570.000000;1.828838
7569.000000;1.829246
7568.000000;1.829191
7567.000000;1.828626
7566.000000;1.828080
7565.000000;1.827962
7564.000000;1.828246
7563.000000;1.828801
7562.000000;1.829714
7561.000000;1.831116
7560.000000;1.832941
7559.000000;1.834947
7558.000000;1.836762
7557.000000;1.837880
7556.000000;1.837993
7555.000000;1.837438
7554.000000;1.836893
7553.000000;1.836511
7552.000000;1.835841
7551.000000;1.834871
7550.000000;1.834645
7549.000000;1.836114
7548.000000;1.838551
7547.000000;1.839914
7546.000000;1.839086
7545.000000;1.837144
7544.000000;1.835988
7543.000000;1.836245
7542.000000;1.836965
7541.000000;1.837024
7540.000000;1.836288
7539.000000;1.835435
7538.000000;1.835111
7537.000000;1.835371
7536.000000;1.835712
7535.000000;1.835558
7534.000000;1.834893
7533.000000;1.834433
7532.000000;1.835036
7531.000000;1.836835
7530.000000;1.838964
7529.000000;1.840199
7528.000000;1.840019
7527.000000;1.839090
7526.000000;1.838650
7525.000000;1.839298
7524.000000;1.840440
7523.000000;1.841079
7522.000000;1.841062
7521.000000;1.841127
7520.000000;1.841641
7519.000000;1.841892
7518.000000;1.841100
7517.000000;1.839767
7516.000000;1.839306
7515.000000;1.840312
7514.000000;1.841844
7513.000000;1.842641
7512.000000;1.842587
7511.000000;1.842588
7510.000000;1.843302
7509.000000;1.844509
7508.000000;1.845663
7507.000000;1.846599
7506.000000;1.847519
7505.000000;1.848543
7504.000000;1.849485
7503.000000;1.849932
7502.000000;1.849443
7501.000000;1.847855
7500.000000;1.845592
7499.000000;1.843595
7498.000000;1.842789
7497.000000;1.843542
7496.000000;1.845581
7495.000000;1.848276
7494.000000;1.850883
7493.000000;1.852741
7492.000000;1.853535
7491.000000;1.853477
7490.000000;1.853082
7489.000000;1.852639
7488.000000;1.852046
7487.000000;1.851285
7486.000000;1.850886
7485.000000;1.851568
7484.000000;1.853443
7483.000000;1.855738
7482.000000;1.857377
7481.000000;1.857774
7480.000000;1.857101
7479.000000;1.855957
7478.000000;1.854958
7477.000000;1.854593
7476.000000;1.855208
7475.000000;1.856864
7474.000000;1.859160
7473.000000;1.861314
7472.000000;1.862600
7471.000000;1.862746
7470.000000;1.861885
7469.000000;1.860297
7468.000000;1.858458
7467.000000;1.857233
7466.000000;1.857491
7465.000000;1.859232
7464.000000;1.861291
7463.000000;1.862264
7462.000000;1.861761
7461.000000;1.860587
7460.000000;1.859792
7459.000000;1.859801
7458.000000;1.860315
7457.000000;1.860711
7456.000000;1.860597
7455.000000;1.860274
7454.000000;1.860614
7453.000000;1.862133
7452.000000;1.864166
7451.000000;1.865292
7450.000000;1.864717
7449.000000;1.863052
7448.000000;1.861695
7447.000000;1.861718
7446.000000;1.863260
7445.000000;1.865537
7444.000000;1.867299
7443.000000;1.867651
7442.000000;1.866755
7441.000000;1.865612
7440.000000;1.865136
7439.000000;1.865618
7438.000000;1.866908
7437.000000;1.868611
7436.000000;1.870002
7435.000000;1.870331
7434.000000;1.869666
7433.000000;1.869117
7432.000000;1.869787
7431.000000;1.871624
7430.000000;1.873462
7429.000000;1.874051
7428.000000;1.872945
7427.000000;1.870731
7426.000000;1.868662
7425.000000;1.867746
7424.000000;1.867918
7423.000000;1.868356
7422.000000;1.868738
7421.000000;1.869736
7420.000000;1.871914
7419.000000;1.874561
7418.000000;1.876188
7417.000000;1.876030
7416.000000;1.874600
7415.000000;1.872944
7414.000000;1.871919
7413.000000;1.872013
7412.000000;1.873139
7411.000000;1.874456
7410.000000;1.874946
7409.000000;1.874464
7408.000000;1.873950
7407.000000;1.874400
7406.000000;1.875775
7405.000000;1.876934
7404.000000;1.876574
7403.000000;1.874448
7402.000000;1.871870
7401.000000;1.870801
7400.000000;1.872118
7399.000000;1.874809
7398.000000;1.877070
7397.000000;1.878073
7396.000000;1.878261
7395.000000;1.878264
7394.000000;1.878278
7393.000000;1.878492
7392.000000;1.879325
7391.000000;1.880923
7390.000000;1.882844
7389.000000;1.884471
7388.000000;1.885423
7387.000000;1.885579
7386.000000;1.885132
7385.000000;1.884614
7384.000000;1.884406
7383.000000;1.884256
7382.000000;1.883732
7381.000000;1.883107
7380.000000;1.883176
7379.000000;1.884132
7378.000000;1.885237
7377.000000;1.885752
7376.000000;1.885633
7375.000000;1.885253
7374.000000;1.885026
7373.000000;1.885465
7372.000000;1.886906
7371.000000;1.888819
7370.000000;1.889944
7369.000000;1.889579
7368.000000;1.888401
7367.000000;1.887560
7366.000000;1.887409
7365.000000;1.887699
7364.000000;1.888443
7363.000000;1.889785
7362.000000;1.891319
7361.000000;1.892196
7360.000000;1.891942
7359.000000;1.890854
7358.000000;1.889701
7357.000000;1.889355
7356.000000;1.890467
7355.000000;1.892938
7354.000000;1.895722
7353.000000;1.897583
7352.000000;1.898066
7351.000000;1.897536
7350.000000;1.896594
7349.000000;1.895817
7348.000000;1.895672
7347.000000;1.896148
7346.000000;1.896635
7345.000000;1.896600
7344.000000;1.896158
7343.000000;1.895574
7342.000000;1.894552
7341.000000;1.892733
7340.000000;1.890754
7339.000000;1.890053
7338.000000;1.891367
7337.000000;1.893980
7336.000000;1.896630
7335.000000;1.898568
7334.000000;1.899623
7333.000000;1.899837
7332.000000;1.899409
7331.000000;1.898786
7330.000000;1.898446
7329.000000;1.898642
7328.000000;1.899357
7327.000000;1.900367
7326.000000;1.901257
7325.000000;1.901658
7324.000000;1.901502
7323.000000;1.900967
7322.000000;1.900410
7321.000000;1.900388
7320.000000;1.901352
7319.000000;1.903012
7318.000000;1.904268
7317.000000;1.904267
7316.000000;1.903348
7315.000000;1.902468
7314.000000;1.901939
7313.000000;1.901374
7312.000000;1.900722
7311.000000;1.900632
7310.000000;1.901583
7309.000000;1.903244
7308.000000;1.904951
7307.000000;1.906455
7306.000000;1.907951
7305.000000;1.909675
7304.000000;1.911719
7303.000000;1.913955
7302.000000;1.915887
7301.000000;1.916883
7300.000000;1.916867
7299.000000;1.916578
7298.000000;1.916759
7297.000000;1.917169
7296.000000;1.916715
7295.000000;1.914723
7294.000000;1.912012
7293.000000;1.910599
7292.000000;1.912026
7291.000000;1.915871
7290.000000;1.920028
7289.000000;1.922477
7288.000000;1.922837
7287.000000;1.922247
7286.000000;1.921911
7285.000000;1.921996
7284.000000;1.921919
7283.000000;1.921395
7282.000000;1.921024
7281.000000;1.921811
7280.000000;1.924052
7279.000000;1.926758
7278.000000;1.928413
7277.000000;1.928432
7276.000000;1.927592
7275.000000;1.926987
7274.000000;1.927053
7273.000000;1.927801
7272.000000;1.929354
7271.000000;1.931693
7270.000000;1.934178
7269.000000;1.936018
7268.000000;1.937190
7267.000000;1.938272
7266.000000;1.939390
7265.000000;1.940009
7264.000000;1.939794
7263.000000;1.939107
7262.000000;1.938560
7261.000000;1.938636
7260.000000;1.939797
7259.000000;1.942329
7258.000000;1.945739
7257.000000;1.948763
7256.000000;1.950455
7255.000000;1.951080
7254.000000;1.951675
7253.000000;1.952854
7252.000000;1.954223
7251.000000;1.954963
7250.000000;1.954935
7249.000000;1.955188
7248.000000;1.957187
7247.000000;1.961290
7246.000000;1.965899
7245.000000;1.968505
7244.000000;1.967869
7243.000000;1.964939
7242.000000;1.961831
7241.000000;1.960434
7240.000000;1.961705
7239.000000;1.965420
7238.000000;1.970208
7237.000000;1.974346
7236.000000;1.977173
7235.000000;1.979508
7234.000000;1.982310
7233.000000;1.985303
7232.000000;1.987346
7231.000000;1.987896
7230.000000;1.987578
7229.000000;1.987485
7228.000000;1.988426
7227.000000;1.990692
7226.000000;1.993931
7225.000000;1.997189
7224.000000;1.999474
7223.000000;2.000501
7222.000000;2.000773
7221.000000;2.001053
7220.000000;2.002021
7219.000000;2.004221
7218.000000;2.007829
7217.000000;2.012302
7216.000000;2.016468
7215.000000;2.019227
7214.000000;2.020283
7213.000000;2.020303
7212.000000;2.020410
7211.000000;2.021515
7210.000000;2.024068
7209.000000;2.028134
7208.000000;2.033174
7207.000000;2.037810
7206.000000;2.040614
7205.000000;2.041769
7204.000000;2.043372
7203.000000;2.047240
7202.000000;2.052646
7201.000000;2.057005
7200.000000;2.058877
7199.000000;2.059465
7198.000000;2.060899
7197.000000;2.063891
7196.000000;2.067469
7195.000000;2.070318
7194.000000;2.071858
7193.000000;2.072369
7192.000000;2.072649
7191.000000;2.073558
7190.000000;2.075669
7189.000000;2.079291
7188.000000;2.084696
7187.000000;2.091909
7186.000000;2.100007
7185.000000;2.106997
7184.000000;2.110959
7183.000000;2.111490
7182.000000;2.110058
7181.000000;2.108953
7180.000000;2.109783
7179.000000;2.112628
7178.000000;2.116404
7177.000000;2.120100
7176.000000;2.123678
7175.000000;2.127803
7174.000000;2.132915
7173.000000;2.138804
7172.000000;2.144911
7171.000000;2.150586
7170.000000;2.155169
7169.000000;2.158414
7168.000000;2.160946
7167.000000;2.163714
7166.000000;2.166827
7165.000000;2.169614
7164.000000;2.172054
7163.000000;2.175269
7162.000000;2.180115
7161.000000;2.185899
7160.000000;2.191111
7159.000000;2.195217
7158.000000;2.199085
7157.000000;2.203738
7156.000000;2.209264
7155.000000;2.214888
7154.000000;2.219626
7153.000000;2.222930
7152.000000;2.225030
7151.000000;2.226689
7150.000000;2.228571
7149.000000;2.230975
7148.000000;2.234017
7147.000000;2.237522
7146.000000;2.240709
7145.000000;2.242753
7144.000000;2.244053
7143.000000;2.246323
7142.000000;2.250900
7141.000000;2.257328
7140.000000;2.263885
7139.000000;2.269070
7138.000000;2.272282
7137.000000;2.273623
7136.000000;2.274078
7135.000000;2.275458
7134.000000;2.278995
7133.000000;2.284026
7132.000000;2.288687
7131.000000;2.291980
7130.000000;2.294580
7129.000000;2.297620
7128.000000;2.301666
7127.000000;2.306939
7126.000000;2.313395
7125.000000;2.319978
7124.000000;2.324547
7123.000000;2.325808
7122.000000;2.325178
7121.000000;2.325608
7120.000000;2.328804
7119.000000;2.334156
7118.000000;2.339827
7117.000000;2.344466
7116.000000;2.348049
7115.000000;2.351459
7114.000000;2.355466
7113.000000;2.359915
7112.000000;2.363759
7111.000000;2.366180
7110.000000;2.367697
7109.000000;2.369755
7108.000000;2.373154
7107.000000;2.377440
7106.000000;2.381970
7105.000000;2.386834
7104.000000;2.392156
7103.000000;2.397289
7102.000000;2.401781
7101.000000;2.406744
7100.000000;2.413759
7099.000000;2.422067
7098.000000;2.428319
7097.000000;2.430003
7096.000000;2.427825
7095.000000;2.423967
7094.000000;2.419809
7093.000000;2.416585
7092.000000;2.416630
7091.000000;2.421668
7090.000000;2.430128
7089.000000;2.437927
7088.000000;2.442470
7087.000000;2.444690
7086.000000;2.446693
7085.000000;2.449214
7084.000000;2.452229
7083.000000;2.456160
7082.000000;2.460985
7081.000000;2.465203
7080.000000;2.467084
7079.000000;2.466705
7078.000000;2.465767
7077.000000;2.465712
7076.000000;2.466810
7075.000000;2.468460
7074.000000;2.469546
7073.000000;2.469121
7072.000000;2.467850
7071.000000;2.468467
7070.000000;2.473305
7069.000000;2.481111
7068.000000;2.487636
7067.000000;2.490352
7066.000000;2.491592
7065.000000;2.495584
7064.000000;2.502842
7063.000000;2.508517
7062.000000;2.507162
7061.000000;2.499128
7060.000000;2.490519
7059.000000;2.486990
7058.000000;2.489132
7057.000000;2.493255
7056.000000;2.495522
7055.000000;2.495388
7054.000000;2.495484
7053.000000;2.498699
7052.000000;2.505288
7051.000000;2.512408
7050.000000;2.516988
7049.000000;2.518703
7048.000000;2.519205
7047.000000;2.519420
7046.000000;2.518763
7045.000000;2.517035
7044.000000;2.515497
7043.000000;2.514941
7042.000000;2.514297
7041.000000;2.512497
7040.000000;2.510915
7039.000000;2.512423
7038.000000;2.518066
7037.000000;2.525918
7036.000000;2.533419
7035.000000;2.539478
7034.000000;2.543850
7033.000000;2.546178
7032.000000;2.546465
7031.000000;2.545166
7030.000000;2.542523
7029.000000;2.539156
7028.000000;2.537210
7027.000000;2.539023
7026.000000;2.543947
7025.000000;2.548061
7024.000000;2.548575
7023.000000;2.547255
7022.000000;2.547602
7021.000000;2.550283
7020.000000;2.553075
7019.000000;2.554485
7018.000000;2.555400
7017.000000;2.556804
7016.000000;2.557885
7015.000000;2.557022
7014.000000;2.553893
7013.000000;2.550217
7012.000000;2.548037
7011.000000;2.547528
7010.000000;2.547003
7009.000000;2.545183
7008.000000;2.543079
7007.000000;2.542710
7006.000000;2.544233
7005.000000;2.546004
7004.000000;2.547567
7003.000000;2.550606
7002.000000;2.555884
7001.000000;2.560717
7000.000000;2.561340
6999.000000;2.557611
6998.000000;2.553794
6997.000000;2.554148
6996.000000;2.558656
6995.000000;2.563357
6994.000000;2.564588
6993.000000;2.562789
6992.000000;2.561803
6991.000000;2.564262
6990.000000;2.568032
6989.000000;2.568546
6988.000000;2.564998
6987.000000;2.561879
6986.000000;2.563720
6985.000000;2.570080
6984.000000;2.576166
6983.000000;2.577477
6982.000000;2.573423
6981.000000;2.567092
6980.000000;2.562417
6979.000000;2.561525
6978.000000;2.563632
6977.000000;2.566582
6976.000000;2.570048
6975.000000;2.575709
6974.000000;2.583364
6973.000000;2.588737
6972.000000;2.587616
6971.000000;2.581723
6970.000000;2.576928
6969.000000;2.576110
6968.000000;2.577155
6967.000000;2.577622
6966.000000;2.578028
6965.000000;2.579247
6964.000000;2.579827
6963.000000;2.578270
6962.000000;2.575661
6961.000000;2.573212
6960.000000;2.569140
6959.000000;2.561520
6958.000000;2.553321
6957.000000;2.550817
6956.000000;2.556751
6955.000000;2.566918
6954.000000;2.573875
6953.000000;2.573777
6952.000000;2.568845
6951.000000;2.563918
6950.000000;2.562420
6949.000000;2.564888
6948.000000;2.569297
6947.000000;2.572726
6946.000000;2.573883
6945.000000;2.573993
6944.000000;2.575005
6943.000000;2.577369
6942.000000;2.579736
6941.000000;2.580545
6940.000000;2.579295
6939.000000;2.576486
6938.000000;2.573426
6937.000000;2.571809
6936.000000;2.572289
6935.000000;2.573529
6934.000000;2.573838
6933.000000;2.573836
6932.000000;2.575916
6931.000000;2.580838
6930.000000;2.585951
6929.000000;2.587411
6928.000000;2.583892
6927.000000;2.577079
6926.000000;2.569686
6925.000000;2.564333
6924.000000;2.563035
6923.000000;2.566130
6922.000000;2.571539
6921.000000;2.576338
6920.000000;2.579413
6919.000000;2.581513
6918.000000;2.582846
6917.000000;2.582177
6916.000000;2.578716
6915.000000;2.573644
6914.000000;2.569355
6913.000000;2.567772
6912.000000;2.569280
6911.000000;2.572895
6910.000000;2.576941
6909.000000;2.579797
6908.000000;2.580852
6907.000000;2.580696
6906.000000;2.580174
6905.000000;2.579498
6904.000000;2.578342
6903.000000;2.576811
6902.000000;2.576049
6901.000000;2.577235
6900.000000;2.579775
6899.000000;2.581149
6898.000000;2.579313
6897.000000;2.575168
6896.000000;2.571576
6895.000000;2.570041
6894.000000;2.569726
6893.000000;2.569825
6892.000000;2.571055
6891.000000;2.573664
6890.000000;2.575618
6889.000000;2.574820
6888.000000;2.572278
6887.000000;2.571186
6886.000000;2.573134
6885.000000;2.576409
6884.000000;2.577875
6883.000000;2.575773
6882.000000;2.571041
6881.000000;2.566622
6880.000000;2.565286
6879.000000;2.567289
6878.000000;2.569953
6877.000000;2.570443
6876.000000;2.568951
6875.000000;2.567778
6874.000000;2.567787
6873.000000;2.567812
6872.000000;2.567084
6871.000000;2.566017
6870.000000;2.565106
6869.000000;2.564834
6868.000000;2.566144
6867.000000;2.569300
6866.000000;2.572373
6865.000000;2.572589
6864.000000;2.569614
6863.000000;2.565840
6862.000000;2.563101
6861.000000;2.561022
6860.000000;2.558902
6859.000000;2.557176
6858.000000;2.556318
6857.000000;2.556094
6856.000000;2.556865
6855.000000;2.559690
6854.000000;2.563699
6853.000000;2.565402
6852.000000;2.562503
6851.000000;2.557290
6850.000000;2.554501
6849.000000;2.556658
6848.000000;2.562643
6847.000000;2.569670
6846.000000;2.575133
6845.000000;2.577008
6844.000000;2.574561
6843.000000;2.569298
6842.000000;2.563886
6841.000000;2.559947
6840.000000;2.557585
6839.000000;2.556520
6838.000000;2.556548
6837.000000;2.557058
6836.000000;2.557130
6835.000000;2.556339
6834.000000;2.554994
6833.000000;2.553668
6832.000000;2.552897
6831.000000;2.552839
6830.000000;2.552858
6829.000000;2.552361
6828.000000;2.552023
6827.000000;2.553033
6826.000000;2.555164
6825.000000;2.556590
6824.000000;2.555938
6823.000000;2.553654
6822.000000;2.550823
6821.000000;2.547692
6820.000000;2.544375
6819.000000;2.542087
6818.000000;2.542272
6817.000000;2.544701
6816.000000;2.547161
6815.000000;2.547021
6814.000000;2.543054
6813.000000;2.536314
6812.000000;2.529726
6811.000000;2.526192
6810.000000;2.526378
6809.000000;2.528569
6808.000000;2.530949
6807.000000;2.533148
6806.000000;2.535049
6805.000000;2.535710
6804.000000;2.534978
6803.000000;2.534775
6802.000000;2.536872
6801.000000;2.540118
6800.000000;2.541620
6799.000000;2.540409
6798.000000;2.537783
6797.000000;2.534229
6796.000000;2.528707
6795.000000;2.521306
6794.000000;2.514538
6793.000000;2.511058
6792.000000;2.511116
6791.000000;2.512640
6790.000000;2.513115
6789.000000;2.511385
6788.000000;2.508343
6787.000000;2.505942
6786.000000;2.505133
6785.000000;2.504969
6784.000000;2.504097
6783.000000;2.502631
6782.000000;2.501580
6781.000000;2.500577
6780.000000;2.497754
6779.000000;2.492527
6778.000000;2.486876
6777.000000;2.483072
6776.000000;2.481481
6775.000000;2.480982
6774.000000;2.480636
6773.000000;2.480389
6772.000000;2.480619
6771.000000;2.481676
6770.000000;2.483658
6769.000000;2.485998
6768.000000;2.487415
6767.000000;2.486915
6766.000000;2.485038
6765.000000;2.483654
6764.000000;2.484303
6763.000000;2.486815
6762.000000;2.489484
6761.000000;2.490466
6760.000000;2.489130
6759.000000;2.486373
6758.000000;2.483602
6757.000000;2.481270
6756.000000;2.478660
6755.000000;2.475159
6754.000000;2.471352
6753.000000;2.468563
6752.000000;2.467350
6751.000000;2.466716
6750.000000;2.465126
6749.000000;2.462456
6748.000000;2.460596
6747.000000;2.461422
6746.000000;2.464226
6745.000000;2.466026
6744.000000;2.464904
6743.000000;2.462143
6742.000000;2.460163
6741.000000;2.459378
6740.000000;2.458244
6739.000000;2.455668
6738.000000;2.451997
6737.000000;2.447843
6736.000000;2.443438
6735.000000;2.439526
6734.000000;2.437619
6733.000000;2.438567
6732.000000;2.441394
6731.000000;2.444014
6730.000000;2.444680
6729.000000;2.442727
6728.000000;2.438849
6727.000000;2.435001
6726.000000;2.433117
6725.000000;2.433308
6724.000000;2.433733
6723.000000;2.432635
6722.000000;2.430123
6721.000000;2.427483
6720.000000;2.425441
6719.000000;2.423952
6718.000000;2.423095
6717.000000;2.423003
6716.000000;2.423026
6715.000000;2.422051
6714.000000;2.419805
6713.000000;2.417182
6712.000000;2.415110
6711.000000;2.413627
6710.000000;2.412192
6709.000000;2.410415
6708.000000;2.408267
6707.000000;2.405982
6706.000000;2.403931
6705.000000;2.402415
6704.000000;2.401413
6703.000000;2.400655
6702.000000;2.399968
6701.000000;2.399418
6700.000000;2.399051
6699.000000;2.398695
6698.000000;2.397964
6697.000000;2.396211
6696.000000;2.392854
6695.000000;2.388198
6694.000000;2.383918
6693.000000;2.381945
6692.000000;2.382433
6691.000000;2.383319
6690.000000;2.382453
6689.000000;2.379882
6688.000000;2.377385
6687.000000;2.376179
6686.000000;2.375991
6685.000000;2.376076
6684.000000;2.376064
6683.000000;2.375603
6682.000000;2.374019
6681.000000;2.370912
6680.000000;2.366760
6679.000000;2.362630
6678.000000;2.359668
6677.000000;2.358940
6676.000000;2.360847
6675.000000;2.363981
6674.000000;2.365343
6673.000000;2.362958
6672.000000;2.358036
6671.000000;2.353580
6670.000000;2.351341
6669.000000;2.350900
6668.000000;2.351064
6667.000000;2.350964
6666.000000;2.349875
6665.000000;2.347414
6664.000000;2.344464
6663.000000;2.342864
6662.000000;2.343413
6661.000000;2.344826
6660.000000;2.345263
6659.000000;2.344303
6658.000000;2.342653
6657.000000;2.340595
6656.000000;2.337756
6655.000000;2.334092
6654.000000;2.330359
6653.000000;2.327618
6652.000000;2.326474
6651.000000;2.326573
6650.000000;2.326665
6649.000000;2.325553
6648.000000;2.323434
6647.000000;2.321822
6646.000000;2.321481
6645.000000;2.321054
6644.000000;2.318781
6643.000000;2.315188
6642.000000;2.312713
6641.000000;2.312652
6640.000000;2.313845
6639.000000;2.314658
6638.000000;2.314980
6637.000000;2.315419
6636.000000;2.315548
6635.000000;2.314334
6634.000000;2.312034
6633.000000;2.310277
6632.000000;2.309928
6631.000000;2.309873
6630.000000;2.308501
6629.000000;2.305890
6628.000000;2.303744
6627.000000;2.303243
6626.000000;2.303738
6625.000000;2.303694
6624.000000;2.302261
6623.000000;2.299576
6622.000000;2.296076
6621.000000;2.292216
6620.000000;2.288711
6619.000000;2.286313
6618.000000;2.285093
6617.000000;2.284316
6616.000000;2.283275
6615.000000;2.281920
6614.000000;2.280517
6613.000000;2.279144
6612.000000;2.277864
6611.000000;2.276964
6610.000000;2.276558
6609.000000;2.276277
6608.000000;2.275707
6607.000000;2.274789
6606.000000;2.273539
6605.000000;2.271652
6604.000000;2.268902
6603.000000;2.265935
6602.000000;2.263972
6601.000000;2.263526
6600.000000;2.263917
6599.000000;2.264146
6598.000000;2.263890
6597.000000;2.263612
6596.000000;2.264089
6595.000000;2.265691
6594.000000;2.267531
6593.000000;2.267420
6592.000000;2.263586
6591.000000;2.256844
6590.000000;2.250360
6589.000000;2.247006
6588.000000;2.247331
6587.000000;2.249890
6586.000000;2.252748
6585.000000;2.254363
6584.000000;2.253817
6583.000000;2.251187
6582.000000;2.247700
6581.000000;2.244899
6580.000000;2.243470
6579.000000;2.242993
6578.000000;2.242597
6577.000000;2.241568
6576.000000;2.239645
6575.000000;2.237208
6574.000000;2.235088
6573.000000;2.233914
6572.000000;2.233694
6571.000000;2.234112
6570.000000;2.234967
6569.000000;2.235979
6568.000000;2.236377
6567.000000;2.235285
6566.000000;2.232724
6565.000000;2.229828
6564.000000;2.227724
6563.000000;2.226416
6562.000000;2.225101
6561.000000;2.223399
6560.000000;2.221826
6559.000000;2.220985
6558.000000;2.220703
6557.000000;2.220294
6556.000000;2.219472
6555.000000;2.218555
6554.000000;2.217673
6553.000000;2.216319
6552.000000;2.214177
6551.000000;2.212056
6550.000000;2.211279
6549.000000;2.211972
6548.000000;2.212432
6547.000000;2.210669
6546.000000;2.206541
6545.000000;2.201984
6544.000000;2.199177
6543.000000;2.198793
6542.000000;2.199907
6541.000000;2.201198
6540.000000;2.202072
6539.000000;2.202746
6538.000000;2.203574
6537.000000;2.204570
6536.000000;2.205540
6535.000000;2.206253
6534.000000;2.206268
6533.000000;2.204961
6532.000000;2.202185
6531.000000;2.198759
6530.000000;2.195807
6529.000000;2.193588
6528.000000;2.191391
6527.000000;2.188629
6526.000000;2.185612
6525.000000;2.183090
6524.000000;2.181541
6523.000000;2.181184
6522.000000;2.182104
6521.000000;2.183856
6520.000000;2.185293
6519.000000;2.185407
6518.000000;2.184287
6517.000000;2.182777
6516.000000;2.181380
6515.000000;2.179879
6514.000000;2.177902
6513.000000;2.175481
6512.000000;2.173067
6511.000000;2.171365
6510.000000;2.171060
6509.000000;2.172131
6508.000000;2.173378
6507.000000;2.173137
6506.000000;2.170840
6505.000000;2.167654
6504.000000;2.165394
6503.000000;2.164934
6502.000000;2.165635
6501.000000;2.166012
6500.000000;2.164962
6499.000000;2.162682
6498.000000;2.160536
6497.000000;2.159725
6496.000000;2.160029
6495.000000;2.160188
6494.000000;2.159556
6493.000000;2.158763
6492.000000;2.158491
6491.000000;2.158362
6490.000000;2.157647
6489.000000;2.156620
6488.000000;2.156376
6487.000000;2.157383
6486.000000;2.158847
6485.000000;2.159607
6484.000000;2.159225
6483.000000;2.158014
6482.000000;2.156421
6481.000000;2.154758
6480.000000;2.153186
6479.000000;2.151770
6478.000000;2.150684
6477.000000;2.150251
6476.000000;2.150520
6475.000000;2.150852
6474.000000;2.150249
6473.000000;2.148320
6472.000000;2.145762
6471.000000;2.143718
6470.000000;2.142763
6469.000000;2.142614
6468.000000;2.142661
6467.000000;2.142577
6466.000000;2.142383
6465.000000;2.141998
6464.000000;2.140987
6463.000000;2.139011
6462.000000;2.136537
6461.000000;2.134714
6460.000000;2.134207
6459.000000;2.134402
6458.000000;2.134140
6457.000000;2.133110
6456.000000;2.131949
6455.000000;2.131035
6454.000000;2.129939
6453.000000;2.128337
6452.000000;2.126765
6451.000000;2.125896
6450.000000;2.125489
6449.000000;2.124731
6448.000000;2.123480
6447.000000;2.122564
6446.000000;2.122767
6445.000000;2.123995
6444.000000;2.125505
6443.000000;2.126512
6442.000000;2.126477
6441.000000;2.125287
6440.000000;2.123453
6439.000000;2.121802
6438.000000;2.120650
6437.000000;2.119527
6436.000000;2.117946
6435.000000;2.116191
6434.000000;2.115036
6433.000000;2.114835
6432.000000;2.115216
6431.000000;2.115539
6430.000000;2.115316
6429.000000;2.114288
6428.000000;2.112562
6427.000000;2.110797
6426.000000;2.109845
6425.000000;2.109912
6424.000000;2.110329
6423.000000;2.110375
6422.000000;2.110070
6421.000000;2.109750
6420.000000;2.109160
6419.000000;2.107623
6418.000000;2.105220
6417.000000;2.103176
6416.000000;2.102665
6415.000000;2.103471
6414.000000;2.104179
6413.000000;2.103616
6412.000000;2.101885
6411.000000;2.100047
6410.000000;2.099156
6409.000000;2.099530
6408.000000;2.100536
6407.000000;2.101012
6406.000000;2.100203
6405.000000;2.098413
6404.000000;2.096576
6403.000000;2.095221
6402.000000;2.094196
6401.000000;2.093355
6400.000000;2.093019
6399.000000;2.093468
6398.000000;2.094309
6397.000000;2.094746
6396.000000;2.094420
6395.000000;2.093708
6394.000000;2.093220
6393.000000;2.093176
6392.000000;2.093189
6391.000000;2.092568
6390.000000;2.091019
6389.000000;2.089169
6388.000000;2.088107
6387.000000;2.088177
6386.000000;2.088509
6385.000000;2.088123
6384.000000;2.087267
6383.000000;2.087048
6382.000000;2.087817
6381.000000;2.088560
6380.000000;2.087989
6379.000000;2.085829
6378.000000;2.082877
6377.000000;2.080281
6376.000000;2.078990
6375.000000;2.079361
6374.000000;2.080762
6373.000000;2.081842
6372.000000;2.081650
6371.000000;2.080383
6370.000000;2.078778
6369.000000;2.077133
6368.000000;2.075414
6367.000000;2.073997
6366.000000;2.073532
6365.000000;2.073936
6364.000000;2.074138
6363.000000;2.073265
6362.000000;2.071748
6361.000000;2.070794
6360.000000;2.070956
6359.000000;2.071597
6358.000000;2.071720
6357.000000;2.071044
6356.000000;2.070154
6355.000000;2.069790
6354.000000;2.070149
6353.000000;2.070763
6352.000000;2.070924
6351.000000;2.070265
6350.000000;2.069020
6349.000000;2.067718
6348.000000;2.066614
6347.000000;2.065520
6346.000000;2.064260
6345.000000;2.063128
6344.000000;2.062666
6343.000000;2.062970
6342.000000;2.063447
6341.000000;2.063399
6340.000000;2.062711
6339.000000;2.061788
6338.000000;2.061020
6337.000000;2.060565
6336.000000;2.060456
6335.000000;2.060524
6334.000000;2.060269
6333.000000;2.059256
6332.000000;2.057787
6331.000000;2.056784
6330.000000;2.056772
6329.000000;2.057248
6328.000000;2.057346
6327.000000;2.056915
6326.000000;2.056559
6325.000000;2.056693
6324.000000;2.056965
6323.000000;2.056742
6322.000000;2.055906
6321.000000;2.054935
6320.000000;2.054297
6319.000000;2.054015
6318.000000;2.053851
6317.000000;2.053722
6316.000000;2.053721
6315.000000;2.053755
6314.000000;2.053437
6313.000000;2.052551
6312.000000;2.051477
6311.000000;2.050815
6310.000000;2.050596
6309.000000;2.050214
6308.000000;2.049266
6307.000000;2.048163
6306.000000;2.047639
6305.000000;2.047834
6304.000000;2.048177
6303.000000;2.048033
6302.000000;2.047208
6301.000000;2.045877
6300.000000;2.044396
6299.000000;2.043233
6298.000000;2.042763
6297.000000;2.042898
6296.000000;2.043039
6295.000000;2.042550
6294.000000;2.041332
6293.000000;2.039915
6292.000000;2.039096
6291.000000;2.039403
6290.000000;2.040700
6289.000000;2.042210
6288.000000;2.043040
6287.000000;2.042837
6286.000000;2.041925
6285.000000;2.040859
6284.000000;2.039993
6283.000000;2.039446
6282.000000;2.039213
6281.000000;2.039175
6280.000000;2.039118
6279.000000;2.038873
6278.000000;2.038376
6277.000000;2.037548
6276.000000;2.036312
6275.000000;2.034836
6274.000000;2.033588
6273.000000;2.032921
6272.000000;2.032687
6271.000000;2.032464
6270.000000;2.032099
6269.000000;2.031778
6268.000000;2.031568
6267.000000;2.031221
6266.000000;2.030611
6265.000000;2.030135
6264.000000;2.030378
6263.000000;2.031427
6262.000000;2.032710
6261.000000;2.033511
6260.000000;2.033473
6259.000000;2.032605
6258.000000;2.031093
6257.000000;2.029260
6256.000000;2.027549
6255.000000;2.026319
6254.000000;2.025652
6253.000000;2.025451
6252.000000;2.025555
6251.000000;2.025641
6250.000000;2.025209
6249.000000;2.024040
6248.000000;2.022696
6247.000000;2.022172
6246.000000;2.022858
6245.000000;2.024047
6244.000000;2.024645
6243.000000;2.024205
6242.000000;2.023128
6241.000000;2.022086
6240.000000;2.021514
6239.000000;2.021494
6238.000000;2.021757
6237.000000;2.021840
6236.000000;2.021521
6235.000000;2.021070
6234.000000;2.020840
6233.000000;2.020677
6232.000000;2.020101
6231.000000;2.019119
6230.000000;2.018402
6229.000000;2.018449
6228.000000;2.018905
6227.000000;2.019021
6226.000000;2.018509
6225.000000;2.017625
6224.000000;2.016639
6223.000000;2.015658
6222.000000;2.014926
6221.000000;2.014782
6220.000000;2.015181
6219.000000;2.015557
6218.000000;2.015387
6217.000000;2.014748
6216.000000;2.014175
6215.000000;2.014099
6214.000000;2.014558
6213.000000;2.015263
6212.000000;2.015771
6211.000000;2.015650
6210.000000;2.014727
6209.000000;2.013283
6208.000000;2.011957
6207.000000;2.011344
6206.000000;2.011583
6205.000000;2.012243
6204.000000;2.012636
6203.000000;2.012361
6202.000000;2.011559
6201.000000;2.010627
6200.000000;2.009763
6199.000000;2.008934
6198.000000;2.008201
6197.000000;2.007808
6196.000000;2.007858
6195.000000;2.008137
6194.000000;2.008449
6193.000000;2.008886
6192.000000;2.009530
6191.000000;2.010020
6190.000000;2.009744
6189.000000;2.008537
6188.000000;2.006954
6187.000000;2.005801
6186.000000;2.005533
6185.000000;2.006058
6184.000000;2.006890
6183.000000;2.007429
6182.000000;2.007323
6181.000000;2.006738
6180.000000;2.006198
6179.000000;2.006056
6178.000000;2.006207
6177.000000;2.006271
6176.000000;2.005929
6175.000000;2.005061
6174.000000;2.003827
6173.000000;2.002684
6172.000000;2.002087
6171.000000;2.002030
6170.000000;2.002038
6169.000000;2.001752
6168.000000;2.001322
6167.000000;2.001066
6166.000000;2.000995
6165.000000;2.000931
6164.000000;2.000905
6163.000000;2.001112
6162.000000;2.001525
6161.000000;2.001885
6160.000000;2.002043
6159.000000;2.002040
6158.000000;2.001808
6157.000000;2.001112
6156.000000;1.999952
6155.000000;1.998767
6154.000000;1.998075
6153.000000;1.997992
6152.000000;1.998199
6151.000000;1.998296
6150.000000;1.998126
6149.000000;1.997856
6148.000000;1.997780
6147.000000;1.997998
6146.000000;1.998285
6145.000000;1.998316
6144.000000;1.997984
6143.000000;1.997401
6142.000000;1.996687
6141.000000;1.995958
6140.000000;1.995448
6139.000000;1.995359
6138.000000;1.995549
6137.000000;1.995635
6136.000000;1.995481
6135.000000;1.995337
6134.000000;1.995408
6133.000000;1.995547
6132.000000;1.995523
6131.000000;1.995368
6130.000000;1.995258
6129.000000;1.995181
6128.000000;1.994975
6127.000000;1.994589
6126.000000;1.994123
6125.000000;1.993670
6124.000000;1.993272
6123.000000;1.992953
6122.000000;1.992669
6121.000000;1.992319
6120.000000;1.991956
6119.000000;1.991883
6118.000000;1.992326
6117.000000;1.993067
6116.000000;1.993581
6115.000000;1.993560
6114.000000;1.993133
6113.000000;1.992627
6112.000000;1.992260
6111.000000;1.992051
6110.000000;1.991831
6109.000000;1.991312
6108.000000;1.990292
6107.000000;1.988904
6106.000000;1.987613
6105.000000;1.986924
6104.000000;1.987039
6103.000000;1.987720
6102.000000;1.988409
6101.000000;1.988602
6100.000000;1.988270
6099.000000;1.987909
6098.000000;1.988047
6097.000000;1.988696
6096.000000;1.989362
6095.000000;1.989552
6094.000000;1.989201
6093.000000;1.988624
6092.000000;1.988209
6091.000000;1.988169
6090.000000;1.988452
6089.000000;1.988804
6088.000000;1.988967
6087.000000;1.988846
6086.000000;1.988479
6085.000000;1.987921
6084.000000;1.987254
6083.000000;1.986660
6082.000000;1.986330
6081.000000;1.986281
6080.000000;1.986309
6079.000000;1.986162
6078.000000;1.985740
6077.000000;1.985173
6076.000000;1.984780
6075.000000;1.984856
6074.000000;1.985396
6073.000000;1.986059
6072.000000;1.986480
6071.000000;1.986595
6070.000000;1.986563
6069.000000;1.986446
6068.000000;1.986160
6067.000000;1.985726
6066.000000;1.985382
6065.000000;1.985347
6064.000000;1.985598
6063.000000;1.985897
6062.000000;1.985919
6061.000000;1.985383
6060.000000;1.984265
6059.000000;1.983043
6058.000000;1.982519
6057.000000;1.983135
6056.000000;1.984432
6055.000000;1.985348
6054.000000;1.985169
6053.000000;1.984188
6052.000000;1.983355
6051.000000;1.983361
6050.000000;1.984066
6049.000000;1.984802
6048.000000;1.985091
6047.000000;1.984993
6046.000000;1.984832
6045.000000;1.984772
6044.000000;1.984734
6043.000000;1.984572
6042.000000;1.984196
6041.000000;1.983565
6040.000000;1.982727
6039.000000;1.981894
6038.000000;1.981395
6037.000000;1.981447
6036.000000;1.981958
6035.000000;1.982576
6034.000000;1.982966
6033.000000;1.983098
6032.000000;1.983270
6031.000000;1.983743
6030.000000;1.984324
6029.000000;1.984455
6028.000000;1.983821
6027.000000;1.982770
6026.000000;1.981966
6025.000000;1.981679
6024.000000;1.981637
6023.000000;1.981540
6022.000000;1.981453
6021.000000;1.981575
6020.000000;1.981818
6019.000000;1.981859
6018.000000;1.981572
6017.000000;1.981236
6016.000000;1.981208
6015.000000;1.981475
6014.000000;1.981639
6013.000000;1.981393
6012.000000;1.980909
6011.000000;1.980666
6010.000000;1.980910
6009.000000;1.981399
6008.000000;1.981692
6007.000000;1.981582
6006.000000;1.981221
6005.000000;1.980969
6004.000000;1.981184
6003.000000;1.981975
6002.000000;1.982963
6001.000000;1.983387
6000.000000;1.982727
5999.000000;1.981242
5998.000000;1.979776
5997.000000;1.979088
5996.000000;1.979427
5995.000000;1.980611
5994.000000;1.982207
5993.000000;1.983662
5992.000000;1.984543
5991.000000;1.984809
5990.000000;1.984739
5989.000000;1.984559
5988.000000;1.984288
5987.000000;1.983939
5986.000000;1.983670
5985.000000;1.983641
5984.000000;1.983854
5983.000000;1.984136
5982.000000;1.984189
5981.000000;1.983685
5980.000000;1.982594
5979.000000;1.981463
5978.000000;1.981073
5977.000000;1.981667
5976.000000;1.982688
5975.000000;1.983394
5974.000000;1.983540
5973.000000;1.983318
5972.000000;1.982937
5971.000000;1.982573
5970.000000;1.982504
5969.000000;1.982916
5968.000000;1.983584
5967.000000;1.984102
5966.000000;1.984449
5965.000000;1.984979
5964.000000;1.985785
5963.000000;1.986411
5962.000000;1.986416
5961.000000;1.986001
5960.000000;1.985796
5959.000000;1.986114
5958.000000;1.986691
5957.000000;1.987157
5956.000000;1.987523
5955.000000;1.988077
5954.000000;1.988924
5953.000000;1.989772
5952.000000;1.990170
5951.000000;1.989877
5950.000000;1.989033
5949.000000;1.988095
5948.000000;1.987600
5947.000000;1.987831
5946.000000;1.988576
5945.000000;1.989236
5944.000000;1.989308
5943.000000;1.988799
5942.000000;1.988134
5941.000000;1.987720
5940.000000;1.987680
5939.000000;1.987935
5938.000000;1.988343
5937.000000;1.988752
5936.000000;1.989118
5935.000000;1.989624
5934.000000;1.990524
5933.000000;1.991726
5932.000000;1.992681
5931.000000;1.992865
5930.000000;1.992308
5929.000000;1.991529
5928.000000;1.991049
5927.000000;1.991093
5926.000000;1.991625
5925.000000;1.992397
5924.000000;1.992994
5923.000000;1.993087
5922.000000;1.992770
5921.000000;1.992482
5920.000000;1.992506
5919.000000;1.992690
5918.000000;1.992735
5917.000000;1.992619
5916.000000;1.992563
5915.000000;1.992705
5914.000000;1.992985
5913.000000;1.993329
5912.000000;1.993697
5911.000000;1.993914
5910.000000;1.993655
5909.000000;1.992797
5908.000000;1.991728
5907.000000;1.991119
5906.000000;1.991340
5905.000000;1.992173
5904.000000;1.993098
5903.000000;1.993770
5902.000000;1.994184
5901.000000;1.994478
5900.000000;1.994718
5899.000000;1.994849
5898.000000;1.994786
5897.000000;1.994480
5896.000000;1.993961
5895.000000;1.993351
5894.000000;1.992852
5893.000000;1.992697
5892.000000;1.993040
5891.000000;1.993772
5890.000000;1.994430
5889.000000;1.994467
5888.000000;1.993803
5887.000000;1.993002
5886.000000;1.992739
5885.000000;1.993136
5884.000000;1.993743
5883.000000;1.994127
5882.000000;1.994227
5881.000000;1.994124
5880.000000;1.993764
5879.000000;1.993152
5878.000000;1.992667
5877.000000;1.992874
5876.000000;1.993947
5875.000000;1.995396
5874.000000;1.996435
5873.000000;1.996637
5872.000000;1.996235
5871.000000;1.995818
5870.000000;1.995738
5869.000000;1.995806
5868.000000;1.995595
5867.000000;1.994993
5866.000000;1.994362
5865.000000;1.994144
5864.000000;1.994455
5863.000000;1.995101
5862.000000;1.995854
5861.000000;1.996609
5860.000000;1.997372
5859.000000;1.998197
5858.000000;1.999039
5857.000000;1.999603
5856.000000;1.999501
5855.000000;1.998747
5854.000000;1.997950
5853.000000;1.997775
5852.000000;1.998281
5851.000000;1.998992
5850.000000;1.999576
5849.000000;2.000153
5848.000000;2.000922
5847.000000;2.001809
5846.000000;2.002605
5845.000000;2.003196
5844.000000;2.003497
5843.000000;2.003367
5842.000000;2.002861
5841.000000;2.002428
5840.000000;2.002571
5839.000000;2.003270
5838.000000;2.003958
5837.000000;2.004162
5836.000000;2.004002
5835.000000;2.003972
5834.000000;2.004349
5833.000000;2.004940
5832.000000;2.005375
5831.000000;2.005515
5830.000000;2.005523
5829.000000;2.005595
5828.000000;2.005721
5827.000000;2.005812
5826.000000;2.005981
5825.000000;2.006527
5824.000000;2.007548
5823.000000;2.008683
5822.000000;2.009434
5821.000000;2.009712
5820.000000;2.009891
5819.000000;2.010288
5818.000000;2.010814
5817.000000;2.011256
5816.000000;2.011694
5815.000000;2.012386
5814.000000;2.013296
5813.000000;2.014027
5812.000000;2.014303
5811.000000;2.014323
5810.000000;2.014517
5809.000000;2.015042
5808.000000;2.015688
5807.000000;2.016194
5806.000000;2.016521
5805.000000;2.016805
5804.000000;2.017166
5803.000000;2.017646
5802.000000;2.018301
5801.000000;2.019261
5800.000000;2.020556
5799.000000;2.021864
5798.000000;2.022579
5797.000000;2.022360
5796.000000;2.021600
5795.000000;2.021094
5794.000000;2.021176
5793.000000;2.021406
5792.000000;2.021268
5791.000000;2.020956
5790.000000;2.021120
5789.000000;2.021994
5788.000000;2.023162
5787.000000;2.024192
5786.000000;2.025078
5785.000000;2.025942
5784.000000;2.026652
5783.000000;2.027035
5782.000000;2.027231
5781.000000;2.027524
5780.000000;2.027945
5779.000000;2.028302
5778.000000;2.028559
5777.000000;2.028927
5776.000000;2.029588
5775.000000;2.030498
5774.000000;2.031471
5773.000000;2.032286
5772.000000;2.032761
5771.000000;2.032913
5770.000000;2.032996
5769.000000;2.033221
5768.000000;2.033448
5767.000000;2.033404
5766.000000;2.033184
5765.000000;2.033216
5764.000000;2.033688
5763.000000;2.034293
5762.000000;2.034738
5761.000000;2.035250
5760.000000;2.036267
5759.000000;2.037727
5758.000000;2.038965
5757.000000;2.039383
5756.000000;2.039078
5755.000000;2.038696
5754.000000;2.038779
5753.000000;2.039340
5752.000000;2.039997
5751.000000;2.040433
5750.000000;2.040670
5749.000000;2.040947
5748.000000;2.041392
5747.000000;2.041912
5746.000000;2.042372
5745.000000;2.042807
5744.000000;2.043374
5743.000000;2.044141
5742.000000;2.044945
5741.000000;2.045493
5740.000000;2.045609
5739.000000;2.045451
5738.000000;2.045475
5737.000000;2.046083
5736.000000;2.047226
5735.000000;2.048415
5734.000000;2.049195
5733.000000;2.049555
5732.000000;2.049815
5731.000000;2.050185
5730.000000;2.050572
5729.000000;2.050804
5728.000000;2.050888
5727.000000;2.050996
5726.000000;2.051294
5725.000000;2.051863
5724.000000;2.052712
5723.000000;2.053720
5722.000000;2.054544
5721.000000;2.054735
5720.000000;2.054160
5719.000000;2.053315
5718.000000;2.053036
5717.000000;2.053742
5716.000000;2.055032
5715.000000;2.056104
5714.000000;2.056550
5713.000000;2.056635
5712.000000;2.056866
5711.000000;2.057524
5710.000000;2.058626
5709.000000;2.060027
5708.000000;2.061385
5707.000000;2.062221
5706.000000;2.062294
5705.000000;2.061884
5704.000000;2.061514
5703.000000;2.061439
5702.000000;2.061570
5701.000000;2.061813
5700.000000;2.062199
5699.000000;2.062650
5698.000000;2.062910
5697.000000;2.062885
5696.000000;2.062906
5695.000000;2.063419
5694.000000;2.064450
5693.000000;2.065522
5692.000000;2.066157
5691.000000;2.066405
5690.000000;2.066769
5689.000000;2.067607
5688.000000;2.068667
5687.000000;2.069324
5686.000000;2.069310
5685.000000;2.069069
5684.000000;2.069277
5683.000000;2.070102
5682.000000;2.071126
5681.000000;2.071929
5680.000000;2.072500
5679.000000;2.073027
5678.000000;2.073514
5677.000000;2.073820
5676.000000;2.073952
5675.000000;2.074146
5674.000000;2.074689
5673.000000;2.075715
5672.000000;2.077059
5671.000000;2.078242
5670.000000;2.078719
5669.000000;2.078356
5668.000000;2.077592
5667.000000;2.077020
5666.000000;2.076862
5665.000000;2.076948
5664.000000;2.077084
5663.000000;2.077251
5662.000000;2.077508
5661.000000;2.077943
5660.000000;2.078701
5659.000000;2.079853
5658.000000;2.081156
5657.000000;2.082184
5656.000000;2.082811
5655.000000;2.083409
5654.000000;2.084398
5653.000000;2.085661
5652.000000;2.086575
5651.000000;2.086619
5650.000000;2.085906
5649.000000;2.085128
5648.000000;2.085030
5647.000000;2.085840
5646.000000;2.087094
5645.000000;2.088042
5644.000000;2.088333
5643.000000;2.088298
5642.000000;2.088497
5641.000000;2.089059
5640.000000;2.089582
5639.000000;2.089656
5638.000000;2.089309
5637.000000;2.088864
5636.000000;2.088535
5635.000000;2.088384
5634.000000;2.088599
5633.000000;2.089530
5632.000000;2.091216
5631.000000;2.093014
5630.000000;2.093987
5629.000000;2.093786
5628.000000;2.093000
5627.000000;2.092545
5626.000000;2.092812
5625.000000;2.093525
5624.000000;2.094251
5623.000000;2.094821
5622.000000;2.095255
5621.000000;2.095538
5620.000000;2.095616
5619.000000;2.095547
5618.000000;2.095506
5617.000000;2.095651
5616.000000;2.096041
5615.000000;2.096616
5614.000000;2.097203
5613.000000;2.097587
5612.000000;2.097640
5611.000000;2.097428
5610.000000;2.097164
5609.000000;2.097060
5608.000000;2.097156
5607.000000;2.097249
5606.000000;2.097023
5605.000000;2.096389
5604.000000;2.095681
5603.000000;2.095403
5602.000000;2.095741
5601.000000;2.096429
5600.000000;2.097163
5599.000000;2.097968
5598.000000;2.099014
5597.000000;2.100179
5596.000000;2.101037
5595.000000;2.101315
5594.000000;2.101200
5593.000000;2.101110
5592.000000;2.101254
5591.000000;2.101491
5590.000000;2.101554
5589.000000;2.101344
5588.000000;2.101009
5587.000000;2.100769
5586.000000;2.100701
5585.000000;2.100716
5584.000000;2.100760
5583.000000;2.100954
5582.000000;2.101385
5581.000000;2.101838
5580.000000;2.101930
5579.000000;2.101608
5578.000000;2.101316
5577.000000;2.101492
5576.000000;2.102037
5575.000000;2.102511
5574.000000;2.102790
5573.000000;2.103208
5572.000000;2.103958
5571.000000;2.104640
5570.000000;2.104646
5569.000000;2.103858
5568.000000;2.102723
5567.000000;2.101748
5566.000000;2.101200
5565.000000;2.101197
5564.000000;2.101710
5563.000000;2.102373
5562.000000;2.102649
5561.000000;2.102413
5560.000000;2.102159
5559.000000;2.102335
5558.000000;2.102645
5557.000000;2.102377
5556.000000;2.101367
5555.000000;2.100255
5554.000000;2.099704
5553.000000;2.099765
5552.000000;2.100155
5551.000000;2.100812
5550.000000;2.101804
5549.000000;2.102845
5548.000000;2.103343
5547.000000;2.103053
5546.000000;2.102424
5545.000000;2.102129
5544.000000;2.102361
5543.000000;2.102734
5542.000000;2.102816
5541.000000;2.102611
5540.000000;2.102483
5539.000000;2.102674
5538.000000;2.102968
5537.000000;2.102879
5536.000000;2.102194
5535.000000;2.101276
5534.000000;2.100713
5533.000000;2.100717
5532.000000;2.100945
5531.000000;2.100997
5530.000000;2.101002
5529.000000;2.101517
5528.000000;2.102785
5527.000000;2.104200
5526.000000;2.104704
5525.000000;2.103807
5524.000000;2.102079
5523.000000;2.100573
5522.000000;2.099889
5521.000000;2.099914
5520.000000;2.100265
5519.000000;2.100697
5518.000000;2.101046
5517.000000;2.101128
5516.000000;2.100927
5515.000000;2.100754
5514.000000;2.100951
5513.000000;2.101430
5512.000000;2.101694
5511.000000;2.101347
5510.000000;2.100485
5509.000000;2.099623
5508.000000;2.099336
5507.000000;2.099917
5506.000000;2.101105
5505.000000;2.102052
5504.000000;2.101858
5503.000000;2.100432
5502.000000;2.098809
5501.000000;2.098344
5500.000000;2.099483
5499.000000;2.101369
5498.000000;2.102704
5497.000000;2.102935
5496.000000;2.102490
5495.000000;2.102035
5494.000000;2.101808
5493.000000;2.101699
5492.000000;2.101655
5491.000000;2.101741
5490.000000;2.101921
5489.000000;2.102086
5488.000000;2.102293
5487.000000;2.102732
5486.000000;2.103375
5485.000000;2.103903
5484.000000;2.104100
5483.000000;2.104155
5482.000000;2.104371
5481.000000;2.104642
5480.000000;2.104439
5479.000000;2.103379
5478.000000;2.101763
5477.000000;2.100478
5476.000000;2.100282
5475.000000;2.101157
5474.000000;2.102354
5473.000000;2.103203
5472.000000;2.103785
5471.000000;2.104611
5470.000000;2.105740
5469.000000;2.106596
5468.000000;2.106747
5467.000000;2.106519
5466.000000;2.106520
5465.000000;2.106816
5464.000000;2.107041
5463.000000;2.107177
5462.000000;2.107666
5461.000000;2.108679
5460.000000;2.109771
5459.000000;2.110439
5458.000000;2.110696
5457.000000;2.110889
5456.000000;2.111198
5455.000000;2.111581
5454.000000;2.112004
5453.000000;2.112414
5452.000000;2.112616
5451.000000;2.112483
5450.000000;2.112258
5449.000000;2.112399
5448.000000;2.113001
5447.000000;2.113536
5446.000000;2.113420
5445.000000;2.112822
5444.000000;2.112617
5443.000000;2.113446
5442.000000;2.115111
5441.000000;2.117018
5440.000000;2.118893
5439.000000;2.120702
5438.000000;2.122102
5437.000000;2.122624
5436.000000;2.122430
5435.000000;2.122355
5434.000000;2.122931
5433.000000;2.123738
5432.000000;2.124097
5431.000000;2.124092
5430.000000;2.124457
5429.000000;2.125606
5428.000000;2.127167
5427.000000;2.128464
5426.000000;2.129177
5425.000000;2.129533
5424.000000;2.130077
5423.000000;2.131221
5422.000000;2.132858
5421.000000;2.134494
5420.000000;2.135891
5419.000000;2.137373
5418.000000;2.139297
5417.000000;2.141395
5416.000000;2.142941
5415.000000;2.143566
5414.000000;2.143696
5413.000000;2.144096
5412.000000;2.145154
5411.000000;2.146788
5410.000000;2.148849
5409.000000;2.151256
5408.000000;2.153800
5407.000000;2.156119
5406.000000;2.157975
5405.000000;2.159487
5404.000000;2.161023
5403.000000;2.162859
5402.000000;2.164912
5401.000000;2.166817
5400.000000;2.168301
5399.000000;2.169527
5398.000000;2.170994
5397.000000;2.173062
5396.000000;2.175652
5395.000000;2.178408
5394.000000;2.181062
5393.000000;2.183630
5392.000000;2.186235
5391.000000;2.188984
5390.000000;2.192093
5389.000000;2.195821
5388.000000;2.200071
5387.000000;2.204117
5386.000000;2.207050
5385.000000;2.208702
5384.000000;2.210004
5383.000000;2.212215
5382.000000;2.215853
5381.000000;2.220435
5380.000000;2.225094
5379.000000;2.229279
5378.000000;2.232830
5377.000000;2.235674
5376.000000;2.237882
5375.000000;2.239907
5374.000000;2.242487
5373.000000;2.246212
5372.000000;2.251143
5371.000000;2.256767
5370.000000;2.262327
5369.000000;2.267396
5368.000000;2.272302
5367.000000;2.277842
5366.000000;2.284326
5365.000000;2.291010
5364.000000;2.296773
5363.000000;2.301356
5362.000000;2.305545
5361.000000;2.310126
5360.000000;2.315184
5359.000000;2.320574
5358.000000;2.326413
5357.000000;2.332728
5356.000000;2.339098
5355.000000;2.345098
5354.000000;2.350922
5353.000000;2.357128
5352.000000;2.363870
5351.000000;2.370877
5350.000000;2.378093
5349.000000;2.385843
5348.000000;2.394279
5347.000000;2.403011
5346.000000;2.411455
5345.000000;2.419448
5344.000000;2.427450
5343.000000;2.436083
5342.000000;2.445371
5341.000000;2.454633
5340.000000;2.463376
5339.000000;2.472187
5338.000000;2.482213
5337.000000;2.493497
5336.000000;2.504540
5335.000000;2.514173
5334.000000;2.523031
5333.000000;2.532346
5332.000000;2.541948
5331.000000;2.550665
5330.000000;2.558391
5329.000000;2.566462
5328.000000;2.575873
5327.000000;2.586268
5326.000000;2.596884
5325.000000;2.607568
5324.000000;2.618546
5323.000000;2.630034
5322.000000;2.642472
5321.000000;2.656343
5320.000000;2.671226
5319.000000;2.685598
5318.000000;2.698178
5317.000000;2.709162
5316.000000;2.719737
5315.000000;2.730658
5314.000000;2.741755
5313.000000;2.752832
5312.000000;2.764625
5311.000000;2.778296
5310.000000;2.793455
5309.000000;2.806913
5308.000000;2.814739
5307.000000;2.816317
5306.000000;2.815134
5305.000000;2.815207
5304.000000;2.818633
5303.000000;2.826667
5302.000000;2.840219
5301.000000;2.857431
5300.000000;2.872800
5299.000000;2.882168
5298.000000;2.888056
5297.000000;2.896217
5296.000000;2.907532
5295.000000;2.916853
5294.000000;2.919983
5293.000000;2.918533
5292.000000;2.916551
5291.000000;2.916185
5290.000000;2.918165
5289.000000;2.922867
5288.000000;2.928717
5287.000000;2.932124
5286.000000;2.931548
5285.000000;2.929973
5284.000000;2.931275
5283.000000;2.935704
5282.000000;2.941012
5281.000000;2.946342
5280.000000;2.952117
5279.000000;2.956916
5278.000000;2.957797
5277.000000;2.954571
5276.000000;2.951237
5275.000000;2.951676
5274.000000;2.955527
5273.000000;2.959345
5272.000000;2.960862
5271.000000;2.960704
5270.000000;2.960196
5269.000000;2.959260
5268.000000;2.957185
5267.000000;2.954539
5266.000000;2.953277
5265.000000;2.954951
5264.000000;2.959135
5263.000000;2.963529
5262.000000;2.965480
5261.000000;2.963732
5260.000000;2.959391
5259.000000;2.955218
5258.000000;2.953629
5257.000000;2.954984
5256.000000;2.957487
5255.000000;2.959085
5254.000000;2.959291
5253.000000;2.958702
5252.000000;2.957654
5251.000000;2.956443
5250.000000;2.956182
5249.000000;2.957994
5248.000000;2.961080
5247.000000;2.963058
5246.000000;2.962941
5245.000000;2.961942
5244.000000;2.961283
5243.000000;2.961356
5242.000000;2.962838
5241.000000;2.966588
5240.000000;2.971773
5239.000000;2.975304
5238.000000;2.974337
5237.000000;2.969189
5236.000000;2.962800
5235.000000;2.957994
5234.000000;2.956252
5233.000000;2.958094
5232.000000;2.963116
5231.000000;2.969360
5230.000000;2.973566
5229.000000;2.972960
5228.000000;2.967137
5227.000000;2.958519
5226.000000;2.951142
5225.000000;2.948241
5224.000000;2.950128
5223.000000;2.954425
5222.000000;2.958800
5221.000000;2.963013
5220.000000;2.967874
5219.000000;2.973046
5218.000000;2.976669
5217.000000;2.977071
5216.000000;2.974307
5215.000000;2.970189
5214.000000;2.967535
5213.000000;2.968446
5212.000000;2.972136
5211.000000;2.975159
5210.000000;2.974851
5209.000000;2.972052
5208.000000;2.969568
5207.000000;2.968909
5206.000000;2.969893
5205.000000;2.972417
5204.000000;2.976280
5203.000000;2.979542
5202.000000;2.979544
5201.000000;2.975901
5200.000000;2.970576
5199.000000;2.964991
5198.000000;2.959189
5197.000000;2.953975
5196.000000;2.951450
5195.000000;2.952287
5194.000000;2.954195
5193.000000;2.954693
5192.000000;2.954222
5191.000000;2.954868
5190.000000;2.957021
5189.000000;2.958971
5188.000000;2.959537
5187.000000;2.959497
5186.000000;2.960016
5185.000000;2.960977
5184.000000;2.961496
5183.000000;2.961243
5182.000000;2.960705
5181.000000;2.960660
5180.000000;2.961587
5179.000000;2.963304
5178.000000;2.965122
5177.000000;2.966356
5176.000000;2.967043
5175.000000;2.967833
5174.000000;2.968776
5173.000000;2.969011
5172.000000;2.968030
5171.000000;2.966622
5170.000000;2.966297
5169.000000;2.968027
5168.000000;2.971141
5167.000000;2.973697
5166.000000;2.974546
5165.000000;2.974230
5164.000000;2.973235
5163.000000;2.970412
5162.000000;2.964412
5161.000000;2.956566
5160.000000;2.950816
5159.000000;2.950406
5158.000000;2.955516
5157.000000;2.963807
5156.000000;2.971837
5155.000000;2.975615
5154.000000;2.972126
5153.000000;2.962740
5152.000000;2.953918
5151.000000;2.952145
5150.000000;2.958113
5149.000000;2.966457
5148.000000;2.971129
5147.000000;2.970637
5146.000000;2.967888
5145.000000;2.966018
5144.000000;2.965631
5143.000000;2.965680
5142.000000;2.965506
5141.000000;2.965171
5140.000000;2.964978
5139.000000;2.965308
5138.000000;2.966035
5137.000000;2.966476
5136.000000;2.966398
5135.000000;2.966769
5134.000000;2.969121
5133.000000;2.973588
5132.000000;2.978192
5131.000000;2.980517
5130.000000;2.979749
5129.000000;2.977184
5128.000000;2.974774
5127.000000;2.973060
5126.000000;2.970814
5125.000000;2.967084
5124.000000;2.963191
5123.000000;2.961850
5122.000000;2.964313
5121.000000;2.968896
5120.000000;2.972286
5119.000000;2.972151
5118.000000;2.968642
5117.000000;2.963837
5116.000000;2.960074
5115.000000;2.958299
5114.000000;2.957518
5113.000000;2.956178
5112.000000;2.954154
5111.000000;2.952489
5110.000000;2.951039
5109.000000;2.947974
5108.000000;2.942673
5107.000000;2.937707
5106.000000;2.936426
5105.000000;2.939423
5104.000000;2.944531
5103.000000;2.949576
5102.000000;2.953672
5101.000000;2.956081
5100.000000;2.955905
5099.000000;2.953826
5098.000000;2.952418
5097.000000;2.953312
5096.000000;2.955054
5095.000000;2.954917
5094.000000;2.952349
5093.000000;2.949579
5092.000000;2.949208
5091.000000;2.952103
5090.000000;2.957052
5089.000000;2.961306
5088.000000;2.961673
5087.000000;2.956814
5086.000000;2.949176
5085.000000;2.943240
5084.000000;2.941544
5083.000000;2.943163
5082.000000;2.945736
5081.000000;2.947986
5080.000000;2.949721
5079.000000;2.950031
5078.000000;2.947268
5077.000000;2.941593
5076.000000;2.936270
5075.000000;2.935121
5074.000000;2.939244
5073.000000;2.946856
5072.000000;2.955559
5071.000000;2.963258
5070.000000;2.967135
5069.000000;2.964418
5068.000000;2.955717
5067.000000;2.946290
5066.000000;2.941469
5065.000000;2.941275
5064.000000;2.941982
5063.000000;2.941733
5062.000000;2.941872
5061.000000;2.943493
5060.000000;2.945264
5059.000000;2.945515
5058.000000;2.944748
5057.000000;2.944364
5056.000000;2.944349
5055.000000;2.944152
5054.000000;2.944652
5053.000000;2.946857
5052.000000;2.949290
5051.000000;2.949252
5050.000000;2.946917
5049.000000;2.945588
5048.000000;2.947139
5047.000000;2.949553
5046.000000;2.950132
5045.000000;2.949401
5044.000000;2.949744
5043.000000;2.951346
5042.000000;2.952054
5041.000000;2.950938
5040.000000;2.949477
5039.000000;2.948594
5038.000000;2.947002
5037.000000;2.943664
5036.000000;2.940133
5035.000000;2.938858
5034.000000;2.940383
5033.000000;2.943891
5032.000000;2.949242
5031.000000;2.956140
5030.000000;2.961981
5029.000000;2.963492
5028.000000;2.960836
5027.000000;2.957203
5026.000000;2.954081
5025.000000;2.950047
5024.000000;2.944713
5023.000000;2.940471
5022.000000;2.938609
5021.000000;2.936711
5020.000000;2.932653
5019.000000;2.929146
5018.000000;2.930559
5017.000000;2.936156
5016.000000;2.939983
5015.000000;2.938293
5014.000000;2.934165
5013.000000;2.932945
5012.000000;2.936179
5011.000000;2.941686
5010.000000;2.947103
5009.000000;2.950916
5008.000000;2.951688
5007.000000;2.948250
5006.000000;2.940069
5005.000000;2.927550
5004.000000;2.912999
5003.000000;2.901408
5002.000000;2.898528
5001.000000;2.906128
5000.000000;2.919028
4999.000000;2.928666
4998.000000;2.931140
4997.000000;2.929894
4996.000000;2.929777
4995.000000;2.931435
4994.000000;2.932000
4993.000000;2.929157
4992.000000;2.923547
4991.000000;2.918183
4990.000000;2.916702
4989.000000;2.920860
4988.000000;2.928375
4987.000000;2.934180
4986.000000;2.935108
4985.000000;2.932701
4984.000000;2.930323
4983.000000;2.928925
4982.000000;2.927120
4981.000000;2.924242
4980.000000;2.921292
4979.000000;2.918810
4978.000000;2.915988
4977.000000;2.912336
4976.000000;2.908605
4975.000000;2.905927
4974.000000;2.905094
4973.000000;2.906904
4972.000000;2.911954
4971.000000;2.918777
4970.000000;2.923247
4969.000000;2.921503
4968.000000;2.913827
4967.000000;2.904687
4966.000000;2.898511
4965.000000;2.896769
4964.000000;2.898643
4963.000000;2.902164
4962.000000;2.904556
4961.000000;2.903512
4960.000000;2.899560
4959.000000;2.896235
4958.000000;2.896645
4957.000000;2.900424
4956.000000;2.904570
4955.000000;2.906490
4954.000000;2.905414
4953.000000;2.901668
4952.000000;2.896493
4951.000000;2.892438
4950.000000;2.892044
4949.000000;2.895157
4948.000000;2.898554
4947.000000;2.899009
4946.000000;2.895976
4945.000000;2.890785
4944.000000;2.884631
4943.000000;2.878724
4942.000000;2.875118
4941.000000;2.875404
4940.000000;2.878548
4939.000000;2.881276
4938.000000;2.881059
4937.000000;2.878118
4936.000000;2.874432
4935.000000;2.871936
4934.000000;2.871909
4933.000000;2.874826
4932.000000;2.879892
4931.000000;2.884911
4930.000000;2.887502
4929.000000;2.886982
4928.000000;2.884836
4927.000000;2.883145
4926.000000;2.882461
4925.000000;2.881173
4924.000000;2.877254
4923.000000;2.870842
4922.000000;2.864566
4921.000000;2.861007
4920.000000;2.860450
4919.000000;2.861288
4918.000000;2.861850
4917.000000;2.861412
4916.000000;2.860100
4915.000000;2.858700
4914.000000;2.858440
4913.000000;2.859970
4912.000000;2.862302
4911.000000;2.863555
4910.000000;2.863184
4909.000000;2.862477
4908.000000;2.862308
4907.000000;2.861534
4906.000000;2.858609
4905.000000;2.854248
4904.000000;2.851081
4903.000000;2.850569
4902.000000;2.851334
4901.000000;2.850814
4900.000000;2.848133
4899.000000;2.845004
4898.000000;2.843805
4897.000000;2.845034
4896.000000;2.846642
4895.000000;2.845843
4894.000000;2.841662
4893.000000;2.835485
4892.000000;2.829368
4891.000000;2.824698
4890.000000;2.822567
4889.000000;2.824193
4888.000000;2.829720
4887.000000;2.836679
4886.000000;2.840928
4885.000000;2.840088
4884.000000;2.835481
4883.000000;2.830138
4882.000000;2.826001
4881.000000;2.823498
4880.000000;2.822529
4879.000000;2.822721
4878.000000;2.823179
4877.000000;2.823049
4876.000000;2.822386
4875.000000;2.821758
4874.000000;2.820986
4873.000000;2.819057
4872.000000;2.815479
4871.000000;2.811092
4870.000000;2.807350
4869.000000;2.805322
4868.000000;2.805604
4867.000000;2.808436
4866.000000;2.813009
4865.000000;2.816908
4864.000000;2.817416
4863.000000;2.813885
4862.000000;2.808274
4861.000000;2.803196
4860.000000;2.799884
4859.000000;2.797929
4858.000000;2.796490
4857.000000;2.795405
4856.000000;2.794946
4855.000000;2.794634
4854.000000;2.792883
4853.000000;2.788552
4852.000000;2.782840
4851.000000;2.778716
4850.000000;2.777909
4849.000000;2.779027
4848.000000;2.779329
4847.000000;2.778176
4846.000000;2.777690
4845.000000;2.779611
4844.000000;2.782803
4843.000000;2.784591
4842.000000;2.783541
4841.000000;2.780447
4840.000000;2.777270
4839.000000;2.775774
4838.000000;2.776763
4837.000000;2.779473
4836.000000;2.781602
4835.000000;2.780928
4834.000000;2.777427
4833.000000;2.773180
4832.000000;2.770037
4831.000000;2.768146
4830.000000;2.766932
4829.000000;2.766732
4828.000000;2.768632
4827.000000;2.772587
4826.000000;2.776262
4825.000000;2.776272
4824.000000;2.771150
4823.000000;2.763169
4822.000000;2.756620
4821.000000;2.754070
4820.000000;2.754384
4819.000000;2.754260
4818.000000;2.751794
4817.000000;2.748294
4816.000000;2.746428
4815.000000;2.747185
4814.000000;2.749010
4813.000000;2.749412
4812.000000;2.747028
4811.000000;2.742396
4810.000000;2.737380
4809.000000;2.733903
4808.000000;2.732795
4807.000000;2.733444
4806.000000;2.734526
4805.000000;2.735156
4804.000000;2.735141
4803.000000;2.734313
4802.000000;2.732121
4801.000000;2.728218
4800.000000;2.723285
4799.000000;2.718902
4798.000000;2.716425
4797.000000;2.715917
4796.000000;2.716233
4795.000000;2.716331
4794.000000;2.716580
4793.000000;2.718447
4792.000000;2.722464
4791.000000;2.726662
4790.000000;2.727680
4789.000000;2.723901
4788.000000;2.717159
4787.000000;2.711024
4786.000000;2.707759
4785.000000;2.707088
4784.000000;2.707306
4783.000000;2.707032
4782.000000;2.706014
4781.000000;2.704751
4780.000000;2.703718
4779.000000;2.702969
4778.000000;2.702219
4777.000000;2.701139
4776.000000;2.699767
4775.000000;2.698613
4774.000000;2.698248
4773.000000;2.698809
4772.000000;2.699716
4771.000000;2.699864
4770.000000;2.698429
4769.000000;2.695485
4768.000000;2.691676
4767.000000;2.687545
4766.000000;2.683508
4765.000000;2.680191
4764.000000;2.678185
4763.000000;2.677330
4762.000000;2.676661
4761.000000;2.675235
4760.000000;2.672660
4759.000000;2.668891
4758.000000;2.664236
4757.000000;2.659775
4756.000000;2.657088
4755.000000;2.656933
4754.000000;2.658468
4753.000000;2.660214
4752.000000;2.661405
4751.000000;2.661885
4750.000000;2.661293
4749.000000;2.659469
4748.000000;2.657324
4747.000000;2.655960
4746.000000;2.654905
4745.000000;2.652379
4744.000000;2.647773
4743.000000;2.642841
4742.000000;2.639713
4741.000000;2.638578
4740.000000;2.638006
4739.000000;2.636963
4738.000000;2.635706
4737.000000;2.634944
4736.000000;2.635045
4735.000000;2.636045
4734.000000;2.637371
4733.000000;2.637488
4732.000000;2.634987
4731.000000;2.630474
4730.000000;2.626636
4729.000000;2.625972
4728.000000;2.628612
4727.000000;2.632228
4726.000000;2.633854
4725.000000;2.632050
4724.000000;2.627780
4723.000000;2.623441
4722.000000;2.620900
4721.000000;2.620049
4720.000000;2.619153
4719.000000;2.616865
4718.000000;2.613797
4717.000000;2.611689
4716.000000;2.611208
4715.000000;2.611147
4714.000000;2.609893
4713.000000;2.607223
4712.000000;2.604220
4711.000000;2.601733
4710.000000;2.599634
4709.000000;2.597546
4708.000000;2.595649
4707.000000;2.594390
4706.000000;2.593716
4705.000000;2.593060
4704.000000;2.592105
4703.000000;2.591173
4702.000000;2.590668
4701.000000;2.590440
4700.000000;2.590045
4699.000000;2.589414
4698.000000;2.588742
4697.000000;2.587769
4696.000000;2.585887
4695.000000;2.583162
4694.000000;2.580613
4693.000000;2.579094
4692.000000;2.578246
4691.000000;2.577095
4690.000000;2.575527
4689.000000;2.574467
4688.000000;2.574396
4687.000000;2.574272
4686.000000;2.572458
4685.000000;2.568650
4684.000000;2.564496
4683.000000;2.562221
4682.000000;2.562727
4681.000000;2.565024
4680.000000;2.567408
4679.000000;2.569028
4678.000000;2.570109
4677.000000;2.570643
4676.000000;2.569462
4675.000000;2.565344
4674.000000;2.559018
4673.000000;2.553242
4672.000000;2.550475
4671.000000;2.550821
4670.000000;2.552478
4669.000000;2.553826
4668.000000;2.554526
4667.000000;2.554737
4666.000000;2.554245
4665.000000;2.552891
4664.000000;2.551286
4663.000000;2.550320
4662.000000;2.549915
4661.000000;2.548757
4660.000000;2.545628
4659.000000;2.540895
4658.000000;2.536396
4657.000000;2.533811
4656.000000;2.533315
4655.000000;2.533776
4654.000000;2.533994
4653.000000;2.533564
4652.000000;2.532616
4651.000000;2.531173
4650.000000;2.529291
4649.000000;2.527645
4648.000000;2.527347
4647.000000;2.528868
4646.000000;2.531269
4645.000000;2.532733
4644.000000;2.532067
4643.000000;2.529692
4642.000000;2.527033
4641.000000;2.525051
4640.000000;2.523574
4639.000000;2.521997
4638.000000;2.520251
4637.000000;2.518749
4636.000000;2.517560
4635.000000;2.516259
4634.000000;2.514754
4633.000000;2.513592
4632.000000;2.512935
4631.000000;2.511759
4630.000000;2.508917
4629.000000;2.504829
4628.000000;2.501280
4627.000000;2.499408
4626.000000;2.498614
4625.000000;2.497788
4624.000000;2.496927
4623.000000;2.496905
4622.000000;2.498011
4621.000000;2.499448
4620.000000;2.500291
4619.000000;2.500376
4618.000000;2.500073
4617.000000;2.499604
4616.000000;2.498841
4615.000000;2.497552
4614.000000;2.495779
4613.000000;2.494057
4612.000000;2.493153
4611.000000;2.493291
4610.000000;2.493718
4609.000000;2.493428
4608.000000;2.492370
4607.000000;2.491497
4606.000000;2.491450
4605.000000;2.491703
4604.000000;2.491347
4603.000000;2.490294
4602.000000;2.489085
4601.000000;2.487848
4600.000000;2.486248
4599.000000;2.484345
4598.000000;2.482662
4597.000000;2.481227
4596.000000;2.479336
4595.000000;2.476817
4594.000000;2.474849
4593.000000;2.474689
4592.000000;2.476007
4591.000000;2.477355
4590.000000;2.478155
4589.000000;2.479146
4588.000000;2.480563
4587.000000;2.480965
4586.000000;2.478825
4585.000000;2.474665
4584.000000;2.470622
4583.000000;2.468226
4582.000000;2.467382
4581.000000;2.467256
4580.000000;2.467278
4579.000000;2.467155
4578.000000;2.466566
4577.000000;2.465263
4576.000000;2.463281
4575.000000;2.460945
4574.000000;2.458863
4573.000000;2.457798
4572.000000;2.458211
4571.000000;2.459797
4570.000000;2.461595
4569.000000;2.462655
4568.000000;2.462546
4567.000000;2.461444
4566.000000;2.460033
4565.000000;2.459044
4564.000000;2.458448
4563.000000;2.457311
4562.000000;2.455091
4561.000000;2.452912
4560.000000;2.452657
4559.000000;2.454712
4558.000000;2.457369
4557.000000;2.458815
4556.000000;2.458966
4555.000000;2.458645
4554.000000;2.457741
4553.000000;2.455362
4552.000000;2.451567
4551.000000;2.447832
4550.000000;2.445544
4549.000000;2.444670
4548.000000;2.444221
4547.000000;2.443626
4546.000000;2.443320
4545.000000;2.443985
4544.000000;2.445461
4543.000000;2.446711
4542.000000;2.446979
4541.000000;2.446664
4540.000000;2.446625
4539.000000;2.446853
4538.000000;2.446646
4537.000000;2.446110
4536.000000;2.446418
4535.000000;2.447969
4534.000000;2.449153
4533.000000;2.447972
4532.000000;2.444547
4531.000000;2.440970
4530.000000;2.438912
4529.000000;2.438348
4528.000000;2.438431
4527.000000;2.438779
4526.000000;2.439497
4525.000000;2.440405
4524.000000;2.441030
4523.000000;2.441238
4522.000000;2.441282
4521.000000;2.441217
4520.000000;2.440548
4519.000000;2.438486
4518.000000;2.434785
4517.000000;2.430594
4516.000000;2.428131
4515.000000;2.428909
4514.000000;2.432196
4513.000000;2.435552
4512.000000;2.437069
4511.000000;2.436804
4510.000000;2.435889
4509.000000;2.434876
4508.000000;2.433504
4507.000000;2.431654
4506.000000;2.429776
4505.000000;2.428333
4504.000000;2.427316
4503.000000;2.426463
4502.000000;2.425694
4501.000000;2.425161
4500.000000;2.425007
4499.000000;2.425218
4498.000000;2.425616
4497.000000;2.425878
4496.000000;2.425652
4495.000000;2.424846
4494.000000;2.423902
4493.000000;2.423674
4492.000000;2.424869
4491.000000;2.427462
4490.000000;2.430757
4489.000000;2.434002
4488.000000;2.436652
4487.000000;2.438175
4486.000000;2.438335
4485.000000;2.437853
4484.000000;2.437991
4483.000000;2.438905
4482.000000;2.439039
4481.000000;2.436985
4480.000000;2.433576
4479.000000;2.431099
4478.000000;2.430600
4477.000000;2.430953
4476.000000;2.430666
4475.000000;2.429705
4474.000000;2.429040
4473.000000;2.429121
4472.000000;2.429551
4471.000000;2.430026
4470.000000;2.430923
4469.000000;2.432636
4468.000000;2.434670
4467.000000;2.435702
4466.000000;2.434588
4465.000000;2.431481
4464.000000;2.428012
4463.000000;2.426134
4462.000000;2.426813
4461.000000;2.429711
4460.000000;2.433609
4459.000000;2.436821
4458.000000;2.437706
4457.000000;2.435735
4456.000000;2.432280
4455.000000;2.429749
4454.000000;2.429694
4453.000000;2.432009
4452.000000;2.435650
4451.000000;2.439411
4450.000000;2.442006
4449.000000;2.442565
4448.000000;2.441761
4447.000000;2.441707
4446.000000;2.443868
4445.000000;2.447358
4444.000000;2.449944
4443.000000;2.450469
4442.000000;2.449548
4441.000000;2.448173
4440.000000;2.446860
4439.000000;2.446263
4438.000000;2.447432
4437.000000;2.450610
4436.000000;2.454255
4435.000000;2.456214
4434.000000;2.456097
4433.000000;2.455772
4432.000000;2.457090
4431.000000;2.459646
4430.000000;2.461305
4429.000000;2.460886
4428.000000;2.459724
4427.000000;2.460227
4426.000000;2.463385
4425.000000;2.468134
4424.000000;2.472680
4423.000000;2.475674
4422.000000;2.476481
4421.000000;2.475433
4420.000000;2.473876
4419.000000;2.473523
4418.000000;2.475395
4417.000000;2.478967
4416.000000;2.482164
4415.000000;2.482479
4414.000000;2.478978
4413.000000;2.473715
4412.000000;2.470759
4411.000000;2.472794
4410.000000;2.478216
4409.000000;2.482246
4408.000000;2.481933
4407.000000;2.479591
4406.000000;2.480217
4405.000000;2.486182
4404.000000;2.495210
4403.000000;2.503115
4402.000000;2.508079
4401.000000;2.511808
4400.000000;2.516614
4399.000000;2.522217
4398.000000;2.525850
4397.000000;2.525432
4396.000000;2.521986
4395.000000;2.518407
4394.000000;2.516474
4393.000000;2.515718
4392.000000;2.515044
4391.000000;2.514657
4390.000000;2.516050
4389.000000;2.520462
4388.000000;2.527247
4387.000000;2.533346
4386.000000;2.535269
4385.000000;2.532759
4384.000000;2.529591
4383.000000;2.529467
4382.000000;2.531842
4381.000000;2.533074
4380.000000;2.531517
4379.000000;2.529357
4378.000000;2.528831
4377.000000;2.529212
4376.000000;2.529082
4375.000000;2.529627
4374.000000;2.533153
4373.000000;2.539180
4372.000000;2.544482
4371.000000;2.547189
4370.000000;2.548782
4369.000000;2.551263
4368.000000;2.554290
4367.000000;2.556310
4366.000000;2.557174
4365.000000;2.557817
4364.000000;2.558093
4363.000000;2.557111
4362.000000;2.555431
4361.000000;2.555077
4360.000000;2.557109
4359.000000;2.560147
4358.000000;2.562066
4357.000000;2.562971
4356.000000;2.565411
4355.000000;2.571070
4354.000000;2.577735
4353.000000;2.580699
4352.000000;2.577873
4351.000000;2.572226
4350.000000;2.568289
4349.000000;2.567687
4348.000000;2.568761
4347.000000;2.569400
4346.000000;2.569149
4345.000000;2.568720
4344.000000;2.568616
4343.000000;2.568741
4342.000000;2.568654
4341.000000;2.568010
4340.000000;2.567313
4339.000000;2.567604
4338.000000;2.569293
4337.000000;2.572097
4336.000000;2.575938
4335.000000;2.581148
4334.000000;2.587413
4333.000000;2.593028
4332.000000;2.596321
4331.000000;2.597652
4330.000000;2.597611
4329.000000;2.594552
4328.000000;2.587463
4327.000000;2.580156
4326.000000;2.579132
4325.000000;2.586841
4324.000000;2.598951
4323.000000;2.608445
4322.000000;2.611789
4321.000000;2.610454
4320.000000;2.606898
4319.000000;2.601879
4318.000000;2.595970
4317.000000;2.591392
4316.000000;2.590827
4315.000000;2.593986
4314.000000;2.596661
4313.000000;2.594556
4312.000000;2.588222
4311.000000;2.583055
4310.000000;2.583452
4309.000000;2.588244
4308.000000;2.591880
4307.000000;2.590460
4306.000000;2.586827
4305.000000;2.586808
4304.000000;2.591802
4303.000000;2.598177
4302.000000;2.602787
4301.000000;2.606267
4300.000000;2.609999
4299.000000;2.612686
4298.000000;2.612377
4297.000000;2.610666
4296.000000;2.612000
4295.000000;2.618288
4294.000000;2.626169
4293.000000;2.630822
4292.000000;2.631059
4291.000000;2.629102
4290.000000;2.626499
4289.000000;2.622199
4288.000000;2.615563
4287.000000;2.609748
4286.000000;2.610045
4285.000000;2.619282
4284.000000;2.634825
4283.000000;2.648684
4282.000000;2.651648
4281.000000;2.640635
4280.000000;2.622324
4279.000000;2.607809
4278.000000;2.603515
4277.000000;2.607037
4276.000000;2.611113
4275.000000;2.612135
4274.000000;2.614326
4273.000000;2.624463
4272.000000;2.643218
4271.000000;2.661858
4270.000000;2.668411
4269.000000;2.659612
4268.000000;2.644830
4267.000000;2.636056
4266.000000;2.637042
4265.000000;2.643372
4264.000000;2.650170
4263.000000;2.654675
4262.000000;2.654435
4261.000000;2.648764
4260.000000;2.639288
4259.000000;2.630426
4258.000000;2.628115
4257.000000;2.633262
4256.000000;2.639526
4255.000000;2.640007
4254.000000;2.633556
4253.000000;2.624596
4252.000000;2.619766
4251.000000;2.624118
4250.000000;2.638631
4249.000000;2.660047
4248.000000;2.682132
4247.000000;2.697786
4246.000000;2.703226
4245.000000;2.699859
4244.000000;2.690495
4243.000000;2.676350
4242.000000;2.658043
4241.000000;2.639011
4240.000000;2.627000
4239.000000;2.628908
4238.000000;2.644074
4237.000000;2.663531
4236.000000;2.676991
4235.000000;2.682340
4234.000000;2.685926
4233.000000;2.691977
4232.000000;2.696161
4231.000000;2.692236
4230.000000;2.681127
4229.000000;2.669636
4228.000000;2.663924
4227.000000;2.665906
4226.000000;2.673396
4225.000000;2.682538
4224.000000;2.690130
4223.000000;2.694622
4222.000000;2.697075
4221.000000;2.699054
4220.000000;2.699231
4219.000000;2.697505
4218.000000;2.698093
4217.000000;2.703968
4216.000000;2.712122
4215.000000;2.714968
4214.000000;2.706146
4213.000000;2.687280
4212.000000;2.669025
4211.000000;2.665552
4210.000000;2.686001
4209.000000;2.724632
4208.000000;2.756951
4207.000000;2.756758
4206.000000;2.728402
4205.000000;2.697864
4204.000000;2.676390
4203.000000;2.659818
4202.000000;2.649688
4201.000000;2.656395
4200.000000;2.685388
4199.000000;2.725684
4198.000000;2.750840
4197.000000;2.742336
4196.000000;2.711750
4195.000000;2.683326
4194.000000;2.669846
4193.000000;2.672641
4192.000000;2.688832
4191.000000;2.711123
4190.000000;2.726566
4189.000000;2.724809
4188.000000;2.708958
4187.000000;2.694587
4186.000000;2.695546
4185.000000;2.710747
4184.000000;2.723780
4183.000000;2.718816
4182.000000;2.700633
4181.000000;2.689375
4180.000000;2.696186
4179.000000;2.711196
4178.000000;2.716047
4177.000000;2.709329
4176.000000;2.706956
4175.000000;2.716109
4174.000000;2.723532
4173.000000;2.711177
4172.000000;2.679504
4171.000000;2.648069
4170.000000;2.634315
4169.000000;2.644517
4168.000000;2.677839
4167.000000;2.723283
4166.000000;2.753928
4165.000000;2.746588
4164.000000;2.711655
4163.000000;2.678355
4162.000000;2.665651
4161.000000;2.679714
4160.000000;2.722975
4159.000000;2.791435
4158.000000;2.854338
4157.000000;2.854621
4156.000000;2.788138
4155.000000;2.710864
4154.000000;2.655769
4153.000000;2.624311
4152.000000;2.611765
4151.000000;2.619255
4150.000000;2.644348
4149.000000;2.672076
4148.000000;2.689488
4147.000000;2.698995
4146.000000;2.700275
4145.000000;2.681743
4144.000000;2.642347
4143.000000;2.604639
4142.000000;2.593603
4141.000000;2.610423
4140.000000;2.630385
4139.000000;2.629674
4138.000000;2.614297
4137.000000;2.604703
4136.000000;2.611505
4135.000000;2.638151
4134.000000;2.688263
4133.000000;2.750392
4132.000000;2.776635
4131.000000;2.745654
4130.000000;2.703257
4129.000000;2.682341
4128.000000;2.683856
4127.000000;2.693329
4126.000000;2.694310
4125.000000;2.683237
4124.000000;2.670650
4123.000000;2.659015
4122.000000;2.635906
4121.000000;2.597029
4120.000000;2.559233
4119.000000;2.542301
4118.000000;2.552782
4117.000000;2.586921
4116.000000;2.641149
4115.000000;2.712844
4114.000000;2.781823
4113.000000;2.802139
4112.000000;2.760524
4111.000000;2.702097
4110.000000;2.669310
4109.000000;2.675311
4108.000000;2.680094
4107.000000;2.635102
4106.000000;2.581083
4105.000000;2.549757
4104.000000;2.534878
4103.000000;2.551808
4102.000000;2.599933
4101.000000;2.617024
4100.000000;2.580714
4099.000000;2.541231
4098.000000;2.520770
4097.000000;2.521721
4096.000000;2.539459
4095.000000;2.560509
4094.000000;2.578848
4093.000000;2.596307
4092.000000;2.607884
4091.000000;2.608221
4090.000000;2.611911
4089.000000;2.636766
4088.000000;2.631102
4087.000000;2.547573
4086.000000;2.478889
4085.000000;2.476391
4084.000000;2.522983
4083.000000;2.578601
4082.000000;2.613714
4081.000000;2.623127
4080.000000;2.608668
4079.000000;2.583983
4078.000000;2.572625
4077.000000;2.578678
4076.000000;2.582099
4075.000000;2.568386
4074.000000;2.544377
4073.000000;2.524230
4072.000000;2.522821
4071.000000;2.551313
4070.000000;2.602506
4069.000000;2.644928
4068.000000;2.652520
4067.000000;2.632307
4066.000000;2.616659
4065.000000;2.639532
4064.000000;2.712834
4063.000000;2.825008
4062.000000;2.943135
4061.000000;2.996588
4060.000000;2.934050
4059.000000;2.824971
4058.000000;2.744047
4057.000000;2.698354
4056.000000;2.642641
4055.000000;2.567143
4054.000000;2.519063
4053.000000;2.522712
4052.000000;2.572123
4051.000000;2.657661
4050.000000;2.776932
4049.000000;2.897273
4048.000000;2.920206
4047.000000;2.830604
4046.000000;2.742236
4045.000000;2.708977
4044.000000;2.700244
4043.000000;2.672855
4042.000000;2.633664
4041.000000;2.606759
4040.000000;2.592384
4039.000000;2.573420
4038.000000;2.550731
4037.000000;2.554449
4036.000000;2.608210
4035.000000;2.695897
4034.000000;2.740966
4033.000000;2.673648
4032.000000;2.552921
4031.000000;2.461928
4030.000000;2.433565
4029.000000;2.473084
4028.000000;2.573530
4027.000000;2.691324
4026.000000;2.717773
4025.000000;2.671901
4024.000000;2.659683
4023.000000;2.691923
4022.000000;2.751707
4021.000000;2.839512
4020.000000;2.971580
4019.000000;3.031429
4018.000000;2.929263
4017.000000;2.817808
4016.000000;2.733993
4015.000000;2.669707
4014.000000;2.638557
4013.000000;2.664647
4012.000000;2.746261
4011.000000;2.797596
4010.000000;2.762690
4009.000000;2.711683
4008.000000;2.692361
4007.000000;2.721842
4006.000000;2.817520
4005.000000;2.938626
4004.000000;3.008753
4003.000000;3.103793
4002.000000;3.100474
4001.000000;3.159649
4000.000000;3.322001
3999.000000;2.933008
3998.000000;2.674995
3997.000000;2.582374
3996.000000;2.550738
3995.000000;2.521159
3994.000000;2.495284
3993.000000;2.482751
3992.000000;2.458474
3991.000000;2.447958
3990.000000;2.495057
3989.000000;2.613695
3988.000000;2.752577
3987.000000;2.797873
3986.000000;2.770352
3985.000000;2.799483
3984.000000;2.846526
3983.000000;2.735962
3982.000000;2.635106
3981.000000;2.635372
3980.000000;2.701890
3979.000000;2.769569
3978.000000;2.788477
3977.000000;2.789123
3976.000000;2.766746
3975.000000;2.721823
3974.000000;2.708026
3973.000000;2.757528
3972.000000;2.853345
3971.000000;2.965037
3970.000000;3.025181
3969.000000;2.999662
3968.000000;2.965519
3967.000000;2.936279
3966.000000;2.931832
3965.000000;2.966133
3964.000000;2.939794
3963.000000;2.850601
3962.000000;2.783759
3961.000000;2.753706
3960.000000;2.754133
3959.000000;2.764966
3958.000000;2.774796
3957.000000;2.791430
3956.000000;2.827201
3955.000000;2.899790
3954.000000;2.998950
3953.000000;3.084292
3952.000000;3.154782
3951.000000;3.332727
3950.000000;3.810968
3949.000000;3.705441
3948.000000;3.486582
3947.000000;3.700516
3946.000000;3.528351
3945.000000;3.200856
3944.000000;3.057294
3943.000000;2.983464
3942.000000;2.964979
3941.000000;3.025131
3940.000000;3.149334
3939.000000;3.212807
3938.000000;3.096631
3937.000000;2.912711
3936.000000;2.802125
3935.000000;2.796117
3934.000000;2.850550
3933.000000;2.907407
3932.000000;2.948942
3931.000000;3.013582
3930.000000;3.146833
3929.000000;3.323398
3928.000000;3.346289
3927.000000;3.327611
3926.000000;3.454324
3925.000000;3.242380
3924.000000;2.986798
3923.000000;2.954766
3922.000000;3.055387
3921.000000;3.201561
3920.000000;3.388507
3919.000000;3.796689
3918.000000;3.538177
3917.000000;3.192673
3916.000000;3.275581
3915.000000;3.736659
3914.000000;4.250411
3913.000000;4.264586
3912.000000;4.013478
3911.000000;3.650789
3910.000000;3.474132
3909.000000;3.318499
3908.000000;3.182764
3907.000000;3.120743
3906.000000;3.109504
3905.000000;3.078750
3904.000000;3.009469
3903.000000;3.087047
3902.000000;3.519745
3901.000000;3.331489
3900.000000;3.071278
3899.000000;2.984227
3898.000000;2.752569
3897.000000;2.667448
3896.000000;2.800693
3895.000000;3.069364
3894.000000;3.175473
3893.000000;2.973245
3892.000000;2.872775
3891.000000;2.910340
3890.000000;3.041241
3889.000000;3.018195
3888.000000;2.821064
3887.000000;2.713969
3886.000000;2.656907
3885.000000;2.742406
3884.000000;3.386803
3883.000000;3.301099
3882.000000;2.893881
3881.000000;2.775631
3880.000000;2.847521
3879.000000;3.267223
3878.000000;2.965887
3877.000000;2.850553
3876.000000;3.018573
3875.000000;3.053996
3874.000000;2.818232
3873.000000;2.789267
3872.000000;2.959751
3871.000000;3.270301
3870.000000;3.764354
3869.000000;3.696494
3868.000000;3.662391
3867.000000;3.411889
3866.000000;3.403684
3865.000000;3.300574
3864.000000;3.067825
3863.000000;2.948777
3862.000000;2.923037
3861.000000;2.970368
3860.000000;3.076763
3859.000000;3.168408
3858.000000;3.145562
3857.000000;3.064245
3856.000000;2.991198
3855.000000;2.948953
3854.000000;2.979145
3853.000000;3.060260
3852.000000;3.169690
3851.000000;3.264537
3850.000000;3.410281
3849.000000;3.908826
3848.000000;3.559130
3847.000000;3.127822
3846.000000;2.936765
3845.000000;2.815848
3844.000000;2.750803
3843.000000;2.760607
3842.000000;2.853237
3841.000000;2.974991
3840.000000;3.106372
3839.000000;3.286078
3838.000000;3.284640
3837.000000;3.110109
3836.000000;3.043255
3835.000000;3.107363
3834.000000;3.269774
3833.000000;3.408519
3832.000000;3.332572
3831.000000;3.121887
3830.000000;2.951603
3829.000000;2.878915
3828.000000;2.881528
3827.000000;2.902033
3826.000000;2.865018
3825.000000;2.801637
3824.000000;2.777261
3823.000000;2.857611
3822.000000;3.018796
3821.000000;3.295472
3820.000000;3.844998
3819.000000;3.397208
3818.000000;3.223068
3817.000000;3.266060
3816.000000;3.184426
3815.000000;3.122439
3814.000000;3.173116
3813.000000;3.308117
3812.000000;3.410769
3811.000000;3.536333
3810.000000;3.672207
3809.000000;3.465892
3808.000000;3.191429
3807.000000;3.105771
3806.000000;3.114865
3805.000000;3.083293
3804.000000;3.039932
3803.000000;3.105922
3802.000000;3.384821
3801.000000;3.427874
3800.000000;3.123374
3799.000000;2.987307
3798.000000;2.925869
3797.000000;2.838833
3796.000000;2.755690
3795.000000;2.746201
3794.000000;2.794716
3793.000000;2.879690
3792.000000;2.864757
3791.000000;2.903634
3790.000000;2.794548
3789.000000;2.888648
3788.000000;3.631353
3787.000000;3.257717
3786.000000;3.090297
3785.000000;3.139335
3784.000000;3.474266
3783.000000;3.787764
3782.000000;3.530144
3781.000000;3.426254
3780.000000;3.396574
3779.000000;3.249614
3778.000000;2.996670
3777.000000;2.792284
3776.000000;2.672202
3775.000000;2.634988
3774.000000;2.744857
3773.000000;3.134224
3772.000000;3.421455
3771.000000;3.063033
3770.000000;2.859086
3769.000000;2.714183
3768.000000;2.688205
3767.000000;2.774911
3766.000000;3.035119
3765.000000;3.468628
3764.000000;3.082630
3763.000000;2.937447
3762.000000;3.108428
3761.000000;3.337759
3760.000000;3.382571
3759.000000;3.212699
3758.000000;3.075724
3757.000000;3.019124
3756.000000;3.019169
3755.000000;3.100448
3754.000000;3.494062
3753.000000;3.823153
3752.000000;3.318089
3751.000000;3.266001
3750.000000;3.348075
3749.000000;3.315344
3748.000000;3.204029
3747.000000;3.151678
3746.000000;3.180857
3745.000000;3.126069
3744.000000;2.964173
3743.000000;2.858068
3742.000000;2.856646
3741.000000;2.920304
3740.000000;2.976329
3739.000000;2.979862
3738.000000;2.959025
3737.000000;2.989939
3736.000000;3.105803
3735.000000;3.486642
3734.000000;3.768238
3733.000000;3.277122
3732.000000;3.108773
3731.000000;3.082903
3730.000000;3.196821
3729.000000;3.274641
3728.000000;3.610804
3727.000000;3.621749
3726.000000;3.007088
3725.000000;2.857012
3724.000000;2.873958
3723.000000;2.955161
3722.000000;3.007616
3721.000000;3.003756
3720.000000;3.065594
3719.000000;3.174904
3718.000000;3.181259
3717.000000;3.035444
3716.000000;2.961959
3715.000000;3.016656
3714.000000;3.079365
3713.000000;3.016119
3712.000000;2.895888
3711.000000;2.828648
3710.000000;2.726792
3709.000000;2.599752
3708.000000;2.465239
3707.000000;2.458372
3706.000000;2.595603
3705.000000;2.459533
3704.000000;2.371139
3703.000000;2.477425
3702.000000;2.613731
3701.000000;2.789453
3700.000000;2.938311
3699.000000;3.018201
3698.000000;3.035145
3697.000000;3.293890
3696.000000;3.423048
3695.000000;2.963952
3694.000000;2.841780
3693.000000;2.885995
3692.000000;2.918311
3691.000000;2.965722
3690.000000;2.965311
3689.000000;3.265885
3688.000000;3.487751
3687.000000;3.065443
3686.000000;2.917032
3685.000000;2.831931
3684.000000;2.820112
3683.000000;2.849382
3682.000000;2.910279
3681.000000;2.986270
3680.000000;3.088681
3679.000000;3.232865
3678.000000;3.349007
3677.000000;3.503690
3676.000000;3.793353
3675.000000;3.432218
3674.000000;3.109375
3673.000000;3.069295
3672.000000;3.267355
3671.000000;3.669945
3670.000000;3.717288
3669.000000;3.415742
3668.000000;3.141296
3667.000000;2.941778
3666.000000;2.836047
3665.000000;2.814105
3664.000000;2.858609
3663.000000;2.935090
3662.000000;3.047711
3661.000000;3.187978
3660.000000;3.135850
3659.000000;3.040261
3658.000000;3.027884
3657.000000;3.087743
3656.000000;3.331371
3655.000000;3.115000
3654.000000;2.768657
3653.000000;2.720913
3652.000000;2.832005
3651.000000;2.720620
3650.000000;2.474147
3649.000000;2.315938
3648.000000;2.216216
3647.000000;2.200209
3646.000000;2.240924
3645.000000;2.289568
3644.000000;2.368204
3643.000000;2.495734
3642.000000;2.701181
3641.000000;2.976782
3640.000000;3.267444
3639.000000;3.463187
3638.000000;3.610726
3637.000000;3.770041
3636.000000;3.470706
3635.000000;3.287507
3634.000000;3.480761
3633.000000;3.450529
3632.000000;3.053895
3631.000000;2.952939
3630.000000;2.936514
3629.000000;3.062276
3628.000000;3.103857
3627.000000;3.230166
3626.000000;3.329791
3625.000000;3.116037
3624.000000;2.996864
3623.000000;2.879611
3622.000000;2.857499
3621.000000;2.942753
3620.000000;2.932778
3619.000000;2.867812
3618.000000;2.922687
3617.000000;3.187744
3616.000000;3.157403
3615.000000;2.853418
3614.000000;2.753027
3613.000000;2.734636
3612.000000;2.760327
3611.000000;2.795132
3610.000000;2.818578
3609.000000;2.841332
3608.000000;2.886977
3607.000000;2.914634
3606.000000;2.926949
3605.000000;3.054578
3604.000000;3.147446
3603.000000;2.942262
3602.000000;2.779658
3601.000000;2.757977
3600.000000;2.847020
3599.000000;3.004429
3598.000000;3.147504
3597.000000;3.213501
3596.000000;3.170989
3595.000000;3.100909
3594.000000;3.100397
3593.000000;3.226203
3592.000000;3.486575
3591.000000;3.765074
3590.000000;4.156382
3589.000000;3.620615
3588.000000;3.141098
3587.000000;2.972273
3586.000000;2.983314
3585.000000;3.123962
3584.000000;3.205217
3583.000000;3.041103
3582.000000;2.839402
3581.000000;2.758122
3580.000000;2.811382
3579.000000;2.934294
3578.000000;3.042546
3577.000000;3.102305
3576.000000;3.152376
3575.000000;3.242412
3574.000000;3.388674
3573.000000;3.472150
3572.000000;3.303138
3571.000000;3.135708
3570.000000;3.209603
3569.000000;3.476340
3568.000000;3.238401
3567.000000;3.125851
3566.000000;3.441902
3565.000000;3.567350
3564.000000;3.460442
3563.000000;3.724340
3562.000000;3.990433
3561.000000;3.497845
3560.000000;3.161245
3559.000000;3.010696
3558.000000;2.983163
3557.000000;3.052067
3556.000000;3.177621
3555.000000;3.361621
3554.000000;3.545552
3553.000000;3.523905
3552.000000;3.464445
3551.000000;3.437411
3550.000000;3.377237
3549.000000;3.358852
3548.000000;3.335257
3547.000000;3.425688
3546.000000;3.692195
3545.000000;3.407822
3544.000000;3.205348
3543.000000;3.184818
3542.000000;3.161132
3541.000000;3.091867
3540.000000;2.993535
3539.000000;2.934602
3538.000000;2.948921
3537.000000;3.006494
3536.000000;3.053155
3535.000000;3.089720
3534.000000;3.195478
3533.000000;3.395959
3532.000000;3.632815
3531.000000;4.010989
3530.000000;3.781417
3529.000000;3.400648
3528.000000;3.228268
3527.000000;3.157079
3526.000000;3.184693
3525.000000;3.332735
3524.000000;3.737464
3523.000000;4.006776
3522.000000;3.597208
3521.000000;3.463841
3520.000000;3.307548
3519.000000;3.094582
3518.000000;2.916841
3517.000000;2.839997
3516.000000;2.875060
3515.000000;3.003649
3514.000000;3.213906
3513.000000;3.299321
3512.000000;3.147371
3511.000000;3.127507
3510.000000;3.497659
3509.000000;3.656942
3508.000000;3.325956
3507.000000;3.406344
3506.000000;3.909098
3505.000000;3.833485
3504.000000;3.352165
3503.000000;3.187425
3502.000000;3.261465
3501.000000;3.682137
3500.000000;3.982179
3499.000000;3.600447
3498.000000;3.503233
3497.000000;3.540006
3496.000000;3.666181
3495.000000;3.945530
3494.000000;3.747141
3493.000000;3.322019
3492.000000;3.157769
3491.000000;3.105109
3490.000000;3.130877
3489.000000;3.277769
3488.000000;3.517756
3487.000000;3.524491
3486.000000;3.345160
3485.000000;3.380297
3484.000000;3.500355
3483.000000;3.265943
3482.000000;3.072387
3481.000000;3.059190
3480.000000;3.151975
3479.000000;3.337097
3478.000000;3.555067
3477.000000;3.484121
3476.000000;3.326429
3475.000000;3.381026
3474.000000;3.530028
3473.000000;3.247592
3472.000000;3.047886
3471.000000;3.017348
3470.000000;3.103966
3469.000000;3.329114
3468.000000;3.643762
3467.000000;3.432093
3466.000000;3.124360
3465.000000;2.988989
3464.000000;2.974570
3463.000000;3.050329
3462.000000;3.167792
3461.000000;3.261667
3460.000000;3.311434
3459.000000;3.349410
3458.000000;3.363014
3457.000000;3.336944
3456.000000;3.317172
3455.000000;3.260192
3454.000000;3.126724
3453.000000;3.025256
3452.000000;3.000866
3451.000000;3.013320
3450.000000;3.026711
3449.000000;3.044731
3448.000000;3.044120
3447.000000;2.984573
3446.000000;2.924910
3445.000000;2.922575
3444.000000;2.990549
3443.000000;3.147593
3442.000000;3.538905
3441.000000;4.206945
3440.000000;3.619922
3439.000000;3.498976
3438.000000;3.459242
3437.000000;3.461596
3436.000000;3.423323
3435.000000;3.248687
3434.000000;3.044226
3433.000000;2.922056
3432.000000;2.911832
3431.000000;2.982309
3430.000000;3.034288
3429.000000;3.041940
3428.000000;3.070222
3427.000000;3.161633
3426.000000;3.582609
3425.000000;3.423823
3424.000000;3.009482
3423.000000;2.884792
3422.000000;2.908455
3421.000000;3.074992
3420.000000;3.365786
3419.000000;3.479154
3418.000000;3.280479
3417.000000;3.092129
3416.000000;2.987320
3415.000000;2.951785
3414.000000;2.975392
3413.000000;3.054480
3412.000000;3.167973
3411.000000;3.295666
3410.000000;3.336749
3409.000000;3.216597
3408.000000;3.151119
3407.000000;3.245037
3406.000000;3.482875
3405.000000;3.376987
3404.000000;3.115914
3403.000000;3.028095
3402.000000;3.047150
3401.000000;3.135400
3400.000000;3.196004
3399.000000;3.207221
3398.000000;3.212875
3397.000000;3.051607
3396.000000;2.916338
3395.000000;2.963739
3394.000000;3.240736
3393.000000;3.579606
3392.000000;3.738773
3391.000000;3.823148
3390.000000;3.408310
3389.000000;3.386985
3388.000000;3.646227
3387.000000;3.587660
3386.000000;3.290326
3385.000000;3.141335
3384.000000;3.091231
3383.000000;3.425798
3382.000000;3.770882
3381.000000;3.065235
3380.000000;2.991088
3379.000000;3.025794
3378.000000;3.106418
3377.000000;3.181763
3376.000000;3.135103
3375.000000;3.069719
3374.000000;3.090400
3373.000000;3.061795
3372.000000;2.966275
3371.000000;2.919339
3370.000000;2.932745
3369.000000;2.972933
3368.000000;2.998028
3367.000000;2.977235
3366.000000;2.988810
3365.000000;3.135258
3364.000000;3.304460
3363.000000;3.249066
3362.000000;3.325771
3361.000000;3.761633
3360.000000;3.479440
3359.000000;3.100612
3358.000000;2.937838
3357.000000;2.875192
3356.000000;2.939734
3355.000000;3.108917
3354.000000;3.016291
3353.000000;2.817200
3352.000000;2.753706
3351.000000;2.776064
3350.000000;2.875003
3349.000000;3.073357
3348.000000;3.396911
3347.000000;3.381920
3346.000000;3.321593
3345.000000;3.491713
3344.000000;3.250482
3343.000000;3.090146
3342.000000;3.168398
3341.000000;3.612434
3340.000000;3.610941
3339.000000;3.256907
3338.000000;3.143066
3337.000000;3.132188
3336.000000;3.178845
3335.000000;3.255190
3334.000000;3.294730
3333.000000;3.200035
3332.000000;3.082449
3331.000000;3.053769
3330.000000;3.148051
3329.000000;3.280110
3328.000000;3.257908
3327.000000;3.231340
3326.000000;3.323632
3325.000000;3.456196
3324.000000;3.428999
3323.000000;3.339508
3322.000000;3.278611
3321.000000;3.276419
3320.000000;3.480709
3319.000000;3.533515
3318.000000;3.364536
3317.000000;3.308306
3316.000000;3.159708
3315.000000;3.031430
3314.000000;2.993718
3313.000000;2.979422
3312.000000;2.934007
3311.000000;2.891115
3310.000000;2.900260
3309.000000;2.994611
3308.000000;3.143510
3307.000000;3.065564
3306.000000;2.918820
3305.000000;2.886174
3304.000000;2.954180
3303.000000;3.109535
3302.000000;3.339314
3301.000000;3.757772
3300.000000;4.171398
3299.000000;3.559635
3298.000000;3.275125
3297.000000;3.155809
3296.000000;3.147289
3295.000000;3.174236
3294.000000;3.200768
3293.000000;3.350862
3292.000000;3.508847
3291.000000;3.163466
3290.000000;2.957163
3289.000000;2.908406
3288.000000;2.916485
3287.000000;2.919649
3286.000000;2.923180
3285.000000;3.016403
3284.000000;3.270925
3283.000000;3.858630
3282.000000;3.956832
3281.000000;3.602993
3280.000000;3.367220
3279.000000;3.230849
3278.000000;3.186082
3277.000000;3.409582
3276.000000;3.838252
3275.000000;3.112272
3274.000000;2.940352
3273.000000;2.936852
3272.000000;3.083085
3271.000000;3.181270
3270.000000;3.072535
3269.000000;3.030308
3268.000000;3.162666
3267.000000;3.614913
3266.000000;3.421486
3265.000000;3.159144
3264.000000;3.155903
3263.000000;3.187901
3262.000000;3.127125
3261.000000;3.019593
3260.000000;2.986089
3259.000000;3.018555
3258.000000;3.136079
3257.000000;3.300913
3256.000000;3.250457
3255.000000;3.215023
3254.000000;3.340505
3253.000000;3.577506
3252.000000;3.389806
3251.000000;3.199681
3250.000000;3.136411
3249.000000;3.145799
3248.000000;3.221697
3247.000000;3.415059
3246.000000;3.862227
3245.000000;3.980206
3244.000000;3.685401
3243.000000;3.659331
3242.000000;3.459180
3241.000000;3.302692
3240.000000;3.288298
3239.000000;3.252264
3238.000000;3.107285
3237.000000;2.974623
3236.000000;2.911767
3235.000000;2.936239
3234.000000;3.059699
3233.000000;3.280836
3232.000000;3.462291
3231.000000;3.376126
3230.000000;3.277412
3229.000000;3.280285
3228.000000;3.367961
3227.000000;3.372109
3226.000000;3.232444
3225.000000;3.114487
3224.000000;3.060737
3223.000000;3.068496
3222.000000;3.109291
3221.000000;3.148478
3220.000000;3.197027
3219.000000;3.352257
3218.000000;3.447230
3217.000000;3.185633
3216.000000;3.040252
3215.000000;3.113279
3214.000000;3.556995
3213.000000;3.254235
3212.000000;2.968550
3211.000000;3.011125
3210.000000;3.222869
3209.000000;3.891283
3208.000000;3.576544
3207.000000;3.542627
3206.000000;3.656853
3205.000000;3.348671
3204.000000;3.295522
3203.000000;3.421085
3202.000000;3.422687
3201.000000;3.191864
3200.000000;3.019236
3199.000000;2.951981
3198.000000;2.977418
3197.000000;3.046478
3196.000000;3.115443
3195.000000;3.216403
3194.000000;3.149634
3193.000000;2.988999
3192.000000;2.973108
3191.000000;3.115584
3190.000000;3.398960
3189.000000;3.477971
3188.000000;3.464927
3187.000000;3.470341
3186.000000;3.378197
3185.000000;3.340690
3184.000000;3.295721
3183.000000;3.195995
3182.000000;3.119984
3181.000000;3.142360
3180.000000;3.287225
3179.000000;3.287518
3178.000000;3.149479
3177.000000;3.155130
3176.000000;3.345531
3175.000000;3.953270
3174.000000;3.619370
3173.000000;3.289902
3172.000000;3.146839
3171.000000;3.142516
3170.000000;3.284877
3169.000000;3.346190
3168.000000;3.234125
3167.000000;3.353672
3166.000000;3.343321
3165.000000;3.117251
3164.000000;3.103397
3163.000000;3.159557
3162.000000;3.297081
3161.000000;3.498412
3160.000000;3.365729
3159.000000;3.290162
3158.000000;3.339931
3157.000000;3.191575
3156.000000;2.987317
3155.000000;2.877244
3154.000000;2.915023
3153.000000;3.104516
3152.000000;3.787528
3151.000000;3.540155
3150.000000;3.154108
3149.000000;2.994603
3148.000000;2.945178
3147.000000;2.992050
3146.000000;3.071732
3145.000000;3.092343
3144.000000;3.092731
3143.000000;3.111155
3142.000000;3.130797
3141.000000;3.142207
3140.000000;3.162586
3139.000000;3.221459
3138.000000;3.240568
3137.000000;3.215375
3136.000000;3.290575
3135.000000;3.467316
3134.000000;3.444503
3133.000000;3.128865
3132.000000;2.911461
3131.000000;2.852954
3130.000000;2.956516
3129.000000;3.131577
3128.000000;3.074587
3127.000000;3.046543
3126.000000;3.187826
3125.000000;3.459218
3124.000000;3.766671
3123.000000;3.727453
3122.000000;3.642912
3121.000000;3.584871
3120.000000;3.578497
3119.000000;3.676154
3118.000000;3.437137
3117.000000;3.183379
3116.000000;3.153429
3115.000000;3.302852
3114.000000;3.459486
3113.000000;3.430551
3112.000000;3.374113
3111.000000;3.341004
3110.000000;3.658982
3109.000000;3.894157
3108.000000;3.417469
3107.000000;3.576517
3106.000000;3.645391
3105.000000;3.309596
3104.000000;3.159255
3103.000000;3.065728
3102.000000;3.001674
3101.000000;2.990699
3100.000000;3.023563
3099.000000;3.095400
3098.000000;3.203200
3097.000000;3.309153
3096.000000;3.338951
3095.000000;3.295164
3094.000000;3.258778
3093.000000;3.295495
3092.000000;3.456679
3091.000000;3.551927
3090.000000;3.256362
3089.000000;3.078327
3088.000000;3.020597
3087.000000;3.026431
3086.000000;3.010177
3085.000000;2.985353
3084.000000;3.006448
3083.000000;3.036650
3082.000000;3.032811
3081.000000;3.036000
3080.000000;3.061508
3079.000000;3.076090
3078.000000;3.096827
3077.000000;3.125612
3076.000000;3.139838
3075.000000;3.144546
3074.000000;3.146926
3073.000000;3.186058
3072.000000;3.273864
3071.000000;3.395439
3070.000000;3.274027
3069.000000;3.073997
3068.000000;3.027052
3067.000000;3.155223
3066.000000;3.556372
3065.000000;3.749187
3064.000000;3.367453
3063.000000;3.266154
3062.000000;3.164759
3061.000000;3.103790
3060.000000;3.172310
3059.000000;3.410596
3058.000000;3.587404
3057.000000;3.386674
3056.000000;3.199327
3055.000000;3.122841
3054.000000;3.194102
3053.000000;3.295661
3052.000000;3.238911
3051.000000;3.144154
3050.000000;3.052383
3049.000000;2.983569
3048.000000;2.981473
3047.000000;3.052667
3046.000000;3.253626
3045.000000;3.431544
3044.000000;3.195501
3043.000000;3.075496
3042.000000;3.136890
3041.000000;3.346439
3040.000000;3.200461
3039.000000;2.950808
3038.000000;2.865434
3037.000000;2.912771
3036.000000;3.153328
3035.000000;3.567856
3034.000000;3.160810
3033.000000;2.937156
3032.000000;2.884892
3031.000000;3.025749
3030.000000;3.363627
3029.000000;3.294533
3028.000000;3.125823
3027.000000;3.125243
3026.000000;3.119774
3025.000000;3.110560
3024.000000;3.126246
3023.000000;3.187538
3022.000000;3.296342
3021.000000;3.575386
3020.000000;3.393969
3019.000000;3.139949
3018.000000;3.147931
3017.000000;3.420055
3016.000000;3.530322
3015.000000;3.429167
3014.000000;3.694513
3013.000000;3.767990
3012.000000;3.427355
3011.000000;3.371367
3010.000000;3.274214
3009.000000;3.120097
3008.000000;3.033543
3007.000000;2.977315
3006.000000;2.958256
3005.000000;3.003691
3004.000000;3.042156
3003.000000;2.999831
3002.000000;2.979779
3001.000000;2.997976
3000.000000;2.966856
2999.000000;2.907474
2998.000000;2.878001
2997.000000;2.894703
2996.000000;2.977414
2995.000000;3.126917
2994.000000;3.235320
2993.000000;3.182730
2992.000000;3.112723
2991.000000;3.182288
2990.000000;3.340365
2989.000000;3.260758
2988.000000;3.248222
2987.000000;3.449972
2986.000000;3.714569
2985.000000;3.646785
2984.000000;3.390840
2983.000000;3.227634
2982.000000;3.175926
2981.000000;3.260212
2980.000000;3.561316
2979.000000;3.442344
2978.000000;3.068137
2977.000000;2.942961
2976.000000;2.911325
2975.000000;2.925643
2974.000000;2.996770
2973.000000;3.231439
2972.000000;3.749016
2971.000000;3.405384
2970.000000;3.085721
2969.000000;2.979475
2968.000000;2.958972
2967.000000;3.056785
2966.000000;3.357570
2965.000000;3.948797
2964.000000;3.522198
2963.000000;3.455878
2962.000000;3.661771
2961.000000;3.607516
2960.000000;3.271753
2959.000000;3.018432
2958.000000;2.933247
2957.000000;2.976332
2956.000000;3.112637
2955.000000;3.319561
2954.000000;3.394190
2953.000000;3.227775
2952.000000;3.249662
2951.000000;3.542011
2950.000000;3.299602
2949.000000;3.013058
2948.000000;2.975638
2947.000000;3.026011
2946.000000;3.129662
2945.000000;3.274846
2944.000000;3.382164
2943.000000;3.224162
2942.000000;3.019809
2941.000000;2.923915
2940.000000;2.912593
2939.000000;2.985419
2938.000000;3.187807
2937.000000;3.445099
2936.000000;3.284668
2935.000000;3.277589
2934.000000;3.755636
2933.000000;3.501635
2932.000000;3.197186
2931.000000;3.098381
2930.000000;3.043836
2929.000000;3.037031
2928.000000;3.106285
2927.000000;3.231535
2926.000000;3.223012
2925.000000;3.095910
2924.000000;2.993112
2923.000000;2.957897
2922.000000;3.011927
2921.000000;3.132309
2920.000000;3.316567
2919.000000;3.161238
2918.000000;2.929460
2917.000000;2.914617
2916.000000;3.114294
2915.000000;3.809621
2914.000000;3.953587
2913.000000;3.843667
2912.000000;3.549566
2911.000000;3.226386
2910.000000;3.124384
2909.000000;3.090949
2908.000000;3.099347
2907.000000;3.043680
2906.000000;2.976286
2905.000000;2.978407
2904.000000;2.984207
2903.000000;2.950251
2902.000000;2.941501
2901.000000;2.987191
2900.000000;3.066385
2899.000000;3.143986
2898.000000;3.307430
2897.000000;3.494836
2896.000000;3.173892
2895.000000;2.943954
2894.000000;2.895326
2893.000000;2.969983
2892.000000;3.363471
2891.000000;3.627815
2890.000000;3.227812
2889.000000;3.273645
2888.000000;3.489088
2887.000000;3.348613
2886.000000;3.253065
2885.000000;3.287071
2884.000000;3.226074
2883.000000;3.140482
2882.000000;3.085220
2881.000000;3.036100
2880.000000;3.027534
2879.000000;3.061226
2878.000000;3.101297
2877.000000;3.164907
2876.000000;3.159072
2875.000000;3.030814
2874.000000;2.983270
2873.000000;3.102273
2872.000000;3.336196
2871.000000;3.332575
2870.000000;3.289581
2869.000000;3.213616
2868.000000;2.981390
2867.000000;2.871060
2866.000000;2.891207
2865.000000;3.012935
2864.000000;3.161105
2863.000000;3.125086
2862.000000;3.018648
2861.000000;2.972727
2860.000000;2.981779
2859.000000;3.042134
2858.000000;3.145629
2857.000000;3.216025
2856.000000;3.300164
2855.000000;3.497215
2854.000000;3.312565
2853.000000;3.068641
2852.000000;2.996585
2851.000000;3.050397
2850.000000;3.212788
2849.000000;3.618267
2848.000000;3.642533
2847.000000;3.143161
2846.000000;3.000068
2845.000000;3.022958
2844.000000;3.180451
2843.000000;3.292128
2842.000000;3.428471
2841.000000;3.605567
2840.000000;3.159808
2839.000000;2.944086
2838.000000;2.972111
2837.000000;3.020805
2836.000000;2.889950
2835.000000;2.794258
2834.000000;2.830331
2833.000000;2.950307
2832.000000;3.099149
2831.000000;3.185941
2830.000000;3.216739
2829.000000;3.251563
2828.000000;3.229868
2827.000000;3.180139
2826.000000;3.183625
2825.000000;3.195271
2824.000000;3.144161
2823.000000;3.069117
2822.000000;3.060415
2821.000000;3.106947
2820.000000;3.021825
2819.000000;2.874291
2818.000000;2.827021
2817.000000;2.898202
2816.000000;3.043299
2815.000000;3.102679
2814.000000;3.083021
2813.000000;3.152176
2812.000000;3.316303
2811.000000;3.397975
2810.000000;3.373591
2809.000000;3.277358
2808.000000;3.079534
2807.000000;2.940832
2806.000000;2.904399
2805.000000;2.950535
2804.000000;3.040634
2803.000000;3.146017
2802.000000;3.350779
2801.000000;3.702263
2800.000000;3.339686
2799.000000;3.342337
2798.000000;4.069200
2797.000000;3.258593
2796.000000;2.982520
2795.000000;2.990736
2794.000000;3.178526
2793.000000;3.459329
2792.000000;3.460477
2791.000000;3.460152
2790.000000;3.509267
2789.000000;3.586081
2788.000000;3.604728
2787.000000;3.568882
2786.000000;3.557689
2785.000000;3.523600
2784.000000;3.304677
2783.000000;3.111224
2782.000000;3.037189
2781.000000;3.057980
2780.000000;3.187297
2779.000000;3.427307
2778.000000;3.643111
2777.000000;3.537063
2776.000000;3.396216
2775.000000;3.332068
2774.000000;3.314775
2773.000000;3.344979
2772.000000;3.306642
2771.000000;3.137359
2770.000000;3.204470
2769.000000;3.452364
2768.000000;3.145242
2767.000000;2.987807
2766.000000;3.038821
2765.000000;3.172177
2764.000000;3.345637
2763.000000;3.767036
2762.000000;3.745075
2761.000000;3.287417
2760.000000;3.314255
2759.000000;3.499097
2758.000000;3.202495
2757.000000;2.947646
2756.000000;2.894887
2755.000000;2.997278
2754.000000;3.392113
2753.000000;3.568674
2752.000000;3.248083
2751.000000;3.210153
2750.000000;3.191226
2749.000000;3.121522
2748.000000;3.125592
2747.000000;3.099274
2746.000000;2.922370
2745.000000;2.855385
2744.000000;2.942407
2743.000000;3.218676
2742.000000;3.834665
2741.000000;3.453885
2740.000000;3.098018
2739.000000;2.979462
2738.000000;3.014089
2737.000000;3.124625
2736.000000;3.094552
2735.000000;3.097649
2734.000000;3.597116
2733.000000;3.990920
2732.000000;3.302948
2731.000000;3.267890
2730.000000;3.217759
2729.000000;3.168512
2728.000000;3.266754
2727.000000;3.332632
2726.000000;3.188156
2725.000000;3.076617
2724.000000;3.035027
2723.000000;3.009231
2722.000000;3.029018
2721.000000;3.180638
2720.000000;3.328989
2719.000000;3.064326
2718.000000;2.891389
2717.000000;2.867567
2716.000000;2.912594
2715.000000;2.942330
2714.000000;2.945875
2713.000000;2.996707
2712.000000;3.361639
2711.000000;3.557050
2710.000000;2.986103
2709.000000;2.882195
2708.000000;2.937352
2707.000000;3.123070
2706.000000;3.677727
2705.000000;3.439092
2704.000000;3.014074
2703.000000;2.850429
2702.000000;2.777858
2701.000000;2.804031
2700.000000;2.921211
2699.000000;3.008215
2698.000000;3.001789
2697.000000;2.999103
2696.000000;3.139962
2695.000000;3.237615
2694.000000;2.975102
2693.000000;2.816187
2692.000000;2.807836
2691.000000;2.941786
2690.000000;3.415959
2689.000000;3.388179
2688.000000;3.042933
2687.000000;2.983868
2686.000000;3.297224
2685.000000;3.943769
2684.000000;3.118105
2683.000000;2.975889
2682.000000;3.048974
2681.000000;3.255004
2680.000000;3.364171
2679.000000;3.182289
2678.000000;3.157630
2677.000000;3.131874
2676.000000;3.079046
2675.000000;3.059704
2674.000000;3.113834
2673.000000;3.302281
2672.000000;3.595376
2671.000000;3.295599
2670.000000;3.024643
2669.000000;2.922382
2668.000000;2.901561
2667.000000;2.965286
2666.000000;3.077175
2665.000000;3.106899
2664.000000;3.164536
2663.000000;3.398153
2662.000000;3.333251
2661.000000;3.187970
2660.000000;3.335599
2659.000000;3.588660
2658.000000;3.614137
2657.000000;3.740182
2656.000000;3.643661
2655.000000;3.372905
2654.000000;3.223622
2653.000000;3.131153
2652.000000;3.116645
2651.000000;3.150777
2650.000000;3.154966
2649.000000;3.149597
2648.000000;3.225278
2647.000000;3.378671
2646.000000;3.520137
2645.000000;3.447650
2644.000000;3.220641
2643.000000;3.091852
2642.000000;3.045851
2641.000000;2.999458
2640.000000;2.962177
2639.000000;2.988404
2638.000000;3.089706
2637.000000;3.186928
2636.000000;3.202690
2635.000000;3.155102
2634.000000;3.094605
2633.000000;3.089088
2632.000000;3.180980
2631.000000;3.310201
2630.000000;3.500620
2629.000000;3.768598
2628.000000;3.635539
2627.000000;3.426416
2626.000000;3.319280
2625.000000;3.212506
2624.000000;3.274571
2623.000000;3.887585
2622.000000;3.837878
2621.000000;3.343288
2620.000000;3.316753
2619.000000;3.572472
2618.000000;3.717062
2617.000000;3.217568
2616.000000;3.014521
2615.000000;2.988160
2614.000000;3.063580
2613.000000;3.181841
2612.000000;3.110994
2611.000000;3.000317
2610.000000;2.998268
2609.000000;3.113028
2608.000000;3.318078
2607.000000;3.512740
2606.000000;3.439220
2605.000000;3.149089
2604.000000;2.958721
2603.000000;2.904414
2602.000000;2.982636
2601.000000;3.318541
2600.000000;3.379454
2599.000000;3.053127
2598.000000;3.040245
2597.000000;3.234341
2596.000000;3.780147
2595.000000;4.528799
2594.000000;3.638083
2593.000000;3.283598
2592.000000;3.091823
2591.000000;3.023699
2590.000000;3.027989
2589.000000;3.092442
2588.000000;3.180418
2587.000000;3.265184
2586.000000;3.360883
2585.000000;3.667797
2584.000000;3.784981
2583.000000;3.295808
2582.000000;3.114760
2581.000000;3.090472
2580.000000;3.175737
2579.000000;3.302703
2578.000000;3.168400
2577.000000;2.967274
2576.000000;2.859083
2575.000000;2.832783
2574.000000;2.879210
2573.000000;2.996262
2572.000000;3.162159
2571.000000;3.282316
2570.000000;3.314656
2569.000000;3.335990
2568.000000;3.336093
2567.000000;3.256534
2566.000000;3.129754
2565.000000;3.034041
2564.000000;2.996216
2563.000000;3.100287
2562.000000;3.156825
2561.000000;2.957828
2560.000000;2.870759
2559.000000;2.976838
2558.000000;3.161573
2557.000000;3.113434
2556.000000;3.009339
2555.000000;3.055225
2554.000000;3.237211
2553.000000;3.652635
2552.000000;4.208948
2551.000000;3.544855
2550.000000;3.211549
2549.000000;3.097816
2548.000000;3.130207
2547.000000;3.291294
2546.000000;3.694970
2545.000000;3.941958
2544.000000;3.589699
2543.000000;3.657551
2542.000000;3.450826
2541.000000;3.174946
2540.000000;3.141906
2539.000000;3.363219
2538.000000;3.784352
2537.000000;3.438380
2536.000000;3.096850
2535.000000;2.928784
2534.000000;2.863098
2533.000000;2.863060
2532.000000;2.898488
2531.000000;3.007289
2530.000000;3.219339
2529.000000;3.389937
2528.000000;3.342562
2527.000000;3.299061
2526.000000;3.301442
2525.000000;3.223575
2524.000000;3.077586
2523.000000;2.980618
2522.000000;2.999217
2521.000000;3.181942
2520.000000;3.578329
2519.000000;3.773552
2518.000000;3.314333
2517.000000;2.943390
2516.000000;2.766052
2515.000000;2.736145
2514.000000;2.844235
2513.000000;3.095320
2512.000000;3.042457
2511.000000;2.810683
2510.000000;2.710475
2509.000000;2.708554
2508.000000;2.809882
2507.000000;3.097985
2506.000000;3.532685
2505.000000;3.261044
2504.000000;3.135620
2503.000000;3.205527
2502.000000;3.304647
2501.000000;3.429156
2500.000000;3.647895
2499.000000;3.638301
2498.000000;3.209200
2497.000000;3.007790
2496.000000;2.965198
2495.000000;3.014823
2494.000000;3.445601
2493.000000;3.461680
2492.000000;2.907347
2491.000000;2.829807
2490.000000;2.941645
2489.000000;3.367224
2488.000000;3.775146
2487.000000;3.271090
2486.000000;3.076500
2485.000000;2.990832
2484.000000;3.034320
2483.000000;3.262105
2482.000000;3.607643
2481.000000;3.791161
2480.000000;3.962176
2479.000000;3.437190
2478.000000;3.186320
2477.000000;3.128452
2476.000000;3.064737
2475.000000;2.990053
2474.000000;2.983802
2473.000000;3.140133
2472.000000;3.357287
2471.000000;3.289679
2470.000000;3.321592
2469.000000;3.596147
2468.000000;3.556218
2467.000000;3.310602
2466.000000;3.309163
2465.000000;3.450556
2464.000000;3.427347
2463.000000;3.502593
2462.000000;3.775147
2461.000000;3.659132
2460.000000;3.421734
2459.000000;3.111339
2458.000000;2.896418
2457.000000;2.860086
2456.000000;2.968692
2455.000000;3.258865
2454.000000;3.739286
2453.000000;4.071243
2452.000000;4.309579
2451.000000;3.608639
2450.000000;3.289853
2449.000000;3.371889
2448.000000;3.635396
2447.000000;3.151065
2446.000000;2.956515
2445.000000;2.981970
2444.000000;3.053315
2443.000000;3.064366
2442.000000;3.150423
2441.000000;3.180699
2440.000000;2.944031
2439.000000;2.797781
2438.000000;2.767059
2437.000000;2.823455
2436.000000;2.978256
2435.000000;3.303074
2434.000000;3.321481
2433.000000;3.096210
2432.000000;3.120546
2431.000000;3.281095
2430.000000;3.380962
2429.000000;3.297111
2428.000000;3.159523
2427.000000;3.007214
2426.000000;2.930985
2425.000000;2.993476
2424.000000;3.306739
2423.000000;3.624487
2422.000000;3.567103
2421.000000;4.018696
2420.000000;3.364269
2419.000000;3.098831
2418.000000;3.087695
2417.000000;3.235758
2416.000000;3.543513
2415.000000;3.622437
2414.000000;3.497852
2413.000000;3.336961
2412.000000;3.156338
2411.000000;3.008254
2410.000000;2.922442
2409.000000;2.898803
2408.000000;2.945603
2407.000000;3.306759
2406.000000;3.485873
2405.000000;3.047052
2404.000000;2.962404
2403.000000;3.096419
2402.000000;3.216486
2401.000000;3.089801
2400.000000;3.015665
2399.000000;3.151949
2398.000000;3.662687
2397.000000;3.342440
2396.000000;3.099486
2395.000000;3.122016
2394.000000;3.262407
2393.000000;3.240481
2392.000000;3.019464
2391.000000;2.918776
2390.000000;2.933837
2389.000000;3.036648
2388.000000;3.151935
2387.000000;3.199817
2386.000000;3.244007
2385.000000;3.297442
2384.000000;3.231615
2383.000000;3.146031
2382.000000;3.231260
2381.000000;3.444752
2380.000000;3.794518
2379.000000;3.554385
2378.000000;2.958594
2377.000000;2.678172
2376.000000;2.575733
2375.000000;2.571164
2374.000000;2.581232
2373.000000;2.588349
2372.000000;2.644103
2371.000000;2.742699
2370.000000;2.687641
2369.000000;2.656587
2368.000000;2.655481
2367.000000;2.992580
2366.000000;2.998072
2365.000000;2.861194
2364.000000;2.848664
2363.000000;2.823539
2362.000000;2.880343
2361.000000;2.989964
2360.000000;3.128519
2359.000000;3.147351
2358.000000;3.063017
2357.000000;3.091655
2356.000000;3.297210
2355.000000;3.615064
2354.000000;3.594743
2353.000000;3.365379
2352.000000;3.218224
2351.000000;3.180410
2350.000000;3.312458
2349.000000;3.684014
2348.000000;3.701840
2347.000000;3.355997
2346.000000;3.149623
2345.000000;3.096476
2344.000000;3.182477
2343.000000;3.164705
2342.000000;3.084155
2341.000000;3.150270
2340.000000;3.228736
2339.000000;3.143996
2338.000000;3.082853
2337.000000;3.105648
2336.000000;3.207146
2335.000000;3.199081
2334.000000;3.124170
2333.000000;3.007138
2332.000000;3.052015
2331.000000;2.590832
2330.000000;2.495462
2329.000000;2.501171
2328.000000;2.546454
2327.000000;2.668783
2326.000000;2.799368
2325.000000;2.845151
2324.000000;2.881905
2323.000000;3.024255
2322.000000;3.346208
2321.000000;3.838161
2320.000000;3.370448
2319.000000;3.172071
2318.000000;3.167777
2317.000000;3.199405
2316.000000;3.269827
2315.000000;3.355253
2314.000000;3.530551
2313.000000;3.569774
2312.000000;3.355450
2311.000000;3.350661
2310.000000;3.190580
2309.000000;2.958522
2308.000000;2.924380
2307.000000;3.060621
2306.000000;3.203425
2305.000000;3.108581
2304.000000;3.069266
2303.000000;3.164921
2302.000000;3.475415
2301.000000;3.759351
2300.000000;3.371376
2299.000000;3.147467
2298.000000;3.103405
2297.000000;3.198615
2296.000000;3.393052
2295.000000;3.584624
2294.000000;3.773392
2293.000000;3.907131
2292.000000;3.694780
2291.000000;3.401399
2290.000000;3.178570
2289.000000;3.009543
2288.000000;2.897872
2287.000000;2.892989
2286.000000;3.033821
2285.000000;3.356317
2284.000000;3.688042
2283.000000;3.587735
2282.000000;3.400614
2281.000000;3.147560
2280.000000;2.966805
2279.000000;2.868185
2278.000000;2.835262
2277.000000;2.841452
2276.000000;2.856232
2275.000000;2.872021
2274.000000;2.911836
2273.000000;2.999838
2272.000000;3.116201
2271.000000;3.121855
2270.000000;3.007194
2269.000000;2.930184
2268.000000;2.945874
2267.000000;3.043370
2266.000000;3.075117
2265.000000;3.000558
2264.000000;2.971273
2263.000000;3.013441
2262.000000;3.104178
2261.000000;3.218028
2260.000000;3.270544
2259.000000;3.251886
2258.000000;3.280471
2257.000000;3.329573
2256.000000;3.281536
2255.000000;3.143536
2254.000000;3.013875
2253.000000;2.990618
2252.000000;3.111176
2251.000000;3.520967
2250.000000;3.557129
2249.000000;3.147095
2248.000000;3.154926
2247.000000;3.246313
2246.000000;3.152110
2245.000000;3.081526
2244.000000;3.090452
2243.000000;2.979149
2242.000000;2.863850
2241.000000;2.845976
2240.000000;2.941671
2239.000000;3.167464
2238.000000;3.373882
2237.000000;3.477218
2236.000000;3.515550
2235.000000;3.175099
2234.000000;3.032561
2233.000000;3.072184
2232.000000;3.224319
2231.000000;3.365854
2230.000000;3.283374
2229.000000;3.151853
2228.000000;3.131086
2227.000000;3.200990
2226.000000;3.291950
2225.000000;3.290502
2224.000000;3.189998
2223.000000;3.069593
2222.000000;2.927970
2221.000000;2.809443
2220.000000;2.771211
2219.000000;2.827721
2218.000000;2.956414
2217.000000;3.062632
2216.000000;3.046014
2215.000000;2.977454
2214.000000;2.941747
2213.000000;2.935475
2212.000000;2.900679
2211.000000;2.841520
2210.000000;2.790646
2209.000000;2.763535
2208.000000;2.792497
2207.000000;2.903790
2206.000000;3.073070
2205.000000;3.099116
2204.000000;3.003523
2203.000000;2.972785
2202.000000;3.031378
2201.000000;3.233769
2200.000000;3.552772
2199.000000;3.298101
2198.000000;3.096051
2197.000000;3.104385
2196.000000;3.280811
2195.000000;3.732000
2194.000000;3.959821
2193.000000;3.413701
2192.000000;3.165205
2191.000000;3.051907
2190.000000;3.035477
2189.000000;3.092410
2188.000000;3.184680
2187.000000;3.228001
2186.000000;3.214941
2185.000000;3.516742
2184.000000;3.507781
2183.000000;3.064245
2182.000000;2.991980
2181.000000;3.218079
2180.000000;3.776135
2179.000000;3.181140
2178.000000;3.082111
2177.000000;3.157219
2176.000000;3.289404
2175.000000;3.247701
2174.000000;3.130730
2173.000000;3.038541
2172.000000;2.986392
2171.000000;2.984856
2170.000000;3.042001
2169.000000;3.177185
2168.000000;3.354321
2167.000000;3.335447
2166.000000;3.223928
2165.000000;3.149812
2164.000000;3.088033
2163.000000;3.098624
2162.000000;3.172765
2161.000000;3.153983
2160.000000;3.033375
2159.000000;2.933846
2158.000000;2.875784
2157.000000;2.855980
2156.000000;2.884310
2155.000000;2.980134
2154.000000;3.140153
2153.000000;3.177713
2152.000000;3.031032
2151.000000;2.894040
2150.000000;2.801397
2149.000000;2.756488
2148.000000;2.758005
2147.000000;2.797264
2146.000000;2.852609
2145.000000;2.912395
2144.000000;3.000692
2143.000000;3.178626
2142.000000;3.455991
2141.000000;3.490955
2140.000000;3.494767
2139.000000;3.620762
2138.000000;3.367020
2137.000000;3.140363
2136.000000;3.079008
2135.000000;3.160498
2134.000000;3.324248
2133.000000;3.312808
2132.000000;3.194190
2131.000000;3.086199
2130.000000;3.001624
2129.000000;2.959537
2128.000000;2.944634
2127.000000;2.948931
2126.000000;2.989010
2125.000000;3.065937
2124.000000;3.134003
2123.000000;3.152614
2122.000000;3.176714
2121.000000;3.264042
2120.000000;3.288989
2119.000000;3.170629
2118.000000;3.066489
2117.000000;3.021454
2116.000000;3.024055
2115.000000;3.019334
2114.000000;3.029947
2113.000000;3.122903
2112.000000;3.264842
2111.000000;3.304897
2110.000000;3.260907
2109.000000;3.202516
2108.000000;3.187389
2107.000000;3.256468
2106.000000;3.312772
2105.000000;3.321878
2104.000000;3.271597
2103.000000;3.189973
2102.000000;3.165747
2101.000000;3.196969
2100.000000;3.256103
2099.000000;3.338907
2098.000000;3.457763
2097.000000;3.550463
2096.000000;3.434475
2095.000000;3.243849
2094.000000;3.125271
2093.000000;3.163556
2092.000000;3.378052
2091.000000;3.454464
2090.000000;3.768741
2089.000000;4.142054
2088.000000;3.343404
2087.000000;3.278582
2086.000000;3.497848
2085.000000;3.742444
2084.000000;3.307975
2083.000000;3.141667
2082.000000;3.125735
2081.000000;3.192226
2080.000000;3.292432
2079.000000;3.284639
2078.000000;3.029997
2077.000000;2.862571
2076.000000;2.849675
2075.000000;2.957244
2074.000000;3.133931
2073.000000;3.468455
2072.000000;3.629277
2071.000000;3.298391
2070.000000;3.191645
2069.000000;3.043915
2068.000000;2.991757
2067.000000;3.085638
2066.000000;3.330586
2065.000000;3.554648
2064.000000;3.180490
2063.000000;2.955045
2062.000000;2.956135
2061.000000;3.177023
2060.000000;3.200249
2059.000000;3.036131
2058.000000;3.095862
2057.000000;3.246398
2056.000000;3.294839
2055.000000;3.207833
2054.000000;3.210591
2053.000000;3.348729
2052.000000;3.869962
2051.000000;3.635730
2050.000000;3.333946
2049.000000;3.213604
2048.000000;3.123403
2047.000000;3.090429
2046.000000;3.126422
2045.000000;3.260335
2044.000000;3.675156
2043.000000;3.456385
2042.000000;3.116506
2041.000000;3.041771
2040.000000;3.080480
2039.000000;3.159200
2038.000000;3.322414
2037.000000;3.475693
2036.000000;3.463938
2035.000000;3.466032
2034.000000;3.256549
2033.000000;3.063899
2032.000000;2.971080
2031.000000;2.949184
2030.000000;2.974991
2029.000000;3.024171
2028.000000;3.098929
2027.000000;3.183684
2026.000000;3.496745
2025.000000;3.493529
2024.000000;3.123534
2023.000000;3.000493
2022.000000;3.056433
2021.000000;3.245294
2020.000000;3.176744
2019.000000;3.080920
2018.000000;3.217578
2017.000000;4.065218
2016.000000;3.271689
2015.000000;3.055146
2014.000000;3.004226
2013.000000;3.009926
2012.000000;3.045794
2011.000000;3.158447
2010.000000;3.281958
2009.000000;3.389356
2008.000000;3.513067
2007.000000;3.137071
2006.000000;2.918246
2005.000000;2.926246
2004.000000;2.987317
2003.000000;2.973899
2002.000000;2.922460
2001.000000;2.896086
2000.000000;2.920263
1999.000000;2.954014
1998.000000;2.992719
1997.000000;3.126712
1996.000000;3.330322
1995.000000;3.215407
1994.000000;3.103292
1993.000000;3.148857
1992.000000;3.356433
1991.000000;3.921900
1990.000000;3.420846
1989.000000;3.144945
1988.000000;3.056657
1987.000000;3.038029
1986.000000;3.037327
1985.000000;3.054425
1984.000000;3.099863
1983.000000;3.170638
1982.000000;3.249289
1981.000000;3.284097
1980.000000;3.224124
1979.000000;3.116096
1978.000000;3.057941
1977.000000;3.097105
1976.000000;3.245831
1975.000000;3.367324
1974.000000;3.328620
1973.000000;3.352641
1972.000000;3.425484
1971.000000;3.280409
1970.000000;3.129809
1969.000000;3.104623
1968.000000;3.216871
1967.000000;3.480579
1966.000000;3.371362
1965.000000;3.172204
1964.000000;3.074907
1963.000000;3.005332
1962.000000;2.949908
1961.000000;2.907541
1960.000000;2.903492
1959.000000;2.960556
1958.000000;3.068312
1957.000000;3.184139
1956.000000;3.288111
1955.000000;3.471418
1954.000000;3.864710
1953.000000;3.697237
1952.000000;3.365954
1951.000000;3.282057
1950.000000;3.303489
1949.000000;3.438447
1948.000000;3.774185
1947.000000;4.124792
1946.000000;3.954556
1945.000000;3.594837
1944.000000;3.317507
1943.000000;3.174834
1942.000000;3.121719
1941.000000;3.127109
1940.000000;3.152074
1939.000000;3.122625
1938.000000;3.014483
1937.000000;2.898183
1936.000000;2.831248
1935.000000;2.830998
1934.000000;2.870739
1933.000000;2.910900
1932.000000;3.069961
1931.000000;3.292805
1930.000000;3.071814
1929.000000;2.995446
1928.000000;3.121468
1927.000000;3.285437
1926.000000;3.331255
1925.000000;3.340545
1924.000000;3.276487
1923.000000;3.181330
1922.000000;3.151779
1921.000000;3.218427
1920.000000;3.380225
1919.000000;3.778800
1918.000000;3.551098
1917.000000;3.180030
1916.000000;3.026427
1915.000000;2.984320
1914.000000;3.037842
1913.000000;3.199025
1912.000000;3.495698
1911.000000;3.544945
1910.000000;3.347598
1909.000000;3.174723
1908.000000;3.103950
1907.000000;3.198475
1906.000000;3.320634
1905.000000;3.325830
1904.000000;3.401016
1903.000000;3.322373
1902.000000;3.093260
1901.000000;2.949425
1900.000000;2.948572
1899.000000;3.087903
1898.000000;3.229019
1897.000000;3.261686
1896.000000;3.228690
1895.000000;3.085985
1894.000000;2.942597
1893.000000;2.877263
1892.000000;2.892279
1891.000000;2.962217
1890.000000;3.013938
1889.000000;3.036443
1888.000000;3.076978
1887.000000;3.241363
1886.000000;3.883263
1885.000000;3.540318
1884.000000;3.278237
1883.000000;3.302195
1882.000000;3.382314
1881.000000;3.302683
1880.000000;3.256004
1879.000000;3.447213
1878.000000;3.702194
1877.000000;3.575053
1876.000000;3.344039
1875.000000;3.088467
1874.000000;3.021893
1873.000000;3.187634
1872.000000;3.615758
1871.000000;3.605722
1870.000000;3.437958
1869.000000;3.274379
1868.000000;3.121581
1867.000000;3.149027
1866.000000;3.138609
1865.000000;3.120846
1864.000000;3.295742
1863.000000;3.925807
1862.000000;3.466401
1861.000000;3.155037
1860.000000;3.092898
1859.000000;3.274056
1858.000000;3.643618
1857.000000;2.946231
1856.000000;2.696936
1855.000000;2.668962
1854.000000;2.771251
1853.000000;3.008702
1852.000000;3.352320
1851.000000;3.101126
1850.000000;2.847270
1849.000000;2.813860
1848.000000;2.905565
1847.000000;3.145014
1846.000000;3.455019
1845.000000;3.454492
1844.000000;3.299720
1843.000000;3.139836
1842.000000;3.221523
1841.000000;3.305185
1840.000000;3.054123
1839.000000;2.968813
1838.000000;3.050349
1837.000000;3.529989
1836.000000;3.455814
1835.000000;3.017649
1834.000000;2.910903
1833.000000;2.943777
1832.000000;3.101432
1831.000000;3.398196
1830.000000;3.533417
1829.000000;3.368586
1828.000000;3.530033
1827.000000;3.565452
1826.000000;3.133510
1825.000000;2.999729
1824.000000;2.973657
1823.000000;3.025844
1822.000000;3.294162
1821.000000;3.799133
1820.000000;3.656790
1819.000000;3.301755
1818.000000;3.026240
1817.000000;2.900895
1816.000000;2.896945
1815.000000;2.969756
1814.000000;3.086751
1813.000000;3.218530
1812.000000;3.343624
1811.000000;3.232879
1810.000000;2.976219
1809.000000;2.793603
1808.000000;2.708853
1807.000000;2.711069
1806.000000;2.786948
1805.000000;2.926622
1804.000000;3.161050
1803.000000;3.450727
1802.000000;3.538538
1801.000000;3.680983
1800.000000;3.692809
1799.000000;3.413563
1798.000000;3.244533
1797.000000;3.205873
1796.000000;3.327592
1795.000000;3.482732
1794.000000;3.360013
1793.000000;3.170023
1792.000000;3.047831
1791.000000;2.991197
1790.000000;3.041368
1789.000000;3.171161
1788.000000;3.101545
1787.000000;2.936463
1786.000000;2.844476
1785.000000;2.782806
1784.000000;2.751935
1783.000000;2.784143
1782.000000;2.891503
1781.000000;3.058894
1780.000000;3.218419
1779.000000;3.186285
1778.000000;3.147117
1777.000000;3.222580
1776.000000;3.279042
1775.000000;3.330546
1774.000000;3.337973
1773.000000;3.247803
1772.000000;3.204680
1771.000000;3.228057
1770.000000;3.272875
1769.000000;3.428719
1768.000000;3.401321
1767.000000;3.063635
1766.000000;2.946487
1765.000000;3.096469
1764.000000;3.374237
1763.000000;3.241781
1762.000000;3.084378
1761.000000;3.066863
1760.000000;2.976256
1759.000000;2.837562
1758.000000;2.805590
1757.000000;2.893710
1756.000000;3.063845
1755.000000;3.130233
1754.000000;3.041857
1753.000000;3.012138
1752.000000;3.040797
1751.000000;3.060618
1750.000000;3.023540
1749.000000;2.989900
1748.000000;3.060061
1747.000000;3.346956
1746.000000;3.542860
1745.000000;3.218897
1744.000000;3.062071
1743.000000;3.002871
1742.000000;3.043910
1741.000000;3.219350
1740.000000;3.483670
1739.000000;3.722527
1738.000000;3.807361
1737.000000;3.825119
1736.000000;3.776791
1735.000000;3.568041
1734.000000;3.315954
1733.000000;3.067120
1732.000000;2.918106
1731.000000;2.925628
1730.000000;3.120585
1729.000000;3.683163
1728.000000;3.924181
1727.000000;3.618194
1726.000000;3.635139
1725.000000;3.780689
1724.000000;4.084867
1723.000000;3.883719
1722.000000;3.679905
1721.000000;3.346999
1720.000000;3.106432
1719.000000;3.021430
1718.000000;3.006925
1717.000000;3.000136
1716.000000;3.008048
1715.000000;3.040421
1714.000000;3.080191
1713.000000;3.292818
1712.000000;3.554567
1711.000000;3.294824
1710.000000;3.272651
1709.000000;3.827680
1708.000000;3.951561
1707.000000;3.421365
1706.000000;3.425799
1705.000000;3.666243
1704.000000;3.722792
1703.000000;3.396830
1702.000000;3.349999
1701.000000;3.547740
1700.000000;3.675549
1699.000000;3.988691
1698.000000;3.704289
1697.000000;3.258468
1696.000000;3.139976
1695.000000;3.121093
1694.000000;3.103156
1693.000000;3.131288
1692.000000;3.296254
1691.000000;3.390355
1690.000000;3.204135
1689.000000;3.138372
1688.000000;3.235173
1687.000000;3.219202
1686.000000;3.105831
1685.000000;3.174586
1684.000000;3.507983
1683.000000;3.885114
1682.000000;3.282423
1681.000000;3.186501
1680.000000;3.513445
1679.000000;3.354357
1678.000000;3.130698
1677.000000;3.048542
1676.000000;3.033412
1675.000000;3.084856
1674.000000;3.140017
1673.000000;3.147762
1672.000000;3.116009
1671.000000;3.085571
1670.000000;3.065454
1669.000000;3.015930
1668.000000;2.941042
1667.000000;2.912737
1666.000000;3.003405
1665.000000;3.284293
1664.000000;3.849231
1663.000000;3.867729
1662.000000;3.573299
1661.000000;3.669554
1660.000000;3.584167
1659.000000;3.306877
1658.000000;3.345112
1657.000000;3.332015
1656.000000;3.097507
1655.000000;3.025590
1654.000000;3.213276
1653.000000;3.642341
1652.000000;3.498156
1651.000000;3.224190
1650.000000;3.147164
1649.000000;3.127567
1648.000000;3.304117
1647.000000;3.592551
1646.000000;3.245524
1645.000000;3.037811
1644.000000;2.994331
1643.000000;3.030072
1642.000000;3.093355
1641.000000;3.097757
1640.000000;3.077118
1639.000000;3.044293
1638.000000;3.001058
1637.000000;2.992422
1636.000000;3.040594
1635.000000;3.084116
1634.000000;3.058876
1633.000000;3.054397
1632.000000;3.190468
1631.000000;3.356032
1630.000000;3.312734
1629.000000;3.228331
1628.000000;3.168825
1627.000000;3.148895
1626.000000;3.200745
1625.000000;3.194775
1624.000000;3.040985
1623.000000;2.905570
1622.000000;2.867508
1621.000000;2.940803
1620.000000;3.128953
1619.000000;3.254220
1618.000000;3.176833
1617.000000;3.115307
1616.000000;3.063185
1615.000000;2.974323
1614.000000;2.904223
1613.000000;2.940689
1612.000000;3.021057
1611.000000;2.967820
1610.000000;2.900757
1609.000000;2.870648
1608.000000;2.843296
1607.000000;2.843596
1606.000000;2.911195
1605.000000;3.135984
1604.000000;3.255390
1603.000000;3.033512
1602.000000;2.909153
1601.000000;2.857442
1600.000000;2.824471
1599.000000;2.813254
1598.000000;2.797549
1597.000000;2.810870
1596.000000;2.888328
1595.000000;3.111707
1594.000000;3.728880
1593.000000;3.736680
1592.000000;3.400503
1591.000000;3.273515
1590.000000;3.037243
1589.000000;2.881636
1588.000000;2.863376
1587.000000;2.954922
1586.000000;3.044100
1585.000000;3.091889
1584.000000;3.195795
1583.000000;3.577791
1582.000000;3.837733
1581.000000;3.399206
1580.000000;3.380012
1579.000000;3.398497
1578.000000;3.278855
1577.000000;3.259505
1576.000000;3.368085
1575.000000;3.509976
1574.000000;3.461216
1573.000000;3.298400
1572.000000;3.185884
1571.000000;3.192508
1570.000000;3.287201
1569.000000;3.300885
1568.000000;3.257150
1567.000000;3.361648
1566.000000;3.437479
1565.000000;3.298163
1564.000000;3.217234
1563.000000;3.219618
1562.000000;3.300130
1561.000000;3.463396
1560.000000;3.592225
1559.000000;3.589278
1558.000000;3.572305
1557.000000;3.539135
1556.000000;3.474854
1555.000000;3.424992
1554.000000;3.387660
1553.000000;3.453271
1552.000000;3.415915
1551.000000;3.223192
1550.000000;3.149433
1549.000000;3.231903
1548.000000;3.645449
1547.000000;4.158467
1546.000000;3.599574
1545.000000;3.356823
1544.000000;3.245759
1543.000000;3.309742
1542.000000;3.530425
1541.000000;3.714935
1540.000000;3.794154
1539.000000;3.850623
1538.000000;3.723924
1537.000000;3.460726
1536.000000;3.330409
1535.000000;3.420163
1534.000000;3.662291
1533.000000;3.528635
1532.000000;3.281537
1531.000000;3.469444
1530.000000;3.527275
1529.000000;3.138522
1528.000000;3.083530
1527.000000;3.120314
1526.000000;3.038416
1525.000000;2.924451
1524.000000;2.940940
1523.000000;3.185682
1522.000000;3.556898
1521.000000;3.662199
1520.000000;4.008687
1519.000000;3.632087
1518.000000;3.166163
1517.000000;2.996085
1516.000000;2.905200
1515.000000;2.915261
1514.000000;3.168997
1513.000000;3.374497
1512.000000;3.367824
1511.000000;3.584797
1510.000000;3.192568
1509.000000;2.928208
1508.000000;3.043881
1507.000000;3.537284
1506.000000;3.392463
1505.000000;3.167570
1504.000000;3.158063
1503.000000;3.137926
1502.000000;3.140408
1501.000000;3.226167
1500.000000;3.402132
1499.000000;3.364662
1498.000000;3.296793
1497.000000;3.396909
1496.000000;3.465437
1495.000000;3.372797
1494.000000;3.278150
1493.000000;3.036727
1492.000000;2.866624
1491.000000;2.821202
1490.000000;2.898961
1489.000000;3.473263
1488.000000;3.447605
1487.000000;3.084100
1486.000000;3.115058
1485.000000;3.149604
1484.000000;3.238014
1483.000000;3.242149
1482.000000;3.223270
1481.000000;3.336631
1480.000000;3.536987
1479.000000;3.260642
1478.000000;3.060417
1477.000000;3.063006
1476.000000;3.119049
1475.000000;3.116807
1474.000000;3.144496
1473.000000;3.499579
1472.000000;3.764861
1471.000000;3.197592
1470.000000;3.038646
1469.000000;3.038465
1468.000000;3.079437
1467.000000;3.093638
1466.000000;3.064974
1465.000000;3.061696
1464.000000;3.090645
1463.000000;3.145827
1462.000000;3.253160
1461.000000;3.368546
1460.000000;3.284455
1459.000000;3.183215
1458.000000;3.275056
1457.000000;3.360055
1456.000000;3.417532
1455.000000;4.045665
1454.000000;3.318138
1453.000000;3.243498
1452.000000;3.432073
1451.000000;3.135251
1450.000000;2.990675
1449.000000;2.927970
1448.000000;2.905248
1447.000000;2.918727
1446.000000;3.054655
1445.000000;3.327240
1444.000000;3.240370
1443.000000;3.065586
1442.000000;3.050795
1441.000000;3.117178
1440.000000;3.359833
1439.000000;3.622424
1438.000000;3.402369
1437.000000;3.228139
1436.000000;3.121594
1435.000000;3.105468
1434.000000;3.229541
1433.000000;3.326049
1432.000000;3.259118
1431.000000;3.132198
1430.000000;2.993787
1429.000000;2.867836
1428.000000;2.797633
1427.000000;2.824729
1426.000000;2.947709
1425.000000;3.104859
1424.000000;3.138056
1423.000000;3.187515
1422.000000;3.567964
1421.000000;3.368817
1420.000000;2.975486
1419.000000;2.836119
1418.000000;2.798796
1417.000000;2.934710
1416.000000;3.311661
1415.000000;3.754170
1414.000000;3.463894
1413.000000;3.175245
1412.000000;3.035750
1411.000000;2.972533
1410.000000;2.983165
1409.000000;3.092233
1408.000000;3.513596
1407.000000;3.687498
1406.000000;3.468817
1405.000000;3.726591
1404.000000;3.274251
1403.000000;2.993498
1402.000000;2.938199
1401.000000;2.927181
1400.000000;2.930360
1399.000000;2.951470
1398.000000;3.038758
1397.000000;3.212216
1396.000000;3.584003
1395.000000;4.048965
1394.000000;3.783639
1393.000000;4.041583
1392.000000;3.801880
1391.000000;3.353554
1390.000000;3.113292
1389.000000;2.905908
1388.000000;2.733592
1387.000000;2.611841
1386.000000;2.586081
1385.000000;2.711721
1384.000000;2.997249
1383.000000;3.490955
1382.000000;3.745184
1381.000000;3.248046
1380.000000;3.083099
1379.000000;3.202845
1378.000000;3.467237
1377.000000;3.278955
1376.000000;3.118156
1375.000000;3.104286
1374.000000;3.212518
1373.000000;3.452750
1372.000000;3.594976
1371.000000;3.833429
1370.000000;3.242180
1369.000000;2.885968
1368.000000;2.734989
1367.000000;2.700709
1366.000000;2.765908
1365.000000;2.890973
1364.000000;3.222380
1363.000000;3.385392
1362.000000;2.916667
1361.000000;2.919033
1360.000000;3.227618
1359.000000;3.315699
1358.000000;3.243445
1357.000000;3.492086
1356.000000;3.959638
1355.000000;3.658523
1354.000000;3.339831
1353.000000;3.105377
1352.000000;2.965921
1351.000000;2.964605
1350.000000;3.063186
1349.000000;3.037500
1348.000000;2.948113
1347.000000;2.968799
1346.000000;3.081211
1345.000000;3.154575
1344.000000;3.381773
1343.000000;3.752843
1342.000000;3.168468
1341.000000;3.020151
1340.000000;3.120524
1339.000000;3.298724
1338.000000;3.075724
1337.000000;2.928850
1336.000000;2.938150
1335.000000;3.044084
1334.000000;3.269861
1333.000000;3.616889
1332.000000;3.614941
1331.000000;3.335821
1330.000000;3.239939
1329.000000;3.323405
1328.000000;3.822959
1327.000000;3.832841
1326.000000;3.382653
1325.000000;3.254429
1324.000000;3.177754
1323.000000;3.216791
1322.000000;3.560155
1321.000000;3.422838
1320.000000;3.175835
1319.000000;3.150663
1318.000000;3.136098
1317.000000;3.045714
1316.000000;2.945961
1315.000000;2.903905
1314.000000;2.905829
1313.000000;2.915653
1312.000000;2.974020
1311.000000;3.288257
1310.000000;3.646326
1309.000000;3.570712
1308.000000;3.465967
1307.000000;2.917987
1306.000000;2.663602
1305.000000;2.577953
1304.000000;2.622105
1303.000000;2.806024
1302.000000;3.007707
1301.000000;2.989755
1300.000000;3.059300
1299.000000;3.811663
1298.000000;3.365515
1297.000000;3.095496
1296.000000;3.120099
1295.000000;3.247965
1294.000000;4.017410
1293.000000;3.132367
1292.000000;2.865103
1291.000000;2.816031
1290.000000;2.830227
1289.000000;2.875965
1288.000000;2.923618
1287.000000;2.970044
1286.000000;3.011866
1285.000000;3.064096
1284.000000;3.126837
1283.000000;3.200998
1282.000000;3.302424
1281.000000;3.647060
1280.000000;4.111538
1279.000000;3.670733
1278.000000;3.370039
1277.000000;3.159429
1276.000000;3.131338
1275.000000;3.318157
1274.000000;3.734762
1273.000000;3.480775
1272.000000;3.181061
1271.000000;3.084507
1270.000000;3.130939
1269.000000;3.393539
1268.000000;4.189218
1267.000000;4.154025
1266.000000;3.896605
1265.000000;3.781709
1264.000000;3.670642
1263.000000;3.357159
1262.000000;3.087982
1261.000000;2.932544
1260.000000;2.882470
1259.000000;2.938505
1258.000000;3.174434
1257.000000;3.569962
1256.000000;3.356367
1255.000000;3.205426
1254.000000;3.252325
1253.000000;3.397575
1252.000000;3.338916
1251.000000;3.130141
1250.000000;3.040708
1249.000000;3.053180
1248.000000;3.126677
1247.000000;3.186447
1246.000000;3.188434
1245.000000;3.181322
1244.000000;3.246303
1243.000000;3.197256
1242.000000;2.982834
1241.000000;2.877305
1240.000000;2.917763
1239.000000;3.108016
1238.000000;3.599196
1237.000000;3.619725
1236.000000;3.425911
1235.000000;3.533552
1234.000000;3.139748
1233.000000;2.895042
1232.000000;2.823986
1231.000000;2.866759
1230.000000;2.999681
1229.000000;3.194157
1228.000000;3.317381
1227.000000;3.244725
1226.000000;3.174021
1225.000000;3.242588
1224.000000;3.677514
1223.000000;3.980168
1222.000000;3.596668
1221.000000;3.414545
1220.000000;3.291287
1219.000000;3.311402
1218.000000;3.774417
1217.000000;3.313719
1216.000000;2.969241
1215.000000;2.900366
1214.000000;2.972279
1213.000000;3.129811
1212.000000;3.164711
1211.000000;3.098280
1210.000000;3.057900
1209.000000;3.037646
1208.000000;3.054419
1207.000000;3.161452
1206.000000;3.541403
1205.000000;3.843704
1204.000000;3.185516
1203.000000;3.031358
1202.000000;3.133521
1201.000000;3.472586
1200.000000;3.198931
