Criado como novo conjunto de dados;"e0108.spp","-4246902.8 Secs"
cm-1;Abs
10000.000000;1.017064
9999.000000;1.014971
9998.000000;1.012888
9997.000000;1.010814
9996.000000;1.008751
9995.000000;1.006696
9994.000000;1.004653
9993.000000;1.002616
9992.000000;1.000595
9991.000000;0.998571
9990.000000;0.996582
9989.000000;0.994521
9988.000000;0.992604
9987.000000;0.991375
9986.000000;0.991170
9985.000000;0.991893
9984.000000;0.992950
9983.000000;0.993786
9982.000000;0.994268
9981.000000;0.994524
9980.000000;0.994525
9979.000000;0.994029
9978.000000;0.993015
9977.000000;0.991998
9976.000000;0.991717
9975.000000;0.992408
9974.000000;0.993484
9973.000000;0.994105
9972.000000;0.994027
9971.000000;0.993727
9970.000000;0.993663
9969.000000;0.993664
9968.000000;0.993251
9967.000000;0.992360
9966.000000;0.991436
9965.000000;0.990814
9964.000000;0.990252
9963.000000;0.989235
9962.000000;0.987720
9961.000000;0.986387
9960.000000;0.985968
9959.000000;0.986304
9958.000000;0.986358
9957.000000;0.985449
9956.000000;0.984296
9955.000000;0.984378
9954.000000;0.986207
9953.000000;0.988598
9952.000000;0.989786
9951.000000;0.988977
9950.000000;0.986656
9949.000000;0.983835
9948.000000;0.981447
9947.000000;0.980100
9946.000000;0.979805
9945.000000;0.979988
9944.000000;0.980157
9943.000000;0.980502
9942.000000;0.981433
9941.000000;0.982637
9940.000000;0.983130
9939.000000;0.982378
9938.000000;0.980877
9937.000000;0.979424
9936.000000;0.978259
9935.000000;0.977210
9934.000000;0.976304
9933.000000;0.975727
9932.000000;0.975387
9931.000000;0.974958
9930.000000;0.974425
9929.000000;0.974188
9928.000000;0.974484
9927.000000;0.974962
9926.000000;0.975041
9925.000000;0.974570
9924.000000;0.973932
9923.000000;0.973485
9922.000000;0.973056
9921.000000;0.972133
9920.000000;0.970590
9919.000000;0.969132
9918.000000;0.968834
9917.000000;0.970101
9916.000000;0.972060
9915.000000;0.973196
9914.000000;0.972756
9913.000000;0.971448
9912.000000;0.970604
9911.000000;0.970797
9910.000000;0.971488
9909.000000;0.971898
9908.000000;0.971797
9907.000000;0.971270
9906.000000;0.970184
9905.000000;0.968414
9904.000000;0.966447
9903.000000;0.965171
9902.000000;0.964889
9901.000000;0.964898
9900.000000;0.964279
9899.000000;0.962866
9898.000000;0.961256
9897.000000;0.960192
9896.000000;0.960139
9895.000000;0.961152
9894.000000;0.962789
9893.000000;0.964310
9892.000000;0.965261
9891.000000;0.965748
9890.000000;0.965936
9889.000000;0.965573
9888.000000;0.964421
9887.000000;0.962941
9886.000000;0.961962
9885.000000;0.961709
9884.000000;0.961632
9883.000000;0.961232
9882.000000;0.960562
9881.000000;0.959782
9880.000000;0.958787
9879.000000;0.957621
9878.000000;0.956773
9877.000000;0.956583
9876.000000;0.956648
9875.000000;0.956312
9874.000000;0.955677
9873.000000;0.955581
9872.000000;0.956495
9871.000000;0.957810
9870.000000;0.958404
9869.000000;0.957700
9868.000000;0.956027
9867.000000;0.954190
9866.000000;0.952893
9865.000000;0.952443
9864.000000;0.952706
9863.000000;0.953287
9862.000000;0.953826
9861.000000;0.954148
9860.000000;0.954126
9859.000000;0.953565
9858.000000;0.952398
9857.000000;0.951027
9856.000000;0.950250
9855.000000;0.950639
9854.000000;0.951917
9853.000000;0.953098
9852.000000;0.953340
9851.000000;0.952640
9850.000000;0.951629
9849.000000;0.950797
9848.000000;0.950118
9847.000000;0.949355
9846.000000;0.948430
9845.000000;0.947421
9844.000000;0.946460
9843.000000;0.945770
9842.000000;0.945561
9841.000000;0.945695
9840.000000;0.945659
9839.000000;0.945178
9838.000000;0.944664
9837.000000;0.944689
9836.000000;0.945098
9835.000000;0.945118
9834.000000;0.944421
9833.000000;0.943540
9832.000000;0.943010
9831.000000;0.942569
9830.000000;0.941614
9829.000000;0.940134
9828.000000;0.938705
9827.000000;0.937779
9826.000000;0.937513
9825.000000;0.938138
9824.000000;0.939786
9823.000000;0.941791
9822.000000;0.942749
9821.000000;0.941750
9820.000000;0.939291
9819.000000;0.936657
9818.000000;0.934736
9817.000000;0.933764
9816.000000;0.933769
9815.000000;0.934656
9814.000000;0.935895
9813.000000;0.936682
9812.000000;0.936626
9811.000000;0.936052
9810.000000;0.935530
9809.000000;0.935339
9808.000000;0.935394
9807.000000;0.935472
9806.000000;0.935390
9805.000000;0.935147
9804.000000;0.934978
9803.000000;0.935095
9802.000000;0.935330
9801.000000;0.935271
9800.000000;0.934777
9799.000000;0.934057
9798.000000;0.933137
9797.000000;0.931653
9796.000000;0.929534
9795.000000;0.927633
9794.000000;0.927149
9793.000000;0.928325
9792.000000;0.930056
9791.000000;0.930971
9790.000000;0.930786
9789.000000;0.930418
9788.000000;0.930846
9787.000000;0.932072
9786.000000;0.933265
9785.000000;0.933735
9784.000000;0.933530
9783.000000;0.933056
9782.000000;0.932406
9781.000000;0.931329
9780.000000;0.929743
9779.000000;0.927954
9778.000000;0.926312
9777.000000;0.924962
9776.000000;0.924049
9775.000000;0.923862
9774.000000;0.924529
9773.000000;0.925695
9772.000000;0.926779
9771.000000;0.927462
9770.000000;0.927715
9769.000000;0.927468
9768.000000;0.926521
9767.000000;0.924849
9766.000000;0.922789
9765.000000;0.920866
9764.000000;0.919540
9763.000000;0.919072
9762.000000;0.919449
9761.000000;0.920341
9760.000000;0.921238
9759.000000;0.921742
9758.000000;0.921752
9757.000000;0.921412
9756.000000;0.920967
9755.000000;0.920624
9754.000000;0.920438
9753.000000;0.920319
9752.000000;0.920162
9751.000000;0.919895
9750.000000;0.919370
9749.000000;0.918381
9748.000000;0.916982
9747.000000;0.915707
9746.000000;0.915205
9745.000000;0.915610
9744.000000;0.916446
9743.000000;0.917168
9742.000000;0.917611
9741.000000;0.917861
9740.000000;0.917936
9739.000000;0.917795
9738.000000;0.917498
9737.000000;0.917111
9736.000000;0.916559
9735.000000;0.915818
9734.000000;0.915196
9733.000000;0.915130
9732.000000;0.915578
9731.000000;0.915844
9730.000000;0.915236
9729.000000;0.913863
9728.000000;0.912541
9727.000000;0.911930
9726.000000;0.911982
9725.000000;0.912253
9724.000000;0.912492
9723.000000;0.912682
9722.000000;0.912629
9721.000000;0.911854
9720.000000;0.910057
9719.000000;0.907553
9718.000000;0.905183
9717.000000;0.903845
9716.000000;0.904032
9715.000000;0.905541
9714.000000;0.907454
9713.000000;0.908677
9712.000000;0.908828
9711.000000;0.908524
9710.000000;0.908570
9709.000000;0.909020
9708.000000;0.909283
9707.000000;0.909003
9706.000000;0.908409
9705.000000;0.907803
9704.000000;0.907151
9703.000000;0.906306
9702.000000;0.905338
9701.000000;0.904450
9700.000000;0.903783
9699.000000;0.903453
9698.000000;0.903529
9697.000000;0.903802
9696.000000;0.903845
9695.000000;0.903555
9694.000000;0.903384
9693.000000;0.903663
9692.000000;0.903927
9691.000000;0.903412
9690.000000;0.902149
9689.000000;0.901049
9688.000000;0.900732
9687.000000;0.900689
9686.000000;0.899930
9685.000000;0.898204
9684.000000;0.896286
9683.000000;0.895239
9682.000000;0.895658
9681.000000;0.897368
9680.000000;0.899392
9679.000000;0.900307
9678.000000;0.899261
9677.000000;0.896934
9676.000000;0.895144
9675.000000;0.895135
9674.000000;0.896332
9673.000000;0.896974
9672.000000;0.895968
9671.000000;0.893898
9670.000000;0.892171
9669.000000;0.891484
9668.000000;0.891351
9667.000000;0.890955
9666.000000;0.890191
9665.000000;0.889770
9664.000000;0.890409
9663.000000;0.892029
9662.000000;0.893729
9661.000000;0.894545
9660.000000;0.894234
9659.000000;0.893287
9658.000000;0.892295
9657.000000;0.891493
9656.000000;0.890909
9655.000000;0.890622
9654.000000;0.890641
9653.000000;0.890738
9652.000000;0.890738
9651.000000;0.890853
9650.000000;0.891348
9649.000000;0.891918
9648.000000;0.891806
9647.000000;0.890688
9646.000000;0.889100
9645.000000;0.887814
9644.000000;0.887104
9643.000000;0.886824
9642.000000;0.886808
9641.000000;0.886862
9640.000000;0.886669
9639.000000;0.886137
9638.000000;0.885651
9637.000000;0.885581
9636.000000;0.885701
9635.000000;0.885540
9634.000000;0.885171
9633.000000;0.885071
9632.000000;0.885252
9631.000000;0.885151
9630.000000;0.884533
9629.000000;0.883892
9628.000000;0.883663
9627.000000;0.883589
9626.000000;0.883207
9625.000000;0.882524
9624.000000;0.881779
9623.000000;0.880972
9622.000000;0.880126
9621.000000;0.879708
9620.000000;0.880184
9619.000000;0.881277
9618.000000;0.882199
9617.000000;0.882566
9616.000000;0.882642
9615.000000;0.882718
9614.000000;0.882699
9613.000000;0.882315
9612.000000;0.881345
9611.000000;0.879634
9610.000000;0.877358
9609.000000;0.875281
9608.000000;0.874256
9607.000000;0.874349
9606.000000;0.874882
9605.000000;0.875463
9604.000000;0.876491
9603.000000;0.878370
9602.000000;0.880602
9601.000000;0.882013
9600.000000;0.881782
9599.000000;0.880091
9598.000000;0.877982
9597.000000;0.876672
9596.000000;0.876698
9595.000000;0.877467
9594.000000;0.877868
9593.000000;0.877472
9592.000000;0.876826
9591.000000;0.876437
9590.000000;0.876002
9589.000000;0.875031
9588.000000;0.873737
9587.000000;0.872785
9586.000000;0.872382
9585.000000;0.872156
9584.000000;0.871816
9583.000000;0.871417
9582.000000;0.871043
9581.000000;0.870742
9580.000000;0.870750
9579.000000;0.871269
9578.000000;0.871956
9577.000000;0.872078
9576.000000;0.871310
9575.000000;0.870019
9574.000000;0.868711
9573.000000;0.867619
9572.000000;0.866874
9571.000000;0.866576
9570.000000;0.866490
9569.000000;0.866108
9568.000000;0.865274
9567.000000;0.864462
9566.000000;0.864164
9565.000000;0.864317
9564.000000;0.864602
9563.000000;0.865010
9562.000000;0.865713
9561.000000;0.866565
9560.000000;0.867079
9559.000000;0.866886
9558.000000;0.865983
9557.000000;0.864654
9556.000000;0.863376
9555.000000;0.862709
9554.000000;0.862948
9553.000000;0.863839
9552.000000;0.864803
9551.000000;0.865429
9550.000000;0.865608
9549.000000;0.865348
9548.000000;0.864728
9547.000000;0.864015
9546.000000;0.863526
9545.000000;0.863268
9544.000000;0.862896
9543.000000;0.862099
9542.000000;0.860919
9541.000000;0.859680
9540.000000;0.858762
9539.000000;0.858492
9538.000000;0.859033
9537.000000;0.860193
9536.000000;0.861369
9535.000000;0.861879
9534.000000;0.861475
9533.000000;0.860507
9532.000000;0.859547
9531.000000;0.858872
9530.000000;0.858313
9529.000000;0.857595
9528.000000;0.856721
9527.000000;0.855960
9526.000000;0.855523
9525.000000;0.855421
9524.000000;0.855548
9523.000000;0.855702
9522.000000;0.855550
9521.000000;0.854861
9520.000000;0.853926
9519.000000;0.853504
9518.000000;0.854072
9517.000000;0.855193
9516.000000;0.855891
9515.000000;0.855656
9514.000000;0.854891
9513.000000;0.854372
9512.000000;0.854456
9511.000000;0.854869
9510.000000;0.855102
9509.000000;0.854900
9508.000000;0.854421
9507.000000;0.854015
9506.000000;0.853876
9505.000000;0.853916
9504.000000;0.853933
9503.000000;0.853815
9502.000000;0.853560
9501.000000;0.853238
9500.000000;0.852992
9499.000000;0.852948
9498.000000;0.852947
9497.000000;0.852513
9496.000000;0.851354
9495.000000;0.849868
9494.000000;0.848856
9493.000000;0.848658
9492.000000;0.848803
9491.000000;0.848668
9490.000000;0.848287
9489.000000;0.848225
9488.000000;0.848710
9487.000000;0.849209
9486.000000;0.849015
9485.000000;0.848113
9484.000000;0.847243
9483.000000;0.847113
9482.000000;0.847679
9481.000000;0.848258
9480.000000;0.848232
9479.000000;0.847554
9478.000000;0.846622
9477.000000;0.845840
9476.000000;0.845383
9475.000000;0.845256
9474.000000;0.845393
9473.000000;0.845624
9472.000000;0.845622
9471.000000;0.845054
9470.000000;0.843947
9469.000000;0.842883
9468.000000;0.842652
9467.000000;0.843545
9466.000000;0.844967
9465.000000;0.845897
9464.000000;0.845757
9463.000000;0.844744
9462.000000;0.843395
9461.000000;0.842053
9460.000000;0.840865
9459.000000;0.840033
9458.000000;0.839816
9457.000000;0.840265
9456.000000;0.841106
9455.000000;0.841922
9454.000000;0.842414
9453.000000;0.842543
9452.000000;0.842437
9451.000000;0.842191
9450.000000;0.841717
9449.000000;0.840878
9448.000000;0.839738
9447.000000;0.838608
9446.000000;0.837787
9445.000000;0.837376
9444.000000;0.837349
9443.000000;0.837616
9442.000000;0.837926
9441.000000;0.837899
9440.000000;0.837412
9439.000000;0.836871
9438.000000;0.836835
9437.000000;0.837352
9436.000000;0.837833
9435.000000;0.837640
9434.000000;0.836667
9433.000000;0.835386
9432.000000;0.834482
9431.000000;0.834444
9430.000000;0.835240
9429.000000;0.836273
9428.000000;0.836787
9427.000000;0.836528
9426.000000;0.835953
9425.000000;0.835666
9424.000000;0.835755
9423.000000;0.835816
9422.000000;0.835504
9421.000000;0.834861
9420.000000;0.834105
9419.000000;0.833344
9418.000000;0.832642
9417.000000;0.832195
9416.000000;0.832215
9415.000000;0.832623
9414.000000;0.833000
9413.000000;0.832920
9412.000000;0.832284
9411.000000;0.831299
9410.000000;0.830256
9409.000000;0.829427
9408.000000;0.829058
9407.000000;0.829253
9406.000000;0.829778
9405.000000;0.830128
9404.000000;0.829942
9403.000000;0.829336
9402.000000;0.828776
9401.000000;0.828612
9400.000000;0.828761
9399.000000;0.828849
9398.000000;0.828659
9397.000000;0.828387
9396.000000;0.828359
9395.000000;0.828522
9394.000000;0.828402
9393.000000;0.827710
9392.000000;0.826846
9391.000000;0.826541
9390.000000;0.827027
9389.000000;0.827781
9388.000000;0.828091
9387.000000;0.827682
9386.000000;0.826787
9385.000000;0.825831
9384.000000;0.825180
9383.000000;0.824992
9382.000000;0.825132
9381.000000;0.825281
9380.000000;0.825206
9379.000000;0.824862
9378.000000;0.824305
9377.000000;0.823719
9376.000000;0.823480
9375.000000;0.823824
9374.000000;0.824358
9373.000000;0.824295
9372.000000;0.823424
9371.000000;0.822508
9370.000000;0.822391
9369.000000;0.822999
9368.000000;0.823569
9367.000000;0.823602
9366.000000;0.823171
9365.000000;0.822494
9364.000000;0.821741
9363.000000;0.821245
9362.000000;0.821355
9361.000000;0.821913
9360.000000;0.822263
9359.000000;0.821935
9358.000000;0.821050
9357.000000;0.819956
9356.000000;0.818836
9355.000000;0.817913
9354.000000;0.817674
9353.000000;0.818497
9352.000000;0.820076
9351.000000;0.821475
9350.000000;0.821799
9349.000000;0.820828
9348.000000;0.819102
9347.000000;0.817492
9346.000000;0.816602
9345.000000;0.816446
9344.000000;0.816632
9343.000000;0.816792
9342.000000;0.816769
9341.000000;0.816510
9340.000000;0.816018
9339.000000;0.815433
9338.000000;0.814999
9337.000000;0.814890
9336.000000;0.815135
9335.000000;0.815673
9334.000000;0.816343
9333.000000;0.816898
9332.000000;0.817197
9331.000000;0.817327
9330.000000;0.817350
9329.000000;0.817059
9328.000000;0.816257
9327.000000;0.815215
9326.000000;0.814449
9325.000000;0.814054
9324.000000;0.813675
9323.000000;0.813186
9322.000000;0.812908
9321.000000;0.813017
9320.000000;0.813240
9319.000000;0.813393
9318.000000;0.813766
9317.000000;0.814538
9316.000000;0.815164
9315.000000;0.814869
9314.000000;0.813586
9313.000000;0.811956
9312.000000;0.810513
9311.000000;0.809362
9310.000000;0.808565
9309.000000;0.808333
9308.000000;0.808688
9307.000000;0.809312
9306.000000;0.809899
9305.000000;0.810411
9304.000000;0.810888
9303.000000;0.811256
9302.000000;0.811429
9301.000000;0.811399
9300.000000;0.811117
9299.000000;0.810505
9298.000000;0.809717
9297.000000;0.809185
9296.000000;0.809202
9295.000000;0.809552
9294.000000;0.809722
9293.000000;0.809458
9292.000000;0.809008
9291.000000;0.808824
9290.000000;0.809098
9289.000000;0.809547
9288.000000;0.809602
9287.000000;0.808887
9286.000000;0.807612
9285.000000;0.806527
9284.000000;0.806409
9283.000000;0.807464
9282.000000;0.809135
9281.000000;0.810479
9280.000000;0.810840
9279.000000;0.810243
9278.000000;0.809180
9277.000000;0.808056
9276.000000;0.806955
9275.000000;0.805918
9274.000000;0.805238
9273.000000;0.805255
9272.000000;0.805911
9271.000000;0.806672
9270.000000;0.806989
9269.000000;0.806785
9268.000000;0.806434
9267.000000;0.806317
9266.000000;0.806446
9265.000000;0.806539
9264.000000;0.806385
9263.000000;0.806056
9262.000000;0.805741
9261.000000;0.805469
9260.000000;0.805116
9259.000000;0.804623
9258.000000;0.804070
9257.000000;0.803543
9256.000000;0.803086
9255.000000;0.802833
9254.000000;0.802989
9253.000000;0.803580
9252.000000;0.804354
9251.000000;0.805009
9250.000000;0.805396
9249.000000;0.805409
9248.000000;0.804894
9247.000000;0.803829
9246.000000;0.802505
9245.000000;0.801340
9244.000000;0.800577
9243.000000;0.800287
9242.000000;0.800516
9241.000000;0.801219
9240.000000;0.802095
9239.000000;0.802722
9238.000000;0.802884
9237.000000;0.802651
9236.000000;0.802170
9235.000000;0.801581
9234.000000;0.801098
9233.000000;0.800948
9232.000000;0.801122
9231.000000;0.801331
9230.000000;0.801283
9229.000000;0.800925
9228.000000;0.800403
9227.000000;0.799891
9226.000000;0.799512
9225.000000;0.799351
9224.000000;0.799441
9223.000000;0.799707
9222.000000;0.799948
9221.000000;0.799924
9220.000000;0.799528
9219.000000;0.798914
9218.000000;0.798352
9217.000000;0.797944
9216.000000;0.797593
9215.000000;0.797334
9214.000000;0.797497
9213.000000;0.798323
9212.000000;0.799441
9211.000000;0.799979
9210.000000;0.799330
9209.000000;0.797775
9208.000000;0.796285
9207.000000;0.795708
9206.000000;0.796096
9205.000000;0.796761
9204.000000;0.797004
9203.000000;0.796783
9202.000000;0.796546
9201.000000;0.796487
9200.000000;0.796263
9199.000000;0.795590
9198.000000;0.794803
9197.000000;0.794514
9196.000000;0.794833
9195.000000;0.795241
9194.000000;0.795201
9193.000000;0.794596
9192.000000;0.793621
9191.000000;0.792606
9190.000000;0.792010
9189.000000;0.792233
9188.000000;0.793183
9187.000000;0.794184
9186.000000;0.794520
9185.000000;0.794074
9184.000000;0.793311
9183.000000;0.792754
9182.000000;0.792565
9181.000000;0.792557
9180.000000;0.792472
9179.000000;0.792221
9178.000000;0.791867
9177.000000;0.791437
9176.000000;0.790867
9175.000000;0.790213
9174.000000;0.789781
9173.000000;0.789853
9172.000000;0.790310
9171.000000;0.790694
9170.000000;0.790647
9169.000000;0.790167
9168.000000;0.789493
9167.000000;0.788943
9166.000000;0.788797
9165.000000;0.789082
9164.000000;0.789451
9163.000000;0.789542
9162.000000;0.789481
9161.000000;0.789747
9160.000000;0.790424
9159.000000;0.790930
9158.000000;0.790708
9157.000000;0.789932
9156.000000;0.789248
9155.000000;0.788979
9154.000000;0.788907
9153.000000;0.788716
9152.000000;0.788351
9151.000000;0.787944
9150.000000;0.787676
9149.000000;0.787762
9148.000000;0.788325
9147.000000;0.789151
9146.000000;0.789715
9145.000000;0.789621
9144.000000;0.789004
9143.000000;0.788413
9142.000000;0.788288
9141.000000;0.788565
9140.000000;0.788764
9139.000000;0.788448
9138.000000;0.787606
9137.000000;0.786630
9136.000000;0.785946
9135.000000;0.785769
9134.000000;0.786100
9133.000000;0.786789
9132.000000;0.787520
9131.000000;0.787905
9130.000000;0.787761
9129.000000;0.787232
9128.000000;0.786578
9127.000000;0.785943
9126.000000;0.785445
9125.000000;0.785323
9124.000000;0.785752
9123.000000;0.786513
9122.000000;0.787072
9121.000000;0.787072
9120.000000;0.786634
9119.000000;0.786135
9118.000000;0.785870
9117.000000;0.785963
9116.000000;0.786406
9115.000000;0.786980
9114.000000;0.787243
9113.000000;0.786800
9112.000000;0.785684
9111.000000;0.784364
9110.000000;0.783344
9109.000000;0.782760
9108.000000;0.782361
9107.000000;0.781817
9106.000000;0.781047
9105.000000;0.780300
9104.000000;0.779978
9103.000000;0.780324
9102.000000;0.781224
9101.000000;0.782278
9100.000000;0.783075
9099.000000;0.783406
9098.000000;0.783265
9097.000000;0.782728
9096.000000;0.781956
9095.000000;0.781264
9094.000000;0.781009
9093.000000;0.781293
9092.000000;0.781811
9091.000000;0.782098
9090.000000;0.781963
9089.000000;0.781637
9088.000000;0.781460
9087.000000;0.781477
9086.000000;0.781395
9085.000000;0.780930
9084.000000;0.780153
9083.000000;0.779450
9082.000000;0.779144
9081.000000;0.779221
9080.000000;0.779443
9079.000000;0.779683
9078.000000;0.780040
9077.000000;0.780629
9076.000000;0.781338
9075.000000;0.781836
9074.000000;0.781813
9073.000000;0.781240
9072.000000;0.780406
9071.000000;0.779680
9070.000000;0.779208
9069.000000;0.778857
9068.000000;0.778467
9067.000000;0.778096
9066.000000;0.777905
9065.000000;0.777888
9064.000000;0.777859
9063.000000;0.777713
9062.000000;0.777509
9061.000000;0.777288
9060.000000;0.776996
9059.000000;0.776680
9058.000000;0.776595
9057.000000;0.776966
9056.000000;0.777734
9055.000000;0.778559
9054.000000;0.779002
9053.000000;0.778720
9052.000000;0.777753
9051.000000;0.776700
9050.000000;0.776303
9049.000000;0.776649
9048.000000;0.777033
9047.000000;0.776874
9046.000000;0.776540
9045.000000;0.776863
9044.000000;0.777967
9043.000000;0.779031
9042.000000;0.779222
9041.000000;0.778513
9040.000000;0.777463
9039.000000;0.776557
9038.000000;0.775969
9037.000000;0.775689
9036.000000;0.775629
9035.000000;0.775660
9034.000000;0.775698
9033.000000;0.775709
9032.000000;0.775613
9031.000000;0.775318
9030.000000;0.774867
9029.000000;0.774435
9028.000000;0.774125
9027.000000;0.773883
9026.000000;0.773611
9025.000000;0.773254
9024.000000;0.772859
9023.000000;0.772710
9022.000000;0.773274
9021.000000;0.774642
9020.000000;0.776050
9019.000000;0.776385
9018.000000;0.775380
9017.000000;0.773982
9016.000000;0.773333
9015.000000;0.773671
9014.000000;0.774420
9013.000000;0.775023
9012.000000;0.775316
9011.000000;0.775330
9010.000000;0.775165
9009.000000;0.775035
9008.000000;0.775079
9007.000000;0.775116
9006.000000;0.774859
9005.000000;0.774383
9004.000000;0.774127
9003.000000;0.774377
9002.000000;0.774936
9001.000000;0.775331
9000.000000;0.775202
8999.000000;0.774468
8998.000000;0.773338
8997.000000;0.772249
8996.000000;0.771611
8995.000000;0.771479
8994.000000;0.771585
8993.000000;0.771723
8992.000000;0.771972
8991.000000;0.772439
8990.000000;0.772951
8989.000000;0.773187
8988.000000;0.773083
8987.000000;0.772902
8986.000000;0.772836
8985.000000;0.772705
8984.000000;0.772206
8983.000000;0.771415
8982.000000;0.770827
8981.000000;0.770813
8980.000000;0.771199
8979.000000;0.771517
8978.000000;0.771578
8977.000000;0.771575
8976.000000;0.771656
8975.000000;0.771686
8974.000000;0.771525
8973.000000;0.771325
8972.000000;0.771363
8971.000000;0.771689
8970.000000;0.772108
8969.000000;0.772415
8968.000000;0.772497
8967.000000;0.772293
8966.000000;0.771859
8965.000000;0.771452
8964.000000;0.771328
8963.000000;0.771444
8962.000000;0.771476
8961.000000;0.771195
8960.000000;0.770711
8959.000000;0.770347
8958.000000;0.770350
8957.000000;0.770708
8956.000000;0.771119
8955.000000;0.771134
8954.000000;0.770483
8953.000000;0.769393
8952.000000;0.768495
8951.000000;0.768300
8950.000000;0.768734
8949.000000;0.769196
8948.000000;0.769122
8947.000000;0.768521
8946.000000;0.767951
8945.000000;0.767948
8944.000000;0.768450
8943.000000;0.768851
8942.000000;0.768664
8941.000000;0.768074
8940.000000;0.767723
8939.000000;0.767970
8938.000000;0.768537
8937.000000;0.768906
8936.000000;0.768916
8935.000000;0.768874
8934.000000;0.769155
8933.000000;0.769793
8932.000000;0.770448
8931.000000;0.770713
8930.000000;0.770456
8929.000000;0.769908
8928.000000;0.769461
8927.000000;0.769354
8926.000000;0.769520
8925.000000;0.769733
8924.000000;0.769843
8923.000000;0.769868
8922.000000;0.769863
8921.000000;0.769754
8920.000000;0.769408
8919.000000;0.768869
8918.000000;0.768442
8917.000000;0.768404
8916.000000;0.768643
8915.000000;0.768734
8914.000000;0.768421
8913.000000;0.767911
8912.000000;0.767593
8911.000000;0.767564
8910.000000;0.767601
8909.000000;0.767534
8908.000000;0.767457
8907.000000;0.767553
8906.000000;0.767855
8905.000000;0.768243
8904.000000;0.768545
8903.000000;0.768587
8902.000000;0.768283
8901.000000;0.767803
8900.000000;0.767573
8899.000000;0.767912
8898.000000;0.768670
8897.000000;0.769317
8896.000000;0.769443
8895.000000;0.769096
8894.000000;0.768642
8893.000000;0.768418
8892.000000;0.768518
8891.000000;0.768765
8890.000000;0.768807
8889.000000;0.768366
8888.000000;0.767539
8887.000000;0.766787
8886.000000;0.766533
8885.000000;0.766782
8884.000000;0.767223
8883.000000;0.767619
8882.000000;0.767956
8881.000000;0.768229
8880.000000;0.768293
8879.000000;0.768013
8878.000000;0.767424
8877.000000;0.766705
8876.000000;0.766142
8875.000000;0.766087
8874.000000;0.766724
8873.000000;0.767739
8872.000000;0.768455
8871.000000;0.768503
8870.000000;0.768194
8869.000000;0.768041
8868.000000;0.768103
8867.000000;0.768078
8866.000000;0.767911
8865.000000;0.767907
8864.000000;0.768223
8863.000000;0.768576
8862.000000;0.768569
8861.000000;0.768074
8860.000000;0.767220
8859.000000;0.766277
8858.000000;0.765642
8857.000000;0.765689
8856.000000;0.766397
8855.000000;0.767281
8854.000000;0.767862
8853.000000;0.768125
8852.000000;0.768343
8851.000000;0.768586
8850.000000;0.768617
8849.000000;0.768239
8848.000000;0.767532
8847.000000;0.766788
8846.000000;0.766324
8845.000000;0.766341
8844.000000;0.766773
8843.000000;0.767257
8842.000000;0.767427
8841.000000;0.767299
8840.000000;0.767267
8839.000000;0.767651
8838.000000;0.768328
8837.000000;0.768849
8836.000000;0.768892
8835.000000;0.768554
8834.000000;0.768191
8833.000000;0.768032
8832.000000;0.767988
8831.000000;0.767877
8830.000000;0.767726
8829.000000;0.767758
8828.000000;0.768082
8827.000000;0.768530
8826.000000;0.768855
8825.000000;0.768967
8824.000000;0.768909
8823.000000;0.768703
8822.000000;0.768372
8821.000000;0.768055
8820.000000;0.767971
8819.000000;0.768195
8818.000000;0.768549
8817.000000;0.768772
8816.000000;0.768776
8815.000000;0.768663
8814.000000;0.768527
8813.000000;0.768298
8812.000000;0.767907
8811.000000;0.767578
8810.000000;0.767735
8809.000000;0.768494
8808.000000;0.769354
8807.000000;0.769649
8806.000000;0.769282
8805.000000;0.768782
8804.000000;0.768613
8803.000000;0.768709
8802.000000;0.768797
8801.000000;0.768906
8800.000000;0.769295
8799.000000;0.769984
8798.000000;0.770644
8797.000000;0.770965
8796.000000;0.770947
8795.000000;0.770788
8794.000000;0.770617
8793.000000;0.770427
8792.000000;0.770203
8791.000000;0.770055
8790.000000;0.770165
8789.000000;0.770547
8788.000000;0.770918
8787.000000;0.770938
8786.000000;0.770632
8785.000000;0.770402
8784.000000;0.770541
8783.000000;0.770893
8782.000000;0.771131
8781.000000;0.771246
8780.000000;0.771541
8779.000000;0.772194
8778.000000;0.773013
8777.000000;0.773655
8776.000000;0.773932
8775.000000;0.773887
8774.000000;0.773690
8773.000000;0.773518
8772.000000;0.773460
8771.000000;0.773496
8770.000000;0.773589
8769.000000;0.773728
8768.000000;0.773861
8767.000000;0.773870
8766.000000;0.773720
8765.000000;0.773590
8764.000000;0.773717
8763.000000;0.774110
8762.000000;0.774509
8761.000000;0.774655
8760.000000;0.774533
8759.000000;0.774381
8758.000000;0.774522
8757.000000;0.775130
8756.000000;0.776057
8755.000000;0.776881
8754.000000;0.777233
8753.000000;0.777121
8752.000000;0.776916
8751.000000;0.777043
8750.000000;0.777687
8749.000000;0.778683
8748.000000;0.779580
8747.000000;0.779898
8746.000000;0.779504
8745.000000;0.778744
8744.000000;0.778120
8743.000000;0.777853
8742.000000;0.777839
8741.000000;0.777928
8740.000000;0.778052
8739.000000;0.778135
8738.000000;0.778104
8737.000000;0.778027
8736.000000;0.778113
8735.000000;0.778474
8734.000000;0.779024
8733.000000;0.779638
8732.000000;0.780269
8731.000000;0.780835
8730.000000;0.781155
8729.000000;0.781121
8728.000000;0.780853
8727.000000;0.780562
8726.000000;0.780333
8725.000000;0.780197
8724.000000;0.780357
8723.000000;0.781143
8722.000000;0.782595
8721.000000;0.784162
8720.000000;0.784984
8719.000000;0.784606
8718.000000;0.783443
8717.000000;0.782451
8716.000000;0.782327
8715.000000;0.783025
8714.000000;0.783975
8713.000000;0.784644
8712.000000;0.784856
8711.000000;0.784736
8710.000000;0.784532
8709.000000;0.784425
8708.000000;0.784370
8707.000000;0.784120
8706.000000;0.783535
8705.000000;0.782857
8704.000000;0.782566
8703.000000;0.782947
8702.000000;0.783898
8701.000000;0.785092
8700.000000;0.786166
8699.000000;0.786789
8698.000000;0.786764
8697.000000;0.786193
8696.000000;0.785420
8695.000000;0.784738
8694.000000;0.784244
8693.000000;0.784009
8692.000000;0.784158
8691.000000;0.784645
8690.000000;0.785133
8689.000000;0.785287
8688.000000;0.785148
8687.000000;0.785048
8686.000000;0.785198
8685.000000;0.785534
8684.000000;0.785930
8683.000000;0.786383
8682.000000;0.786921
8681.000000;0.787448
8680.000000;0.787793
8679.000000;0.787880
8678.000000;0.787796
8677.000000;0.787692
8676.000000;0.787657
8675.000000;0.787692
8674.000000;0.787801
8673.000000;0.788066
8672.000000;0.788554
8671.000000;0.789140
8670.000000;0.789553
8669.000000;0.789673
8668.000000;0.789710
8667.000000;0.789917
8666.000000;0.790186
8665.000000;0.790162
8664.000000;0.789772
8663.000000;0.789435
8662.000000;0.789582
8661.000000;0.790125
8660.000000;0.790620
8659.000000;0.790851
8658.000000;0.790997
8657.000000;0.791189
8656.000000;0.791206
8655.000000;0.790788
8654.000000;0.790089
8653.000000;0.789576
8652.000000;0.789521
8651.000000;0.789768
8650.000000;0.790021
8649.000000;0.790204
8648.000000;0.790461
8647.000000;0.790931
8646.000000;0.791570
8645.000000;0.792148
8644.000000;0.792378
8643.000000;0.792173
8642.000000;0.791805
8641.000000;0.791698
8640.000000;0.792010
8639.000000;0.792476
8638.000000;0.792751
8637.000000;0.792796
8636.000000;0.792812
8635.000000;0.792901
8634.000000;0.792990
8633.000000;0.793043
8632.000000;0.793136
8631.000000;0.793259
8630.000000;0.793182
8629.000000;0.792676
8628.000000;0.791826
8627.000000;0.791044
8626.000000;0.790734
8625.000000;0.790950
8624.000000;0.791383
8623.000000;0.791669
8622.000000;0.791708
8621.000000;0.791689
8620.000000;0.791807
8619.000000;0.792054
8618.000000;0.792304
8617.000000;0.792510
8616.000000;0.792729
8615.000000;0.793012
8614.000000;0.793347
8613.000000;0.793679
8612.000000;0.793884
8611.000000;0.793771
8610.000000;0.793273
8609.000000;0.792637
8608.000000;0.792264
8607.000000;0.792310
8606.000000;0.792578
8605.000000;0.792841
8604.000000;0.793160
8603.000000;0.793720
8602.000000;0.794463
8601.000000;0.795049
8600.000000;0.795180
8599.000000;0.794887
8598.000000;0.794479
8597.000000;0.794237
8596.000000;0.794193
8595.000000;0.794153
8594.000000;0.793957
8593.000000;0.793711
8592.000000;0.793705
8591.000000;0.794079
8590.000000;0.794613
8589.000000;0.794938
8588.000000;0.794936
8587.000000;0.794848
8586.000000;0.794963
8585.000000;0.795255
8584.000000;0.795354
8583.000000;0.794918
8582.000000;0.794049
8581.000000;0.793330
8580.000000;0.793372
8579.000000;0.794248
8578.000000;0.795396
8577.000000;0.796132
8576.000000;0.796221
8575.000000;0.795918
8574.000000;0.795556
8573.000000;0.795295
8572.000000;0.795208
8571.000000;0.795367
8570.000000;0.795695
8569.000000;0.795890
8568.000000;0.795716
8567.000000;0.795333
8566.000000;0.795175
8565.000000;0.795468
8564.000000;0.795983
8563.000000;0.796281
8562.000000;0.796100
8561.000000;0.795490
8560.000000;0.794707
8559.000000;0.794095
8558.000000;0.793957
8557.000000;0.794381
8556.000000;0.795155
8555.000000;0.795913
8554.000000;0.796396
8553.000000;0.796539
8552.000000;0.796399
8551.000000;0.796105
8550.000000;0.795844
8549.000000;0.795776
8548.000000;0.795881
8547.000000;0.795964
8546.000000;0.795858
8545.000000;0.795608
8544.000000;0.795459
8543.000000;0.795657
8542.000000;0.796232
8541.000000;0.796921
8540.000000;0.797312
8539.000000;0.797174
8538.000000;0.796675
8537.000000;0.796214
8536.000000;0.796029
8535.000000;0.796039
8534.000000;0.796073
8533.000000;0.796111
8532.000000;0.796223
8531.000000;0.796401
8530.000000;0.796552
8529.000000;0.796630
8528.000000;0.796649
8527.000000;0.796600
8526.000000;0.796454
8525.000000;0.796256
8524.000000;0.796136
8523.000000;0.796181
8522.000000;0.796324
8521.000000;0.796390
8520.000000;0.796258
8519.000000;0.796022
8518.000000;0.795976
8517.000000;0.796331
8516.000000;0.796894
8515.000000;0.797143
8514.000000;0.796730
8513.000000;0.795888
8512.000000;0.795216
8511.000000;0.795088
8510.000000;0.795381
8509.000000;0.795722
8508.000000;0.795861
8507.000000;0.795783
8506.000000;0.795638
8505.000000;0.795624
8504.000000;0.795806
8503.000000;0.795996
8502.000000;0.795894
8501.000000;0.795452
8500.000000;0.795015
8499.000000;0.795002
8498.000000;0.795493
8497.000000;0.796237
8496.000000;0.796993
8495.000000;0.797699
8494.000000;0.798317
8493.000000;0.798681
8492.000000;0.798627
8491.000000;0.798202
8490.000000;0.797643
8489.000000;0.797169
8488.000000;0.796859
8487.000000;0.796705
8486.000000;0.796702
8485.000000;0.796857
8484.000000;0.797127
8483.000000;0.797407
8482.000000;0.797585
8481.000000;0.797611
8480.000000;0.797507
8479.000000;0.797308
8478.000000;0.797016
8477.000000;0.796636
8476.000000;0.796263
8475.000000;0.796077
8474.000000;0.796194
8473.000000;0.796508
8472.000000;0.796745
8471.000000;0.796735
8470.000000;0.796622
8469.000000;0.796722
8468.000000;0.797152
8467.000000;0.797653
8466.000000;0.797844
8465.000000;0.797629
8464.000000;0.797287
8463.000000;0.797138
8462.000000;0.797201
8461.000000;0.797247
8460.000000;0.797143
8459.000000;0.797031
8458.000000;0.797085
8457.000000;0.797210
8456.000000;0.797129
8455.000000;0.796771
8454.000000;0.796443
8453.000000;0.796502
8452.000000;0.796956
8451.000000;0.797500
8450.000000;0.797895
8449.000000;0.798137
8448.000000;0.798283
8447.000000;0.798302
8446.000000;0.798179
8445.000000;0.798031
8444.000000;0.797967
8443.000000;0.797926
8442.000000;0.797778
8441.000000;0.797561
8440.000000;0.797477
8439.000000;0.797643
8438.000000;0.797943
8437.000000;0.798140
8436.000000;0.798065
8435.000000;0.797721
8434.000000;0.797270
8433.000000;0.796914
8432.000000;0.796728
8431.000000;0.796609
8430.000000;0.796453
8429.000000;0.796337
8428.000000;0.796432
8427.000000;0.796748
8426.000000;0.797109
8425.000000;0.797385
8424.000000;0.797590
8423.000000;0.797735
8422.000000;0.797743
8421.000000;0.797597
8420.000000;0.797443
8419.000000;0.797408
8418.000000;0.797418
8417.000000;0.797325
8416.000000;0.797155
8415.000000;0.797073
8414.000000;0.797168
8413.000000;0.797413
8412.000000;0.797812
8411.000000;0.798389
8410.000000;0.799011
8409.000000;0.799368
8408.000000;0.799245
8407.000000;0.798727
8406.000000;0.798097
8405.000000;0.797613
8404.000000;0.797416
8403.000000;0.797503
8402.000000;0.797709
8401.000000;0.797782
8400.000000;0.797593
8399.000000;0.797265
8398.000000;0.797018
8397.000000;0.796954
8396.000000;0.797048
8395.000000;0.797263
8394.000000;0.797558
8393.000000;0.797835
8392.000000;0.798025
8391.000000;0.798226
8390.000000;0.798604
8389.000000;0.799131
8388.000000;0.799553
8387.000000;0.799658
8386.000000;0.799496
8385.000000;0.799256
8384.000000;0.799059
8383.000000;0.798942
8382.000000;0.798971
8381.000000;0.799208
8380.000000;0.799567
8379.000000;0.799819
8378.000000;0.799813
8377.000000;0.799659
8376.000000;0.799624
8375.000000;0.799837
8374.000000;0.800120
8373.000000;0.800134
8372.000000;0.799735
8371.000000;0.799166
8370.000000;0.798846
8369.000000;0.798966
8368.000000;0.799329
8367.000000;0.799602
8366.000000;0.799641
8365.000000;0.799581
8364.000000;0.799665
8363.000000;0.800035
8362.000000;0.800591
8361.000000;0.801001
8360.000000;0.800929
8359.000000;0.800361
8358.000000;0.799688
8357.000000;0.799374
8356.000000;0.799543
8355.000000;0.799909
8354.000000;0.800073
8353.000000;0.799833
8352.000000;0.799276
8351.000000;0.798712
8350.000000;0.798504
8349.000000;0.798814
8348.000000;0.799443
8347.000000;0.799995
8346.000000;0.800236
8345.000000;0.800243
8344.000000;0.800196
8343.000000;0.800122
8342.000000;0.799944
8341.000000;0.799683
8340.000000;0.799520
8339.000000;0.799651
8338.000000;0.800101
8337.000000;0.800672
8336.000000;0.801061
8335.000000;0.801070
8334.000000;0.800770
8333.000000;0.800418
8332.000000;0.800193
8331.000000;0.800052
8330.000000;0.799881
8329.000000;0.799693
8328.000000;0.799600
8327.000000;0.799642
8326.000000;0.799756
8325.000000;0.799913
8324.000000;0.800163
8323.000000;0.800494
8322.000000;0.800730
8321.000000;0.800673
8320.000000;0.800322
8319.000000;0.799879
8318.000000;0.799552
8317.000000;0.799441
8316.000000;0.799600
8315.000000;0.800082
8314.000000;0.800807
8313.000000;0.801489
8312.000000;0.801846
8311.000000;0.801856
8310.000000;0.801686
8309.000000;0.801369
8308.000000;0.800785
8307.000000;0.800046
8306.000000;0.799649
8305.000000;0.799979
8304.000000;0.800757
8303.000000;0.801245
8302.000000;0.801059
8301.000000;0.800538
8300.000000;0.800261
8299.000000;0.800414
8298.000000;0.800763
8297.000000;0.801040
8296.000000;0.801170
8295.000000;0.801210
8294.000000;0.801257
8293.000000;0.801393
8292.000000;0.801603
8291.000000;0.801759
8290.000000;0.801778
8289.000000;0.801745
8288.000000;0.801774
8287.000000;0.801799
8286.000000;0.801668
8285.000000;0.801389
8284.000000;0.801153
8283.000000;0.801089
8282.000000;0.801160
8281.000000;0.801316
8280.000000;0.801587
8279.000000;0.801937
8278.000000;0.802154
8277.000000;0.802051
8276.000000;0.801722
8275.000000;0.801491
8274.000000;0.801587
8273.000000;0.801937
8272.000000;0.802285
8271.000000;0.802459
8270.000000;0.802473
8269.000000;0.802406
8268.000000;0.802260
8267.000000;0.801983
8266.000000;0.801628
8265.000000;0.801361
8264.000000;0.801310
8263.000000;0.801453
8262.000000;0.801713
8261.000000;0.802052
8260.000000;0.802375
8259.000000;0.802448
8258.000000;0.802121
8257.000000;0.801621
8256.000000;0.801440
8255.000000;0.801803
8254.000000;0.802383
8253.000000;0.802651
8252.000000;0.802415
8251.000000;0.801911
8250.000000;0.801454
8249.000000;0.801161
8248.000000;0.800999
8247.000000;0.800964
8246.000000;0.801127
8245.000000;0.801545
8244.000000;0.802112
8243.000000;0.802509
8242.000000;0.802397
8241.000000;0.801776
8240.000000;0.801142
8239.000000;0.801139
8238.000000;0.801981
8237.000000;0.803257
8236.000000;0.804285
8235.000000;0.804628
8234.000000;0.804287
8233.000000;0.803572
8232.000000;0.802888
8231.000000;0.802564
8230.000000;0.802724
8229.000000;0.803230
8228.000000;0.803778
8227.000000;0.804068
8226.000000;0.803928
8225.000000;0.803381
8224.000000;0.802646
8223.000000;0.802063
8222.000000;0.801906
8221.000000;0.802224
8220.000000;0.802835
8219.000000;0.803455
8218.000000;0.803827
8217.000000;0.803828
8216.000000;0.803540
8215.000000;0.803232
8214.000000;0.803184
8213.000000;0.803479
8212.000000;0.803957
8211.000000;0.804347
8210.000000;0.804432
8209.000000;0.804139
8208.000000;0.803582
8207.000000;0.803026
8206.000000;0.802755
8205.000000;0.802887
8204.000000;0.803336
8203.000000;0.803910
8202.000000;0.804395
8201.000000;0.804567
8200.000000;0.804275
8199.000000;0.803612
8198.000000;0.802949
8197.000000;0.802646
8196.000000;0.802743
8195.000000;0.803026
8194.000000;0.803353
8193.000000;0.803753
8192.000000;0.804163
8191.000000;0.804296
8190.000000;0.803942
8189.000000;0.803310
8188.000000;0.802878
8187.000000;0.802883
8186.000000;0.803118
8185.000000;0.803266
8184.000000;0.803264
8183.000000;0.803258
8182.000000;0.803336
8181.000000;0.803469
8180.000000;0.803644
8179.000000;0.803894
8178.000000;0.804220
8177.000000;0.804583
8176.000000;0.804974
8175.000000;0.805348
8174.000000;0.805519
8173.000000;0.805315
8172.000000;0.804878
8171.000000;0.804623
8170.000000;0.804805
8169.000000;0.805223
8168.000000;0.805503
8167.000000;0.805520
8166.000000;0.805397
8165.000000;0.805183
8164.000000;0.804804
8163.000000;0.804337
8162.000000;0.804092
8161.000000;0.804279
8160.000000;0.804730
8159.000000;0.805094
8158.000000;0.805248
8157.000000;0.805381
8156.000000;0.805683
8155.000000;0.806069
8154.000000;0.806276
8153.000000;0.806166
8152.000000;0.805889
8151.000000;0.805731
8150.000000;0.805822
8149.000000;0.806008
8148.000000;0.806001
8147.000000;0.805659
8146.000000;0.805133
8145.000000;0.804768
8144.000000;0.804852
8143.000000;0.805403
8142.000000;0.806146
8141.000000;0.806728
8140.000000;0.806969
8139.000000;0.806902
8138.000000;0.806601
8137.000000;0.806109
8136.000000;0.805563
8135.000000;0.805249
8134.000000;0.805354
8133.000000;0.805715
8132.000000;0.805984
8131.000000;0.806032
8130.000000;0.806064
8129.000000;0.806302
8128.000000;0.806728
8127.000000;0.807174
8126.000000;0.807523
8125.000000;0.807700
8124.000000;0.807614
8123.000000;0.807261
8122.000000;0.806835
8121.000000;0.806620
8120.000000;0.806748
8119.000000;0.807098
8118.000000;0.807413
8117.000000;0.807492
8116.000000;0.807342
8115.000000;0.807200
8114.000000;0.807338
8113.000000;0.807787
8112.000000;0.808296
8111.000000;0.808594
8110.000000;0.808632
8109.000000;0.808523
8108.000000;0.808366
8107.000000;0.808209
8106.000000;0.808115
8105.000000;0.808126
8104.000000;0.808157
8103.000000;0.808022
8102.000000;0.807618
8101.000000;0.807058
8100.000000;0.806632
8099.000000;0.806620
8098.000000;0.807075
8097.000000;0.807757
8096.000000;0.808315
8095.000000;0.808587
8094.000000;0.808669
8093.000000;0.808715
8092.000000;0.808757
8091.000000;0.808746
8090.000000;0.808632
8089.000000;0.808374
8088.000000;0.807984
8087.000000;0.807627
8086.000000;0.807527
8085.000000;0.807683
8084.000000;0.807838
8083.000000;0.807836
8082.000000;0.807844
8081.000000;0.808074
8080.000000;0.808430
8079.000000;0.808664
8078.000000;0.808765
8077.000000;0.808932
8076.000000;0.809223
8075.000000;0.809471
8074.000000;0.809568
8073.000000;0.809575
8072.000000;0.809531
8071.000000;0.809383
8070.000000;0.809171
8069.000000;0.809066
8068.000000;0.809126
8067.000000;0.809200
8066.000000;0.809170
8065.000000;0.809107
8064.000000;0.809100
8063.000000;0.809093
8062.000000;0.809038
8061.000000;0.809051
8060.000000;0.809277
8059.000000;0.809670
8058.000000;0.810060
8057.000000;0.810351
8056.000000;0.810546
8055.000000;0.810636
8054.000000;0.810591
8053.000000;0.810429
8052.000000;0.810216
8051.000000;0.810026
8050.000000;0.809964
8049.000000;0.810128
8048.000000;0.810472
8047.000000;0.810773
8046.000000;0.810848
8045.000000;0.810749
8044.000000;0.810644
8043.000000;0.810588
8042.000000;0.810510
8041.000000;0.810386
8040.000000;0.810273
8039.000000;0.810186
8038.000000;0.810090
8037.000000;0.810034
8036.000000;0.810178
8035.000000;0.810620
8034.000000;0.811231
8033.000000;0.811709
8032.000000;0.811805
8031.000000;0.811509
8030.000000;0.811053
8029.000000;0.810735
8028.000000;0.810676
8027.000000;0.810756
8026.000000;0.810789
8025.000000;0.810719
8024.000000;0.810608
8023.000000;0.810493
8022.000000;0.810358
8021.000000;0.810232
8020.000000;0.810220
8019.000000;0.810401
8018.000000;0.810741
8017.000000;0.811100
8016.000000;0.811322
8015.000000;0.811322
8014.000000;0.811172
8013.000000;0.811071
8012.000000;0.811187
8011.000000;0.811507
8010.000000;0.811917
8009.000000;0.812380
8008.000000;0.812899
8007.000000;0.813292
8006.000000;0.813175
8005.000000;0.812332
8004.000000;0.811070
8003.000000;0.810052
8002.000000;0.809777
8001.000000;0.810274
8000.000000;0.811223
7999.000000;0.812206
7998.000000;0.812847
7997.000000;0.812945
7996.000000;0.812625
7995.000000;0.812282
7994.000000;0.812217
7993.000000;0.812374
7992.000000;0.812507
7991.000000;0.812555
7990.000000;0.812682
7989.000000;0.812982
7988.000000;0.813333
7987.000000;0.813588
7986.000000;0.813738
7985.000000;0.813800
7984.000000;0.813704
7983.000000;0.813424
7982.000000;0.813124
7981.000000;0.813005
7980.000000;0.813080
7979.000000;0.813206
7978.000000;0.813284
7977.000000;0.813298
7976.000000;0.813249
7975.000000;0.813200
7974.000000;0.813337
7973.000000;0.813770
7972.000000;0.814258
7971.000000;0.814367
7970.000000;0.813969
7969.000000;0.813409
7968.000000;0.813099
7967.000000;0.813100
7966.000000;0.813223
7965.000000;0.813399
7964.000000;0.813725
7963.000000;0.814234
7962.000000;0.814792
7961.000000;0.815248
7960.000000;0.815564
7959.000000;0.815754
7958.000000;0.815788
7957.000000;0.815644
7956.000000;0.815413
7955.000000;0.815267
7954.000000;0.815317
7953.000000;0.815492
7952.000000;0.815592
7951.000000;0.815472
7950.000000;0.815171
7949.000000;0.814867
7948.000000;0.814724
7947.000000;0.814786
7946.000000;0.814985
7945.000000;0.815184
7944.000000;0.815238
7943.000000;0.815093
7942.000000;0.814835
7941.000000;0.814627
7940.000000;0.814582
7939.000000;0.814744
7938.000000;0.815114
7937.000000;0.815608
7936.000000;0.816001
7935.000000;0.816076
7934.000000;0.815869
7933.000000;0.815667
7932.000000;0.815693
7931.000000;0.815862
7930.000000;0.815939
7929.000000;0.815836
7928.000000;0.815678
7927.000000;0.815631
7926.000000;0.815767
7925.000000;0.816075
7924.000000;0.816492
7923.000000;0.816909
7922.000000;0.817214
7921.000000;0.817355
7920.000000;0.817333
7919.000000;0.817178
7918.000000;0.816962
7917.000000;0.816821
7916.000000;0.816878
7915.000000;0.817117
7914.000000;0.817381
7913.000000;0.817522
7912.000000;0.817555
7911.000000;0.817641
7910.000000;0.817893
7909.000000;0.818226
7908.000000;0.818410
7907.000000;0.818316
7906.000000;0.818049
7905.000000;0.817817
7904.000000;0.817691
7903.000000;0.817572
7902.000000;0.817384
7901.000000;0.817218
7900.000000;0.817242
7899.000000;0.817508
7898.000000;0.817883
7897.000000;0.818152
7896.000000;0.818183
7895.000000;0.818057
7894.000000;0.818003
7893.000000;0.818164
7892.000000;0.818410
7891.000000;0.818494
7890.000000;0.818397
7889.000000;0.818396
7888.000000;0.818726
7887.000000;0.819254
7886.000000;0.819610
7885.000000;0.819603
7884.000000;0.819401
7883.000000;0.819313
7882.000000;0.819481
7881.000000;0.819802
7880.000000;0.820063
7879.000000;0.820137
7878.000000;0.820068
7877.000000;0.820002
7876.000000;0.820031
7875.000000;0.820118
7874.000000;0.820179
7873.000000;0.820205
7872.000000;0.820251
7871.000000;0.820336
7870.000000;0.820430
7869.000000;0.820518
7868.000000;0.820635
7867.000000;0.820777
7866.000000;0.820839
7865.000000;0.820706
7864.000000;0.820447
7863.000000;0.820334
7862.000000;0.820598
7861.000000;0.821132
7860.000000;0.821541
7859.000000;0.821542
7858.000000;0.821279
7857.000000;0.821127
7856.000000;0.821253
7855.000000;0.821476
7854.000000;0.821550
7853.000000;0.821439
7852.000000;0.821262
7851.000000;0.821109
7850.000000;0.821020
7849.000000;0.821051
7848.000000;0.821234
7847.000000;0.821495
7846.000000;0.821704
7845.000000;0.821818
7844.000000;0.821930
7843.000000;0.822153
7842.000000;0.822501
7841.000000;0.822890
7840.000000;0.823199
7839.000000;0.823367
7838.000000;0.823407
7837.000000;0.823345
7836.000000;0.823145
7835.000000;0.822775
7834.000000;0.822349
7833.000000;0.822129
7832.000000;0.822303
7831.000000;0.822785
7830.000000;0.823283
7829.000000;0.823572
7828.000000;0.823632
7827.000000;0.823563
7826.000000;0.823443
7825.000000;0.823297
7824.000000;0.823156
7823.000000;0.823081
7822.000000;0.823108
7821.000000;0.823193
7820.000000;0.823271
7819.000000;0.823367
7818.000000;0.823600
7817.000000;0.824000
7816.000000;0.824401
7815.000000;0.824594
7814.000000;0.824584
7813.000000;0.824551
7812.000000;0.824591
7811.000000;0.824634
7810.000000;0.824655
7809.000000;0.824804
7808.000000;0.825187
7807.000000;0.825640
7806.000000;0.825863
7805.000000;0.825740
7804.000000;0.825418
7803.000000;0.825122
7802.000000;0.824996
7801.000000;0.825091
7800.000000;0.825379
7799.000000;0.825754
7798.000000;0.826089
7797.000000;0.826338
7796.000000;0.826514
7795.000000;0.826607
7794.000000;0.826583
7793.000000;0.826486
7792.000000;0.826446
7791.000000;0.826556
7790.000000;0.826777
7789.000000;0.826991
7788.000000;0.827114
7787.000000;0.827152
7786.000000;0.827164
7785.000000;0.827164
7784.000000;0.827086
7783.000000;0.826892
7782.000000;0.826711
7781.000000;0.826781
7780.000000;0.827205
7779.000000;0.827808
7778.000000;0.828316
7777.000000;0.828623
7776.000000;0.828819
7775.000000;0.828993
7774.000000;0.829115
7773.000000;0.829118
7772.000000;0.829005
7771.000000;0.828877
7770.000000;0.828857
7769.000000;0.828999
7768.000000;0.829214
7767.000000;0.829328
7766.000000;0.829267
7765.000000;0.829163
7764.000000;0.829195
7763.000000;0.829367
7762.000000;0.829521
7761.000000;0.829571
7760.000000;0.829603
7759.000000;0.829726
7758.000000;0.829919
7757.000000;0.830074
7756.000000;0.830139
7755.000000;0.830167
7754.000000;0.830245
7753.000000;0.830411
7752.000000;0.830622
7751.000000;0.830797
7750.000000;0.830895
7749.000000;0.830978
7748.000000;0.831165
7747.000000;0.831522
7746.000000;0.831990
7745.000000;0.832427
7744.000000;0.832696
7743.000000;0.832769
7742.000000;0.832747
7741.000000;0.832774
7740.000000;0.832870
7739.000000;0.832929
7738.000000;0.832894
7737.000000;0.832902
7736.000000;0.833122
7735.000000;0.833494
7734.000000;0.833734
7733.000000;0.833663
7732.000000;0.833424
7731.000000;0.833330
7730.000000;0.833556
7729.000000;0.834045
7728.000000;0.834630
7727.000000;0.835144
7726.000000;0.835426
7725.000000;0.835357
7724.000000;0.834979
7723.000000;0.834540
7722.000000;0.834338
7721.000000;0.834475
7720.000000;0.834800
7719.000000;0.835088
7718.000000;0.835257
7717.000000;0.835370
7716.000000;0.835488
7715.000000;0.835596
7714.000000;0.835672
7713.000000;0.835739
7712.000000;0.835818
7711.000000;0.835891
7710.000000;0.835972
7709.000000;0.836161
7708.000000;0.836532
7707.000000;0.837006
7706.000000;0.837375
7705.000000;0.837482
7704.000000;0.837357
7703.000000;0.837195
7702.000000;0.837200
7701.000000;0.837440
7700.000000;0.837802
7699.000000;0.838095
7698.000000;0.838227
7697.000000;0.838253
7696.000000;0.838266
7695.000000;0.838310
7694.000000;0.838396
7693.000000;0.838541
7692.000000;0.838732
7691.000000;0.838920
7690.000000;0.839115
7689.000000;0.839392
7688.000000;0.839729
7687.000000;0.839931
7686.000000;0.839825
7685.000000;0.839513
7684.000000;0.839288
7683.000000;0.839311
7682.000000;0.839495
7681.000000;0.839696
7680.000000;0.839905
7679.000000;0.840187
7678.000000;0.840538
7677.000000;0.840864
7676.000000;0.841077
7675.000000;0.841187
7674.000000;0.841315
7673.000000;0.841604
7672.000000;0.842049
7671.000000;0.842432
7670.000000;0.842521
7669.000000;0.842354
7668.000000;0.842212
7667.000000;0.842310
7666.000000;0.842587
7665.000000;0.842865
7664.000000;0.843098
7663.000000;0.843375
7662.000000;0.843728
7661.000000;0.844051
7660.000000;0.844222
7659.000000;0.844254
7658.000000;0.844295
7657.000000;0.844484
7656.000000;0.844820
7655.000000;0.845179
7654.000000;0.845456
7653.000000;0.845658
7652.000000;0.845832
7651.000000;0.845944
7650.000000;0.845917
7649.000000;0.845781
7648.000000;0.845699
7647.000000;0.845805
7646.000000;0.846072
7645.000000;0.846370
7644.000000;0.846607
7643.000000;0.846789
7642.000000;0.846985
7641.000000;0.847254
7640.000000;0.847574
7639.000000;0.847834
7638.000000;0.847945
7637.000000;0.847962
7636.000000;0.848043
7635.000000;0.848273
7634.000000;0.848602
7633.000000;0.848948
7632.000000;0.849289
7631.000000;0.849596
7630.000000;0.849782
7629.000000;0.849811
7628.000000;0.849799
7627.000000;0.849917
7626.000000;0.850209
7625.000000;0.850562
7624.000000;0.850859
7623.000000;0.851085
7622.000000;0.851307
7621.000000;0.851586
7620.000000;0.851934
7619.000000;0.852305
7618.000000;0.852627
7617.000000;0.852847
7616.000000;0.852962
7615.000000;0.852997
7614.000000;0.853001
7613.000000;0.853067
7612.000000;0.853312
7611.000000;0.853766
7610.000000;0.854311
7609.000000;0.854763
7608.000000;0.855033
7607.000000;0.855181
7606.000000;0.855317
7605.000000;0.855480
7604.000000;0.855616
7603.000000;0.855653
7602.000000;0.855620
7601.000000;0.855675
7600.000000;0.855975
7599.000000;0.856500
7598.000000;0.857030
7597.000000;0.857345
7596.000000;0.857441
7595.000000;0.857525
7594.000000;0.857782
7593.000000;0.858181
7592.000000;0.858509
7591.000000;0.858602
7590.000000;0.858547
7589.000000;0.858650
7588.000000;0.859131
7587.000000;0.859865
7586.000000;0.860475
7585.000000;0.860708
7584.000000;0.860681
7583.000000;0.860706
7582.000000;0.860952
7581.000000;0.861339
7580.000000;0.861723
7579.000000;0.862067
7578.000000;0.862430
7577.000000;0.862847
7576.000000;0.863273
7575.000000;0.863603
7574.000000;0.863748
7573.000000;0.863727
7572.000000;0.863688
7571.000000;0.863806
7570.000000;0.864135
7569.000000;0.864554
7568.000000;0.864869
7567.000000;0.864982
7566.000000;0.864987
7565.000000;0.865111
7564.000000;0.865527
7563.000000;0.866173
7562.000000;0.866805
7561.000000;0.867241
7560.000000;0.867535
7559.000000;0.867866
7558.000000;0.868291
7557.000000;0.868710
7556.000000;0.869029
7555.000000;0.869256
7554.000000;0.869412
7553.000000;0.869470
7552.000000;0.869446
7551.000000;0.869472
7550.000000;0.869697
7549.000000;0.870145
7548.000000;0.870730
7547.000000;0.871370
7546.000000;0.872005
7545.000000;0.872513
7544.000000;0.872741
7543.000000;0.872661
7542.000000;0.872465
7541.000000;0.872433
7540.000000;0.872727
7539.000000;0.873306
7538.000000;0.874007
7537.000000;0.874667
7536.000000;0.875183
7535.000000;0.875514
7534.000000;0.875669
7533.000000;0.875707
7532.000000;0.875755
7531.000000;0.875971
7530.000000;0.876429
7529.000000;0.877016
7528.000000;0.877508
7527.000000;0.877802
7526.000000;0.878028
7525.000000;0.878368
7524.000000;0.878798
7523.000000;0.879131
7522.000000;0.879307
7521.000000;0.879501
7520.000000;0.879866
7519.000000;0.880300
7518.000000;0.880596
7517.000000;0.880769
7516.000000;0.881058
7515.000000;0.881598
7514.000000;0.882216
7513.000000;0.882640
7512.000000;0.882806
7511.000000;0.882894
7510.000000;0.883111
7509.000000;0.883523
7508.000000;0.884042
7507.000000;0.884506
7506.000000;0.884792
7505.000000;0.884932
7504.000000;0.885102
7503.000000;0.885448
7502.000000;0.885944
7501.000000;0.886449
7500.000000;0.886877
7499.000000;0.887252
7498.000000;0.887618
7497.000000;0.887993
7496.000000;0.888383
7495.000000;0.888778
7494.000000;0.889136
7493.000000;0.889432
7492.000000;0.889740
7491.000000;0.890162
7490.000000;0.890674
7489.000000;0.891161
7488.000000;0.891572
7487.000000;0.891992
7486.000000;0.892484
7485.000000;0.892980
7484.000000;0.893425
7483.000000;0.893897
7482.000000;0.894477
7481.000000;0.895059
7480.000000;0.895444
7479.000000;0.895599
7478.000000;0.895684
7477.000000;0.895824
7476.000000;0.895985
7475.000000;0.896107
7474.000000;0.896230
7473.000000;0.896401
7472.000000;0.896580
7471.000000;0.896743
7470.000000;0.897001
7469.000000;0.897501
7468.000000;0.898233
7467.000000;0.899037
7466.000000;0.899767
7465.000000;0.900366
7464.000000;0.900799
7463.000000;0.901032
7462.000000;0.901133
7461.000000;0.901286
7460.000000;0.901633
7459.000000;0.902141
7458.000000;0.902641
7457.000000;0.902977
7456.000000;0.903097
7455.000000;0.903071
7454.000000;0.903073
7453.000000;0.903297
7452.000000;0.903787
7451.000000;0.904371
7450.000000;0.904825
7449.000000;0.905104
7448.000000;0.905348
7447.000000;0.905677
7446.000000;0.906066
7445.000000;0.906444
7444.000000;0.906818
7443.000000;0.907227
7442.000000;0.907644
7441.000000;0.907999
7440.000000;0.908286
7439.000000;0.908570
7438.000000;0.908900
7437.000000;0.909282
7436.000000;0.909732
7435.000000;0.910261
7434.000000;0.910791
7433.000000;0.911174
7432.000000;0.911352
7431.000000;0.911455
7430.000000;0.911662
7429.000000;0.912012
7428.000000;0.912422
7427.000000;0.912838
7426.000000;0.913284
7425.000000;0.913747
7424.000000;0.914125
7423.000000;0.914333
7422.000000;0.914418
7421.000000;0.914555
7420.000000;0.914934
7419.000000;0.915646
7418.000000;0.916573
7417.000000;0.917391
7416.000000;0.917769
7415.000000;0.917660
7414.000000;0.917374
7413.000000;0.917314
7412.000000;0.917650
7411.000000;0.918263
7410.000000;0.918906
7409.000000;0.919356
7408.000000;0.919493
7407.000000;0.919356
7406.000000;0.919156
7405.000000;0.919152
7404.000000;0.919484
7403.000000;0.920098
7402.000000;0.920832
7401.000000;0.921511
7400.000000;0.922034
7399.000000;0.922417
7398.000000;0.922747
7397.000000;0.923050
7396.000000;0.923248
7395.000000;0.923331
7394.000000;0.923478
7393.000000;0.923888
7392.000000;0.924529
7391.000000;0.925163
7390.000000;0.925627
7389.000000;0.925933
7388.000000;0.926118
7387.000000;0.926180
7386.000000;0.926205
7385.000000;0.926387
7384.000000;0.926787
7383.000000;0.927212
7382.000000;0.927458
7381.000000;0.927588
7380.000000;0.927806
7379.000000;0.928146
7378.000000;0.928458
7377.000000;0.928676
7376.000000;0.928903
7375.000000;0.929225
7374.000000;0.929598
7373.000000;0.929957
7372.000000;0.930323
7371.000000;0.930731
7370.000000;0.931158
7369.000000;0.931590
7368.000000;0.932072
7367.000000;0.932629
7366.000000;0.933197
7365.000000;0.933663
7364.000000;0.933949
7363.000000;0.934036
7362.000000;0.933991
7361.000000;0.933979
7360.000000;0.934190
7359.000000;0.934669
7358.000000;0.935290
7357.000000;0.935911
7356.000000;0.936490
7355.000000;0.937035
7354.000000;0.937522
7353.000000;0.937908
7352.000000;0.938185
7351.000000;0.938378
7350.000000;0.938531
7349.000000;0.938692
7348.000000;0.938867
7347.000000;0.939004
7346.000000;0.939094
7345.000000;0.939251
7344.000000;0.939587
7343.000000;0.940007
7342.000000;0.940286
7341.000000;0.940384
7340.000000;0.940533
7339.000000;0.940930
7338.000000;0.941504
7337.000000;0.942087
7336.000000;0.942679
7335.000000;0.943366
7334.000000;0.944106
7333.000000;0.944747
7332.000000;0.945187
7331.000000;0.945399
7330.000000;0.945365
7329.000000;0.945151
7328.000000;0.944975
7327.000000;0.945081
7326.000000;0.945538
7325.000000;0.946254
7324.000000;0.947135
7323.000000;0.948093
7322.000000;0.948952
7321.000000;0.949550
7320.000000;0.949947
7319.000000;0.950406
7318.000000;0.951102
7317.000000;0.951934
7316.000000;0.952628
7315.000000;0.952987
7314.000000;0.953029
7313.000000;0.952950
7312.000000;0.953001
7311.000000;0.953345
7310.000000;0.953948
7309.000000;0.954663
7308.000000;0.955395
7307.000000;0.956138
7306.000000;0.956842
7305.000000;0.957397
7304.000000;0.957809
7303.000000;0.958281
7302.000000;0.959008
7301.000000;0.959935
7300.000000;0.960824
7299.000000;0.961526
7298.000000;0.962107
7297.000000;0.962699
7296.000000;0.963340
7295.000000;0.963969
7294.000000;0.964535
7293.000000;0.965056
7292.000000;0.965604
7291.000000;0.966250
7290.000000;0.967017
7289.000000;0.967868
7288.000000;0.968735
7287.000000;0.969571
7286.000000;0.970385
7285.000000;0.971256
7284.000000;0.972276
7283.000000;0.973420
7282.000000;0.974504
7281.000000;0.975339
7280.000000;0.975940
7279.000000;0.976533
7278.000000;0.977312
7277.000000;0.978265
7276.000000;0.979250
7275.000000;0.980178
7274.000000;0.981048
7273.000000;0.981865
7272.000000;0.982622
7271.000000;0.983359
7270.000000;0.984160
7269.000000;0.985073
7268.000000;0.986067
7267.000000;0.987090
7266.000000;0.988143
7265.000000;0.989269
7264.000000;0.990485
7263.000000;0.991743
7262.000000;0.992940
7261.000000;0.993990
7260.000000;0.994915
7259.000000;0.995847
7258.000000;0.996912
7257.000000;0.998114
7256.000000;0.999346
7255.000000;1.000517
7254.000000;1.001617
7253.000000;1.002691
7252.000000;1.003806
7251.000000;1.005057
7250.000000;1.006534
7249.000000;1.008231
7248.000000;1.009994
7247.000000;1.011593
7246.000000;1.012860
7245.000000;1.013824
7244.000000;1.014723
7243.000000;1.015853
7242.000000;1.017342
7241.000000;1.019089
7240.000000;1.020936
7239.000000;1.022859
7238.000000;1.024873
7237.000000;1.026841
7236.000000;1.028499
7235.000000;1.029713
7234.000000;1.030670
7233.000000;1.031782
7232.000000;1.033380
7231.000000;1.035470
7230.000000;1.037766
7229.000000;1.039998
7228.000000;1.042140
7227.000000;1.044331
7226.000000;1.046629
7225.000000;1.048920
7224.000000;1.051080
7223.000000;1.053162
7222.000000;1.055333
7221.000000;1.057660
7220.000000;1.060040
7219.000000;1.062344
7218.000000;1.064546
7217.000000;1.066672
7216.000000;1.068731
7215.000000;1.070795
7214.000000;1.073025
7213.000000;1.075516
7212.000000;1.078133
7211.000000;1.080648
7210.000000;1.083031
7209.000000;1.085484
7208.000000;1.088187
7207.000000;1.091094
7206.000000;1.094005
7205.000000;1.096788
7204.000000;1.099459
7203.000000;1.102102
7202.000000;1.104778
7201.000000;1.107542
7200.000000;1.110468
7199.000000;1.113580
7198.000000;1.116750
7197.000000;1.119760
7196.000000;1.122550
7195.000000;1.125347
7194.000000;1.128457
7193.000000;1.131921
7192.000000;1.135493
7191.000000;1.138944
7190.000000;1.142267
7189.000000;1.145539
7188.000000;1.148784
7187.000000;1.152047
7186.000000;1.155468
7185.000000;1.159106
7184.000000;1.162792
7183.000000;1.166330
7182.000000;1.169767
7181.000000;1.173306
7180.000000;1.176989
7179.000000;1.180678
7178.000000;1.184336
7177.000000;1.188096
7176.000000;1.192020
7175.000000;1.195968
7174.000000;1.199787
7173.000000;1.203497
7172.000000;1.207235
7171.000000;1.211122
7170.000000;1.215216
7169.000000;1.219469
7168.000000;1.223696
7167.000000;1.227717
7166.000000;1.231574
7165.000000;1.235484
7164.000000;1.239558
7163.000000;1.243702
7162.000000;1.247857
7161.000000;1.252156
7160.000000;1.256747
7159.000000;1.261553
7158.000000;1.266345
7157.000000;1.270950
7156.000000;1.275301
7155.000000;1.279375
7154.000000;1.283240
7153.000000;1.287085
7152.000000;1.291116
7151.000000;1.295417
7150.000000;1.299950
7149.000000;1.304588
7148.000000;1.309103
7147.000000;1.313287
7146.000000;1.317189
7145.000000;1.321141
7144.000000;1.325428
7143.000000;1.329998
7142.000000;1.334629
7141.000000;1.339282
7140.000000;1.344069
7139.000000;1.348958
7138.000000;1.353758
7137.000000;1.358453
7136.000000;1.363294
7135.000000;1.368441
7134.000000;1.373618
7133.000000;1.378264
7132.000000;1.382027
7131.000000;1.385100
7130.000000;1.388137
7129.000000;1.391804
7128.000000;1.396301
7127.000000;1.401276
7126.000000;1.406237
7125.000000;1.411018
7124.000000;1.415772
7123.000000;1.420581
7122.000000;1.425273
7121.000000;1.429627
7120.000000;1.433593
7119.000000;1.437267
7118.000000;1.440805
7117.000000;1.444424
7116.000000;1.448357
7115.000000;1.452683
7114.000000;1.457289
7113.000000;1.462013
7112.000000;1.466723
7111.000000;1.471227
7110.000000;1.475267
7109.000000;1.478756
7108.000000;1.482015
7107.000000;1.485613
7106.000000;1.489903
7105.000000;1.494713
7104.000000;1.499499
7103.000000;1.503803
7102.000000;1.507563
7101.000000;1.510978
7100.000000;1.514206
7099.000000;1.517337
7098.000000;1.520603
7097.000000;1.524346
7096.000000;1.528648
7095.000000;1.533095
7094.000000;1.537099
7093.000000;1.540493
7092.000000;1.543675
7091.000000;1.547150
7090.000000;1.551067
7089.000000;1.555154
7088.000000;1.558938
7087.000000;1.562087
7086.000000;1.564673
7085.000000;1.567123
7084.000000;1.569902
7083.000000;1.573282
7082.000000;1.577361
7081.000000;1.582078
7080.000000;1.587048
7079.000000;1.591583
7078.000000;1.595171
7077.000000;1.597896
7076.000000;1.600249
7075.000000;1.602627
7074.000000;1.605161
7073.000000;1.607832
7072.000000;1.610507
7071.000000;1.613030
7070.000000;1.615529
7069.000000;1.618464
7068.000000;1.622080
7067.000000;1.625904
7066.000000;1.629139
7065.000000;1.631454
7064.000000;1.633103
7063.000000;1.634431
7062.000000;1.635724
7061.000000;1.637403
7060.000000;1.639831
7059.000000;1.642851
7058.000000;1.645887
7057.000000;1.648655
7056.000000;1.651428
7055.000000;1.654465
7054.000000;1.657543
7053.000000;1.660301
7052.000000;1.662760
7051.000000;1.665210
7050.000000;1.667792
7049.000000;1.670360
7048.000000;1.672590
7047.000000;1.674209
7046.000000;1.675333
7045.000000;1.676564
7044.000000;1.678480
7043.000000;1.681009
7042.000000;1.683543
7041.000000;1.685592
7040.000000;1.687048
7039.000000;1.687978
7038.000000;1.688687
7037.000000;1.689906
7036.000000;1.692264
7035.000000;1.695392
7034.000000;1.698177
7033.000000;1.700142
7032.000000;1.701990
7031.000000;1.704418
7030.000000;1.707026
7029.000000;1.708929
7028.000000;1.710023
7027.000000;1.711012
7026.000000;1.712443
7025.000000;1.714270
7024.000000;1.716258
7023.000000;1.718287
7022.000000;1.720222
7021.000000;1.721824
7020.000000;1.722893
7019.000000;1.723473
7018.000000;1.723898
7017.000000;1.724602
7016.000000;1.725725
7015.000000;1.726902
7014.000000;1.727697
7013.000000;1.728268
7012.000000;1.729179
7011.000000;1.730488
7010.000000;1.731545
7009.000000;1.731995
7008.000000;1.732426
7007.000000;1.733583
7006.000000;1.735385
7005.000000;1.737239
7004.000000;1.739005
7003.000000;1.741038
7002.000000;1.743400
7001.000000;1.745526
7000.000000;1.746682
6999.000000;1.746457
6998.000000;1.745021
6997.000000;1.743295
6996.000000;1.742684
6995.000000;1.744088
6994.000000;1.747023
6993.000000;1.749947
6992.000000;1.751557
6991.000000;1.751663
6990.000000;1.751002
6989.000000;1.750568
6988.000000;1.751050
6987.000000;1.752406
6986.000000;1.753868
6985.000000;1.754634
6984.000000;1.754693
6983.000000;1.754796
6982.000000;1.755620
6981.000000;1.757129
6980.000000;1.758678
6979.000000;1.759625
6978.000000;1.759931
6977.000000;1.760217
6976.000000;1.761138
6975.000000;1.762616
6974.000000;1.763876
6973.000000;1.764364
6972.000000;1.764288
6971.000000;1.764071
6970.000000;1.763739
6969.000000;1.763286
6968.000000;1.763210
6967.000000;1.764003
6966.000000;1.765212
6965.000000;1.765683
6964.000000;1.764912
6963.000000;1.763689
6962.000000;1.763210
6961.000000;1.763941
6960.000000;1.765448
6959.000000;1.766918
6958.000000;1.767666
6957.000000;1.767472
6956.000000;1.766694
6955.000000;1.765964
6954.000000;1.765672
6953.000000;1.765884
6952.000000;1.766636
6951.000000;1.767926
6950.000000;1.769319
6949.000000;1.770036
6948.000000;1.769778
6947.000000;1.769246
6946.000000;1.769459
6945.000000;1.770631
6944.000000;1.771967
6943.000000;1.772565
6942.000000;1.772257
6941.000000;1.771524
6940.000000;1.770866
6939.000000;1.770493
6938.000000;1.770494
6937.000000;1.770980
6936.000000;1.771929
6935.000000;1.773013
6934.000000;1.773767
6933.000000;1.773915
6932.000000;1.773483
6931.000000;1.772678
6930.000000;1.771772
6929.000000;1.771035
6928.000000;1.770607
6927.000000;1.770449
6926.000000;1.770481
6925.000000;1.770694
6924.000000;1.770976
6923.000000;1.770982
6922.000000;1.770473
6921.000000;1.769686
6920.000000;1.769033
6919.000000;1.768521
6918.000000;1.767889
6917.000000;1.767316
6916.000000;1.767461
6915.000000;1.768578
6914.000000;1.770050
6913.000000;1.771090
6912.000000;1.771503
6911.000000;1.771388
6910.000000;1.770553
6909.000000;1.768850
6908.000000;1.766919
6907.000000;1.765898
6906.000000;1.766310
6905.000000;1.767590
6904.000000;1.768779
6903.000000;1.769357
6902.000000;1.769310
6901.000000;1.768761
6900.000000;1.767849
6899.000000;1.766816
6898.000000;1.765973
6897.000000;1.765524
6896.000000;1.765444
6895.000000;1.765523
6894.000000;1.765540
6893.000000;1.765493
6892.000000;1.765592
6891.000000;1.765931
6890.000000;1.766264
6889.000000;1.766271
6888.000000;1.766020
6887.000000;1.765949
6886.000000;1.766390
6885.000000;1.767226
6884.000000;1.768049
6883.000000;1.768525
6882.000000;1.768572
6881.000000;1.768293
6880.000000;1.767823
6879.000000;1.767209
6878.000000;1.766411
6877.000000;1.765439
6876.000000;1.764465
6875.000000;1.763763
6874.000000;1.763539
6873.000000;1.763757
6872.000000;1.764055
6871.000000;1.763927
6870.000000;1.763118
6869.000000;1.761853
6868.000000;1.760649
6867.000000;1.759918
6866.000000;1.759813
6865.000000;1.760362
6864.000000;1.761478
6863.000000;1.762756
6862.000000;1.763545
6861.000000;1.763406
6860.000000;1.762406
6859.000000;1.760934
6858.000000;1.759432
6857.000000;1.758357
6856.000000;1.758081
6855.000000;1.758587
6854.000000;1.759396
6853.000000;1.759944
6852.000000;1.759986
6851.000000;1.759548
6850.000000;1.758715
6849.000000;1.757613
6848.000000;1.756392
6847.000000;1.755080
6846.000000;1.753673
6845.000000;1.752539
6844.000000;1.752412
6843.000000;1.753577
6842.000000;1.755154
6841.000000;1.755676
6840.000000;1.754560
6839.000000;1.752710
6838.000000;1.751514
6837.000000;1.751475
6836.000000;1.751973
6835.000000;1.752144
6834.000000;1.751732
6833.000000;1.750998
6832.000000;1.750027
6831.000000;1.748477
6830.000000;1.746169
6829.000000;1.743707
6828.000000;1.742107
6827.000000;1.741793
6826.000000;1.742194
6825.000000;1.742377
6824.000000;1.741826
6823.000000;1.740565
6822.000000;1.738855
6821.000000;1.737004
6820.000000;1.735282
6819.000000;1.733787
6818.000000;1.732416
6817.000000;1.731082
6816.000000;1.729876
6815.000000;1.728948
6814.000000;1.728356
6813.000000;1.728083
6812.000000;1.727979
6811.000000;1.727611
6810.000000;1.726466
6809.000000;1.724486
6808.000000;1.722199
6807.000000;1.720162
6806.000000;1.718488
6805.000000;1.717091
6804.000000;1.716057
6803.000000;1.715489
6802.000000;1.715179
6801.000000;1.714723
6800.000000;1.713845
6799.000000;1.712429
6798.000000;1.710492
6797.000000;1.708404
6796.000000;1.706822
6795.000000;1.705986
6794.000000;1.705268
6793.000000;1.703829
6792.000000;1.701640
6791.000000;1.699407
6790.000000;1.697625
6789.000000;1.696179
6788.000000;1.694839
6787.000000;1.693632
6786.000000;1.692574
6785.000000;1.691405
6784.000000;1.689814
6783.000000;1.687746
6782.000000;1.685380
6781.000000;1.683006
6780.000000;1.680947
6779.000000;1.679376
6778.000000;1.678123
6777.000000;1.676845
6776.000000;1.675383
6775.000000;1.673735
6774.000000;1.671756
6773.000000;1.669287
6772.000000;1.666631
6771.000000;1.664485
6770.000000;1.663201
6769.000000;1.662381
6768.000000;1.661412
6767.000000;1.660124
6766.000000;1.658705
6765.000000;1.657239
6764.000000;1.655667
6763.000000;1.654068
6762.000000;1.652594
6761.000000;1.651163
6760.000000;1.649536
6759.000000;1.647731
6758.000000;1.646088
6757.000000;1.644797
6756.000000;1.643571
6755.000000;1.641936
6754.000000;1.639751
6753.000000;1.637314
6752.000000;1.635019
6751.000000;1.633088
6750.000000;1.631550
6749.000000;1.630289
6748.000000;1.629022
6747.000000;1.627394
6746.000000;1.625264
6745.000000;1.622879
6744.000000;1.620650
6743.000000;1.618764
6742.000000;1.617109
6741.000000;1.615488
6740.000000;1.613754
6739.000000;1.611769
6738.000000;1.609470
6737.000000;1.607067
6736.000000;1.604989
6735.000000;1.603485
6734.000000;1.602376
6733.000000;1.601299
6732.000000;1.600067
6731.000000;1.598690
6730.000000;1.597207
6729.000000;1.595653
6728.000000;1.594093
6727.000000;1.592496
6726.000000;1.590678
6725.000000;1.588559
6724.000000;1.586384
6723.000000;1.584455
6722.000000;1.582691
6721.000000;1.580720
6720.000000;1.578431
6719.000000;1.576236
6718.000000;1.574652
6717.000000;1.573737
6716.000000;1.572997
6715.000000;1.571774
6714.000000;1.569760
6713.000000;1.567227
6712.000000;1.564802
6711.000000;1.562929
6710.000000;1.561536
6709.000000;1.560205
6708.000000;1.558564
6707.000000;1.556489
6706.000000;1.554103
6705.000000;1.551759
6704.000000;1.549911
6703.000000;1.548741
6702.000000;1.547897
6701.000000;1.546807
6700.000000;1.545284
6699.000000;1.543611
6698.000000;1.542050
6697.000000;1.540538
6696.000000;1.538836
6695.000000;1.536840
6694.000000;1.534615
6693.000000;1.532368
6692.000000;1.530471
6691.000000;1.529210
6690.000000;1.528372
6689.000000;1.527231
6688.000000;1.525192
6687.000000;1.522387
6686.000000;1.519519
6685.000000;1.517233
6684.000000;1.515728
6683.000000;1.514790
6682.000000;1.513996
6681.000000;1.512955
6680.000000;1.511535
6679.000000;1.509876
6678.000000;1.508131
6677.000000;1.506294
6676.000000;1.504348
6675.000000;1.502462
6674.000000;1.500820
6673.000000;1.499339
6672.000000;1.497768
6671.000000;1.496057
6670.000000;1.494463
6669.000000;1.493200
6668.000000;1.492133
6667.000000;1.490915
6666.000000;1.489356
6665.000000;1.487557
6664.000000;1.485729
6663.000000;1.483954
6662.000000;1.482130
6661.000000;1.480134
6660.000000;1.478015
6659.000000;1.476020
6658.000000;1.474413
6657.000000;1.473266
6656.000000;1.472404
6655.000000;1.471541
6654.000000;1.470474
6653.000000;1.469181
6652.000000;1.467742
6651.000000;1.466199
6650.000000;1.464519
6649.000000;1.462721
6648.000000;1.460944
6647.000000;1.459300
6646.000000;1.457703
6645.000000;1.455964
6644.000000;1.454068
6643.000000;1.452237
6642.000000;1.450699
6641.000000;1.449509
6640.000000;1.448622
6639.000000;1.447937
6638.000000;1.447182
6637.000000;1.445930
6636.000000;1.443968
6635.000000;1.441595
6634.000000;1.439378
6633.000000;1.437629
6632.000000;1.436239
6631.000000;1.434984
6630.000000;1.433788
6629.000000;1.432645
6628.000000;1.431487
6627.000000;1.430227
6626.000000;1.428872
6625.000000;1.427481
6624.000000;1.426053
6623.000000;1.424518
6622.000000;1.422815
6621.000000;1.420948
6620.000000;1.418998
6619.000000;1.417129
6618.000000;1.415551
6617.000000;1.414430
6616.000000;1.413787
6615.000000;1.413440
6614.000000;1.413022
6613.000000;1.412129
6612.000000;1.410604
6611.000000;1.408708
6610.000000;1.406910
6609.000000;1.405445
6608.000000;1.404153
6607.000000;1.402764
6606.000000;1.401252
6605.000000;1.399835
6604.000000;1.398692
6603.000000;1.397767
6602.000000;1.396804
6601.000000;1.395519
6600.000000;1.393809
6599.000000;1.391905
6598.000000;1.390262
6597.000000;1.389172
6596.000000;1.388467
6595.000000;1.387670
6594.000000;1.386468
6593.000000;1.384965
6592.000000;1.383471
6591.000000;1.382175
6590.000000;1.381050
6589.000000;1.379976
6588.000000;1.378853
6587.000000;1.377654
6586.000000;1.376426
6585.000000;1.375225
6584.000000;1.374023
6583.000000;1.372740
6582.000000;1.371384
6581.000000;1.370096
6580.000000;1.368978
6579.000000;1.367959
6578.000000;1.366906
6577.000000;1.365777
6576.000000;1.364583
6575.000000;1.363282
6574.000000;1.361857
6573.000000;1.360446
6572.000000;1.359230
6571.000000;1.358189
6570.000000;1.357134
6569.000000;1.355976
6568.000000;1.354826
6567.000000;1.353771
6566.000000;1.352730
6565.000000;1.351635
6564.000000;1.350554
6563.000000;1.349529
6562.000000;1.348419
6561.000000;1.347096
6560.000000;1.345718
6559.000000;1.344596
6558.000000;1.343813
6557.000000;1.343137
6556.000000;1.342304
6555.000000;1.341237
6554.000000;1.339980
6553.000000;1.338600
6552.000000;1.337211
6551.000000;1.335928
6550.000000;1.334756
6549.000000;1.333611
6548.000000;1.332535
6547.000000;1.331713
6546.000000;1.331190
6545.000000;1.330666
6544.000000;1.329765
6543.000000;1.328441
6542.000000;1.326991
6541.000000;1.325695
6540.000000;1.324574
6539.000000;1.323495
6538.000000;1.322373
6537.000000;1.321222
6536.000000;1.320100
6535.000000;1.319079
6534.000000;1.318217
6533.000000;1.317523
6532.000000;1.316930
6531.000000;1.316317
6530.000000;1.315555
6529.000000;1.314547
6528.000000;1.313305
6527.000000;1.311985
6526.000000;1.310804
6525.000000;1.309880
6524.000000;1.309178
6523.000000;1.308575
6522.000000;1.307927
6521.000000;1.307086
6520.000000;1.305957
6519.000000;1.304604
6518.000000;1.303278
6517.000000;1.302246
6516.000000;1.301584
6515.000000;1.301129
6514.000000;1.300611
6513.000000;1.299825
6512.000000;1.298724
6511.000000;1.297414
6510.000000;1.296078
6509.000000;1.294864
6508.000000;1.293835
6507.000000;1.293006
6506.000000;1.292386
6505.000000;1.291926
6504.000000;1.291448
6503.000000;1.290727
6502.000000;1.289689
6501.000000;1.288509
6500.000000;1.287460
6499.000000;1.286665
6498.000000;1.286014
6497.000000;1.285297
6496.000000;1.284411
6495.000000;1.283408
6494.000000;1.282405
6493.000000;1.281459
6492.000000;1.280567
6491.000000;1.279729
6490.000000;1.278972
6489.000000;1.278302
6488.000000;1.277654
6487.000000;1.276925
6486.000000;1.276054
6485.000000;1.275054
6484.000000;1.273989
6483.000000;1.272959
6482.000000;1.272077
6481.000000;1.271401
6480.000000;1.270862
6479.000000;1.270294
6478.000000;1.269572
6477.000000;1.268708
6476.000000;1.267790
6475.000000;1.266882
6474.000000;1.266018
6473.000000;1.265262
6472.000000;1.264669
6471.000000;1.264180
6470.000000;1.263619
6469.000000;1.262861
6468.000000;1.261968
6467.000000;1.261137
6466.000000;1.260509
6465.000000;1.260049
6464.000000;1.259600
6463.000000;1.258995
6462.000000;1.258165
6461.000000;1.257156
6460.000000;1.256094
6459.000000;1.255127
6458.000000;1.254385
6457.000000;1.253928
6456.000000;1.253675
6455.000000;1.253371
6454.000000;1.252724
6453.000000;1.251659
6452.000000;1.250426
6451.000000;1.249375
6450.000000;1.248629
6449.000000;1.248010
6448.000000;1.247288
6447.000000;1.246430
6446.000000;1.245577
6445.000000;1.244841
6444.000000;1.244172
6443.000000;1.243428
6442.000000;1.242545
6441.000000;1.241614
6440.000000;1.240808
6439.000000;1.240205
6438.000000;1.239716
6437.000000;1.239195
6436.000000;1.238609
6435.000000;1.238042
6434.000000;1.237536
6433.000000;1.237005
6432.000000;1.236356
6431.000000;1.235642
6430.000000;1.234993
6429.000000;1.234439
6428.000000;1.233863
6427.000000;1.233167
6426.000000;1.232389
6425.000000;1.231631
6424.000000;1.230920
6423.000000;1.230213
6422.000000;1.229497
6421.000000;1.228826
6420.000000;1.228247
6419.000000;1.227746
6418.000000;1.227276
6417.000000;1.226803
6416.000000;1.226308
6415.000000;1.225763
6414.000000;1.225151
6413.000000;1.224501
6412.000000;1.223878
6411.000000;1.223324
6410.000000;1.222791
6409.000000;1.222173
6408.000000;1.221398
6407.000000;1.220520
6406.000000;1.219705
6405.000000;1.219082
6404.000000;1.218622
6403.000000;1.218147
6402.000000;1.217494
6401.000000;1.216666
6400.000000;1.215817
6399.000000;1.215104
6398.000000;1.214577
6397.000000;1.214185
6396.000000;1.213838
6395.000000;1.213460
6394.000000;1.212987
6393.000000;1.212392
6392.000000;1.211711
6391.000000;1.211036
6390.000000;1.210448
6389.000000;1.209946
6388.000000;1.209449
6387.000000;1.208859
6386.000000;1.208166
6385.000000;1.207489
6384.000000;1.206998
6383.000000;1.206761
6382.000000;1.206652
6381.000000;1.206424
6380.000000;1.205904
6379.000000;1.205126
6378.000000;1.204283
6377.000000;1.203568
6376.000000;1.203036
6375.000000;1.202602
6374.000000;1.202135
6373.000000;1.201576
6372.000000;1.200962
6371.000000;1.200364
6370.000000;1.199793
6369.000000;1.199208
6368.000000;1.198589
6367.000000;1.197989
6366.000000;1.197472
6365.000000;1.197024
6364.000000;1.196549
6363.000000;1.195972
6362.000000;1.195327
6361.000000;1.194733
6360.000000;1.194278
6359.000000;1.193924
6358.000000;1.193539
6357.000000;1.193018
6356.000000;1.192365
6355.000000;1.191667
6354.000000;1.191002
6353.000000;1.190406
6352.000000;1.189905
6351.000000;1.189519
6350.000000;1.189220
6349.000000;1.188933
6348.000000;1.188605
6347.000000;1.188249
6346.000000;1.187880
6345.000000;1.187458
6344.000000;1.186939
6343.000000;1.186359
6342.000000;1.185806
6341.000000;1.185302
6340.000000;1.184774
6339.000000;1.184173
6338.000000;1.183562
6337.000000;1.183051
6336.000000;1.182664
6335.000000;1.182316
6334.000000;1.181921
6333.000000;1.181476
6332.000000;1.181037
6331.000000;1.180645
6330.000000;1.180284
6329.000000;1.179903
6328.000000;1.179463
6327.000000;1.178948
6326.000000;1.178362
6325.000000;1.177737
6324.000000;1.177147
6323.000000;1.176687
6322.000000;1.176390
6321.000000;1.176175
6320.000000;1.175917
6319.000000;1.175561
6318.000000;1.175139
6317.000000;1.174663
6316.000000;1.174097
6315.000000;1.173463
6314.000000;1.172904
6313.000000;1.172570
6312.000000;1.172426
6311.000000;1.172268
6310.000000;1.171918
6309.000000;1.171384
6308.000000;1.170793
6307.000000;1.170254
6306.000000;1.169789
6305.000000;1.169365
6304.000000;1.168945
6303.000000;1.168510
6302.000000;1.168082
6301.000000;1.167685
6300.000000;1.167303
6299.000000;1.166889
6298.000000;1.166454
6297.000000;1.166102
6296.000000;1.165918
6295.000000;1.165843
6294.000000;1.165726
6293.000000;1.165488
6292.000000;1.165177
6291.000000;1.164837
6290.000000;1.164412
6289.000000;1.163844
6288.000000;1.163233
6287.000000;1.162778
6286.000000;1.162552
6285.000000;1.162400
6284.000000;1.162124
6283.000000;1.161705
6282.000000;1.161283
6281.000000;1.160951
6280.000000;1.160669
6279.000000;1.160372
6278.000000;1.160077
6277.000000;1.159819
6276.000000;1.159557
6275.000000;1.159229
6274.000000;1.158855
6273.000000;1.158510
6272.000000;1.158208
6271.000000;1.157877
6270.000000;1.157483
6269.000000;1.157081
6268.000000;1.156722
6267.000000;1.156374
6266.000000;1.155988
6265.000000;1.155600
6264.000000;1.155300
6263.000000;1.155118
6262.000000;1.154984
6261.000000;1.154796
6260.000000;1.154480
6259.000000;1.154024
6258.000000;1.153491
6257.000000;1.153006
6256.000000;1.152658
6255.000000;1.152419
6254.000000;1.152197
6253.000000;1.151948
6252.000000;1.151690
6251.000000;1.151406
6250.000000;1.151042
6249.000000;1.150625
6248.000000;1.150302
6247.000000;1.150176
6246.000000;1.150148
6245.000000;1.150003
6244.000000;1.149634
6243.000000;1.149114
6242.000000;1.148577
6241.000000;1.148106
6240.000000;1.147740
6239.000000;1.147491
6238.000000;1.147315
6237.000000;1.147132
6236.000000;1.146913
6235.000000;1.146716
6234.000000;1.146589
6233.000000;1.146478
6232.000000;1.146287
6231.000000;1.145992
6230.000000;1.145636
6229.000000;1.145245
6228.000000;1.144808
6227.000000;1.144358
6226.000000;1.143992
6225.000000;1.143783
6224.000000;1.143696
6223.000000;1.143630
6222.000000;1.143515
6221.000000;1.143353
6220.000000;1.143168
6219.000000;1.142962
6218.000000;1.142730
6217.000000;1.142489
6216.000000;1.142267
6215.000000;1.142048
6214.000000;1.141758
6213.000000;1.141344
6212.000000;1.140866
6211.000000;1.140481
6210.000000;1.140304
6209.000000;1.140293
6208.000000;1.140288
6207.000000;1.140165
6206.000000;1.139935
6205.000000;1.139693
6204.000000;1.139499
6203.000000;1.139328
6202.000000;1.139116
6201.000000;1.138846
6200.000000;1.138564
6199.000000;1.138319
6198.000000;1.138117
6197.000000;1.137931
6196.000000;1.137759
6195.000000;1.137622
6194.000000;1.137494
6193.000000;1.137273
6192.000000;1.136866
6191.000000;1.136303
6190.000000;1.135741
6189.000000;1.135354
6188.000000;1.135213
6187.000000;1.135265
6186.000000;1.135369
6185.000000;1.135368
6184.000000;1.135178
6183.000000;1.134853
6182.000000;1.134536
6181.000000;1.134321
6180.000000;1.134157
6179.000000;1.133935
6178.000000;1.133642
6177.000000;1.133392
6176.000000;1.133277
6175.000000;1.133242
6174.000000;1.133131
6173.000000;1.132867
6172.000000;1.132529
6171.000000;1.132244
6170.000000;1.132046
6169.000000;1.131885
6168.000000;1.131742
6167.000000;1.131661
6166.000000;1.131656
6165.000000;1.131633
6164.000000;1.131473
6163.000000;1.131168
6162.000000;1.130840
6161.000000;1.130618
6160.000000;1.130539
6159.000000;1.130562
6158.000000;1.130596
6157.000000;1.130529
6156.000000;1.130264
6155.000000;1.129811
6154.000000;1.129309
6153.000000;1.128919
6152.000000;1.128694
6151.000000;1.128570
6150.000000;1.128485
6149.000000;1.128443
6148.000000;1.128459
6147.000000;1.128484
6146.000000;1.128427
6145.000000;1.128259
6144.000000;1.128050
6143.000000;1.127906
6142.000000;1.127850
6141.000000;1.127798
6140.000000;1.127641
6139.000000;1.127349
6138.000000;1.126991
6137.000000;1.126679
6136.000000;1.126486
6135.000000;1.126414
6134.000000;1.126418
6133.000000;1.126446
6132.000000;1.126469
6131.000000;1.126467
6130.000000;1.126413
6129.000000;1.126293
6128.000000;1.126135
6127.000000;1.125999
6126.000000;1.125913
6125.000000;1.125826
6124.000000;1.125657
6123.000000;1.125378
6122.000000;1.125043
6121.000000;1.124728
6120.000000;1.124477
6119.000000;1.124308
6118.000000;1.124224
6117.000000;1.124207
6116.000000;1.124203
6115.000000;1.124139
6114.000000;1.123967
6113.000000;1.123688
6112.000000;1.123359
6111.000000;1.123072
6110.000000;1.122916
6109.000000;1.122926
6108.000000;1.123050
6107.000000;1.123180
6106.000000;1.123209
6105.000000;1.123096
6104.000000;1.122894
6103.000000;1.122726
6102.000000;1.122687
6101.000000;1.122756
6100.000000;1.122809
6099.000000;1.122730
6098.000000;1.122499
6097.000000;1.122189
6096.000000;1.121891
6095.000000;1.121677
6094.000000;1.121573
6093.000000;1.121545
6092.000000;1.121515
6091.000000;1.121436
6090.000000;1.121331
6089.000000;1.121251
6088.000000;1.121217
6087.000000;1.121218
6086.000000;1.121246
6085.000000;1.121290
6084.000000;1.121311
6083.000000;1.121257
6082.000000;1.121113
6081.000000;1.120891
6080.000000;1.120595
6079.000000;1.120227
6078.000000;1.119865
6077.000000;1.119653
6076.000000;1.119680
6075.000000;1.119874
6074.000000;1.120065
6073.000000;1.120128
6072.000000;1.120072
6071.000000;1.119990
6070.000000;1.119974
6069.000000;1.120040
6068.000000;1.120122
6067.000000;1.120107
6066.000000;1.119935
6065.000000;1.119681
6064.000000;1.119504
6063.000000;1.119507
6062.000000;1.119652
6061.000000;1.119807
6060.000000;1.119880
6059.000000;1.119871
6058.000000;1.119825
6057.000000;1.119772
6056.000000;1.119722
6055.000000;1.119668
6054.000000;1.119588
6053.000000;1.119445
6052.000000;1.119237
6051.000000;1.119045
6050.000000;1.118981
6049.000000;1.119078
6048.000000;1.119239
6047.000000;1.119315
6046.000000;1.119226
6045.000000;1.118999
6044.000000;1.118715
6043.000000;1.118455
6042.000000;1.118309
6041.000000;1.118345
6040.000000;1.118546
6039.000000;1.118788
6038.000000;1.118927
6037.000000;1.118933
6036.000000;1.118907
6035.000000;1.118955
6034.000000;1.119067
6033.000000;1.119139
6032.000000;1.119087
6031.000000;1.118938
6030.000000;1.118789
6029.000000;1.118724
6028.000000;1.118754
6027.000000;1.118816
6026.000000;1.118845
6025.000000;1.118832
6024.000000;1.118843
6023.000000;1.118944
6022.000000;1.119126
6021.000000;1.119315
6020.000000;1.119443
6019.000000;1.119497
6018.000000;1.119494
6017.000000;1.119457
6016.000000;1.119427
6015.000000;1.119462
6014.000000;1.119580
6013.000000;1.119700
6012.000000;1.119703
6011.000000;1.119547
6010.000000;1.119325
6009.000000;1.119188
6008.000000;1.119233
6007.000000;1.119424
6006.000000;1.119631
6005.000000;1.119725
6004.000000;1.119686
6003.000000;1.119625
6002.000000;1.119689
6001.000000;1.119926
6000.000000;1.120263
5999.000000;1.120582
5998.000000;1.120806
5997.000000;1.120924
5996.000000;1.120967
5995.000000;1.120993
5994.000000;1.121054
5993.000000;1.121156
5992.000000;1.121263
5991.000000;1.121354
5990.000000;1.121452
5989.000000;1.121584
5988.000000;1.121732
5987.000000;1.121862
5986.000000;1.121974
5985.000000;1.122120
5984.000000;1.122340
5983.000000;1.122615
5982.000000;1.122878
5981.000000;1.123064
5980.000000;1.123155
5979.000000;1.123183
5978.000000;1.123216
5977.000000;1.123311
5976.000000;1.123474
5975.000000;1.123656
5974.000000;1.123793
5973.000000;1.123858
5972.000000;1.123896
5971.000000;1.123999
5970.000000;1.124250
5969.000000;1.124664
5968.000000;1.125176
5967.000000;1.125700
5966.000000;1.126182
5965.000000;1.126611
5964.000000;1.126972
5963.000000;1.127238
5962.000000;1.127425
5961.000000;1.127626
5960.000000;1.127952
5959.000000;1.128416
5958.000000;1.128908
5957.000000;1.129297
5956.000000;1.129555
5955.000000;1.129759
5954.000000;1.129986
5953.000000;1.130244
5952.000000;1.130498
5951.000000;1.130743
5950.000000;1.131018
5949.000000;1.131354
5948.000000;1.131728
5947.000000;1.132070
5946.000000;1.132336
5945.000000;1.132546
5944.000000;1.132777
5943.000000;1.133086
5942.000000;1.133452
5941.000000;1.133810
5940.000000;1.134115
5939.000000;1.134366
5938.000000;1.134588
5937.000000;1.134821
5936.000000;1.135120
5935.000000;1.135526
5934.000000;1.136009
5933.000000;1.136470
5932.000000;1.136828
5931.000000;1.137097
5930.000000;1.137357
5929.000000;1.137668
5928.000000;1.138017
5927.000000;1.138335
5926.000000;1.138543
5925.000000;1.138624
5924.000000;1.138672
5923.000000;1.138827
5922.000000;1.139135
5921.000000;1.139487
5920.000000;1.139744
5919.000000;1.139887
5918.000000;1.139995
5917.000000;1.140118
5916.000000;1.140243
5915.000000;1.140363
5914.000000;1.140505
5913.000000;1.140658
5912.000000;1.140760
5911.000000;1.140782
5910.000000;1.140773
5909.000000;1.140776
5908.000000;1.140760
5907.000000;1.140696
5906.000000;1.140652
5905.000000;1.140733
5904.000000;1.140929
5903.000000;1.141100
5902.000000;1.141133
5901.000000;1.141079
5900.000000;1.141084
5899.000000;1.141214
5898.000000;1.141395
5897.000000;1.141513
5896.000000;1.141534
5895.000000;1.141509
5894.000000;1.141496
5893.000000;1.141514
5892.000000;1.141572
5891.000000;1.141679
5890.000000;1.141809
5889.000000;1.141904
5888.000000;1.141938
5887.000000;1.141965
5886.000000;1.142047
5885.000000;1.142168
5884.000000;1.142267
5883.000000;1.142333
5882.000000;1.142408
5881.000000;1.142495
5880.000000;1.142531
5879.000000;1.142479
5878.000000;1.142404
5877.000000;1.142419
5876.000000;1.142586
5875.000000;1.142880
5874.000000;1.143217
5873.000000;1.143504
5872.000000;1.143686
5871.000000;1.143791
5870.000000;1.143912
5869.000000;1.144126
5868.000000;1.144434
5867.000000;1.144785
5866.000000;1.145129
5865.000000;1.145435
5864.000000;1.145696
5863.000000;1.145946
5862.000000;1.146243
5861.000000;1.146611
5860.000000;1.147006
5859.000000;1.147372
5858.000000;1.147704
5857.000000;1.148042
5856.000000;1.148414
5855.000000;1.148818
5854.000000;1.149242
5853.000000;1.149676
5852.000000;1.150116
5851.000000;1.150558
5850.000000;1.151008
5849.000000;1.151469
5848.000000;1.151929
5847.000000;1.152372
5846.000000;1.152791
5845.000000;1.153188
5844.000000;1.153577
5843.000000;1.153983
5842.000000;1.154431
5841.000000;1.154931
5840.000000;1.155482
5839.000000;1.156073
5838.000000;1.156669
5837.000000;1.157210
5836.000000;1.157676
5835.000000;1.158144
5834.000000;1.158717
5833.000000;1.159386
5832.000000;1.160009
5831.000000;1.160474
5830.000000;1.160816
5829.000000;1.161125
5828.000000;1.161405
5827.000000;1.161607
5826.000000;1.161779
5825.000000;1.162092
5824.000000;1.162668
5823.000000;1.163440
5822.000000;1.164216
5821.000000;1.164855
5820.000000;1.165348
5819.000000;1.165757
5818.000000;1.166141
5817.000000;1.166534
5816.000000;1.166978
5815.000000;1.167510
5814.000000;1.168121
5813.000000;1.168743
5812.000000;1.169298
5811.000000;1.169761
5810.000000;1.170175
5809.000000;1.170619
5808.000000;1.171161
5807.000000;1.171801
5806.000000;1.172449
5805.000000;1.172982
5804.000000;1.173376
5803.000000;1.173757
5802.000000;1.174283
5801.000000;1.174988
5800.000000;1.175768
5799.000000;1.176510
5798.000000;1.177178
5797.000000;1.177780
5796.000000;1.178338
5795.000000;1.178908
5794.000000;1.179541
5793.000000;1.180194
5792.000000;1.180742
5791.000000;1.181134
5790.000000;1.181479
5789.000000;1.181914
5788.000000;1.182436
5787.000000;1.182952
5786.000000;1.183456
5785.000000;1.184042
5784.000000;1.184757
5783.000000;1.185513
5782.000000;1.186205
5781.000000;1.186826
5780.000000;1.187436
5779.000000;1.188054
5778.000000;1.188641
5777.000000;1.189179
5776.000000;1.189714
5775.000000;1.190318
5774.000000;1.191011
5773.000000;1.191738
5772.000000;1.192405
5771.000000;1.192955
5770.000000;1.193413
5769.000000;1.193857
5768.000000;1.194341
5767.000000;1.194842
5766.000000;1.195284
5765.000000;1.195617
5764.000000;1.195878
5763.000000;1.196155
5762.000000;1.196524
5761.000000;1.197007
5760.000000;1.197600
5759.000000;1.198295
5758.000000;1.199051
5757.000000;1.199763
5756.000000;1.200325
5755.000000;1.200723
5754.000000;1.201037
5753.000000;1.201371
5752.000000;1.201781
5751.000000;1.202288
5750.000000;1.202894
5749.000000;1.203569
5748.000000;1.204253
5747.000000;1.204888
5746.000000;1.205440
5745.000000;1.205890
5744.000000;1.206265
5743.000000;1.206679
5742.000000;1.207278
5741.000000;1.208086
5740.000000;1.208939
5739.000000;1.209614
5738.000000;1.210020
5737.000000;1.210246
5736.000000;1.210463
5735.000000;1.210818
5734.000000;1.211355
5733.000000;1.211998
5732.000000;1.212602
5731.000000;1.213088
5730.000000;1.213516
5729.000000;1.213983
5728.000000;1.214505
5727.000000;1.215026
5726.000000;1.215539
5725.000000;1.216100
5724.000000;1.216734
5723.000000;1.217383
5722.000000;1.217970
5721.000000;1.218486
5720.000000;1.218988
5719.000000;1.219548
5718.000000;1.220199
5717.000000;1.220912
5716.000000;1.221610
5715.000000;1.222230
5714.000000;1.222772
5713.000000;1.223270
5712.000000;1.223738
5711.000000;1.224174
5710.000000;1.224610
5709.000000;1.225111
5708.000000;1.225699
5707.000000;1.226326
5706.000000;1.226920
5705.000000;1.227455
5704.000000;1.227962
5703.000000;1.228505
5702.000000;1.229130
5701.000000;1.229803
5700.000000;1.230397
5699.000000;1.230798
5698.000000;1.231036
5697.000000;1.231281
5696.000000;1.231688
5695.000000;1.232277
5694.000000;1.232963
5693.000000;1.233652
5692.000000;1.234304
5691.000000;1.234905
5690.000000;1.235460
5689.000000;1.235997
5688.000000;1.236552
5687.000000;1.237150
5686.000000;1.237781
5685.000000;1.238398
5684.000000;1.238942
5683.000000;1.239392
5682.000000;1.239805
5681.000000;1.240266
5680.000000;1.240809
5679.000000;1.241388
5678.000000;1.241938
5677.000000;1.242434
5676.000000;1.242882
5675.000000;1.243284
5674.000000;1.243652
5673.000000;1.244017
5672.000000;1.244394
5671.000000;1.244770
5670.000000;1.245150
5669.000000;1.245606
5668.000000;1.246225
5667.000000;1.247008
5666.000000;1.247845
5665.000000;1.248599
5664.000000;1.249195
5663.000000;1.249620
5662.000000;1.249906
5661.000000;1.250131
5660.000000;1.250404
5659.000000;1.250782
5658.000000;1.251211
5657.000000;1.251589
5656.000000;1.251896
5655.000000;1.252220
5654.000000;1.252642
5653.000000;1.253140
5652.000000;1.253624
5651.000000;1.254034
5650.000000;1.254384
5649.000000;1.254726
5648.000000;1.255115
5647.000000;1.255583
5646.000000;1.256115
5645.000000;1.256652
5644.000000;1.257141
5643.000000;1.257584
5642.000000;1.258012
5641.000000;1.258428
5640.000000;1.258829
5639.000000;1.259245
5638.000000;1.259714
5637.000000;1.260194
5636.000000;1.260578
5635.000000;1.260835
5634.000000;1.261096
5633.000000;1.261522
5632.000000;1.262125
5631.000000;1.262735
5630.000000;1.263171
5629.000000;1.263401
5628.000000;1.263538
5627.000000;1.263713
5626.000000;1.263970
5625.000000;1.264267
5624.000000;1.264557
5623.000000;1.264839
5622.000000;1.265132
5621.000000;1.265441
5620.000000;1.265761
5619.000000;1.266092
5618.000000;1.266430
5617.000000;1.266753
5616.000000;1.267059
5615.000000;1.267388
5614.000000;1.267764
5613.000000;1.268120
5612.000000;1.268366
5611.000000;1.268515
5610.000000;1.268695
5609.000000;1.268992
5608.000000;1.269358
5607.000000;1.269713
5606.000000;1.270067
5605.000000;1.270470
5604.000000;1.270894
5603.000000;1.271238
5602.000000;1.271474
5601.000000;1.271688
5600.000000;1.271966
5599.000000;1.272280
5598.000000;1.272525
5597.000000;1.272637
5596.000000;1.272658
5595.000000;1.272685
5594.000000;1.272784
5593.000000;1.272948
5592.000000;1.273147
5591.000000;1.273364
5590.000000;1.273587
5589.000000;1.273769
5588.000000;1.273860
5587.000000;1.273878
5586.000000;1.273896
5585.000000;1.273954
5584.000000;1.274015
5583.000000;1.274054
5582.000000;1.274147
5581.000000;1.274392
5580.000000;1.274760
5579.000000;1.275058
5578.000000;1.275089
5577.000000;1.274845
5576.000000;1.274539
5575.000000;1.274439
5574.000000;1.274642
5573.000000;1.275016
5572.000000;1.275347
5571.000000;1.275533
5570.000000;1.275615
5569.000000;1.275649
5568.000000;1.275652
5567.000000;1.275658
5566.000000;1.275749
5565.000000;1.275959
5564.000000;1.276194
5563.000000;1.276311
5562.000000;1.276249
5561.000000;1.276050
5560.000000;1.275785
5559.000000;1.275516
5558.000000;1.275294
5557.000000;1.275153
5556.000000;1.275108
5555.000000;1.275197
5554.000000;1.275469
5553.000000;1.275880
5552.000000;1.276238
5551.000000;1.276349
5550.000000;1.276203
5549.000000;1.275955
5548.000000;1.275750
5547.000000;1.275623
5546.000000;1.275557
5545.000000;1.275542
5544.000000;1.275538
5543.000000;1.275484
5542.000000;1.275371
5541.000000;1.275271
5540.000000;1.275249
5539.000000;1.275293
5538.000000;1.275350
5537.000000;1.275410
5536.000000;1.275508
5535.000000;1.275647
5534.000000;1.275783
5533.000000;1.275882
5532.000000;1.275975
5531.000000;1.276123
5530.000000;1.276313
5529.000000;1.276409
5528.000000;1.276282
5527.000000;1.275969
5526.000000;1.275657
5525.000000;1.275486
5524.000000;1.275433
5523.000000;1.275425
5522.000000;1.275464
5521.000000;1.275589
5520.000000;1.275765
5519.000000;1.275901
5518.000000;1.275973
5517.000000;1.276015
5516.000000;1.276041
5515.000000;1.276044
5514.000000;1.276060
5513.000000;1.276128
5512.000000;1.276186
5511.000000;1.276126
5510.000000;1.275969
5509.000000;1.275872
5508.000000;1.275926
5507.000000;1.276028
5506.000000;1.276034
5505.000000;1.275961
5504.000000;1.275946
5503.000000;1.276047
5502.000000;1.276178
5501.000000;1.276241
5500.000000;1.276252
5499.000000;1.276328
5498.000000;1.276548
5497.000000;1.276866
5496.000000;1.277149
5495.000000;1.277297
5494.000000;1.277321
5493.000000;1.277302
5492.000000;1.277298
5491.000000;1.277320
5490.000000;1.277375
5489.000000;1.277495
5488.000000;1.277709
5487.000000;1.277999
5486.000000;1.278306
5485.000000;1.278551
5484.000000;1.278687
5483.000000;1.278752
5482.000000;1.278866
5481.000000;1.279137
5480.000000;1.279547
5479.000000;1.279970
5478.000000;1.280299
5477.000000;1.280518
5476.000000;1.280670
5475.000000;1.280813
5474.000000;1.280983
5473.000000;1.281183
5472.000000;1.281393
5471.000000;1.281612
5470.000000;1.281887
5469.000000;1.282252
5468.000000;1.282663
5467.000000;1.283061
5466.000000;1.283457
5465.000000;1.283886
5464.000000;1.284306
5463.000000;1.284640
5462.000000;1.284914
5461.000000;1.285263
5460.000000;1.285753
5459.000000;1.286297
5458.000000;1.286796
5457.000000;1.287270
5456.000000;1.287794
5455.000000;1.288379
5454.000000;1.288967
5453.000000;1.289513
5452.000000;1.290029
5451.000000;1.290550
5450.000000;1.291079
5449.000000;1.291576
5448.000000;1.291987
5447.000000;1.292314
5446.000000;1.292638
5445.000000;1.293071
5444.000000;1.293689
5443.000000;1.294508
5442.000000;1.295481
5441.000000;1.296518
5440.000000;1.297511
5439.000000;1.298399
5438.000000;1.299196
5437.000000;1.299958
5436.000000;1.300698
5435.000000;1.301393
5434.000000;1.302026
5433.000000;1.302623
5432.000000;1.303255
5431.000000;1.303991
5430.000000;1.304821
5429.000000;1.305681
5428.000000;1.306578
5427.000000;1.307644
5426.000000;1.308988
5425.000000;1.310527
5424.000000;1.312012
5423.000000;1.313291
5422.000000;1.314496
5421.000000;1.315888
5420.000000;1.317549
5419.000000;1.319314
5418.000000;1.320979
5417.000000;1.322478
5416.000000;1.323815
5415.000000;1.324965
5414.000000;1.325904
5413.000000;1.326726
5412.000000;1.327679
5411.000000;1.329023
5410.000000;1.330824
5409.000000;1.332895
5408.000000;1.335012
5407.000000;1.337153
5406.000000;1.339440
5405.000000;1.341875
5404.000000;1.344265
5403.000000;1.346468
5402.000000;1.348565
5401.000000;1.350691
5400.000000;1.352831
5399.000000;1.354922
5398.000000;1.357028
5397.000000;1.359290
5396.000000;1.361757
5395.000000;1.364371
5394.000000;1.367101
5393.000000;1.369953
5392.000000;1.372905
5391.000000;1.375904
5390.000000;1.378931
5389.000000;1.382006
5388.000000;1.385137
5387.000000;1.388329
5386.000000;1.391611
5385.000000;1.394987
5384.000000;1.398415
5383.000000;1.401931
5382.000000;1.405664
5381.000000;1.409634
5380.000000;1.413684
5379.000000;1.417690
5378.000000;1.421736
5377.000000;1.425984
5376.000000;1.430434
5375.000000;1.434950
5374.000000;1.439494
5373.000000;1.444126
5372.000000;1.448860
5371.000000;1.453699
5370.000000;1.458748
5369.000000;1.464127
5368.000000;1.469798
5367.000000;1.475584
5366.000000;1.481419
5365.000000;1.487428
5364.000000;1.493725
5363.000000;1.500251
5362.000000;1.506836
5361.000000;1.513365
5360.000000;1.519875
5359.000000;1.526551
5358.000000;1.533580
5357.000000;1.540948
5356.000000;1.548484
5355.000000;1.556159
5354.000000;1.564191
5353.000000;1.572702
5352.000000;1.581463
5351.000000;1.590233
5350.000000;1.599159
5349.000000;1.608507
5348.000000;1.618157
5347.000000;1.627732
5346.000000;1.637194
5345.000000;1.646930
5344.000000;1.657182
5343.000000;1.667760
5342.000000;1.678504
5341.000000;1.689625
5340.000000;1.701378
5339.000000;1.713747
5338.000000;1.726540
5337.000000;1.739585
5336.000000;1.752794
5335.000000;1.766199
5334.000000;1.779959
5333.000000;1.794169
5332.000000;1.808683
5331.000000;1.823353
5330.000000;1.838393
5329.000000;1.854164
5328.000000;1.870571
5327.000000;1.887011
5326.000000;1.903125
5325.000000;1.919295
5324.000000;1.936141
5323.000000;1.953878
5322.000000;1.972374
5321.000000;1.991498
5320.000000;2.011127
5319.000000;2.031096
5318.000000;2.051399
5317.000000;2.072209
5316.000000;2.093444
5315.000000;2.114612
5314.000000;2.135410
5313.000000;2.156166
5312.000000;2.177377
5311.000000;2.199128
5310.000000;2.221278
5309.000000;2.243907
5308.000000;2.267187
5307.000000;2.290924
5306.000000;2.314611
5305.000000;2.338028
5304.000000;2.361621
5303.000000;2.386172
5302.000000;2.411892
5301.000000;2.437723
5300.000000;2.461904
5299.000000;2.483696
5298.000000;2.504337
5297.000000;2.525800
5296.000000;2.548916
5295.000000;2.573109
5294.000000;2.597435
5293.000000;2.621252
5292.000000;2.644315
5291.000000;2.666830
5290.000000;2.688886
5289.000000;2.709524
5288.000000;2.727661
5287.000000;2.744459
5286.000000;2.762795
5285.000000;2.783129
5284.000000;2.801761
5283.000000;2.815567
5282.000000;2.827023
5281.000000;2.840989
5280.000000;2.857737
5279.000000;2.872518
5278.000000;2.881862
5277.000000;2.887301
5276.000000;2.892070
5275.000000;2.897037
5274.000000;2.900713
5273.000000;2.901722
5272.000000;2.901079
5271.000000;2.902152
5270.000000;2.907703
5269.000000;2.916662
5268.000000;2.924545
5267.000000;2.928601
5266.000000;2.931503
5265.000000;2.937373
5264.000000;2.945884
5263.000000;2.952880
5262.000000;2.955776
5261.000000;2.955797
5260.000000;2.955778
5259.000000;2.958522
5258.000000;2.965692
5257.000000;2.975063
5256.000000;2.979794
5255.000000;2.974539
5254.000000;2.962300
5253.000000;2.951019
5252.000000;2.945988
5251.000000;2.948308
5250.000000;2.956534
5249.000000;2.966791
5248.000000;2.973416
5247.000000;2.973791
5246.000000;2.971639
5245.000000;2.971246
5244.000000;2.971026
5243.000000;2.966967
5242.000000;2.960403
5241.000000;2.956878
5240.000000;2.958361
5239.000000;2.962004
5238.000000;2.966050
5237.000000;2.972263
5236.000000;2.981156
5235.000000;2.988538
5234.000000;2.989322
5233.000000;2.983031
5232.000000;2.973363
5231.000000;2.964841
5230.000000;2.961408
5229.000000;2.964971
5228.000000;2.973260
5227.000000;2.980003
5226.000000;2.979412
5225.000000;2.971579
5224.000000;2.961828
5223.000000;2.954836
5222.000000;2.951301
5221.000000;2.949953
5220.000000;2.950790
5219.000000;2.955178
5218.000000;2.962895
5217.000000;2.970218
5216.000000;2.972608
5215.000000;2.969570
5214.000000;2.964991
5213.000000;2.962262
5212.000000;2.961429
5211.000000;2.961566
5210.000000;2.963019
5209.000000;2.965874
5208.000000;2.968622
5207.000000;2.970559
5206.000000;2.973840
5205.000000;2.980440
5204.000000;2.988200
5203.000000;2.992605
5202.000000;2.991673
5201.000000;2.987090
5200.000000;2.981969
5199.000000;2.979196
5198.000000;2.980259
5197.000000;2.983488
5196.000000;2.984419
5195.000000;2.980447
5194.000000;2.974284
5193.000000;2.970536
5192.000000;2.970099
5191.000000;2.969656
5190.000000;2.965926
5189.000000;2.958606
5188.000000;2.949620
5187.000000;2.941772
5186.000000;2.938189
5185.000000;2.940985
5184.000000;2.949318
5183.000000;2.959487
5182.000000;2.967457
5181.000000;2.971106
5180.000000;2.970756
5179.000000;2.968733
5178.000000;2.968067
5177.000000;2.970396
5176.000000;2.974694
5175.000000;2.978490
5174.000000;2.980695
5173.000000;2.982519
5172.000000;2.985593
5171.000000;2.990096
5170.000000;2.994004
5169.000000;2.993743
5168.000000;2.987615
5167.000000;2.979074
5166.000000;2.973774
5165.000000;2.973570
5164.000000;2.975462
5163.000000;2.976050
5162.000000;2.975214
5161.000000;2.974105
5160.000000;2.972124
5159.000000;2.968621
5158.000000;2.965370
5157.000000;2.964553
5156.000000;2.965501
5155.000000;2.965766
5154.000000;2.964880
5153.000000;2.964258
5152.000000;2.963900
5151.000000;2.962102
5150.000000;2.958809
5149.000000;2.956928
5148.000000;2.959204
5147.000000;2.965076
5146.000000;2.970524
5145.000000;2.970091
5144.000000;2.961365
5143.000000;2.948888
5142.000000;2.940978
5141.000000;2.941794
5140.000000;2.947479
5139.000000;2.950946
5138.000000;2.949979
5137.000000;2.948091
5136.000000;2.948394
5135.000000;2.950850
5134.000000;2.954751
5133.000000;2.960378
5132.000000;2.966795
5131.000000;2.970466
5130.000000;2.969285
5129.000000;2.965409
5128.000000;2.962078
5127.000000;2.960638
5126.000000;2.961607
5125.000000;2.965539
5124.000000;2.971259
5123.000000;2.976219
5122.000000;2.979724
5121.000000;2.982793
5120.000000;2.984603
5119.000000;2.981656
5118.000000;2.972103
5117.000000;2.959235
5116.000000;2.948510
5115.000000;2.942919
5114.000000;2.942261
5113.000000;2.945109
5112.000000;2.950072
5111.000000;2.955632
5110.000000;2.959795
5109.000000;2.960410
5108.000000;2.956881
5107.000000;2.952575
5106.000000;2.953567
5105.000000;2.962577
5104.000000;2.974680
5103.000000;2.980601
5102.000000;2.976009
5101.000000;2.966159
5100.000000;2.959022
5099.000000;2.956807
5098.000000;2.955871
5097.000000;2.952251
5096.000000;2.945210
5095.000000;2.936988
5094.000000;2.931618
5093.000000;2.933034
5092.000000;2.942005
5091.000000;2.954099
5090.000000;2.962311
5089.000000;2.963383
5088.000000;2.960036
5087.000000;2.956183
5086.000000;2.952876
5085.000000;2.950020
5084.000000;2.949165
5083.000000;2.952086
5082.000000;2.957574
5081.000000;2.961569
5080.000000;2.960926
5079.000000;2.956223
5078.000000;2.950840
5077.000000;2.948541
5076.000000;2.951546
5075.000000;2.958898
5074.000000;2.966069
5073.000000;2.967675
5072.000000;2.961954
5071.000000;2.952217
5070.000000;2.943265
5069.000000;2.937556
5068.000000;2.935233
5067.000000;2.935690
5066.000000;2.937550
5065.000000;2.938366
5064.000000;2.936539
5063.000000;2.933702
5062.000000;2.933234
5061.000000;2.936500
5060.000000;2.942416
5059.000000;2.948903
5058.000000;2.953395
5057.000000;2.953692
5056.000000;2.949366
5055.000000;2.942950
5054.000000;2.938675
5053.000000;2.938855
5052.000000;2.942559
5051.000000;2.947436
5050.000000;2.951080
5049.000000;2.951615
5048.000000;2.948427
5047.000000;2.942273
5046.000000;2.935154
5045.000000;2.928869
5044.000000;2.923226
5043.000000;2.917233
5042.000000;2.911450
5041.000000;2.908449
5040.000000;2.911125
5039.000000;2.919997
5038.000000;2.931498
5037.000000;2.939303
5036.000000;2.938901
5035.000000;2.931310
5034.000000;2.921327
5033.000000;2.912700
5032.000000;2.906152
5031.000000;2.901135
5030.000000;2.897685
5029.000000;2.896031
5028.000000;2.895379
5027.000000;2.893936
5026.000000;2.890257
5025.000000;2.884799
5024.000000;2.880384
5023.000000;2.880420
5022.000000;2.885533
5021.000000;2.891686
5020.000000;2.892962
5019.000000;2.887618
5018.000000;2.880108
5017.000000;2.875799
5016.000000;2.875440
5015.000000;2.875518
5014.000000;2.872752
5013.000000;2.867506
5012.000000;2.863165
5011.000000;2.862945
5010.000000;2.867214
5009.000000;2.873078
5008.000000;2.876557
5007.000000;2.875764
5006.000000;2.871464
5005.000000;2.864558
5004.000000;2.854888
5003.000000;2.843170
5002.000000;2.832215
5001.000000;2.824908
5000.000000;2.821869
4999.000000;2.821654
4998.000000;2.822194
4997.000000;2.821479
4996.000000;2.818413
4995.000000;2.814497
4994.000000;2.813271
4993.000000;2.816036
4992.000000;2.818699
4991.000000;2.815486
4990.000000;2.806379
4989.000000;2.797711
4988.000000;2.795005
4987.000000;2.797891
4986.000000;2.801766
4985.000000;2.802598
4984.000000;2.799470
4983.000000;2.793827
4982.000000;2.788036
4981.000000;2.784209
4980.000000;2.782756
4979.000000;2.781933
4978.000000;2.779742
4977.000000;2.776061
4976.000000;2.772032
4975.000000;2.767976
4974.000000;2.763394
4973.000000;2.758811
4972.000000;2.755908
4971.000000;2.755144
4970.000000;2.754316
4969.000000;2.750491
4968.000000;2.743142
4967.000000;2.734667
4966.000000;2.728044
4965.000000;2.724434
4964.000000;2.722712
4963.000000;2.720969
4962.000000;2.718418
4961.000000;2.715878
4960.000000;2.714364
4959.000000;2.713007
4958.000000;2.709262
4957.000000;2.702142
4956.000000;2.694211
4955.000000;2.689176
4954.000000;2.688292
4953.000000;2.689739
4952.000000;2.690826
4951.000000;2.690160
4950.000000;2.688014
4949.000000;2.685702
4948.000000;2.684490
4947.000000;2.683930
4946.000000;2.681412
4945.000000;2.674973
4944.000000;2.666643
4943.000000;2.661056
4942.000000;2.660174
4941.000000;2.660830
4940.000000;2.658504
4939.000000;2.652484
4938.000000;2.645778
4937.000000;2.640997
4936.000000;2.638076
4935.000000;2.635558
4934.000000;2.632538
4933.000000;2.628905
4932.000000;2.624823
4931.000000;2.620618
4930.000000;2.616443
4929.000000;2.612039
4928.000000;2.607503
4927.000000;2.603762
4926.000000;2.601778
4925.000000;2.601571
4924.000000;2.602208
4923.000000;2.602346
4922.000000;2.600523
4921.000000;2.595747
4920.000000;2.588631
4919.000000;2.581350
4918.000000;2.575725
4917.000000;2.571897
4916.000000;2.569287
4915.000000;2.567772
4914.000000;2.566906
4913.000000;2.564978
4912.000000;2.560710
4911.000000;2.555494
4910.000000;2.551787
4909.000000;2.549686
4908.000000;2.547201
4907.000000;2.543671
4906.000000;2.540663
4905.000000;2.538940
4904.000000;2.536761
4903.000000;2.532376
4902.000000;2.526539
4901.000000;2.521216
4900.000000;2.517235
4899.000000;2.514504
4898.000000;2.513210
4897.000000;2.513270
4896.000000;2.513275
4895.000000;2.511486
4894.000000;2.507649
4893.000000;2.502797
4892.000000;2.497818
4891.000000;2.493269
4890.000000;2.489722
4889.000000;2.486954
4888.000000;2.483375
4887.000000;2.477768
4886.000000;2.471404
4885.000000;2.466965
4884.000000;2.465363
4883.000000;2.464762
4882.000000;2.462877
4881.000000;2.459356
4880.000000;2.455473
4879.000000;2.452321
4878.000000;2.450042
4877.000000;2.448327
4876.000000;2.446910
4875.000000;2.445598
4874.000000;2.444060
4873.000000;2.441736
4872.000000;2.438147
4871.000000;2.433497
4870.000000;2.428728
4869.000000;2.424658
4868.000000;2.421275
4867.000000;2.418168
4866.000000;2.415328
4865.000000;2.413002
4864.000000;2.411109
4863.000000;2.409446
4862.000000;2.408281
4861.000000;2.407982
4860.000000;2.407978
4859.000000;2.406811
4858.000000;2.403566
4857.000000;2.398801
4856.000000;2.393860
4855.000000;2.389793
4854.000000;2.386990
4853.000000;2.385151
4852.000000;2.383258
4851.000000;2.380001
4850.000000;2.374733
4849.000000;2.368023
4848.000000;2.361182
4847.000000;2.355517
4846.000000;2.352065
4845.000000;2.351289
4844.000000;2.352429
4843.000000;2.353520
4842.000000;2.352918
4841.000000;2.350788
4840.000000;2.348463
4839.000000;2.346513
4838.000000;2.344203
4837.000000;2.340884
4836.000000;2.337106
4835.000000;2.333816
4834.000000;2.331028
4833.000000;2.328050
4832.000000;2.324698
4831.000000;2.321432
4830.000000;2.318301
4829.000000;2.314688
4828.000000;2.310522
4827.000000;2.306976
4826.000000;2.305235
4825.000000;2.304940
4824.000000;2.304482
4823.000000;2.302696
4822.000000;2.299681
4821.000000;2.296031
4820.000000;2.292152
4819.000000;2.288569
4818.000000;2.286050
4817.000000;2.284792
4816.000000;2.283830
4815.000000;2.281794
4814.000000;2.278246
4813.000000;2.274009
4812.000000;2.270294
4811.000000;2.267755
4810.000000;2.266162
4809.000000;2.264669
4808.000000;2.262489
4807.000000;2.259522
4806.000000;2.256245
4805.000000;2.253013
4804.000000;2.249779
4803.000000;2.246545
4802.000000;2.243679
4801.000000;2.241407
4800.000000;2.239334
4799.000000;2.236877
4798.000000;2.234065
4797.000000;2.231507
4796.000000;2.229510
4795.000000;2.227559
4794.000000;2.224783
4793.000000;2.220780
4792.000000;2.216032
4791.000000;2.211639
4790.000000;2.208557
4789.000000;2.206857
4788.000000;2.205723
4787.000000;2.204333
4786.000000;2.202568
4785.000000;2.200599
4784.000000;2.198062
4783.000000;2.194322
4782.000000;2.189712
4781.000000;2.185802
4780.000000;2.183915
4779.000000;2.183632
4778.000000;2.183189
4777.000000;2.181322
4776.000000;2.178285
4775.000000;2.174982
4774.000000;2.171761
4773.000000;2.168417
4772.000000;2.164953
4771.000000;2.161734
4770.000000;2.158884
4769.000000;2.155988
4768.000000;2.152642
4767.000000;2.149075
4766.000000;2.146041
4765.000000;2.144176
4764.000000;2.143448
4763.000000;2.143033
4762.000000;2.141759
4761.000000;2.139018
4760.000000;2.135396
4759.000000;2.132177
4758.000000;2.130041
4757.000000;2.128447
4756.000000;2.126450
4755.000000;2.123824
4754.000000;2.121051
4753.000000;2.118496
4752.000000;2.116105
4751.000000;2.113791
4750.000000;2.111599
4749.000000;2.109442
4748.000000;2.107093
4747.000000;2.104558
4746.000000;2.102099
4745.000000;2.099770
4744.000000;2.097271
4743.000000;2.094419
4742.000000;2.091467
4741.000000;2.088836
4740.000000;2.086725
4739.000000;2.085104
4738.000000;2.083810
4737.000000;2.082458
4736.000000;2.080522
4735.000000;2.077809
4734.000000;2.074680
4733.000000;2.071578
4732.000000;2.068530
4731.000000;2.065341
4730.000000;2.062082
4729.000000;2.059074
4728.000000;2.056512
4727.000000;2.054372
4726.000000;2.052653
4725.000000;2.051425
4724.000000;2.050499
4723.000000;2.049271
4722.000000;2.047110
4721.000000;2.043943
4720.000000;2.040382
4719.000000;2.037187
4718.000000;2.034605
4717.000000;2.032332
4716.000000;2.030162
4715.000000;2.028441
4714.000000;2.027572
4713.000000;2.027164
4712.000000;2.026104
4711.000000;2.023668
4710.000000;2.020307
4709.000000;2.017106
4708.000000;2.014695
4707.000000;2.012905
4706.000000;2.011236
4705.000000;2.009330
4704.000000;2.007066
4703.000000;2.004514
4702.000000;2.001868
4701.000000;1.999297
4700.000000;1.996817
4699.000000;1.994410
4698.000000;1.992209
4697.000000;1.990418
4696.000000;1.989006
4695.000000;1.987595
4694.000000;1.985720
4693.000000;1.983287
4692.000000;1.980820
4691.000000;1.979136
4690.000000;1.978547
4689.000000;1.978338
4688.000000;1.977245
4687.000000;1.974688
4686.000000;1.971423
4685.000000;1.968802
4684.000000;1.967472
4683.000000;1.966897
4682.000000;1.965972
4681.000000;1.963951
4680.000000;1.960903
4679.000000;1.957539
4678.000000;1.954671
4677.000000;1.952666
4676.000000;1.951332
4675.000000;1.950276
4674.000000;1.949240
4673.000000;1.948073
4672.000000;1.946578
4671.000000;1.944629
4670.000000;1.942368
4669.000000;1.940093
4668.000000;1.937972
4667.000000;1.936015
4666.000000;1.934276
4665.000000;1.932895
4664.000000;1.931900
4663.000000;1.931099
4662.000000;1.930211
4661.000000;1.929031
4660.000000;1.927495
4659.000000;1.925710
4658.000000;1.923946
4657.000000;1.922442
4656.000000;1.921151
4655.000000;1.919714
4654.000000;1.917762
4653.000000;1.915264
4652.000000;1.912585
4651.000000;1.910201
4650.000000;1.908305
4649.000000;1.906670
4648.000000;1.904937
4647.000000;1.903054
4646.000000;1.901369
4645.000000;1.900260
4644.000000;1.899687
4643.000000;1.899105
4642.000000;1.897856
4641.000000;1.895732
4640.000000;1.893237
4639.000000;1.891191
4638.000000;1.889928
4637.000000;1.888911
4636.000000;1.887349
4635.000000;1.885142
4634.000000;1.882945
4633.000000;1.881289
4632.000000;1.880016
4631.000000;1.878742
4630.000000;1.877504
4629.000000;1.876613
4628.000000;1.876059
4627.000000;1.875404
4626.000000;1.874233
4625.000000;1.872438
4624.000000;1.870137
4623.000000;1.867663
4622.000000;1.865596
4621.000000;1.864430
4620.000000;1.864034
4619.000000;1.863665
4618.000000;1.862674
4617.000000;1.861056
4616.000000;1.859232
4615.000000;1.857501
4614.000000;1.855909
4613.000000;1.854488
4612.000000;1.853347
4611.000000;1.852507
4610.000000;1.851790
4609.000000;1.850939
4608.000000;1.849818
4607.000000;1.848474
4606.000000;1.847091
4605.000000;1.845875
4604.000000;1.844914
4603.000000;1.844092
4602.000000;1.843193
4601.000000;1.842141
4600.000000;1.841066
4599.000000;1.840096
4598.000000;1.839133
4597.000000;1.837962
4596.000000;1.836552
4595.000000;1.835063
4594.000000;1.833560
4593.000000;1.831975
4592.000000;1.830477
4591.000000;1.829546
4590.000000;1.829371
4589.000000;1.829337
4588.000000;1.828567
4587.000000;1.826984
4586.000000;1.825396
4585.000000;1.824411
4584.000000;1.823732
4583.000000;1.822764
4582.000000;1.821534
4581.000000;1.820558
4580.000000;1.819996
4579.000000;1.819415
4578.000000;1.818420
4577.000000;1.817132
4576.000000;1.815937
4575.000000;1.814999
4574.000000;1.814182
4573.000000;1.813317
4572.000000;1.812431
4571.000000;1.811721
4570.000000;1.811290
4569.000000;1.810877
4568.000000;1.809980
4567.000000;1.808422
4566.000000;1.806691
4565.000000;1.805496
4564.000000;1.804977
4563.000000;1.804518
4562.000000;1.803398
4561.000000;1.801515
4560.000000;1.799440
4559.000000;1.797904
4558.000000;1.797278
4557.000000;1.797394
4556.000000;1.797741
4555.000000;1.797834
4554.000000;1.797474
4553.000000;1.796690
4552.000000;1.795589
4551.000000;1.794331
4550.000000;1.793146
4549.000000;1.792166
4548.000000;1.791281
4547.000000;1.790296
4546.000000;1.789260
4545.000000;1.788481
4544.000000;1.788182
4543.000000;1.788243
4542.000000;1.788316
4541.000000;1.788096
4540.000000;1.787474
4539.000000;1.786555
4538.000000;1.785612
4537.000000;1.784921
4536.000000;1.784541
4535.000000;1.784291
4534.000000;1.783977
4533.000000;1.783597
4532.000000;1.783246
4531.000000;1.782875
4530.000000;1.782287
4529.000000;1.781396
4528.000000;1.780380
4527.000000;1.779453
4526.000000;1.778604
4525.000000;1.777749
4524.000000;1.777084
4523.000000;1.776949
4522.000000;1.777221
4521.000000;1.777202
4520.000000;1.776457
4519.000000;1.775510
4518.000000;1.775225
4517.000000;1.775610
4516.000000;1.775754
4515.000000;1.775033
4514.000000;1.773880
4513.000000;1.773115
4512.000000;1.772992
4511.000000;1.773224
4510.000000;1.773509
4509.000000;1.773648
4508.000000;1.773435
4507.000000;1.772837
4506.000000;1.772078
4505.000000;1.771244
4504.000000;1.770080
4503.000000;1.768516
4502.000000;1.767120
4501.000000;1.766488
4500.000000;1.766419
4499.000000;1.766212
4498.000000;1.765651
4497.000000;1.765140
4496.000000;1.764922
4495.000000;1.764779
4494.000000;1.764577
4493.000000;1.764501
4492.000000;1.764609
4491.000000;1.764675
4490.000000;1.764695
4489.000000;1.764970
4488.000000;1.765442
4487.000000;1.765459
4486.000000;1.764587
4485.000000;1.763251
4484.000000;1.762177
4483.000000;1.761552
4482.000000;1.761130
4481.000000;1.760878
4480.000000;1.761029
4479.000000;1.761647
4478.000000;1.762535
4477.000000;1.763468
4476.000000;1.764203
4475.000000;1.764404
4474.000000;1.763937
4473.000000;1.763199
4472.000000;1.762804
4471.000000;1.762956
4470.000000;1.763415
4469.000000;1.764027
4468.000000;1.764932
4467.000000;1.766180
4466.000000;1.767459
4465.000000;1.768356
4464.000000;1.768752
4463.000000;1.768904
4462.000000;1.769262
4461.000000;1.770171
4460.000000;1.771508
4459.000000;1.772620
4458.000000;1.772895
4457.000000;1.772482
4456.000000;1.772224
4455.000000;1.772817
4454.000000;1.774212
4453.000000;1.775878
4452.000000;1.777422
4451.000000;1.778795
4450.000000;1.780066
4449.000000;1.781261
4448.000000;1.782418
4447.000000;1.783594
4446.000000;1.784771
4445.000000;1.785805
4444.000000;1.786591
4443.000000;1.787314
4442.000000;1.788430
4441.000000;1.790290
4440.000000;1.792734
4439.000000;1.795204
4438.000000;1.797262
4437.000000;1.798884
4436.000000;1.800201
4435.000000;1.801216
4434.000000;1.802045
4433.000000;1.803237
4432.000000;1.805434
4431.000000;1.808613
4430.000000;1.811924
4429.000000;1.814452
4428.000000;1.815976
4427.000000;1.816856
4426.000000;1.817501
4425.000000;1.818254
4424.000000;1.819569
4423.000000;1.821884
4422.000000;1.825204
4421.000000;1.829057
4420.000000;1.832916
4419.000000;1.836480
4418.000000;1.839526
4417.000000;1.841825
4416.000000;1.843402
4415.000000;1.844676
4414.000000;1.846170
4413.000000;1.848210
4412.000000;1.850973
4411.000000;1.854512
4410.000000;1.858471
4409.000000;1.862050
4408.000000;1.864735
4407.000000;1.867000
4406.000000;1.869803
4405.000000;1.873420
4404.000000;1.877212
4403.000000;1.880560
4402.000000;1.883483
4401.000000;1.886144
4400.000000;1.888396
4399.000000;1.890268
4398.000000;1.892346
4397.000000;1.895117
4396.000000;1.898230
4395.000000;1.900898
4394.000000;1.902922
4393.000000;1.904810
4392.000000;1.907005
4391.000000;1.909540
4390.000000;1.912397
4389.000000;1.915644
4388.000000;1.919155
4387.000000;1.922618
4386.000000;1.925927
4385.000000;1.929152
4384.000000;1.932117
4383.000000;1.934479
4382.000000;1.936356
4381.000000;1.938352
4380.000000;1.940804
4379.000000;1.943474
4378.000000;1.946180
4377.000000;1.949214
4376.000000;1.952766
4375.000000;1.956303
4374.000000;1.958973
4373.000000;1.960498
4372.000000;1.961338
4371.000000;1.962132
4370.000000;1.963233
4369.000000;1.964717
4368.000000;1.966644
4367.000000;1.969306
4366.000000;1.973132
4365.000000;1.978026
4364.000000;1.982823
4363.000000;1.985976
4362.000000;1.987137
4361.000000;1.987627
4360.000000;1.988980
4359.000000;1.991351
4358.000000;1.993657
4357.000000;1.994969
4356.000000;1.995333
4355.000000;1.995418
4354.000000;1.995979
4353.000000;1.997572
4352.000000;2.000279
4351.000000;2.003570
4350.000000;2.006660
4349.000000;2.009099
4348.000000;2.010962
4347.000000;2.012571
4346.000000;2.014221
4345.000000;2.016058
4344.000000;2.017896
4343.000000;2.019186
4342.000000;2.019401
4341.000000;2.018597
4340.000000;2.017547
4339.000000;2.017368
4338.000000;2.019024
4337.000000;2.022787
4336.000000;2.027818
4335.000000;2.032418
4334.000000;2.035090
4333.000000;2.035503
4332.000000;2.034378
4331.000000;2.032720
4330.000000;2.031437
4329.000000;2.031350
4328.000000;2.032900
4327.000000;2.035793
4326.000000;2.039269
4325.000000;2.042687
4324.000000;2.045603
4323.000000;2.047495
4322.000000;2.048049
4321.000000;2.047857
4320.000000;2.048259
4319.000000;2.050007
4318.000000;2.052388
4317.000000;2.054128
4316.000000;2.054966
4315.000000;2.055700
4314.000000;2.056858
4313.000000;2.058258
4312.000000;2.059751
4311.000000;2.061486
4310.000000;2.063195
4309.000000;2.063920
4308.000000;2.063267
4307.000000;2.062583
4306.000000;2.063806
4305.000000;2.067071
4304.000000;2.070451
4303.000000;2.072344
4302.000000;2.073405
4301.000000;2.075628
4300.000000;2.079768
4299.000000;2.084337
4298.000000;2.087061
4297.000000;2.087126
4296.000000;2.086185
4295.000000;2.087418
4294.000000;2.093018
4293.000000;2.101899
4292.000000;2.110144
4291.000000;2.114407
4290.000000;2.114808
4289.000000;2.113908
4288.000000;2.113693
4287.000000;2.114660
4286.000000;2.116860
4285.000000;2.119940
4284.000000;2.122319
4283.000000;2.122426
4282.000000;2.121339
4281.000000;2.122368
4280.000000;2.126921
4279.000000;2.131924
4278.000000;2.132810
4277.000000;2.129154
4276.000000;2.125610
4275.000000;2.126984
4274.000000;2.133616
4273.000000;2.141454
4272.000000;2.146232
4271.000000;2.147590
4270.000000;2.148787
4269.000000;2.152790
4268.000000;2.159663
4267.000000;2.167580
4266.000000;2.175017
4265.000000;2.181008
4264.000000;2.184304
4263.000000;2.184417
4262.000000;2.183574
4261.000000;2.185648
4260.000000;2.192189
4259.000000;2.200656
4258.000000;2.207260
4257.000000;2.210637
4256.000000;2.212297
4255.000000;2.214629
4254.000000;2.219452
4253.000000;2.227515
4252.000000;2.237654
4251.000000;2.246807
4250.000000;2.252559
4249.000000;2.255424
4248.000000;2.257072
4247.000000;2.257050
4246.000000;2.253575
4245.000000;2.247820
4244.000000;2.244965
4243.000000;2.249529
4242.000000;2.260995
4241.000000;2.273882
4240.000000;2.281842
4239.000000;2.282846
4238.000000;2.280228
4237.000000;2.278242
4236.000000;2.278514
4235.000000;2.279962
4234.000000;2.281757
4233.000000;2.286018
4232.000000;2.295409
4231.000000;2.308686
4230.000000;2.320599
4229.000000;2.327212
4228.000000;2.329799
4227.000000;2.332618
4226.000000;2.338655
4225.000000;2.347128
4224.000000;2.353918
4223.000000;2.355644
4222.000000;2.354178
4221.000000;2.355070
4220.000000;2.361522
4219.000000;2.372234
4218.000000;2.384546
4217.000000;2.397113
4216.000000;2.408292
4215.000000;2.414297
4214.000000;2.412399
4213.000000;2.406446
4212.000000;2.406674
4211.000000;2.420573
4210.000000;2.442936
4209.000000;2.457748
4208.000000;2.453838
4207.000000;2.436480
4206.000000;2.419793
4205.000000;2.411922
4204.000000;2.410156
4203.000000;2.408861
4202.000000;2.408370
4201.000000;2.411212
4200.000000;2.414555
4199.000000;2.413231
4198.000000;2.407257
4197.000000;2.402463
4196.000000;2.405144
4195.000000;2.417771
4194.000000;2.438814
4193.000000;2.464110
4192.000000;2.487657
4191.000000;2.505254
4190.000000;2.519504
4189.000000;2.535500
4188.000000;2.549221
4187.000000;2.546907
4186.000000;2.522219
4185.000000;2.486360
4184.000000;2.454161
4183.000000;2.431733
4182.000000;2.420792
4181.000000;2.425651
4180.000000;2.449311
4179.000000;2.482671
4178.000000;2.504602
4177.000000;2.503451
4176.000000;2.490761
4175.000000;2.483294
4174.000000;2.485334
4173.000000;2.493175
4172.000000;2.508530
4171.000000;2.535569
4170.000000;2.565007
4169.000000;2.580054
4168.000000;2.580254
4167.000000;2.578770
4166.000000;2.581629
4165.000000;2.580755
4164.000000;2.567753
4163.000000;2.544990
4162.000000;2.517812
4161.000000;2.495294
4160.000000;2.489897
4159.000000;2.507208
4158.000000;2.541924
4157.000000;2.576696
4156.000000;2.591984
4155.000000;2.590480
4154.000000;2.596422
4153.000000;2.618194
4152.000000;2.624727
4151.000000;2.602929
4150.000000;2.585211
4149.000000;2.587083
4148.000000;2.606124
4147.000000;2.635652
4146.000000;2.655976
4145.000000;2.648888
4144.000000;2.620660
4143.000000;2.593335
4142.000000;2.578079
4141.000000;2.566976
4140.000000;2.551621
4139.000000;2.541989
4138.000000;2.560596
4137.000000;2.613833
4136.000000;2.663235
4135.000000;2.653727
4134.000000;2.601648
4133.000000;2.565678
4132.000000;2.568344
4131.000000;2.593066
4130.000000;2.606450
4129.000000;2.592846
4128.000000;2.569441
4127.000000;2.552655
4126.000000;2.548286
4125.000000;2.560268
4124.000000;2.581451
4123.000000;2.597821
4122.000000;2.607371
4121.000000;2.614977
4120.000000;2.611430
4119.000000;2.579259
4118.000000;2.533903
4117.000000;2.510108
4116.000000;2.517382
4115.000000;2.542311
4114.000000;2.573842
4113.000000;2.616958
4112.000000;2.678104
4111.000000;2.730108
4110.000000;2.711993
4109.000000;2.619652
4108.000000;2.522357
4107.000000;2.472237
4106.000000;2.482349
4105.000000;2.536739
4104.000000;2.592915
4103.000000;2.597650
4102.000000;2.539626
4101.000000;2.467357
4100.000000;2.423622
4099.000000;2.418045
4098.000000;2.444406
4097.000000;2.491178
4096.000000;2.536313
4095.000000;2.542468
4094.000000;2.503336
4093.000000;2.465922
4092.000000;2.466924
4091.000000;2.509194
4090.000000;2.571120
4089.000000;2.602080
4088.000000;2.562857
4087.000000;2.502487
4086.000000;2.473844
4085.000000;2.479438
4084.000000;2.493633
4083.000000;2.503418
4082.000000;2.539864
4081.000000;2.657370
4080.000000;2.886868
4079.000000;3.127755
4078.000000;3.104898
4077.000000;2.893233
4076.000000;2.726026
4075.000000;2.636851
4074.000000;2.595127
4073.000000;2.593446
4072.000000;2.623883
4071.000000;2.641298
4070.000000;2.596112
4069.000000;2.523926
4068.000000;2.475197
4067.000000;2.463239
4066.000000;2.494167
4065.000000;2.582671
4064.000000;2.729812
4063.000000;2.863845
4062.000000;2.847310
4061.000000;2.670089
4060.000000;2.520026
4059.000000;2.466956
4058.000000;2.494829
4057.000000;2.564774
4056.000000;2.627078
4055.000000;2.650405
4054.000000;2.635207
4053.000000;2.588617
4052.000000;2.518267
4051.000000;2.450381
4050.000000;2.417729
4049.000000;2.436403
4048.000000;2.498070
4047.000000;2.598098
4046.000000;2.706502
4045.000000;2.729617
4044.000000;2.737713
4043.000000;2.743077
4042.000000;2.643691
4041.000000;2.543578
4040.000000;2.522124
4039.000000;2.618460
4038.000000;2.920474
4037.000000;2.921770
4036.000000;2.610238
4035.000000;2.454477
4034.000000;2.385010
4033.000000;2.370184
4032.000000;2.387022
4031.000000;2.410233
4030.000000;2.432988
4029.000000;2.470419
4028.000000;2.525964
4027.000000;2.552545
4026.000000;2.504665
4025.000000;2.420546
4024.000000;2.359904
4023.000000;2.341485
4022.000000;2.357317
4021.000000;2.392166
4020.000000;2.432389
4019.000000;2.466718
4018.000000;2.521028
4017.000000;2.642277
4016.000000;2.865516
4015.000000;3.329441
4014.000000;3.246335
4013.000000;2.895499
4012.000000;2.786240
4011.000000;2.747650
4010.000000;2.633067
4009.000000;2.512825
4008.000000;2.465569
4007.000000;2.471269
4006.000000;2.485245
4005.000000;2.494847
4004.000000;2.537406
4003.000000;2.643754
4002.000000;2.769646
4001.000000;2.839641
4000.000000;2.896373
3999.000000;2.925979
3998.000000;2.914592
3997.000000;2.903872
3996.000000;2.875214
3995.000000;2.791189
3994.000000;2.703489
3993.000000;2.683919
3992.000000;2.788597
3991.000000;3.208277
3990.000000;3.146111
3989.000000;2.827703
3988.000000;2.718358
3987.000000;2.604382
3986.000000;2.512960
3985.000000;2.496301
3984.000000;2.600348
3983.000000;2.747948
3982.000000;2.637366
3981.000000;2.512890
3980.000000;2.507148
3979.000000;2.591175
3978.000000;2.701162
3977.000000;2.757307
3976.000000;2.816020
3975.000000;3.011317
3974.000000;3.167692
3973.000000;2.945196
3972.000000;2.860870
3971.000000;2.921590
3970.000000;3.101315
3969.000000;3.541605
3968.000000;3.198545
3967.000000;2.814977
3966.000000;2.674517
3965.000000;2.606430
3964.000000;2.593981
3963.000000;2.598276
3962.000000;2.591164
3961.000000;2.602075
3960.000000;2.666566
3959.000000;2.755650
3958.000000;2.790915
3957.000000;2.776791
3956.000000;2.817779
3955.000000;3.000572
3954.000000;2.902305
3953.000000;2.627666
3952.000000;2.526278
3951.000000;2.561644
3950.000000;2.722704
3949.000000;2.977930
3948.000000;3.061662
3947.000000;2.988447
3946.000000;2.968310
3945.000000;2.887439
3944.000000;2.755732
3943.000000;2.720710
3942.000000;2.829513
3941.000000;2.907898
3940.000000;2.817688
3939.000000;2.787187
3938.000000;2.899192
3937.000000;3.137807
3936.000000;3.435834
3935.000000;3.248470
3934.000000;2.913877
3933.000000;2.738584
3932.000000;2.704332
3931.000000;2.798001
3930.000000;3.040525
3929.000000;3.474519
3928.000000;3.462990
3927.000000;3.010848
3926.000000;2.780969
3925.000000;2.762756
3924.000000;2.877905
3923.000000;2.934226
3922.000000;2.898430
3921.000000;2.920185
3920.000000;3.004719
3919.000000;3.056250
3918.000000;2.998197
3917.000000;2.893409
3916.000000;2.853419
3915.000000;2.913845
3914.000000;3.080932
3913.000000;3.413611
3912.000000;3.238401
3911.000000;2.890173
3910.000000;2.770471
3909.000000;2.745319
3908.000000;2.765578
3907.000000;2.814657
3906.000000;2.907790
3905.000000;3.078178
3904.000000;3.327820
3903.000000;3.713269
3902.000000;4.083169
3901.000000;3.682516
3900.000000;3.501087
3899.000000;3.442647
3898.000000;3.416425
3897.000000;3.419676
3896.000000;3.454444
3895.000000;3.343286
3894.000000;3.102835
3893.000000;3.007675
3892.000000;3.087187
3891.000000;3.388084
3890.000000;3.885596
3889.000000;3.594700
3888.000000;3.427706
3887.000000;3.480254
3886.000000;3.399157
3885.000000;3.397410
3884.000000;3.483868
3883.000000;3.309993
3882.000000;3.138927
3881.000000;3.162122
3880.000000;3.473930
3879.000000;4.423363
3878.000000;3.893583
3877.000000;3.726857
3876.000000;3.720578
3875.000000;3.504990
3874.000000;3.418108
3873.000000;3.400693
3872.000000;3.421669
3871.000000;3.494934
3870.000000;3.514839
3869.000000;3.428417
3868.000000;3.328920
3867.000000;3.207785
3866.000000;3.156035
3865.000000;3.276388
3864.000000;3.603649
3863.000000;3.811585
3862.000000;3.637192
3861.000000;3.671289
3860.000000;3.731620
3859.000000;3.422783
3858.000000;3.185140
3857.000000;3.124512
3856.000000;3.233506
3855.000000;3.468485
3854.000000;3.723016
3853.000000;3.915933
3852.000000;3.996788
3851.000000;3.950016
3850.000000;3.894918
3849.000000;3.684793
3848.000000;3.254009
3847.000000;3.001195
3846.000000;2.901209
3845.000000;2.870146
3844.000000;2.898032
3843.000000;2.994353
3842.000000;3.136964
3841.000000;3.260454
3840.000000;3.371420
3839.000000;3.574270
3838.000000;4.005293
3837.000000;4.101739
3836.000000;3.832235
3835.000000;3.788196
3834.000000;3.926233
3833.000000;3.957537
3832.000000;3.764981
3831.000000;3.590862
3830.000000;3.371636
3829.000000;3.156745
3828.000000;3.024702
3827.000000;3.028279
3826.000000;3.195824
3825.000000;3.621696
3824.000000;3.899880
3823.000000;3.418163
3822.000000;3.301287
3821.000000;3.440016
3820.000000;3.652534
3819.000000;3.746201
3818.000000;3.746689
3817.000000;3.771277
3816.000000;3.734657
3815.000000;3.762911
3814.000000;3.875498
3813.000000;3.907488
3812.000000;3.417573
3811.000000;3.088344
3810.000000;2.942259
3809.000000;3.015372
3808.000000;3.500683
3807.000000;3.527223
3806.000000;3.277168
3805.000000;3.435495
3804.000000;3.599544
3803.000000;3.481534
3802.000000;3.442983
3801.000000;3.628999
3800.000000;3.721727
3799.000000;3.668838
3798.000000;3.527250
3797.000000;3.491650
3796.000000;3.572079
3795.000000;3.562399
3794.000000;3.570655
3793.000000;3.430973
3792.000000;3.156597
3791.000000;3.061387
3790.000000;3.111618
3789.000000;3.139465
3788.000000;2.998066
3787.000000;2.853602
3786.000000;2.858985
3785.000000;3.013909
3784.000000;3.537908
3783.000000;3.680837
3782.000000;3.114923
3781.000000;3.020679
3780.000000;3.180272
3779.000000;3.508978
3778.000000;3.453161
3777.000000;3.297783
3776.000000;3.339959
3775.000000;3.786088
3774.000000;3.619646
3773.000000;3.054509
3772.000000;2.825759
3771.000000;2.765667
3770.000000;2.871151
3769.000000;3.076890
3768.000000;3.242707
3767.000000;3.343819
3766.000000;3.550948
3765.000000;3.662712
3764.000000;3.397357
3763.000000;3.264361
3762.000000;3.221910
3761.000000;3.202800
3760.000000;3.260685
3759.000000;3.374162
3758.000000;3.511963
3757.000000;3.795865
3756.000000;3.721907
3755.000000;3.389460
3754.000000;3.280732
3753.000000;3.363411
3752.000000;3.595894
3751.000000;3.772881
3750.000000;3.862143
3749.000000;4.028650
3748.000000;4.215259
3747.000000;4.157077
3746.000000;3.918695
3745.000000;3.893900
3744.000000;4.009666
3743.000000;3.996967
3742.000000;3.845048
3741.000000;3.651756
3740.000000;3.641463
3739.000000;3.743820
3738.000000;3.816330
3737.000000;3.839997
3736.000000;3.718363
3735.000000;3.663419
3734.000000;3.739965
3733.000000;3.816917
3732.000000;3.717204
3731.000000;3.614729
3730.000000;3.619343
3729.000000;3.686024
3728.000000;3.529206
3727.000000;3.348594
3726.000000;3.258101
3725.000000;3.180680
3724.000000;3.114770
3723.000000;3.029185
3722.000000;2.988765
3721.000000;3.008611
3720.000000;3.033978
3719.000000;3.047327
3718.000000;3.098679
3717.000000;3.169692
3716.000000;3.208357
3715.000000;3.187097
3714.000000;3.365494
3713.000000;3.907348
3712.000000;3.678790
3711.000000;3.521016
3710.000000;3.460539
3709.000000;3.354990
3708.000000;3.246678
3707.000000;3.080104
3706.000000;2.919641
3705.000000;2.833080
3704.000000;2.901589
3703.000000;3.142601
3702.000000;3.261073
3701.000000;3.260456
3700.000000;3.335101
3699.000000;3.244117
3698.000000;3.096232
3697.000000;3.015734
3696.000000;2.997062
3695.000000;3.000207
3694.000000;3.025665
3693.000000;3.101456
3692.000000;3.149090
3691.000000;3.231503
3690.000000;3.523102
3689.000000;3.655513
3688.000000;3.518642
3687.000000;3.496012
3686.000000;3.539173
3685.000000;3.931582
3684.000000;3.591939
3683.000000;3.205602
3682.000000;3.007366
3681.000000;2.882424
3680.000000;2.901832
3679.000000;3.062116
3678.000000;3.345383
3677.000000;3.540405
3676.000000;3.598937
3675.000000;3.690518
3674.000000;3.798347
3673.000000;3.874022
3672.000000;3.852422
3671.000000;4.288964
3670.000000;4.120590
3669.000000;3.675759
3668.000000;3.477658
3667.000000;3.280068
3666.000000;3.122073
3665.000000;3.136563
3664.000000;3.547889
3663.000000;3.298976
3662.000000;3.000196
3661.000000;3.051548
3660.000000;3.174118
3659.000000;3.122449
3658.000000;3.019232
3657.000000;3.048974
3656.000000;3.171654
3655.000000;3.309986
3654.000000;3.399139
3653.000000;3.547981
3652.000000;3.990527
3651.000000;4.502429
3650.000000;4.058592
3649.000000;3.908624
3648.000000;3.903147
3647.000000;3.900004
3646.000000;3.833241
3645.000000;3.698428
3644.000000;3.543752
3643.000000;3.344816
3642.000000;3.214286
3641.000000;3.293098
3640.000000;3.462169
3639.000000;3.348496
3638.000000;3.117212
3637.000000;2.870837
3636.000000;2.740674
3635.000000;2.747385
3634.000000;2.958394
3633.000000;3.326177
3632.000000;3.150910
3631.000000;3.062140
3630.000000;3.238419
3629.000000;3.547466
3628.000000;3.714019
3627.000000;3.532897
3626.000000;3.276754
3625.000000;3.002286
3624.000000;2.862219
3623.000000;2.893289
3622.000000;2.971014
3621.000000;2.897641
3620.000000;2.825982
3619.000000;2.874551
3618.000000;3.001360
3617.000000;3.154569
3616.000000;3.322762
3615.000000;3.586153
3614.000000;3.858219
3613.000000;3.775336
3612.000000;3.673260
3611.000000;3.688897
3610.000000;3.652906
3609.000000;3.519046
3608.000000;3.488744
3607.000000;3.625612
3606.000000;3.683803
3605.000000;3.310799
3604.000000;3.015337
3603.000000;2.885673
3602.000000;2.917960
3601.000000;3.125781
3600.000000;3.274115
3599.000000;3.117283
3598.000000;2.966456
3597.000000;2.899321
3596.000000;2.948324
3595.000000;3.265495
3594.000000;3.585077
3593.000000;3.044058
3592.000000;2.772593
3591.000000;2.688254
3590.000000;2.758467
3589.000000;3.130993
3588.000000;3.586229
3587.000000;3.297987
3586.000000;3.250883
3585.000000;3.333264
3584.000000;3.343626
3583.000000;3.291604
3582.000000;3.147668
3581.000000;2.945267
3580.000000;2.777930
3579.000000;2.694404
3578.000000;2.704889
3577.000000;2.817444
3576.000000;3.021720
3575.000000;3.223776
3574.000000;3.226376
3573.000000;3.090217
3572.000000;3.256456
3571.000000;3.630530
3570.000000;3.070372
3569.000000;2.806599
3568.000000;2.758541
3567.000000;2.855132
3566.000000;3.153090
3565.000000;3.560651
3564.000000;3.322659
3563.000000;3.260857
3562.000000;3.724404
3561.000000;3.308463
3560.000000;2.983760
3559.000000;2.916891
3558.000000;2.927420
3557.000000;3.227643
3556.000000;3.474114
3555.000000;3.071794
3554.000000;3.036432
3553.000000;3.375172
3552.000000;4.082163
3551.000000;3.868970
3550.000000;3.909471
3549.000000;3.678755
3548.000000;3.429253
3547.000000;3.257837
3546.000000;3.112984
3545.000000;3.072794
3544.000000;3.201696
3543.000000;3.443886
3542.000000;3.215494
3541.000000;3.000456
3540.000000;2.951043
3539.000000;3.018014
3538.000000;3.219150
3537.000000;3.434753
3536.000000;3.340614
3535.000000;3.115120
3534.000000;2.984890
3533.000000;2.983917
3532.000000;3.101229
3531.000000;3.149913
3530.000000;3.047388
3529.000000;2.994714
3528.000000;3.017906
3527.000000;3.092463
3526.000000;3.185817
3525.000000;3.347314
3524.000000;3.516858
3523.000000;3.185085
3522.000000;2.906940
3521.000000;2.751073
3520.000000;2.678936
3519.000000;2.704469
3518.000000;2.849578
3517.000000;3.229546
3516.000000;3.520676
3515.000000;3.516327
3514.000000;3.793076
3513.000000;3.281732
3512.000000;3.139821
3511.000000;3.280348
3510.000000;3.421312
3509.000000;3.259123
3508.000000;3.050738
3507.000000;2.968687
3506.000000;3.002813
3505.000000;3.226671
3504.000000;3.301776
3503.000000;3.062988
3502.000000;2.954149
3501.000000;2.939833
3500.000000;2.947948
3499.000000;2.955181
3498.000000;2.970462
3497.000000;3.001168
3496.000000;3.054063
3495.000000;3.156557
3494.000000;3.299993
3493.000000;3.412775
3492.000000;3.381917
3491.000000;3.224032
3490.000000;3.486357
3489.000000;3.821457
3488.000000;3.083036
3487.000000;2.956778
3486.000000;3.062312
3485.000000;3.187170
3484.000000;3.433320
3483.000000;3.535219
3482.000000;3.005498
3481.000000;2.769386
3480.000000;2.702913
3479.000000;2.706175
3478.000000;2.768727
3477.000000;2.869998
3476.000000;2.997677
3475.000000;3.143345
3474.000000;3.280975
3473.000000;3.329952
3472.000000;3.360227
3471.000000;3.507099
3470.000000;3.824516
3469.000000;3.698866
3468.000000;3.285803
3467.000000;3.099258
3466.000000;3.054733
3465.000000;3.073682
3464.000000;3.082101
3463.000000;3.060450
3462.000000;3.068672
3461.000000;3.207004
3460.000000;3.428007
3459.000000;3.431802
3458.000000;3.309212
3457.000000;3.232110
3456.000000;3.112478
3455.000000;3.108905
3454.000000;3.616218
3453.000000;3.156163
3452.000000;2.756237
3451.000000;2.657122
3450.000000;2.687055
3449.000000;2.849141
3448.000000;3.076328
3447.000000;3.192511
3446.000000;3.039509
3445.000000;2.916607
3444.000000;2.893469
3443.000000;2.869615
3442.000000;2.826800
3441.000000;2.832445
3440.000000;2.910023
3439.000000;3.119416
3438.000000;3.515436
3437.000000;3.646375
3436.000000;3.595031
3435.000000;3.441900
3434.000000;3.300451
3433.000000;3.170461
3432.000000;3.055905
3431.000000;3.057588
3430.000000;3.241912
3429.000000;3.537248
3428.000000;3.197726
3427.000000;2.919404
3426.000000;2.848031
3425.000000;2.934444
3424.000000;3.076092
3423.000000;2.979467
3422.000000;2.897196
3421.000000;2.955000
3420.000000;3.059016
3419.000000;3.060509
3418.000000;2.985814
3417.000000;2.908210
3416.000000;2.884188
3415.000000;2.944690
3414.000000;3.245465
3413.000000;3.798783
3412.000000;3.086687
3411.000000;2.896093
3410.000000;2.841976
3409.000000;2.882119
3408.000000;3.024369
3407.000000;3.267589
3406.000000;3.380279
3405.000000;3.246719
3404.000000;3.254497
3403.000000;3.740832
3402.000000;3.764362
3401.000000;3.164643
3400.000000;2.971105
3399.000000;2.918914
3398.000000;3.020096
3397.000000;3.285589
3396.000000;3.265849
3395.000000;3.040677
3394.000000;2.911374
3393.000000;2.880068
3392.000000;2.959984
3391.000000;3.191242
3390.000000;3.782548
3389.000000;3.699039
3388.000000;3.415178
3387.000000;3.303307
3386.000000;3.178107
3385.000000;3.085808
3384.000000;3.028418
3383.000000;2.994237
3382.000000;3.012980
3381.000000;3.154208
3380.000000;3.317485
3379.000000;3.192952
3378.000000;3.035638
3377.000000;2.936708
3376.000000;2.877286
3375.000000;2.877306
3374.000000;3.067505
3373.000000;3.428312
3372.000000;3.049035
3371.000000;2.868223
3370.000000;2.957485
3369.000000;3.160098
3368.000000;3.216497
3367.000000;3.245076
3366.000000;3.289931
3365.000000;3.163060
3364.000000;3.165268
3363.000000;3.316712
3362.000000;3.500446
3361.000000;3.392548
3360.000000;3.091166
3359.000000;3.035791
3358.000000;3.081209
3357.000000;2.937916
3356.000000;2.820478
3355.000000;2.855950
3354.000000;2.985588
3353.000000;3.083255
3352.000000;3.111998
3351.000000;3.519904
3350.000000;3.448909
3349.000000;2.954819
3348.000000;3.057406
3347.000000;3.327300
3346.000000;2.843419
3345.000000;2.617482
3344.000000;2.633476
3343.000000;2.772507
3342.000000;3.100754
3341.000000;3.079092
3340.000000;2.821131
3339.000000;2.780013
3338.000000;2.949799
3337.000000;3.655180
3336.000000;3.210921
3335.000000;2.944278
3334.000000;2.907448
3333.000000;2.983259
3332.000000;3.236028
3331.000000;3.777149
3330.000000;3.491271
3329.000000;3.447454
3328.000000;3.477898
3327.000000;3.570973
3326.000000;3.728660
3325.000000;3.315129
3324.000000;3.114264
3323.000000;3.109200
3322.000000;3.283165
3321.000000;3.454602
3320.000000;3.296975
3319.000000;3.151392
3318.000000;3.060371
3317.000000;3.003572
3316.000000;2.997833
3315.000000;3.066467
3314.000000;3.249552
3313.000000;3.481579
3312.000000;3.378850
3311.000000;3.109076
3310.000000;2.987905
3309.000000;3.027739
3308.000000;3.106128
3307.000000;3.150832
3306.000000;3.294433
3305.000000;3.360096
3304.000000;3.152289
3303.000000;2.991629
3302.000000;2.973962
3301.000000;3.139939
3300.000000;3.656760
3299.000000;4.114176
3298.000000;3.733716
3297.000000;3.492327
3296.000000;3.179507
3295.000000;3.020069
3294.000000;2.917785
3293.000000;2.884546
3292.000000;2.921498
3291.000000;3.053891
3290.000000;3.521666
3289.000000;3.404148
3288.000000;3.329989
3287.000000;3.886011
3286.000000;3.445457
3285.000000;3.443144
3284.000000;3.721542
3283.000000;3.481655
3282.000000;3.112560
3281.000000;2.841176
3280.000000;2.719559
3279.000000;2.753879
3278.000000;2.962273
3277.000000;3.447909
3276.000000;4.059475
3275.000000;3.196091
3274.000000;2.924623
3273.000000;2.863625
3272.000000;2.946224
3271.000000;3.146879
3270.000000;3.323436
3269.000000;3.149627
3268.000000;2.993745
3267.000000;2.999117
3266.000000;3.151085
3265.000000;3.507969
3264.000000;3.724054
3263.000000;3.462524
3262.000000;3.378090
3261.000000;3.378179
3260.000000;3.210775
3259.000000;3.055514
3258.000000;3.038293
3257.000000;3.218543
3256.000000;3.621724
3255.000000;3.361291
3254.000000;3.323811
3253.000000;3.402245
3252.000000;3.304217
3251.000000;3.177676
3250.000000;3.021970
3249.000000;2.934003
3248.000000;2.996202
3247.000000;3.177490
3246.000000;3.247179
3245.000000;3.166237
3244.000000;3.136161
3243.000000;3.143131
3242.000000;3.127831
3241.000000;3.003272
3240.000000;2.840794
3239.000000;2.769341
3238.000000;2.818557
3237.000000;2.925721
3236.000000;2.936186
3235.000000;2.873024
3234.000000;2.866641
3233.000000;2.964915
3232.000000;3.166635
3231.000000;3.225930
3230.000000;3.081754
3229.000000;2.983389
3228.000000;2.959517
3227.000000;2.992886
3226.000000;3.050383
3225.000000;3.114053
3224.000000;3.207318
3223.000000;3.479776
3222.000000;3.653861
3221.000000;3.166597
3220.000000;3.006929
3219.000000;2.976359
3218.000000;3.003825
3217.000000;2.991063
3216.000000;2.940177
3215.000000;2.892256
3214.000000;2.931483
3213.000000;3.083843
3212.000000;3.292507
3211.000000;3.236654
3210.000000;2.958169
3209.000000;2.780756
3208.000000;2.695680
3207.000000;2.662016
3206.000000;2.682160
3205.000000;2.735809
3204.000000;2.793187
3203.000000;2.941142
3202.000000;3.475958
3201.000000;3.153621
3200.000000;3.029021
3199.000000;3.120295
3198.000000;3.199608
3197.000000;3.029926
3196.000000;2.858235
3195.000000;2.812755
3194.000000;2.903536
3193.000000;3.113693
3192.000000;3.183328
3191.000000;3.075941
3190.000000;3.071778
3189.000000;3.012314
3188.000000;2.839440
3187.000000;2.718285
3186.000000;2.708519
3185.000000;2.805958
3184.000000;2.964827
3183.000000;3.043135
3182.000000;2.965875
3181.000000;2.861550
3180.000000;2.858441
3179.000000;3.010304
3178.000000;3.434861
3177.000000;3.202867
3176.000000;3.058945
3175.000000;3.156601
3174.000000;3.536426
3173.000000;3.304378
3172.000000;3.060376
3171.000000;2.982610
3170.000000;2.877241
3169.000000;2.751100
3168.000000;2.726947
3167.000000;2.836245
3166.000000;3.038851
3165.000000;3.106449
3164.000000;3.036999
3163.000000;3.032281
3162.000000;3.119985
3161.000000;3.310674
3160.000000;3.159336
3159.000000;2.904373
3158.000000;2.833176
3157.000000;2.912856
3156.000000;3.277776
3155.000000;3.717130
3154.000000;3.403846
3153.000000;3.420914
3152.000000;3.599243
3151.000000;3.387358
3150.000000;3.086330
3149.000000;2.879252
3148.000000;2.768603
3147.000000;2.779454
3146.000000;2.982130
3145.000000;3.473693
3144.000000;3.088025
3143.000000;2.932757
3142.000000;2.926270
3141.000000;3.031250
3140.000000;3.101006
3139.000000;2.960748
3138.000000;2.865745
3137.000000;2.918218
3136.000000;3.068826
3135.000000;3.161589
3134.000000;3.087529
3133.000000;2.929248
3132.000000;2.855327
3131.000000;2.951663
3130.000000;3.176960
3129.000000;3.028999
3128.000000;2.912063
3127.000000;3.021574
3126.000000;3.268827
3125.000000;3.475652
3124.000000;3.350670
3123.000000;3.248348
3122.000000;3.273914
3121.000000;3.413438
3120.000000;3.799096
3119.000000;3.539760
3118.000000;3.538240
3117.000000;3.430727
3116.000000;3.152615
3115.000000;3.071245
3114.000000;3.150544
3113.000000;3.246672
3112.000000;3.100261
3111.000000;3.001067
3110.000000;3.410018
3109.000000;3.429569
3108.000000;2.876138
3107.000000;2.821529
3106.000000;2.879292
3105.000000;3.097149
3104.000000;3.412601
3103.000000;3.475788
3102.000000;3.515348
3101.000000;3.332393
3100.000000;3.128594
3099.000000;3.215220
3098.000000;3.088098
3097.000000;2.815826
3096.000000;2.751306
3095.000000;2.856678
3094.000000;3.021764
3093.000000;3.091038
3092.000000;3.159022
3091.000000;3.211310
3090.000000;3.162367
3089.000000;3.122166
3088.000000;3.156643
3087.000000;3.395150
3086.000000;3.896661
3085.000000;3.387852
3084.000000;3.140352
3083.000000;3.117040
3082.000000;3.330131
3081.000000;3.711196
3080.000000;3.187799
3079.000000;2.858528
3078.000000;2.757172
3077.000000;2.786160
3076.000000;2.926449
3075.000000;3.145163
3074.000000;3.422359
3073.000000;3.612325
3072.000000;3.610627
3071.000000;3.553389
3070.000000;3.298416
3069.000000;3.035928
3068.000000;2.824820
3067.000000;2.670352
3066.000000;2.605165
3065.000000;2.652861
3064.000000;2.809912
3063.000000;2.988613
3062.000000;3.041999
3061.000000;2.979070
3060.000000;2.938971
3059.000000;3.152018
3058.000000;3.599376
3057.000000;3.311908
3056.000000;3.399148
3055.000000;3.273703
3054.000000;2.985331
3053.000000;2.971862
3052.000000;3.172558
3051.000000;3.102937
3050.000000;2.835576
3049.000000;2.746797
3048.000000;2.791142
3047.000000;2.948257
3046.000000;3.041784
3045.000000;2.968861
3044.000000;2.885103
3043.000000;2.836993
3042.000000;2.859099
3041.000000;2.973461
3040.000000;2.983844
3039.000000;2.825832
3038.000000;2.749095
3037.000000;2.792692
3036.000000;2.964613
3035.000000;3.277992
3034.000000;3.422461
3033.000000;3.177045
3032.000000;3.011292
3031.000000;2.911894
3030.000000;2.904908
3029.000000;2.994721
3028.000000;3.158778
3027.000000;3.380083
3026.000000;3.566454
3025.000000;3.466510
3024.000000;3.296056
3023.000000;3.274961
3022.000000;3.539491
3021.000000;3.495408
3020.000000;3.283208
3019.000000;3.337628
3018.000000;3.307693
3017.000000;3.113915
3016.000000;2.963000
3015.000000;2.884248
3014.000000;2.888281
3013.000000;2.925894
3012.000000;2.930985
3011.000000;2.916989
3010.000000;2.930140
3009.000000;3.105015
3008.000000;3.575164
3007.000000;3.481101
3006.000000;3.611950
3005.000000;3.452865
3004.000000;3.001543
3003.000000;2.913723
3002.000000;2.899538
3001.000000;2.893044
3000.000000;2.874545
2999.000000;2.836693
2998.000000;2.779605
2997.000000;2.764591
2996.000000;2.841428
2995.000000;3.004851
2994.000000;3.031507
2993.000000;2.895149
2992.000000;2.835352
2991.000000;2.916999
2990.000000;3.301969
2989.000000;3.180364
2988.000000;2.862231
2987.000000;2.797750
2986.000000;2.898886
2985.000000;3.145517
2984.000000;3.254834
2983.000000;3.118880
2982.000000;3.094059
2981.000000;3.351945
2980.000000;3.813809
2979.000000;3.361641
2978.000000;3.281414
2977.000000;3.243915
2976.000000;3.113057
2975.000000;2.930156
2974.000000;2.824126
2973.000000;2.829541
2972.000000;2.987292
2971.000000;3.344832
2970.000000;3.105608
2969.000000;2.866597
2968.000000;2.889675
2967.000000;3.219022
2966.000000;3.436540
2965.000000;3.016194
2964.000000;2.870238
2963.000000;2.874632
2962.000000;2.992820
2961.000000;3.294034
2960.000000;3.247478
2959.000000;2.921030
2958.000000;2.786629
2957.000000;2.779741
2956.000000;2.872934
2955.000000;2.997930
2954.000000;2.966760
2953.000000;2.918514
2952.000000;3.067344
2951.000000;3.247209
2950.000000;3.045096
2949.000000;2.888932
2948.000000;2.821973
2947.000000;2.805793
2946.000000;2.817198
2945.000000;2.848551
2944.000000;2.928266
2943.000000;3.097015
2942.000000;3.356861
2941.000000;3.353431
2940.000000;3.279160
2939.000000;3.336045
2938.000000;3.413251
2937.000000;3.614826
2936.000000;3.244975
2935.000000;2.883950
2934.000000;2.722339
2933.000000;2.701371
2932.000000;2.826036
2931.000000;3.110181
2930.000000;3.242308
2929.000000;3.071045
2928.000000;2.993233
2927.000000;3.024502
2926.000000;3.310800
2925.000000;3.651337
2924.000000;3.180084
2923.000000;2.921989
2922.000000;2.773301
2921.000000;2.731793
2920.000000;2.762906
2919.000000;2.794765
2918.000000;2.751071
2917.000000;2.692660
2916.000000;2.707488
2915.000000;2.865041
2914.000000;3.270048
2913.000000;3.051204
2912.000000;2.816247
2911.000000;2.840297
2910.000000;3.077377
2909.000000;3.375737
2908.000000;3.095935
2907.000000;3.053316
2906.000000;3.308171
2905.000000;3.424878
2904.000000;3.219752
2903.000000;3.167312
2902.000000;3.136699
2901.000000;3.071943
2900.000000;3.130254
2899.000000;3.171377
2898.000000;2.923765
2897.000000;2.795605
2896.000000;2.880530
2895.000000;3.136523
2894.000000;3.706268
2893.000000;3.529855
2892.000000;3.020885
2891.000000;2.848036
2890.000000;2.781848
2889.000000;2.813678
2888.000000;2.944965
2887.000000;3.102599
2886.000000;3.122057
2885.000000;3.203964
2884.000000;3.369118
2883.000000;3.150493
2882.000000;3.029589
2881.000000;2.860341
2880.000000;2.686533
2879.000000;2.672429
2878.000000;2.816859
2877.000000;3.190731
2876.000000;3.342682
2875.000000;2.918877
2874.000000;2.720772
2873.000000;2.624564
2872.000000;2.617058
2871.000000;2.713966
2870.000000;3.061735
2869.000000;3.205106
2868.000000;2.830601
2867.000000;2.801713
2866.000000;2.959578
2865.000000;3.322561
2864.000000;3.524461
2863.000000;3.201302
2862.000000;2.978220
2861.000000;2.871267
2860.000000;2.892668
2859.000000;2.959868
2858.000000;2.968393
2857.000000;2.955809
2856.000000;2.988321
2855.000000;3.055773
2854.000000;3.118785
2853.000000;3.141959
2852.000000;3.136211
2851.000000;3.100885
2850.000000;3.044253
2849.000000;3.046027
2848.000000;3.119077
2847.000000;3.129217
2846.000000;3.071225
2845.000000;2.999191
2844.000000;2.931710
2843.000000;2.932507
2842.000000;2.916773
2841.000000;2.837387
2840.000000;2.823615
2839.000000;2.945663
2838.000000;3.100459
2837.000000;3.008915
2836.000000;2.855089
2835.000000;2.783787
2834.000000;2.754345
2833.000000;2.763418
2832.000000;2.823657
2831.000000;2.981165
2830.000000;3.217779
2829.000000;3.122899
2828.000000;2.958732
2827.000000;2.928032
2826.000000;2.898326
2825.000000;2.812208
2824.000000;2.743806
2823.000000;2.727447
2822.000000;2.771057
2821.000000;2.891601
2820.000000;3.050720
2819.000000;3.139416
2818.000000;3.373507
2817.000000;3.673072
2816.000000;3.353819
2815.000000;3.546311
2814.000000;3.639695
2813.000000;3.143842
2812.000000;2.997726
2811.000000;3.017035
2810.000000;3.098688
2809.000000;3.189594
2808.000000;3.349324
2807.000000;3.492530
2806.000000;3.460523
2805.000000;3.101892
2804.000000;2.821930
2803.000000;2.760655
2802.000000;2.860865
2801.000000;2.987985
2800.000000;2.986224
2799.000000;3.063359
2798.000000;3.335656
2797.000000;3.137537
2796.000000;2.848864
2795.000000;2.746957
2794.000000;2.767962
2793.000000;2.860020
2792.000000;2.929130
2791.000000;3.001524
2790.000000;3.041015
2789.000000;2.939463
2788.000000;2.897047
2787.000000;3.123714
2786.000000;3.359875
2785.000000;3.019840
2784.000000;2.863271
2783.000000;2.843792
2782.000000;2.919646
2781.000000;3.151078
2780.000000;3.065902
2779.000000;2.807249
2778.000000;2.705599
2777.000000;2.705018
2776.000000;2.766068
2775.000000;2.842504
2774.000000;2.901233
2773.000000;2.908129
2772.000000;2.837818
2771.000000;2.785211
2770.000000;2.796403
2769.000000;2.840458
2768.000000;2.895614
2767.000000;3.006316
2766.000000;3.234116
2765.000000;3.249319
2764.000000;3.048778
2763.000000;3.039041
2762.000000;3.013381
2761.000000;2.910492
2760.000000;2.884774
2759.000000;2.981192
2758.000000;3.503400
2757.000000;3.728217
2756.000000;3.213895
2755.000000;3.213209
2754.000000;3.416739
2753.000000;3.655516
2752.000000;3.221359
2751.000000;2.983635
2750.000000;2.961138
2749.000000;3.010303
2748.000000;3.014776
2747.000000;2.955540
2746.000000;2.961503
2745.000000;3.151438
2744.000000;3.635564
2743.000000;3.420063
2742.000000;3.123233
2741.000000;3.028290
2740.000000;3.038243
2739.000000;3.210874
2738.000000;3.221556
2737.000000;2.953853
2736.000000;2.799942
2735.000000;2.781784
2734.000000;2.867581
2733.000000;2.907725
2732.000000;2.890612
2731.000000;2.996995
2730.000000;3.119230
2729.000000;3.048087
2728.000000;2.991777
2727.000000;3.021986
2726.000000;3.254157
2725.000000;3.731798
2724.000000;3.257380
2723.000000;3.029649
2722.000000;3.031205
2721.000000;3.054470
2720.000000;3.101321
2719.000000;3.160171
2718.000000;3.379830
2717.000000;3.776041
2716.000000;3.464397
2715.000000;3.120914
2714.000000;2.898778
2713.000000;2.791980
2712.000000;2.810926
2711.000000;2.931065
2710.000000;3.030992
2709.000000;2.973108
2708.000000;2.916243
2707.000000;2.938496
2706.000000;3.045980
2705.000000;3.186493
2704.000000;3.183194
2703.000000;3.150528
2702.000000;3.219152
2701.000000;3.455753
2700.000000;3.517313
2699.000000;3.502580
2698.000000;3.842357
2697.000000;3.182128
2696.000000;2.828370
2695.000000;2.743947
2694.000000;2.812997
2693.000000;3.072113
2692.000000;3.210344
2691.000000;2.989483
2690.000000;2.877464
2689.000000;2.886152
2688.000000;2.967824
2687.000000;3.258753
2686.000000;3.308712
2685.000000;2.954911
2684.000000;2.898824
2683.000000;3.059409
2682.000000;3.258240
2681.000000;3.269087
2680.000000;3.567675
2679.000000;3.786872
2678.000000;3.353126
2677.000000;3.309144
2676.000000;3.083503
2675.000000;2.880377
2674.000000;2.840941
2673.000000;2.917682
2672.000000;3.078210
2671.000000;3.203762
2670.000000;3.093193
2669.000000;2.856738
2668.000000;2.750545
2667.000000;2.817248
2666.000000;3.128995
2665.000000;3.602660
2664.000000;3.346529
2663.000000;3.241237
2662.000000;3.201206
2661.000000;3.043741
2660.000000;2.893716
2659.000000;2.817012
2658.000000;2.829098
2657.000000;2.886752
2656.000000;2.939501
2655.000000;2.923434
2654.000000;2.838227
2653.000000;2.752913
2652.000000;2.727756
2651.000000;2.786882
2650.000000;2.909798
2649.000000;2.984161
2648.000000;2.966362
2647.000000;2.923087
2646.000000;2.888567
2645.000000;2.865403
2644.000000;2.896915
2643.000000;2.992922
2642.000000;3.247636
2641.000000;3.719067
2640.000000;3.374044
2639.000000;3.219350
2638.000000;3.374200
2637.000000;3.465702
2636.000000;3.465628
2635.000000;3.646093
2634.000000;3.574345
2633.000000;3.379064
2632.000000;3.422878
2631.000000;3.555003
2630.000000;3.569604
2629.000000;3.442142
2628.000000;3.341734
2627.000000;3.312538
2626.000000;3.557421
2625.000000;3.473259
2624.000000;3.021074
2623.000000;2.820666
2622.000000;2.752258
2621.000000;2.790748
2620.000000;2.930760
2619.000000;3.190572
2618.000000;3.378619
2617.000000;3.095411
2616.000000;2.914683
2615.000000;2.893817
2614.000000;3.051998
2613.000000;3.264499
2612.000000;3.017031
2611.000000;2.813071
2610.000000;2.754366
2609.000000;2.805333
2608.000000;3.013301
2607.000000;3.185060
2606.000000;3.095880
2605.000000;3.110339
2604.000000;3.242500
2603.000000;3.356635
2602.000000;3.374842
2601.000000;3.226428
2600.000000;3.039511
2599.000000;2.884089
2598.000000;2.778651
2597.000000;2.720732
2596.000000;2.694897
2595.000000;2.699875
2594.000000;2.774450
2593.000000;2.950066
2592.000000;3.196246
2591.000000;3.362272
2590.000000;3.352598
2589.000000;3.208286
2588.000000;3.072859
2587.000000;2.995210
2586.000000;3.043341
2585.000000;3.252258
2584.000000;3.186396
2583.000000;2.991274
2582.000000;2.936685
2581.000000;2.886580
2580.000000;2.962799
2579.000000;3.386461
2578.000000;3.257270
2577.000000;2.909208
2576.000000;2.856258
2575.000000;2.876045
2574.000000;2.944754
2573.000000;3.076477
2572.000000;3.055573
2571.000000;2.898947
2570.000000;2.819251
2569.000000;2.817775
2568.000000;2.865582
2567.000000;2.977976
2566.000000;3.325714
2565.000000;3.665474
2564.000000;3.201507
2563.000000;3.011745
2562.000000;2.972626
2561.000000;2.976014
2560.000000;2.999238
2559.000000;2.986648
2558.000000;2.903620
2557.000000;2.801864
2556.000000;2.749311
2555.000000;2.763421
2554.000000;2.828906
2553.000000;2.905287
2552.000000;2.957814
2551.000000;3.008330
2550.000000;3.091949
2549.000000;3.092091
2548.000000;2.965273
2547.000000;2.896592
2546.000000;2.911288
2545.000000;3.038672
2544.000000;3.354197
2543.000000;3.505294
2542.000000;3.499101
2541.000000;3.422129
2540.000000;3.199330
2539.000000;3.284541
2538.000000;3.646783
2537.000000;3.697064
2536.000000;3.509162
2535.000000;3.251092
2534.000000;3.116626
2533.000000;3.161413
2532.000000;3.395148
2531.000000;3.496594
2530.000000;3.525590
2529.000000;3.659951
2528.000000;3.262788
2527.000000;3.073179
2526.000000;3.047170
2525.000000;3.048584
2524.000000;3.023902
2523.000000;2.979006
2522.000000;3.032792
2521.000000;3.104383
2520.000000;3.041624
2519.000000;3.025191
2518.000000;3.135307
2517.000000;3.457722
2516.000000;3.736386
2515.000000;3.261640
2514.000000;3.140604
2513.000000;3.295232
2512.000000;3.214723
2511.000000;3.027467
2510.000000;2.992638
2509.000000;3.030276
2508.000000;3.095957
2507.000000;3.129631
2506.000000;3.039298
2505.000000;2.940399
2504.000000;2.929413
2503.000000;3.033683
2502.000000;3.287280
2501.000000;3.361391
2500.000000;3.141449
2499.000000;3.001773
2498.000000;2.881451
2497.000000;2.801964
2496.000000;2.807533
2495.000000;2.926635
2494.000000;3.038484
2493.000000;2.921386
2492.000000;2.809890
2491.000000;2.801812
2490.000000;2.873157
2489.000000;3.020201
2488.000000;3.166895
2487.000000;3.276392
2486.000000;3.391335
2485.000000;3.203576
2484.000000;2.973378
2483.000000;2.867667
2482.000000;2.869451
2481.000000;2.996130
2480.000000;2.986633
2479.000000;2.800846
2478.000000;2.699394
2477.000000;2.677565
2476.000000;2.708974
2475.000000;2.787669
2474.000000;2.830702
2473.000000;2.769333
2472.000000;2.750014
2471.000000;2.855988
2470.000000;3.222920
2469.000000;3.739828
2468.000000;3.307074
2467.000000;3.212526
2466.000000;3.072495
2465.000000;2.903786
2464.000000;2.850347
2463.000000;2.892046
2462.000000;2.981868
2461.000000;3.011770
2460.000000;3.067307
2459.000000;3.235644
2458.000000;3.194790
2457.000000;3.063005
2456.000000;3.056193
2455.000000;3.038402
2454.000000;2.984792
2453.000000;2.937535
2452.000000;2.909304
2451.000000;2.925646
2450.000000;2.968262
2449.000000;2.946731
2448.000000;2.890003
2447.000000;2.868622
2446.000000;2.851325
2445.000000;2.844701
2444.000000;2.894856
2443.000000;2.980154
2442.000000;3.026021
2441.000000;2.980773
2440.000000;2.931119
2439.000000;3.010019
2438.000000;3.226266
2437.000000;3.142584
2436.000000;2.964783
2435.000000;2.957298
2434.000000;3.088034
2433.000000;3.641762
2432.000000;3.443354
2431.000000;3.041917
2430.000000;3.016659
2429.000000;3.129619
2428.000000;3.175971
2427.000000;3.037692
2426.000000;2.964811
2425.000000;2.995512
2424.000000;3.141633
2423.000000;3.058400
2422.000000;2.872472
2421.000000;2.825761
2420.000000;3.054748
2419.000000;3.804175
2418.000000;3.025928
2417.000000;2.830552
2416.000000;2.846671
2415.000000;2.938307
2414.000000;3.377369
2413.000000;3.571555
2412.000000;2.934958
2411.000000;2.800512
2410.000000;2.788957
2409.000000;2.834787
2408.000000;2.892799
2407.000000;2.996334
2406.000000;3.290605
2405.000000;3.336487
2404.000000;3.187200
2403.000000;3.237299
2402.000000;3.306747
2401.000000;3.252975
2400.000000;3.163408
2399.000000;3.147765
2398.000000;3.231701
2397.000000;3.377659
2396.000000;3.453610
2395.000000;3.191242
2394.000000;2.955705
2393.000000;2.901064
2392.000000;2.995947
2391.000000;3.033474
2390.000000;2.955647
2389.000000;2.984251
2388.000000;3.138937
2387.000000;3.357400
2386.000000;3.247889
2385.000000;2.967753
2384.000000;2.835557
2383.000000;2.834029
2382.000000;2.929064
2381.000000;3.034338
2380.000000;3.043879
2379.000000;2.989519
2378.000000;2.951727
2377.000000;3.005352
2376.000000;3.211998
2375.000000;3.243396
2374.000000;3.135498
2373.000000;3.211662
2372.000000;3.320244
2371.000000;3.298372
2370.000000;3.280627
2369.000000;3.206099
2368.000000;3.048264
2367.000000;2.941263
2366.000000;2.895161
2365.000000;2.846506
2364.000000;2.830849
2363.000000;2.894945
2362.000000;3.142797
2361.000000;3.615043
2360.000000;3.105758
2359.000000;2.855952
2358.000000;2.894425
2357.000000;3.071279
2356.000000;3.019888
2355.000000;2.930615
2354.000000;3.025138
2353.000000;2.975386
2352.000000;2.934283
2351.000000;3.448400
2350.000000;3.142839
2349.000000;2.726139
2348.000000;2.742807
2347.000000;2.959444
2346.000000;2.590881
2345.000000;2.473421
2344.000000;2.568856
2343.000000;2.717165
2342.000000;2.926622
2341.000000;3.184805
2340.000000;3.629359
2339.000000;3.385477
2338.000000;3.302752
2337.000000;3.721974
2336.000000;3.115419
2335.000000;2.850066
2334.000000;2.861316
2333.000000;3.071748
2332.000000;2.965132
2331.000000;2.712726
2330.000000;2.705927
2329.000000;2.824027
2328.000000;2.872657
2327.000000;2.779834
2326.000000;2.737277
2325.000000;2.748773
2324.000000;2.782425
2323.000000;2.859972
2322.000000;3.013023
2321.000000;3.025221
2320.000000;2.855126
2319.000000;2.787468
2318.000000;2.835677
2317.000000;2.882127
2316.000000;2.914269
2315.000000;3.005540
2314.000000;3.124785
2313.000000;3.143719
2312.000000;3.055677
2311.000000;2.939561
2310.000000;2.886064
2309.000000;2.911958
2308.000000;3.007875
2307.000000;3.128398
2306.000000;3.214053
2305.000000;3.477565
2304.000000;3.900976
2303.000000;3.406177
2302.000000;3.321600
2301.000000;3.448908
2300.000000;3.517729
2299.000000;3.520977
2298.000000;3.383505
2297.000000;3.206700
2296.000000;3.155234
2295.000000;3.212906
2294.000000;3.163365
2293.000000;2.948612
2292.000000;2.805215
2291.000000;2.778773
2290.000000;2.875331
2289.000000;3.145470
2288.000000;3.310408
2287.000000;3.099633
2286.000000;3.042849
2285.000000;3.119683
2284.000000;3.236144
2283.000000;3.251361
2282.000000;3.478986
2281.000000;3.504837
2280.000000;3.000962
2279.000000;2.907453
2278.000000;2.946561
2277.000000;3.042446
2276.000000;3.095415
2275.000000;3.357885
2274.000000;3.695374
2273.000000;3.183805
2272.000000;3.008663
2271.000000;3.061473
2270.000000;3.210617
2269.000000;3.076629
2268.000000;2.886617
2267.000000;2.837464
2266.000000;2.877982
2265.000000;2.941325
2264.000000;2.958272
2263.000000;2.990485
2262.000000;3.205384
2261.000000;3.880738
2260.000000;3.149392
2259.000000;2.914932
2258.000000;2.847185
2257.000000;2.882855
2256.000000;3.004999
2255.000000;3.083537
2254.000000;3.028692
2253.000000;2.994716
2252.000000;2.974695
2251.000000;2.957387
2250.000000;3.050791
2249.000000;3.227418
2248.000000;3.046928
2247.000000;2.868954
2246.000000;2.877418
2245.000000;3.016372
2244.000000;3.388205
2243.000000;3.570671
2242.000000;3.352411
2241.000000;3.215671
2240.000000;3.064282
2239.000000;3.009600
2238.000000;3.053110
2237.000000;3.074604
2236.000000;3.034682
2235.000000;3.064540
2234.000000;3.259775
2233.000000;3.230019
2232.000000;3.012468
2231.000000;2.984025
2230.000000;3.127887
2229.000000;3.473662
2228.000000;3.767223
2227.000000;3.326915
2226.000000;2.929534
2225.000000;2.712079
2224.000000;2.655769
2223.000000;2.736387
2222.000000;2.920565
2221.000000;3.012915
2220.000000;2.940824
2219.000000;2.921593
2218.000000;3.010597
2217.000000;3.188662
2216.000000;3.261044
2215.000000;3.102166
2214.000000;2.948807
2213.000000;2.909720
2212.000000;2.949963
2211.000000;2.935846
2210.000000;2.923276
2209.000000;3.058543
2208.000000;3.193575
2207.000000;3.121088
2206.000000;3.129671
2205.000000;2.965150
2204.000000;2.842990
2203.000000;2.905255
2202.000000;3.129079
2201.000000;3.590067
2200.000000;4.208847
2199.000000;3.321664
2198.000000;3.073259
2197.000000;2.873617
2196.000000;2.781612
2195.000000;2.792001
2194.000000;2.908678
2193.000000;3.043472
2192.000000;3.013560
2191.000000;2.946352
2190.000000;2.981226
2189.000000;3.043865
2188.000000;3.037321
2187.000000;3.071313
2186.000000;3.216244
2185.000000;3.275412
2184.000000;3.124777
2183.000000;3.029316
2182.000000;3.073538
2181.000000;3.314964
2180.000000;3.179827
2179.000000;2.925470
2178.000000;2.846305
2177.000000;2.897847
2176.000000;3.064840
2175.000000;3.174362
2174.000000;3.100066
2173.000000;3.183493
2172.000000;3.225614
2171.000000;2.995212
2170.000000;2.823181
2169.000000;2.686628
2168.000000;2.606880
2167.000000;2.588325
2166.000000;2.632910
2165.000000;2.730414
2164.000000;2.826887
2163.000000;2.873498
2162.000000;2.902225
2161.000000;2.971965
2160.000000;3.082035
2159.000000;3.135697
2158.000000;3.129361
2157.000000;3.187411
2156.000000;3.429820
2155.000000;3.326940
2154.000000;3.171106
2153.000000;3.253254
2152.000000;3.214756
2151.000000;2.999726
2150.000000;2.996587
2149.000000;3.257294
2148.000000;3.456072
2147.000000;3.319263
2146.000000;3.291756
2145.000000;2.951507
2144.000000;2.760159
2143.000000;2.706747
2142.000000;2.784013
2141.000000;2.924269
2140.000000;2.996532
2139.000000;3.038880
2138.000000;3.120538
2137.000000;3.204381
2136.000000;3.309176
2135.000000;3.737473
2134.000000;3.209095
2133.000000;2.898864
2132.000000;2.871767
2131.000000;2.979155
2130.000000;3.594725
2129.000000;3.337656
2128.000000;2.991557
2127.000000;2.944492
2126.000000;3.081539
2125.000000;3.431223
2124.000000;3.638313
2123.000000;3.424880
2122.000000;3.425499
2121.000000;3.455873
2120.000000;3.241220
2119.000000;3.016373
2118.000000;2.923620
2117.000000;2.967646
2116.000000;3.204912
2115.000000;3.477223
2114.000000;3.227486
2113.000000;2.934841
2112.000000;2.746728
2111.000000;2.713372
2110.000000;2.832905
2109.000000;3.060278
2108.000000;3.189581
2107.000000;3.222336
2106.000000;3.457525
2105.000000;3.529156
2104.000000;3.222650
2103.000000;3.072241
2102.000000;3.023581
2101.000000;3.084592
2100.000000;3.315222
2099.000000;3.455611
2098.000000;3.390697
2097.000000;3.451443
2096.000000;3.463025
2095.000000;3.359496
2094.000000;3.176275
2093.000000;3.015449
2092.000000;2.928014
2091.000000;2.931874
2090.000000;3.064534
2089.000000;3.251799
2088.000000;3.176482
2087.000000;3.081085
2086.000000;3.159620
2085.000000;3.323713
2084.000000;3.315033
2083.000000;3.167610
2082.000000;3.011660
2081.000000;2.935242
2080.000000;2.931263
2079.000000;2.939230
2078.000000;2.988374
2077.000000;3.254676
2076.000000;3.463100
2075.000000;3.017385
2074.000000;2.872463
2073.000000;2.899540
2072.000000;2.981098
2071.000000;3.006497
2070.000000;3.037271
2069.000000;3.086406
2068.000000;3.039620
2067.000000;3.007915
2066.000000;3.069497
2065.000000;3.138094
2064.000000;3.142466
2063.000000;3.272741
2062.000000;3.547092
2061.000000;3.811112
2060.000000;3.911330
2059.000000;3.366085
2058.000000;3.136446
2057.000000;3.065997
2056.000000;3.289108
2055.000000;3.409599
2054.000000;2.961342
2053.000000;2.768079
2052.000000;2.733203
2051.000000;2.784977
2050.000000;2.869523
2049.000000;2.900810
2048.000000;2.868069
2047.000000;2.824638
2046.000000;2.815746
2045.000000;2.880643
2044.000000;3.011089
2043.000000;2.997697
2042.000000;2.828251
2041.000000;2.722690
2040.000000;2.716451
2039.000000;2.822373
2038.000000;3.043569
2037.000000;3.176234
2036.000000;3.081182
2035.000000;2.989347
2034.000000;2.887828
2033.000000;2.821781
2032.000000;2.797955
2031.000000;2.821379
2030.000000;2.912144
2029.000000;3.061268
2028.000000;3.194933
2027.000000;3.228667
2026.000000;3.200083
2025.000000;3.048641
2024.000000;2.870055
2023.000000;2.796989
2022.000000;2.855498
2021.000000;3.068024
2020.000000;3.420940
2019.000000;3.268029
2018.000000;3.226016
2017.000000;3.382200
2016.000000;3.229168
2015.000000;3.035687
2014.000000;2.958643
2013.000000;2.913740
2012.000000;2.854772
2011.000000;2.802901
2010.000000;2.791522
2009.000000;2.833393
2008.000000;2.921652
2007.000000;3.048171
2006.000000;3.137410
2005.000000;3.061062
2004.000000;2.948693
2003.000000;2.959497
2002.000000;3.046087
2001.000000;3.632886
2000.000000;3.304687
1999.000000;2.824235
1998.000000;2.682552
1997.000000;2.656179
1996.000000;2.708470
1995.000000;2.790703
1994.000000;2.886038
1993.000000;3.032711
1992.000000;3.350508
1991.000000;4.091988
1990.000000;3.241232
1989.000000;2.971886
1988.000000;2.865638
1987.000000;2.898622
1986.000000;3.142006
1985.000000;3.378672
1984.000000;2.928570
1983.000000;2.717908
1982.000000;2.648013
1981.000000;2.683246
1980.000000;2.791636
1979.000000;2.920207
1978.000000;2.999860
1977.000000;3.051012
1976.000000;3.169545
1975.000000;3.226140
1974.000000;3.146929
1973.000000;3.179521
1972.000000;3.502315
1971.000000;3.953001
1970.000000;3.622589
1969.000000;3.455994
1968.000000;3.335937
1967.000000;3.255103
1966.000000;3.243993
1965.000000;3.242746
1964.000000;3.483856
1963.000000;3.901998
1962.000000;3.568951
1961.000000;3.784363
1960.000000;2.991704
1959.000000;2.797828
1958.000000;2.783778
1957.000000;2.828207
1956.000000;2.838557
1955.000000;2.867380
1954.000000;2.921892
1953.000000;2.947379
1952.000000;2.977074
1951.000000;3.042270
1950.000000;3.114140
1949.000000;3.197611
1948.000000;3.324648
1947.000000;3.369769
1946.000000;3.332638
1945.000000;3.218236
1944.000000;3.153071
1943.000000;3.200456
1942.000000;3.160730
1941.000000;3.012297
1940.000000;2.876989
1939.000000;2.847991
1938.000000;2.981358
1937.000000;3.166558
1936.000000;3.146128
1935.000000;3.053918
1934.000000;2.915979
1933.000000;2.812889
1932.000000;2.779768
1931.000000;2.823894
1930.000000;2.966955
1929.000000;3.256227
1928.000000;3.608412
1927.000000;3.387193
1926.000000;3.107168
1925.000000;2.984380
1924.000000;2.954352
1923.000000;2.919571
1922.000000;2.839030
1921.000000;2.777990
1920.000000;2.795069
1919.000000;2.931876
1918.000000;3.264366
1917.000000;3.869430
1916.000000;3.520382
1915.000000;3.452774
1914.000000;3.445040
1913.000000;3.128735
1912.000000;3.064098
1911.000000;3.362212
1910.000000;3.425041
1909.000000;3.037243
1908.000000;2.979537
1907.000000;3.172648
1906.000000;3.667356
1905.000000;3.554115
1904.000000;3.385342
1903.000000;3.299108
1902.000000;3.239137
1901.000000;3.268887
1900.000000;3.279271
1899.000000;3.175720
1898.000000;3.001565
1897.000000;2.871662
1896.000000;2.814131
1895.000000;2.830524
1894.000000;2.859188
1893.000000;2.859720
1892.000000;2.846404
1891.000000;2.930838
1890.000000;3.414213
1889.000000;2.987936
1888.000000;2.703701
1887.000000;2.704691
1886.000000;2.936007
1885.000000;3.071098
1884.000000;2.811222
1883.000000;2.768816
1882.000000;2.943106
1881.000000;3.164936
1880.000000;2.932386
1879.000000;2.835037
1878.000000;2.916053
1877.000000;3.061840
1876.000000;3.065977
1875.000000;2.876624
1874.000000;2.734797
1873.000000;2.731969
1872.000000;2.988822
1871.000000;3.498741
1870.000000;3.225591
1869.000000;3.123055
1868.000000;3.175003
1867.000000;3.104920
1866.000000;3.079684
1865.000000;3.180109
1864.000000;3.231404
1863.000000;3.057671
1862.000000;2.994603
1861.000000;3.178692
1860.000000;3.281878
1859.000000;3.085208
1858.000000;3.065121
1857.000000;3.078024
1856.000000;2.915670
1855.000000;2.830383
1854.000000;2.893208
1853.000000;3.033416
1852.000000;3.134384
1851.000000;3.115866
1850.000000;3.074582
1849.000000;3.165089
1848.000000;3.421734
1847.000000;3.396695
1846.000000;3.057812
1845.000000;2.882728
1844.000000;2.864179
1843.000000;2.992833
1842.000000;3.181560
1841.000000;3.145654
1840.000000;3.074820
1839.000000;3.115234
1838.000000;3.209069
1837.000000;3.536498
1836.000000;3.394212
1835.000000;3.066380
1834.000000;2.954245
1833.000000;2.892654
1832.000000;2.850224
1831.000000;2.809252
1830.000000;2.756605
1829.000000;2.751194
1828.000000;2.786509
1827.000000;2.802243
1826.000000;2.822658
1825.000000;2.936378
1824.000000;3.096822
1823.000000;3.091636
1822.000000;2.931372
1821.000000;2.760155
1820.000000;2.645532
1819.000000;2.635490
1818.000000;2.738891
1817.000000;2.947098
1816.000000;3.013971
1815.000000;2.975480
1814.000000;3.452036
1813.000000;3.243304
1812.000000;2.793848
1811.000000;2.707903
1810.000000;2.713921
1809.000000;2.809947
1808.000000;2.994604
1807.000000;3.092021
1806.000000;3.008382
1805.000000;2.983806
1804.000000;3.078856
1803.000000;3.213772
1802.000000;3.250913
1801.000000;3.461794
1800.000000;3.743195
1799.000000;3.271195
1798.000000;3.086071
1797.000000;3.007991
1796.000000;3.024791
1795.000000;3.116356
1794.000000;3.168175
1793.000000;3.172043
1792.000000;3.114907
1791.000000;3.079052
1790.000000;3.054386
1789.000000;2.989948
1788.000000;2.924219
1787.000000;2.938428
1786.000000;3.071294
1785.000000;3.129836
1784.000000;3.003470
1783.000000;2.908305
1782.000000;2.858099
1781.000000;2.828788
1780.000000;2.896346
1779.000000;3.062512
1778.000000;3.031743
1777.000000;2.966399
1776.000000;3.006015
1775.000000;2.939616
1774.000000;2.857559
1773.000000;2.883324
1772.000000;2.998555
1771.000000;3.113503
1770.000000;3.144197
1769.000000;3.069476
1768.000000;2.949010
1767.000000;2.877790
1766.000000;2.848360
1765.000000;2.827424
1764.000000;2.827612
1763.000000;2.879781
1762.000000;2.989621
1761.000000;3.093965
1760.000000;3.127207
1759.000000;3.135508
1758.000000;3.297046
1757.000000;3.566698
1756.000000;3.354075
1755.000000;3.166502
1754.000000;3.134868
1753.000000;3.224683
1752.000000;3.346552
1751.000000;3.399923
1750.000000;3.430301
1749.000000;3.437099
1748.000000;3.457704
1747.000000;3.172540
1746.000000;2.877782
1745.000000;2.766223
1744.000000;2.811482
1743.000000;2.933482
1742.000000;2.961107
1741.000000;2.921770
1740.000000;2.952021
1739.000000;3.058734
1738.000000;3.243144
1737.000000;3.435246
1736.000000;3.043237
1735.000000;2.707416
1734.000000;2.632547
1733.000000;2.690721
1732.000000;2.901197
1731.000000;3.178621
1730.000000;2.903793
1729.000000;2.770307
1728.000000;2.848948
1727.000000;3.020005
1726.000000;3.391714
1725.000000;4.225328
1724.000000;3.801036
1723.000000;3.435774
1722.000000;3.289211
1721.000000;3.047988
1720.000000;2.883031
1719.000000;2.906354
1718.000000;3.141328
1717.000000;3.223880
1716.000000;3.305964
1715.000000;3.224754
1714.000000;2.837377
1713.000000;2.824225
1712.000000;3.111033
1711.000000;3.384907
1710.000000;3.225830
1709.000000;3.183483
1708.000000;3.629283
1707.000000;3.698725
1706.000000;3.157469
1705.000000;2.945606
1704.000000;2.833240
1703.000000;2.785772
1702.000000;2.849140
1701.000000;3.069133
1700.000000;3.205801
1699.000000;3.118582
1698.000000;2.988144
1697.000000;3.088700
1696.000000;3.227453
1695.000000;2.918707
1694.000000;2.911316
1693.000000;3.031804
1692.000000;3.045744
1691.000000;3.105204
1690.000000;3.031259
1689.000000;2.889794
1688.000000;2.850864
1687.000000;2.896308
1686.000000;3.025128
1685.000000;3.274665
1684.000000;3.441199
1683.000000;3.241050
1682.000000;2.936196
1681.000000;2.758140
1680.000000;2.739184
1679.000000;2.850995
1678.000000;3.025043
1677.000000;3.282876
1676.000000;4.097151
1675.000000;3.690205
1674.000000;3.238057
1673.000000;3.079534
1672.000000;2.985074
1671.000000;2.980145
1670.000000;2.982294
1669.000000;2.898584
1668.000000;2.734814
1667.000000;2.573781
1666.000000;2.503759
1665.000000;2.564847
1664.000000;2.790294
1663.000000;3.105921
1662.000000;3.044343
1661.000000;2.916335
1660.000000;2.838830
1659.000000;2.774855
1658.000000;2.774180
1657.000000;2.861577
1656.000000;3.332948
1655.000000;3.258655
1654.000000;2.773032
1653.000000;2.697259
1652.000000;2.741065
1651.000000;2.722036
1650.000000;2.780412
1649.000000;2.961141
1648.000000;2.851294
1647.000000;2.765223
1646.000000;2.822665
1645.000000;2.956071
1644.000000;3.097265
1643.000000;2.941110
1642.000000;2.852183
1641.000000;2.934200
1640.000000;3.090499
1639.000000;3.341760
1638.000000;3.458422
1637.000000;3.206054
1636.000000;2.943093
1635.000000;2.759665
1634.000000;2.687452
1633.000000;2.752618
1632.000000;3.155844
1631.000000;3.414192
1630.000000;3.309472
1629.000000;3.600390
1628.000000;3.046539
1627.000000;2.820380
1626.000000;2.789030
1625.000000;2.981487
1624.000000;3.261023
1623.000000;2.979174
1622.000000;2.899506
1621.000000;3.074839
1620.000000;3.426778
1619.000000;3.571287
1618.000000;3.341192
1617.000000;3.217501
1616.000000;3.018451
1615.000000;2.802527
1614.000000;2.709612
1613.000000;2.723395
1612.000000;2.783174
1611.000000;2.828656
1610.000000;2.818406
1609.000000;2.817291
1608.000000;2.860130
1607.000000;3.100343
1606.000000;3.544947
1605.000000;3.202717
1604.000000;3.137092
1603.000000;3.308316
1602.000000;3.362266
1601.000000;3.386405
1600.000000;3.072812
1599.000000;2.869418
1598.000000;2.892654
1597.000000;3.079401
1596.000000;3.402170
1595.000000;3.610558
1594.000000;3.326590
1593.000000;3.054506
1592.000000;2.915706
1591.000000;2.916907
1590.000000;2.989690
1589.000000;3.189233
1588.000000;3.592386
1587.000000;3.277975
1586.000000;3.045011
1585.000000;3.029275
1584.000000;3.057376
1583.000000;3.060840
1582.000000;3.080961
1581.000000;3.215363
1580.000000;3.418371
1579.000000;3.468073
1578.000000;3.191414
1577.000000;2.917888
1576.000000;2.774909
1575.000000;2.772145
1574.000000;2.997141
1573.000000;3.354825
1572.000000;3.269236
1571.000000;3.257816
1570.000000;3.380731
1569.000000;3.400197
1568.000000;3.253644
1567.000000;2.988552
1566.000000;2.821016
1565.000000;2.798922
1564.000000;2.891223
1563.000000;2.999330
1562.000000;2.932260
1561.000000;2.746061
1560.000000;2.661173
1559.000000;2.735495
1558.000000;2.951452
1557.000000;3.263486
1556.000000;3.032900
1555.000000;3.009351
1554.000000;3.212766
1553.000000;2.982133
1552.000000;2.848361
1551.000000;2.835601
1550.000000;2.910158
1549.000000;3.025848
1548.000000;3.129410
1547.000000;3.502747
1546.000000;3.734464
1545.000000;3.262835
1544.000000;3.179449
1543.000000;3.259972
1542.000000;3.400352
1541.000000;3.473987
1540.000000;3.589765
1539.000000;4.192511
1538.000000;3.883451
1537.000000;3.141602
1536.000000;2.768414
1535.000000;2.609867
1534.000000;2.580107
1533.000000;2.610702
1532.000000;2.648742
1531.000000;2.665192
1530.000000;2.678237
1529.000000;2.690441
1528.000000;2.696595
1527.000000;2.724811
1526.000000;2.780475
1525.000000;3.034312
1524.000000;3.357283
1523.000000;2.923035
1522.000000;2.767678
1521.000000;2.856267
1520.000000;2.971594
1519.000000;3.193610
1518.000000;3.566899
1517.000000;3.302025
1516.000000;3.135525
1515.000000;3.176333
1514.000000;3.093174
1513.000000;3.145694
1512.000000;3.668060
1511.000000;3.383092
1510.000000;3.002327
1509.000000;2.902064
1508.000000;2.875820
1507.000000;2.864124
1506.000000;2.865201
1505.000000;2.942492
1504.000000;3.300275
1503.000000;3.848809
1502.000000;3.357173
1501.000000;3.524820
1500.000000;4.060287
1499.000000;3.381902
1498.000000;3.030352
1497.000000;2.849506
1496.000000;2.825802
1495.000000;2.924814
1494.000000;3.235510
1493.000000;3.625990
1492.000000;3.217441
1491.000000;3.087630
1490.000000;3.126653
1489.000000;3.079391
1488.000000;2.996658
1487.000000;2.951442
1486.000000;2.970887
1485.000000;3.093832
1484.000000;3.218148
1483.000000;3.185409
1482.000000;3.292527
1481.000000;3.220437
1480.000000;2.959105
1479.000000;2.930287
1478.000000;3.060734
1477.000000;3.090722
1476.000000;3.057690
1475.000000;3.139461
1474.000000;3.322169
1473.000000;3.451883
1472.000000;3.356609
1471.000000;3.210231
1470.000000;3.092558
1469.000000;2.979051
1468.000000;2.848597
1467.000000;2.790150
1466.000000;2.853485
1465.000000;2.925343
1464.000000;2.891908
1463.000000;2.870601
1462.000000;2.983075
1461.000000;3.135548
1460.000000;3.150089
1459.000000;3.209310
1458.000000;3.170260
1457.000000;3.004055
1456.000000;2.921288
1455.000000;3.045712
1454.000000;3.085429
1453.000000;2.771170
1452.000000;2.665205
1451.000000;2.701106
1450.000000;2.791777
1449.000000;2.873746
1448.000000;2.825605
1447.000000;2.792271
1446.000000;2.807181
1445.000000;2.803659
1444.000000;2.841623
1443.000000;3.087156
1442.000000;3.300666
1441.000000;3.107082
1440.000000;3.076372
1439.000000;3.103290
1438.000000;3.118668
1437.000000;3.158440
1436.000000;3.259567
1435.000000;3.670969
1434.000000;3.393205
1433.000000;3.009524
1432.000000;2.943978
1431.000000;3.056860
1430.000000;3.281651
1429.000000;3.633541
1428.000000;3.914410
1427.000000;3.281124
1426.000000;2.949419
1425.000000;2.799373
1424.000000;2.737770
1423.000000;2.733978
1422.000000;2.788382
1421.000000;2.917615
1420.000000;2.954634
1419.000000;2.840985
1418.000000;2.774491
1417.000000;2.796652
1416.000000;2.926205
1415.000000;3.117323
1414.000000;3.145603
1413.000000;3.003483
1412.000000;2.874732
1411.000000;2.813066
1410.000000;2.837193
1409.000000;2.918885
1408.000000;2.960224
1407.000000;2.913847
1406.000000;2.832505
1405.000000;2.792691
1404.000000;2.816659
1403.000000;2.892888
1402.000000;3.028828
1401.000000;3.176349
1400.000000;3.121674
1399.000000;2.982351
1398.000000;2.925298
1397.000000;2.923777
1396.000000;2.963629
1395.000000;3.105578
1394.000000;3.272467
1393.000000;3.488201
1392.000000;3.702045
1391.000000;3.186416
1390.000000;2.949092
1389.000000;2.908743
1388.000000;3.005625
1387.000000;3.398150
1386.000000;3.723655
1385.000000;3.244196
1384.000000;3.167669
1383.000000;3.405891
1382.000000;3.387657
1381.000000;3.137028
1380.000000;3.190937
1379.000000;3.476193
1378.000000;3.230252
1377.000000;3.082471
1376.000000;3.203575
1375.000000;3.367977
1374.000000;3.268235
1373.000000;3.121114
1372.000000;3.057744
1371.000000;3.029418
1370.000000;2.994044
1369.000000;2.947636
1368.000000;2.904112
1367.000000;2.891001
1366.000000;2.962479
1365.000000;3.131914
1364.000000;3.290330
1363.000000;3.247841
1362.000000;3.090359
1361.000000;2.995881
1360.000000;2.998033
1359.000000;3.063782
1358.000000;3.105624
1357.000000;3.052955
1356.000000;3.000436
1355.000000;3.033284
1354.000000;3.107291
1353.000000;3.070776
1352.000000;2.905323
1351.000000;2.775605
1350.000000;2.736900
1349.000000;2.748806
1348.000000;2.744264
1347.000000;2.717247
1346.000000;2.727975
1345.000000;2.820516
1344.000000;2.936354
1343.000000;2.956343
1342.000000;2.965733
1341.000000;2.980004
1340.000000;2.957446
1339.000000;3.086882
1338.000000;3.498904
1337.000000;3.299720
1336.000000;3.052158
1335.000000;3.021223
1334.000000;2.936500
1333.000000;2.866593
1332.000000;2.853183
1331.000000;2.825896
1330.000000;2.801654
1329.000000;2.863396
1328.000000;2.988756
1327.000000;3.048105
1326.000000;3.040493
1325.000000;3.047075
1324.000000;3.080945
1323.000000;3.300827
1322.000000;3.875521
1321.000000;3.354747
1320.000000;3.305927
1319.000000;3.535093
1318.000000;3.352349
1317.000000;3.191910
1316.000000;3.197380
1315.000000;3.206269
1314.000000;3.058955
1313.000000;2.910845
1312.000000;2.790897
1311.000000;2.721311
1310.000000;2.714727
1309.000000;2.768649
1308.000000;2.895232
1307.000000;3.099135
1306.000000;3.613577
1305.000000;3.769306
1304.000000;3.316721
1303.000000;3.222688
1302.000000;2.998565
1301.000000;2.803508
1300.000000;2.739152
1299.000000;2.806195
1298.000000;3.015114
1297.000000;3.251576
1296.000000;3.215829
1295.000000;3.214694
1294.000000;3.310875
1293.000000;3.137569
1292.000000;2.974553
1291.000000;2.934935
1290.000000;2.930426
1289.000000;2.847786
1288.000000;2.780175
1287.000000;2.790800
1286.000000;2.837543
1285.000000;2.890872
1284.000000;2.993677
1283.000000;3.239983
1282.000000;3.501302
1281.000000;3.863191
1280.000000;3.846246
1279.000000;3.282710
1278.000000;3.170359
1277.000000;3.076117
1276.000000;2.904762
1275.000000;2.794942
1274.000000;2.822420
1273.000000;3.064387
1272.000000;3.304230
1271.000000;3.136233
1270.000000;3.047443
1269.000000;2.931370
1268.000000;2.819452
1267.000000;2.808418
1266.000000;2.889655
1265.000000;3.042747
1264.000000;3.242383
1263.000000;3.552956
1262.000000;3.668741
1261.000000;3.340080
1260.000000;3.197518
1259.000000;3.140705
1258.000000;3.278855
1257.000000;3.512951
1256.000000;3.190792
1255.000000;3.008787
1254.000000;3.028313
1253.000000;3.110452
1252.000000;3.053437
1251.000000;2.975873
1250.000000;3.009371
1249.000000;3.145717
1248.000000;3.447487
1247.000000;3.673969
1246.000000;3.760158
1245.000000;3.739873
1244.000000;3.445409
1243.000000;3.362644
1242.000000;3.295389
1241.000000;3.232917
1240.000000;3.208722
1239.000000;3.092197
1238.000000;3.012767
1237.000000;3.030188
1236.000000;3.068918
1235.000000;3.076066
1234.000000;3.110459
1233.000000;3.244042
1232.000000;3.256391
1231.000000;3.061510
1230.000000;3.130417
1229.000000;3.465738
1228.000000;3.230627
1227.000000;3.025245
1226.000000;3.055427
1225.000000;3.091074
1224.000000;3.037437
1223.000000;2.950580
1222.000000;2.905231
1221.000000;2.932446
1220.000000;2.973087
1219.000000;2.939664
1218.000000;2.921732
1217.000000;3.003358
1216.000000;3.187670
1215.000000;3.337706
1214.000000;3.537031
1213.000000;3.448254
1212.000000;3.201098
1211.000000;3.048373
1210.000000;2.884469
1209.000000;2.788690
1208.000000;2.819731
1207.000000;3.056032
1206.000000;3.194284
1205.000000;2.891562
1204.000000;2.861657
1203.000000;3.079038
1202.000000;3.631130
1201.000000;3.330373
1200.000000;2.976991
