Criado como novo conjunto de dados;"e0108.spp","-4212161.1 Secs"
cm-1;Abs
10000.000000;1.146177
9999.000000;1.144253
9998.000000;1.142337
9997.000000;1.140429
9996.000000;1.138530
9995.000000;1.136638
9994.000000;1.134756
9993.000000;1.132879
9992.000000;1.131017
9991.000000;1.129151
9990.000000;1.127313
9989.000000;1.125477
9988.000000;1.124188
9987.000000;1.123992
9986.000000;1.124714
9985.000000;1.125645
9984.000000;1.125905
9983.000000;1.125380
9982.000000;1.124737
9981.000000;1.124394
9980.000000;1.123883
9979.000000;1.122598
9978.000000;1.120723
9977.000000;1.118953
9976.000000;1.117737
9975.000000;1.117188
9974.000000;1.117253
9973.000000;1.117466
9972.000000;1.116963
9971.000000;1.115455
9970.000000;1.113902
9969.000000;1.113541
9968.000000;1.114443
9967.000000;1.115680
9966.000000;1.116593
9965.000000;1.117089
9964.000000;1.116951
9963.000000;1.115955
9962.000000;1.114899
9961.000000;1.115383
9960.000000;1.117901
9959.000000;1.120729
9958.000000;1.121392
9957.000000;1.119136
9956.000000;1.115448
9955.000000;1.112414
9954.000000;1.111200
9953.000000;1.111783
9952.000000;1.113365
9951.000000;1.114812
9950.000000;1.115185
9949.000000;1.114313
9948.000000;1.112887
9947.000000;1.111818
9946.000000;1.111328
9945.000000;1.110690
9944.000000;1.109038
9943.000000;1.106538
9942.000000;1.104480
9941.000000;1.103935
9940.000000;1.104496
9939.000000;1.104724
9938.000000;1.103899
9937.000000;1.102900
9936.000000;1.103074
9935.000000;1.104553
9934.000000;1.106090
9933.000000;1.106434
9932.000000;1.105532
9931.000000;1.104274
9930.000000;1.103313
9929.000000;1.102448
9928.000000;1.101182
9927.000000;1.099600
9926.000000;1.098411
9925.000000;1.098164
9924.000000;1.098656
9923.000000;1.099198
9922.000000;1.099238
9921.000000;1.098537
9920.000000;1.097038
9919.000000;1.095004
9918.000000;1.093237
9917.000000;1.092697
9916.000000;1.093695
9915.000000;1.095594
9914.000000;1.097367
9913.000000;1.098311
9912.000000;1.098244
9911.000000;1.097352
9910.000000;1.096114
9909.000000;1.095208
9908.000000;1.095104
9907.000000;1.095595
9906.000000;1.095897
9905.000000;1.095383
9904.000000;1.094292
9903.000000;1.093579
9902.000000;1.093940
9901.000000;1.095012
9900.000000;1.095719
9899.000000;1.095461
9898.000000;1.094678
9897.000000;1.094041
9896.000000;1.093490
9895.000000;1.092444
9894.000000;1.090732
9893.000000;1.088838
9892.000000;1.087257
9891.000000;1.086139
9890.000000;1.085691
9889.000000;1.086271
9888.000000;1.087747
9887.000000;1.089242
9886.000000;1.089941
9885.000000;1.089900
9884.000000;1.089613
9883.000000;1.089028
9882.000000;1.087584
9881.000000;1.085202
9880.000000;1.082631
9879.000000;1.080633
9878.000000;1.079306
9877.000000;1.078376
9876.000000;1.077713
9875.000000;1.077221
9874.000000;1.076584
9873.000000;1.075634
9872.000000;1.074888
9871.000000;1.075206
9870.000000;1.076710
9869.000000;1.078329
9868.000000;1.078738
9867.000000;1.077714
9866.000000;1.076358
9865.000000;1.076020
9864.000000;1.077109
9863.000000;1.078852
9862.000000;1.079995
9861.000000;1.079762
9860.000000;1.078363
9859.000000;1.076705
9858.000000;1.075568
9857.000000;1.075052
9856.000000;1.074788
9855.000000;1.074509
9854.000000;1.074201
9853.000000;1.073815
9852.000000;1.073258
9851.000000;1.072703
9850.000000;1.072464
9849.000000;1.072344
9848.000000;1.071533
9847.000000;1.069535
9846.000000;1.066928
9845.000000;1.064823
9844.000000;1.063897
9843.000000;1.064224
9842.000000;1.065557
9841.000000;1.067161
9840.000000;1.067698
9839.000000;1.066276
9838.000000;1.063827
9837.000000;1.062610
9836.000000;1.063880
9835.000000;1.066526
9834.000000;1.068265
9833.000000;1.067757
9832.000000;1.065310
9831.000000;1.062203
9830.000000;1.059966
9829.000000;1.059719
9828.000000;1.061225
9827.000000;1.062708
9826.000000;1.062428
9825.000000;1.060579
9824.000000;1.058953
9823.000000;1.058740
9822.000000;1.059388
9821.000000;1.059731
9820.000000;1.059452
9819.000000;1.058929
9818.000000;1.058218
9817.000000;1.057055
9816.000000;1.055692
9815.000000;1.054931
9814.000000;1.055161
9813.000000;1.055805
9812.000000;1.056015
9811.000000;1.055674
9810.000000;1.055405
9809.000000;1.055622
9808.000000;1.055928
9807.000000;1.055583
9806.000000;1.054371
9805.000000;1.052838
9804.000000;1.051724
9803.000000;1.051380
9802.000000;1.051770
9801.000000;1.052672
9800.000000;1.053648
9799.000000;1.054054
9798.000000;1.053424
9797.000000;1.051918
9796.000000;1.050206
9795.000000;1.048856
9794.000000;1.048002
9793.000000;1.047542
9792.000000;1.047379
9791.000000;1.047369
9790.000000;1.047263
9789.000000;1.046921
9788.000000;1.046457
9787.000000;1.046011
9786.000000;1.045448
9785.000000;1.044485
9784.000000;1.043169
9783.000000;1.042090
9782.000000;1.042026
9781.000000;1.043264
9780.000000;1.045195
9779.000000;1.046592
9778.000000;1.046423
9777.000000;1.044575
9776.000000;1.041875
9775.000000;1.039495
9774.000000;1.038325
9773.000000;1.038714
9772.000000;1.040447
9771.000000;1.042729
9770.000000;1.044349
9769.000000;1.044269
9768.000000;1.042327
9767.000000;1.039388
9766.000000;1.036732
9765.000000;1.035234
9764.000000;1.034970
9763.000000;1.035354
9762.000000;1.035672
9761.000000;1.035661
9760.000000;1.035628
9759.000000;1.035924
9758.000000;1.036349
9757.000000;1.036255
9756.000000;1.035320
9755.000000;1.034031
9754.000000;1.033287
9753.000000;1.033466
9752.000000;1.034010
9751.000000;1.034001
9750.000000;1.033029
9749.000000;1.031436
9748.000000;1.029910
9747.000000;1.029048
9746.000000;1.029171
9745.000000;1.030223
9744.000000;1.031700
9743.000000;1.032866
9742.000000;1.033239
9741.000000;1.032872
9740.000000;1.032087
9739.000000;1.031061
9738.000000;1.029821
9737.000000;1.028537
9736.000000;1.027538
9735.000000;1.026978
9734.000000;1.026698
9733.000000;1.026526
9732.000000;1.026491
9731.000000;1.026547
9730.000000;1.026263
9729.000000;1.025174
9728.000000;1.023448
9727.000000;1.021903
9726.000000;1.021245
9725.000000;1.021518
9724.000000;1.022343
9723.000000;1.023344
9722.000000;1.024090
9721.000000;1.023950
9720.000000;1.022575
9719.000000;1.020589
9718.000000;1.019338
9717.000000;1.019699
9716.000000;1.021299
9715.000000;1.022923
9714.000000;1.023478
9713.000000;1.022581
9712.000000;1.020671
9711.000000;1.018821
9710.000000;1.018085
9709.000000;1.018588
9708.000000;1.019356
9707.000000;1.019346
9706.000000;1.018532
9705.000000;1.017660
9704.000000;1.017054
9703.000000;1.016197
9702.000000;1.014669
9701.000000;1.013028
9700.000000;1.012305
9699.000000;1.012817
9698.000000;1.013788
9697.000000;1.014200
9696.000000;1.013909
9695.000000;1.013772
9694.000000;1.014593
9693.000000;1.016052
9692.000000;1.016863
9691.000000;1.016052
9690.000000;1.013934
9689.000000;1.011680
9688.000000;1.010168
9687.000000;1.009516
9686.000000;1.009529
9685.000000;1.010040
9684.000000;1.010676
9683.000000;1.010807
9682.000000;1.010109
9681.000000;1.008991
9680.000000;1.008188
9679.000000;1.007995
9678.000000;1.008077
9677.000000;1.007896
9676.000000;1.007164
9675.000000;1.005979
9674.000000;1.004781
9673.000000;1.004144
9672.000000;1.004348
9671.000000;1.005025
9670.000000;1.005338
9669.000000;1.004671
9668.000000;1.003236
9667.000000;1.001941
9666.000000;1.001528
9665.000000;1.001821
9664.000000;1.001960
9663.000000;1.001428
9662.000000;1.000662
9661.000000;1.000410
9660.000000;1.000680
9659.000000;1.000742
9658.000000;1.000148
9657.000000;0.999254
9656.000000;0.998587
9655.000000;0.998137
9654.000000;0.997597
9653.000000;0.996977
9652.000000;0.996581
9651.000000;0.996541
9650.000000;0.996766
9649.000000;0.997240
9648.000000;0.997945
9647.000000;0.998487
9646.000000;0.998222
9645.000000;0.996984
9644.000000;0.995445
9643.000000;0.994563
9642.000000;0.994727
9641.000000;0.995506
9640.000000;0.996125
9639.000000;0.996169
9638.000000;0.995819
9637.000000;0.995402
9636.000000;0.994826
9635.000000;0.993696
9634.000000;0.992028
9633.000000;0.990529
9632.000000;0.989854
9631.000000;0.989755
9630.000000;0.989360
9629.000000;0.988303
9628.000000;0.987214
9627.000000;0.986958
9626.000000;0.987702
9625.000000;0.988911
9624.000000;0.990003
9623.000000;0.990712
9622.000000;0.990904
9621.000000;0.990424
9620.000000;0.989287
9619.000000;0.987865
9618.000000;0.986648
9617.000000;0.985840
9616.000000;0.985343
9615.000000;0.985122
9614.000000;0.985299
9613.000000;0.985737
9612.000000;0.985792
9611.000000;0.984866
9610.000000;0.983230
9609.000000;0.981889
9608.000000;0.981496
9607.000000;0.981761
9606.000000;0.982105
9605.000000;0.982482
9604.000000;0.983138
9603.000000;0.983793
9602.000000;0.983692
9601.000000;0.982567
9600.000000;0.981167
9599.000000;0.980643
9598.000000;0.981511
9597.000000;0.983238
9596.000000;0.984669
9595.000000;0.984864
9594.000000;0.983700
9593.000000;0.981771
9592.000000;0.979755
9591.000000;0.977969
9590.000000;0.976524
9589.000000;0.975553
9588.000000;0.975008
9587.000000;0.974542
9586.000000;0.974075
9585.000000;0.974319
9584.000000;0.976065
9583.000000;0.978817
9582.000000;0.980694
9581.000000;0.980134
9580.000000;0.977452
9579.000000;0.974345
9578.000000;0.972207
9577.000000;0.971280
9576.000000;0.971115
9575.000000;0.971316
9574.000000;0.971785
9573.000000;0.972513
9572.000000;0.973357
9571.000000;0.974022
9570.000000;0.974219
9569.000000;0.973759
9568.000000;0.972443
9567.000000;0.970127
9566.000000;0.967218
9565.000000;0.964948
9564.000000;0.964556
9563.000000;0.965993
9562.000000;0.967808
9561.000000;0.968602
9560.000000;0.968274
9559.000000;0.967522
9558.000000;0.966658
9557.000000;0.965577
9556.000000;0.964567
9555.000000;0.964330
9554.000000;0.965046
9553.000000;0.965949
9552.000000;0.966085
9551.000000;0.965194
9550.000000;0.963775
9549.000000;0.962655
9548.000000;0.962565
9547.000000;0.963642
9546.000000;0.965028
9545.000000;0.965316
9544.000000;0.963818
9543.000000;0.961290
9542.000000;0.959137
9541.000000;0.958116
9540.000000;0.957964
9539.000000;0.957954
9538.000000;0.957521
9537.000000;0.956595
9536.000000;0.955728
9535.000000;0.955761
9534.000000;0.957036
9533.000000;0.958895
9532.000000;0.960242
9531.000000;0.960591
9530.000000;0.960263
9529.000000;0.959602
9528.000000;0.958491
9527.000000;0.956793
9526.000000;0.954904
9525.000000;0.953557
9524.000000;0.953201
9523.000000;0.953607
9522.000000;0.954036
9521.000000;0.953833
9520.000000;0.953057
9519.000000;0.952523
9518.000000;0.952961
9517.000000;0.954116
9516.000000;0.955024
9515.000000;0.955208
9514.000000;0.955155
9513.000000;0.955441
9512.000000;0.955827
9511.000000;0.955632
9510.000000;0.954638
9509.000000;0.953164
9508.000000;0.951474
9507.000000;0.949713
9506.000000;0.948334
9505.000000;0.947984
9504.000000;0.948773
9503.000000;0.950012
9502.000000;0.950825
9501.000000;0.950797
9500.000000;0.949988
9499.000000;0.948718
9498.000000;0.947465
9497.000000;0.946620
9496.000000;0.946159
9495.000000;0.945835
9494.000000;0.945723
9493.000000;0.946158
9492.000000;0.947010
9491.000000;0.947516
9490.000000;0.947180
9489.000000;0.946421
9488.000000;0.945949
9487.000000;0.945840
9486.000000;0.945697
9485.000000;0.945402
9484.000000;0.945183
9483.000000;0.945097
9482.000000;0.944978
9481.000000;0.944819
9480.000000;0.944760
9479.000000;0.944712
9478.000000;0.944428
9477.000000;0.943963
9476.000000;0.943623
9475.000000;0.943444
9474.000000;0.943096
9473.000000;0.942392
9472.000000;0.941508
9471.000000;0.940650
9470.000000;0.939879
9469.000000;0.939371
9468.000000;0.939488
9467.000000;0.940272
9466.000000;0.941128
9465.000000;0.941332
9464.000000;0.940661
9463.000000;0.939426
9462.000000;0.938151
9461.000000;0.937323
9460.000000;0.937176
9459.000000;0.937469
9458.000000;0.937657
9457.000000;0.937465
9456.000000;0.937160
9455.000000;0.937134
9454.000000;0.937355
9453.000000;0.937375
9452.000000;0.936782
9451.000000;0.935567
9450.000000;0.934142
9449.000000;0.933066
9448.000000;0.932605
9447.000000;0.932558
9446.000000;0.932662
9445.000000;0.933096
9444.000000;0.934206
9443.000000;0.935609
9442.000000;0.936086
9441.000000;0.934789
9440.000000;0.932350
9439.000000;0.930343
9438.000000;0.929766
9437.000000;0.930329
9436.000000;0.931079
9435.000000;0.931384
9434.000000;0.931255
9433.000000;0.931021
9432.000000;0.930841
9431.000000;0.930467
9430.000000;0.929466
9429.000000;0.927834
9428.000000;0.926311
9427.000000;0.925856
9426.000000;0.926722
9425.000000;0.928152
9424.000000;0.929054
9423.000000;0.928929
9422.000000;0.928088
9421.000000;0.927102
9420.000000;0.926203
9419.000000;0.925307
9418.000000;0.924503
9417.000000;0.924240
9416.000000;0.924822
9415.000000;0.925820
9414.000000;0.926323
9413.000000;0.925894
9412.000000;0.924985
9411.000000;0.924230
9410.000000;0.923615
9409.000000;0.922701
9408.000000;0.921479
9407.000000;0.920569
9406.000000;0.920532
9405.000000;0.921203
9404.000000;0.921772
9403.000000;0.921456
9402.000000;0.920152
9401.000000;0.918587
9400.000000;0.917769
9399.000000;0.918110
9398.000000;0.919031
9397.000000;0.919559
9396.000000;0.919332
9395.000000;0.918790
9394.000000;0.918459
9393.000000;0.918427
9392.000000;0.918520
9391.000000;0.918578
9390.000000;0.918372
9389.000000;0.917624
9388.000000;0.916407
9387.000000;0.915329
9386.000000;0.915006
9385.000000;0.915381
9384.000000;0.915803
9383.000000;0.915719
9382.000000;0.915171
9381.000000;0.914611
9380.000000;0.914412
9379.000000;0.914558
9378.000000;0.914720
9377.000000;0.914639
9376.000000;0.914430
9375.000000;0.914441
9374.000000;0.914793
9373.000000;0.915169
9372.000000;0.915135
9371.000000;0.914509
9370.000000;0.913367
9369.000000;0.911891
9368.000000;0.910405
9367.000000;0.909355
9366.000000;0.908947
9365.000000;0.908862
9364.000000;0.908607
9363.000000;0.908145
9362.000000;0.907933
9361.000000;0.908320
9360.000000;0.909204
9359.000000;0.910289
9358.000000;0.911344
9357.000000;0.912108
9356.000000;0.912269
9355.000000;0.911768
9354.000000;0.910906
9353.000000;0.909920
9352.000000;0.908665
9351.000000;0.907017
9350.000000;0.905397
9349.000000;0.904521
9348.000000;0.904588
9347.000000;0.905048
9346.000000;0.905246
9345.000000;0.905044
9344.000000;0.904663
9343.000000;0.904198
9342.000000;0.903579
9341.000000;0.902953
9340.000000;0.902751
9339.000000;0.903230
9338.000000;0.904018
9337.000000;0.904323
9336.000000;0.903691
9335.000000;0.902518
9334.000000;0.901713
9333.000000;0.901804
9332.000000;0.902453
9331.000000;0.902902
9330.000000;0.902833
9329.000000;0.902622
9328.000000;0.902778
9327.000000;0.903298
9326.000000;0.903692
9325.000000;0.903566
9324.000000;0.903021
9323.000000;0.902464
9322.000000;0.902071
9321.000000;0.901545
9320.000000;0.900488
9319.000000;0.899025
9318.000000;0.897894
9317.000000;0.897770
9316.000000;0.898535
9315.000000;0.899363
9314.000000;0.899505
9313.000000;0.898874
9312.000000;0.897917
9311.000000;0.897154
9310.000000;0.896887
9309.000000;0.897047
9308.000000;0.897152
9307.000000;0.896611
9306.000000;0.895314
9305.000000;0.893874
9304.000000;0.893094
9303.000000;0.893247
9302.000000;0.893953
9301.000000;0.894660
9300.000000;0.895099
9299.000000;0.895313
9298.000000;0.895435
9297.000000;0.895522
9296.000000;0.895559
9295.000000;0.895598
9294.000000;0.895798
9293.000000;0.896190
9292.000000;0.896402
9291.000000;0.895869
9290.000000;0.894440
9289.000000;0.892618
9288.000000;0.891051
9287.000000;0.890040
9286.000000;0.889704
9285.000000;0.890288
9284.000000;0.891810
9283.000000;0.893546
9282.000000;0.894419
9281.000000;0.894016
9280.000000;0.892861
9279.000000;0.891633
9278.000000;0.890542
9277.000000;0.889543
9276.000000;0.888726
9275.000000;0.888217
9274.000000;0.888004
9273.000000;0.888105
9272.000000;0.888598
9271.000000;0.889222
9270.000000;0.889276
9269.000000;0.888353
9268.000000;0.886998
9267.000000;0.886213
9266.000000;0.886384
9265.000000;0.887038
9264.000000;0.887606
9263.000000;0.888010
9262.000000;0.888455
9261.000000;0.888959
9260.000000;0.889252
9259.000000;0.889004
9258.000000;0.888100
9257.000000;0.886799
9256.000000;0.885641
9255.000000;0.885003
9254.000000;0.884751
9253.000000;0.884492
9252.000000;0.884082
9251.000000;0.883642
9250.000000;0.883096
9249.000000;0.882129
9248.000000;0.880759
9247.000000;0.879583
9246.000000;0.879210
9245.000000;0.879622
9244.000000;0.880337
9243.000000;0.881004
9242.000000;0.881575
9241.000000;0.882058
9240.000000;0.882418
9239.000000;0.882710
9238.000000;0.883019
9237.000000;0.883261
9236.000000;0.883231
9235.000000;0.882853
9234.000000;0.882248
9233.000000;0.881589
9232.000000;0.881047
9231.000000;0.880794
9230.000000;0.880836
9229.000000;0.880885
9228.000000;0.880660
9227.000000;0.880295
9226.000000;0.880179
9225.000000;0.880330
9224.000000;0.880257
9223.000000;0.879609
9222.000000;0.878687
9221.000000;0.878045
9220.000000;0.877807
9219.000000;0.877588
9218.000000;0.876993
9217.000000;0.876035
9216.000000;0.875124
9215.000000;0.874766
9214.000000;0.875171
9213.000000;0.876034
9212.000000;0.876745
9211.000000;0.876902
9210.000000;0.876521
9209.000000;0.875771
9208.000000;0.874820
9207.000000;0.874043
9206.000000;0.873988
9205.000000;0.874779
9204.000000;0.875726
9203.000000;0.875959
9202.000000;0.875331
9201.000000;0.874362
9200.000000;0.873409
9199.000000;0.872408
9198.000000;0.871424
9197.000000;0.870895
9196.000000;0.871099
9195.000000;0.871771
9194.000000;0.872487
9193.000000;0.873097
9192.000000;0.873510
9191.000000;0.873403
9190.000000;0.872589
9189.000000;0.871522
9188.000000;0.870974
9187.000000;0.871164
9186.000000;0.871525
9185.000000;0.871380
9184.000000;0.870635
9183.000000;0.869700
9182.000000;0.868920
9181.000000;0.868288
9180.000000;0.867670
9179.000000;0.867162
9178.000000;0.867061
9177.000000;0.867444
9176.000000;0.867910
9175.000000;0.867949
9174.000000;0.867558
9173.000000;0.867269
9172.000000;0.867451
9171.000000;0.867776
9170.000000;0.867549
9169.000000;0.866480
9168.000000;0.864993
9167.000000;0.863819
9166.000000;0.863430
9165.000000;0.863783
9164.000000;0.864456
9163.000000;0.864986
9162.000000;0.865146
9161.000000;0.864956
9160.000000;0.864535
9159.000000;0.864045
9158.000000;0.863708
9157.000000;0.863662
9156.000000;0.863752
9155.000000;0.863663
9154.000000;0.863328
9153.000000;0.863020
9152.000000;0.862969
9151.000000;0.863115
9150.000000;0.863327
9149.000000;0.863582
9148.000000;0.863741
9147.000000;0.863433
9146.000000;0.862498
9145.000000;0.861400
9144.000000;0.860860
9143.000000;0.861110
9142.000000;0.861749
9141.000000;0.862267
9140.000000;0.862472
9139.000000;0.862398
9138.000000;0.862077
9137.000000;0.861497
9136.000000;0.860674
9135.000000;0.859753
9134.000000;0.859080
9133.000000;0.859003
9132.000000;0.859477
9131.000000;0.859966
9130.000000;0.859953
9129.000000;0.859441
9128.000000;0.858806
9127.000000;0.858326
9126.000000;0.858115
9125.000000;0.858304
9124.000000;0.858898
9123.000000;0.859523
9122.000000;0.859699
9121.000000;0.859387
9120.000000;0.858986
9119.000000;0.858785
9118.000000;0.858724
9117.000000;0.858711
9116.000000;0.858801
9115.000000;0.858964
9114.000000;0.858959
9113.000000;0.858587
9112.000000;0.857878
9111.000000;0.856979
9110.000000;0.856046
9109.000000;0.855265
9108.000000;0.854724
9107.000000;0.854246
9106.000000;0.853650
9105.000000;0.853151
9104.000000;0.853148
9103.000000;0.853540
9102.000000;0.853694
9101.000000;0.853252
9100.000000;0.852606
9099.000000;0.852324
9098.000000;0.852465
9097.000000;0.852768
9096.000000;0.853225
9095.000000;0.854044
9094.000000;0.855170
9093.000000;0.856197
9092.000000;0.856718
9091.000000;0.856516
9090.000000;0.855507
9089.000000;0.853838
9088.000000;0.852071
9087.000000;0.850968
9086.000000;0.850900
9085.000000;0.851500
9084.000000;0.851945
9083.000000;0.851592
9082.000000;0.850510
9081.000000;0.849420
9080.000000;0.849038
9079.000000;0.849389
9078.000000;0.849857
9077.000000;0.849936
9076.000000;0.849761
9075.000000;0.849777
9074.000000;0.850102
9073.000000;0.850444
9072.000000;0.850512
9071.000000;0.850309
9070.000000;0.850028
9069.000000;0.849842
9068.000000;0.849756
9067.000000;0.849576
9066.000000;0.849099
9065.000000;0.848419
9064.000000;0.847934
9063.000000;0.847921
9062.000000;0.848200
9061.000000;0.848402
9060.000000;0.848445
9059.000000;0.848570
9058.000000;0.848949
9057.000000;0.849468
9056.000000;0.849845
9055.000000;0.849815
9054.000000;0.849202
9053.000000;0.848031
9052.000000;0.846619
9051.000000;0.845464
9050.000000;0.844940
9049.000000;0.845081
9048.000000;0.845561
9047.000000;0.845855
9046.000000;0.845553
9045.000000;0.844677
9044.000000;0.843645
9043.000000;0.842836
9042.000000;0.842284
9041.000000;0.841863
9040.000000;0.841571
9039.000000;0.841471
9038.000000;0.841505
9037.000000;0.841611
9036.000000;0.841911
9035.000000;0.842526
9034.000000;0.843212
9033.000000;0.843480
9032.000000;0.843128
9031.000000;0.842434
9030.000000;0.841799
9029.000000;0.841410
9028.000000;0.841287
9027.000000;0.841423
9026.000000;0.841724
9025.000000;0.841961
9024.000000;0.841933
9023.000000;0.841634
9022.000000;0.841193
9021.000000;0.840740
9020.000000;0.840356
9019.000000;0.840056
9018.000000;0.839805
9017.000000;0.839645
9016.000000;0.839784
9015.000000;0.840351
9014.000000;0.841068
9013.000000;0.841395
9012.000000;0.841117
9011.000000;0.840594
9010.000000;0.840284
9009.000000;0.840258
9008.000000;0.840342
9007.000000;0.840539
9006.000000;0.840965
9005.000000;0.841486
9004.000000;0.841742
9003.000000;0.841561
9002.000000;0.841070
9001.000000;0.840362
9000.000000;0.839350
8999.000000;0.838121
8998.000000;0.837182
8997.000000;0.837049
8996.000000;0.837642
8995.000000;0.838288
8994.000000;0.838370
8993.000000;0.837854
8992.000000;0.837209
8991.000000;0.836903
8990.000000;0.837005
8989.000000;0.837190
8988.000000;0.837120
8987.000000;0.836827
8986.000000;0.836645
8985.000000;0.836706
8984.000000;0.836681
8983.000000;0.836194
8982.000000;0.835435
8981.000000;0.835056
8980.000000;0.835430
8979.000000;0.836256
8978.000000;0.836966
8977.000000;0.837245
8976.000000;0.837066
8975.000000;0.836513
8974.000000;0.835856
8973.000000;0.835610
8972.000000;0.836170
8971.000000;0.837346
8970.000000;0.838479
8969.000000;0.839002
8968.000000;0.838728
8967.000000;0.837719
8966.000000;0.836199
8965.000000;0.834642
8964.000000;0.833618
8963.000000;0.833365
8962.000000;0.833629
8961.000000;0.834017
8960.000000;0.834411
8959.000000;0.834978
8958.000000;0.835895
8957.000000;0.837068
8956.000000;0.838031
8955.000000;0.838161
8954.000000;0.837227
8953.000000;0.835758
8952.000000;0.834642
8951.000000;0.834301
8950.000000;0.834416
8949.000000;0.834472
8948.000000;0.834275
8947.000000;0.833848
8946.000000;0.833135
8945.000000;0.832126
8944.000000;0.831103
8943.000000;0.830495
8942.000000;0.830536
8941.000000;0.831236
8940.000000;0.832526
8939.000000;0.834170
8938.000000;0.835601
8937.000000;0.836175
8936.000000;0.835737
8935.000000;0.834794
8934.000000;0.834018
8933.000000;0.833658
8932.000000;0.833452
8931.000000;0.833031
8930.000000;0.832326
8929.000000;0.831566
8928.000000;0.830947
8927.000000;0.830433
8926.000000;0.829989
8925.000000;0.829868
8924.000000;0.830372
8923.000000;0.831309
8922.000000;0.831990
8921.000000;0.831946
8920.000000;0.831431
8919.000000;0.831004
8918.000000;0.830825
8917.000000;0.830620
8916.000000;0.830185
8915.000000;0.829592
8914.000000;0.828937
8913.000000;0.828190
8912.000000;0.827340
8911.000000;0.826522
8910.000000;0.825960
8909.000000;0.825880
8908.000000;0.826373
8907.000000;0.827171
8906.000000;0.827662
8905.000000;0.827400
8904.000000;0.826611
8903.000000;0.825942
8902.000000;0.825743
8901.000000;0.825822
8900.000000;0.825886
8899.000000;0.825881
8898.000000;0.825866
8897.000000;0.825858
8896.000000;0.825980
8895.000000;0.826498
8894.000000;0.827466
8893.000000;0.828486
8892.000000;0.829007
8891.000000;0.828857
8890.000000;0.828359
8889.000000;0.828004
8888.000000;0.828061
8887.000000;0.828377
8886.000000;0.828464
8885.000000;0.827930
8884.000000;0.826946
8883.000000;0.826119
8882.000000;0.825828
8881.000000;0.825871
8880.000000;0.825887
8879.000000;0.825882
8878.000000;0.826064
8877.000000;0.826348
8876.000000;0.826387
8875.000000;0.826105
8874.000000;0.825842
8873.000000;0.825898
8872.000000;0.826204
8871.000000;0.826563
8870.000000;0.826930
8869.000000;0.827241
8868.000000;0.827183
8867.000000;0.826489
8866.000000;0.825443
8865.000000;0.824806
8864.000000;0.825075
8863.000000;0.825941
8862.000000;0.826575
8861.000000;0.826423
8860.000000;0.825655
8859.000000;0.824905
8858.000000;0.824689
8857.000000;0.825073
8856.000000;0.825769
8855.000000;0.826428
8854.000000;0.826867
8853.000000;0.827082
8852.000000;0.827105
8851.000000;0.826885
8850.000000;0.826336
8849.000000;0.825520
8848.000000;0.824698
8847.000000;0.824150
8846.000000;0.823979
8845.000000;0.824140
8844.000000;0.824619
8843.000000;0.825447
8842.000000;0.826529
8841.000000;0.827532
8840.000000;0.828052
8839.000000;0.827895
8838.000000;0.827188
8837.000000;0.826237
8836.000000;0.825291
8835.000000;0.824420
8834.000000;0.823608
8833.000000;0.822892
8832.000000;0.822378
8831.000000;0.822129
8830.000000;0.822116
8829.000000;0.822294
8828.000000;0.822674
8827.000000;0.823253
8826.000000;0.823956
8825.000000;0.824684
8824.000000;0.825332
8823.000000;0.825685
8822.000000;0.825485
8821.000000;0.824779
8820.000000;0.824113
8819.000000;0.824060
8818.000000;0.824533
8817.000000;0.824859
8816.000000;0.824619
8815.000000;0.824135
8814.000000;0.823933
8813.000000;0.824028
8812.000000;0.824055
8811.000000;0.823953
8810.000000;0.824073
8809.000000;0.824613
8808.000000;0.825321
8807.000000;0.825905
8806.000000;0.826403
8805.000000;0.826888
8804.000000;0.827039
8803.000000;0.826388
8802.000000;0.825033
8801.000000;0.823801
8800.000000;0.823526
8799.000000;0.824260
8798.000000;0.825306
8797.000000;0.825966
8796.000000;0.826128
8795.000000;0.826114
8794.000000;0.826124
8793.000000;0.826011
8792.000000;0.825602
8791.000000;0.825019
8790.000000;0.824546
8789.000000;0.824281
8788.000000;0.824079
8787.000000;0.823841
8786.000000;0.823678
8785.000000;0.823759
8784.000000;0.824126
8783.000000;0.824708
8782.000000;0.825363
8781.000000;0.825847
8780.000000;0.825939
8779.000000;0.825718
8778.000000;0.825564
8777.000000;0.825729
8776.000000;0.826006
8775.000000;0.826028
8774.000000;0.825802
8773.000000;0.825728
8772.000000;0.826098
8771.000000;0.826804
8770.000000;0.827539
8769.000000;0.828058
8768.000000;0.828177
8767.000000;0.827790
8766.000000;0.827060
8765.000000;0.826441
8764.000000;0.826329
8763.000000;0.826745
8762.000000;0.827463
8761.000000;0.828293
8760.000000;0.829109
8759.000000;0.829728
8758.000000;0.829990
8757.000000;0.829942
8756.000000;0.829749
8755.000000;0.829450
8754.000000;0.828964
8753.000000;0.828357
8752.000000;0.827916
8751.000000;0.827900
8750.000000;0.828312
8749.000000;0.828971
8748.000000;0.829714
8747.000000;0.830464
8746.000000;0.831157
8745.000000;0.831631
8744.000000;0.831630
8743.000000;0.830999
8742.000000;0.829980
8741.000000;0.829193
8740.000000;0.829137
8739.000000;0.829711
8738.000000;0.830395
8737.000000;0.830902
8736.000000;0.831406
8735.000000;0.832076
8734.000000;0.832669
8733.000000;0.832779
8732.000000;0.832378
8731.000000;0.831869
8730.000000;0.831667
8729.000000;0.831859
8728.000000;0.832242
8727.000000;0.832497
8726.000000;0.832364
8725.000000;0.831855
8724.000000;0.831348
8723.000000;0.831315
8722.000000;0.831841
8721.000000;0.832501
8720.000000;0.832807
8719.000000;0.832700
8718.000000;0.832506
8717.000000;0.832502
8716.000000;0.832698
8715.000000;0.833019
8714.000000;0.833482
8713.000000;0.834068
8712.000000;0.834538
8711.000000;0.834533
8710.000000;0.833890
8709.000000;0.832795
8708.000000;0.831688
8707.000000;0.831088
8706.000000;0.831404
8705.000000;0.832645
8704.000000;0.834260
8703.000000;0.835478
8702.000000;0.835938
8701.000000;0.835863
8700.000000;0.835582
8699.000000;0.835141
8698.000000;0.834570
8697.000000;0.834248
8696.000000;0.834604
8695.000000;0.835500
8694.000000;0.836250
8693.000000;0.836323
8692.000000;0.835821
8691.000000;0.835247
8690.000000;0.835058
8689.000000;0.835441
8688.000000;0.836250
8687.000000;0.837018
8686.000000;0.837293
8685.000000;0.837097
8684.000000;0.836877
8683.000000;0.836947
8682.000000;0.837202
8681.000000;0.837446
8680.000000;0.837685
8679.000000;0.837939
8678.000000;0.838086
8677.000000;0.838137
8676.000000;0.838434
8675.000000;0.839204
8674.000000;0.840074
8673.000000;0.840392
8672.000000;0.839973
8671.000000;0.839234
8670.000000;0.838658
8669.000000;0.838453
8668.000000;0.838652
8667.000000;0.839172
8666.000000;0.839699
8665.000000;0.839824
8664.000000;0.839449
8663.000000;0.838861
8662.000000;0.838328
8661.000000;0.837844
8660.000000;0.837366
8659.000000;0.837046
8658.000000;0.837043
8657.000000;0.837242
8656.000000;0.837357
8655.000000;0.837260
8654.000000;0.837104
8653.000000;0.837121
8652.000000;0.837368
8651.000000;0.837644
8650.000000;0.837665
8649.000000;0.837399
8648.000000;0.837163
8647.000000;0.837280
8646.000000;0.837675
8645.000000;0.837990
8644.000000;0.838072
8643.000000;0.838094
8642.000000;0.838178
8641.000000;0.838166
8640.000000;0.837952
8639.000000;0.837781
8638.000000;0.837959
8637.000000;0.838374
8636.000000;0.838575
8635.000000;0.838337
8634.000000;0.837963
8633.000000;0.837984
8632.000000;0.838652
8631.000000;0.839752
8630.000000;0.840779
8629.000000;0.841282
8628.000000;0.841134
8627.000000;0.840553
8626.000000;0.839856
8625.000000;0.839189
8624.000000;0.838511
8623.000000;0.837817
8622.000000;0.837305
8621.000000;0.837270
8620.000000;0.837795
8619.000000;0.838564
8618.000000;0.839080
8617.000000;0.839121
8616.000000;0.838922
8615.000000;0.838810
8614.000000;0.838780
8613.000000;0.838595
8612.000000;0.838254
8611.000000;0.838060
8610.000000;0.838160
8609.000000;0.838272
8608.000000;0.838043
8607.000000;0.837535
8606.000000;0.837161
8605.000000;0.837216
8604.000000;0.837658
8603.000000;0.838264
8602.000000;0.838810
8601.000000;0.839123
8600.000000;0.839158
8599.000000;0.839076
8598.000000;0.839115
8597.000000;0.839318
8596.000000;0.839450
8595.000000;0.839207
8594.000000;0.838487
8593.000000;0.837529
8592.000000;0.836845
8591.000000;0.836932
8590.000000;0.837872
8589.000000;0.839191
8588.000000;0.840214
8587.000000;0.840582
8586.000000;0.840371
8585.000000;0.839838
8584.000000;0.839196
8583.000000;0.838600
8582.000000;0.838137
8581.000000;0.837768
8580.000000;0.837413
8579.000000;0.837143
8578.000000;0.837140
8577.000000;0.837420
8576.000000;0.837753
8575.000000;0.837932
8574.000000;0.837994
8573.000000;0.838054
8572.000000;0.838064
8571.000000;0.837878
8570.000000;0.837502
8569.000000;0.837132
8568.000000;0.836949
8567.000000;0.836980
8566.000000;0.837121
8565.000000;0.837221
8564.000000;0.837173
8563.000000;0.837024
8562.000000;0.836960
8561.000000;0.837098
8560.000000;0.837313
8559.000000;0.837395
8558.000000;0.837332
8557.000000;0.837283
8556.000000;0.837272
8555.000000;0.837109
8554.000000;0.836700
8553.000000;0.836266
8552.000000;0.836097
8551.000000;0.836202
8550.000000;0.836365
8549.000000;0.836497
8548.000000;0.836686
8547.000000;0.836901
8546.000000;0.836882
8545.000000;0.836494
8544.000000;0.836029
8543.000000;0.835946
8542.000000;0.836319
8541.000000;0.836726
8540.000000;0.836710
8539.000000;0.836251
8538.000000;0.835706
8537.000000;0.835399
8536.000000;0.835373
8535.000000;0.835513
8534.000000;0.835769
8533.000000;0.836181
8532.000000;0.836712
8531.000000;0.837160
8530.000000;0.837315
8529.000000;0.837156
8528.000000;0.836807
8527.000000;0.836298
8526.000000;0.835526
8525.000000;0.834557
8524.000000;0.833859
8523.000000;0.833987
8522.000000;0.834977
8521.000000;0.836175
8520.000000;0.836779
8519.000000;0.836512
8518.000000;0.835738
8517.000000;0.835004
8516.000000;0.834582
8515.000000;0.834424
8514.000000;0.834376
8513.000000;0.834353
8512.000000;0.834362
8511.000000;0.834424
8510.000000;0.834501
8509.000000;0.834515
8508.000000;0.834456
8507.000000;0.834445
8506.000000;0.834632
8505.000000;0.835025
8504.000000;0.835449
8503.000000;0.835700
8502.000000;0.835715
8501.000000;0.835581
8500.000000;0.835393
8499.000000;0.835120
8498.000000;0.834637
8497.000000;0.833941
8496.000000;0.833313
8495.000000;0.833177
8494.000000;0.833694
8493.000000;0.834516
8492.000000;0.835027
8491.000000;0.834859
8490.000000;0.834134
8489.000000;0.833214
8488.000000;0.832368
8487.000000;0.831738
8486.000000;0.831484
8485.000000;0.831714
8484.000000;0.832271
8483.000000;0.832765
8482.000000;0.832947
8481.000000;0.832937
8480.000000;0.832972
8479.000000;0.833015
8478.000000;0.832804
8477.000000;0.832279
8476.000000;0.831772
8475.000000;0.831667
8474.000000;0.831994
8473.000000;0.832471
8472.000000;0.832878
8471.000000;0.833245
8470.000000;0.833673
8469.000000;0.834115
8468.000000;0.834367
8467.000000;0.834257
8466.000000;0.833821
8465.000000;0.833303
8464.000000;0.832945
8463.000000;0.832745
8462.000000;0.832512
8461.000000;0.832184
8460.000000;0.831982
8459.000000;0.832108
8458.000000;0.832397
8457.000000;0.832485
8456.000000;0.832269
8455.000000;0.831988
8454.000000;0.831830
8453.000000;0.831731
8452.000000;0.831644
8451.000000;0.831721
8450.000000;0.832057
8449.000000;0.832438
8448.000000;0.832588
8447.000000;0.832520
8446.000000;0.832438
8445.000000;0.832383
8444.000000;0.832221
8443.000000;0.831954
8442.000000;0.831775
8441.000000;0.831781
8440.000000;0.831849
8439.000000;0.831870
8438.000000;0.831929
8437.000000;0.832150
8436.000000;0.832460
8435.000000;0.832584
8434.000000;0.832264
8433.000000;0.831492
8432.000000;0.830608
8431.000000;0.830094
8430.000000;0.830135
8429.000000;0.830405
8428.000000;0.830460
8427.000000;0.830314
8426.000000;0.830420
8425.000000;0.831033
8424.000000;0.831837
8423.000000;0.832318
8422.000000;0.832310
8421.000000;0.832009
8420.000000;0.831609
8419.000000;0.831192
8418.000000;0.830875
8417.000000;0.830805
8416.000000;0.830960
8415.000000;0.831124
8414.000000;0.831135
8413.000000;0.831048
8412.000000;0.831020
8411.000000;0.831115
8410.000000;0.831258
8409.000000;0.831323
8408.000000;0.831206
8407.000000;0.830877
8406.000000;0.830435
8405.000000;0.830112
8404.000000;0.830139
8403.000000;0.830560
8402.000000;0.831177
8401.000000;0.831712
8400.000000;0.832058
8399.000000;0.832301
8398.000000;0.832481
8397.000000;0.832424
8396.000000;0.831938
8395.000000;0.831151
8394.000000;0.830496
8393.000000;0.830287
8392.000000;0.830427
8391.000000;0.830584
8390.000000;0.830564
8389.000000;0.830449
8388.000000;0.830424
8387.000000;0.830596
8386.000000;0.830898
8385.000000;0.831117
8384.000000;0.831051
8383.000000;0.830730
8382.000000;0.830435
8381.000000;0.830372
8380.000000;0.830388
8379.000000;0.830143
8378.000000;0.829550
8377.000000;0.828935
8376.000000;0.828690
8375.000000;0.828886
8374.000000;0.829285
8373.000000;0.829664
8372.000000;0.830015
8371.000000;0.830409
8370.000000;0.830769
8369.000000;0.830896
8368.000000;0.830735
8367.000000;0.830509
8366.000000;0.830475
8365.000000;0.830612
8364.000000;0.830689
8363.000000;0.830616
8362.000000;0.830525
8361.000000;0.830452
8360.000000;0.830164
8359.000000;0.829487
8358.000000;0.828674
8357.000000;0.828212
8356.000000;0.828312
8355.000000;0.828761
8354.000000;0.829235
8353.000000;0.829555
8352.000000;0.829649
8351.000000;0.829511
8350.000000;0.829279
8349.000000;0.829151
8348.000000;0.829114
8347.000000;0.828910
8346.000000;0.828416
8345.000000;0.827908
8344.000000;0.827767
8343.000000;0.828006
8342.000000;0.828256
8341.000000;0.828202
8340.000000;0.827894
8339.000000;0.827613
8338.000000;0.827593
8337.000000;0.827883
8336.000000;0.828342
8335.000000;0.828695
8334.000000;0.828680
8333.000000;0.828241
8332.000000;0.827565
8331.000000;0.826926
8330.000000;0.826498
8329.000000;0.826332
8328.000000;0.826421
8327.000000;0.826719
8326.000000;0.827116
8325.000000;0.827473
8324.000000;0.827703
8323.000000;0.827788
8322.000000;0.827750
8321.000000;0.827620
8320.000000;0.827447
8319.000000;0.827269
8318.000000;0.827080
8317.000000;0.826877
8316.000000;0.826776
8315.000000;0.826993
8314.000000;0.827600
8313.000000;0.828316
8312.000000;0.828664
8311.000000;0.828398
8310.000000;0.827729
8309.000000;0.827102
8308.000000;0.826822
8307.000000;0.826914
8306.000000;0.827256
8305.000000;0.827682
8304.000000;0.827975
8303.000000;0.827914
8302.000000;0.827443
8301.000000;0.826760
8300.000000;0.826178
8299.000000;0.825882
8298.000000;0.825857
8297.000000;0.826021
8296.000000;0.826369
8295.000000;0.826907
8294.000000;0.827476
8293.000000;0.827757
8292.000000;0.827571
8291.000000;0.827147
8290.000000;0.826951
8289.000000;0.827204
8288.000000;0.827655
8287.000000;0.827912
8286.000000;0.827868
8285.000000;0.827677
8284.000000;0.827408
8283.000000;0.826958
8282.000000;0.826350
8281.000000;0.825903
8280.000000;0.825945
8279.000000;0.826423
8278.000000;0.826940
8277.000000;0.827132
8276.000000;0.826943
8275.000000;0.826542
8274.000000;0.826118
8273.000000;0.825800
8272.000000;0.825687
8271.000000;0.825834
8270.000000;0.826185
8269.000000;0.826555
8268.000000;0.826749
8267.000000;0.826720
8266.000000;0.826602
8265.000000;0.826561
8264.000000;0.826612
8263.000000;0.826609
8262.000000;0.826388
8261.000000;0.825938
8260.000000;0.825422
8259.000000;0.825065
8258.000000;0.824977
8257.000000;0.825079
8256.000000;0.825171
8255.000000;0.825113
8254.000000;0.824901
8253.000000;0.824614
8252.000000;0.824345
8251.000000;0.824212
8250.000000;0.824319
8249.000000;0.824616
8248.000000;0.824872
8247.000000;0.824902
8246.000000;0.824800
8245.000000;0.824826
8244.000000;0.825081
8243.000000;0.825433
8242.000000;0.825715
8241.000000;0.825837
8240.000000;0.825708
8239.000000;0.825265
8238.000000;0.824669
8237.000000;0.824267
8236.000000;0.824225
8235.000000;0.824342
8234.000000;0.824355
8233.000000;0.824297
8232.000000;0.824364
8231.000000;0.824555
8230.000000;0.824705
8229.000000;0.824815
8228.000000;0.825060
8227.000000;0.825435
8226.000000;0.825633
8225.000000;0.825412
8224.000000;0.824905
8223.000000;0.824453
8222.000000;0.824274
8221.000000;0.824408
8220.000000;0.824852
8219.000000;0.825528
8218.000000;0.826160
8217.000000;0.826376
8216.000000;0.826021
8215.000000;0.825315
8214.000000;0.824656
8213.000000;0.824323
8212.000000;0.824316
8211.000000;0.824411
8210.000000;0.824370
8209.000000;0.824143
8208.000000;0.823912
8207.000000;0.823889
8206.000000;0.824097
8205.000000;0.824370
8204.000000;0.824539
8203.000000;0.824556
8202.000000;0.824448
8201.000000;0.824247
8200.000000;0.824006
8199.000000;0.823801
8198.000000;0.823670
8197.000000;0.823571
8196.000000;0.823439
8195.000000;0.823294
8194.000000;0.823261
8193.000000;0.823445
8192.000000;0.823782
8191.000000;0.824001
8190.000000;0.823835
8189.000000;0.823336
8188.000000;0.822931
8187.000000;0.823035
8186.000000;0.823572
8185.000000;0.824022
8184.000000;0.823996
8183.000000;0.823637
8182.000000;0.823346
8181.000000;0.823239
8180.000000;0.823105
8179.000000;0.822828
8178.000000;0.822633
8177.000000;0.822791
8176.000000;0.823262
8175.000000;0.823747
8174.000000;0.823978
8173.000000;0.823868
8172.000000;0.823476
8171.000000;0.823007
8170.000000;0.822784
8169.000000;0.823027
8168.000000;0.823580
8167.000000;0.823984
8166.000000;0.823901
8165.000000;0.823431
8164.000000;0.822970
8163.000000;0.822807
8162.000000;0.822921
8161.000000;0.823129
8160.000000;0.823338
8159.000000;0.823619
8158.000000;0.824038
8157.000000;0.824463
8156.000000;0.824601
8155.000000;0.824268
8154.000000;0.823610
8153.000000;0.823008
8152.000000;0.822767
8151.000000;0.822909
8150.000000;0.823250
8149.000000;0.823581
8148.000000;0.823772
8147.000000;0.823769
8146.000000;0.823578
8145.000000;0.823263
8144.000000;0.822930
8143.000000;0.822677
8142.000000;0.822549
8141.000000;0.822511
8140.000000;0.822470
8139.000000;0.822352
8138.000000;0.822180
8137.000000;0.822069
8136.000000;0.822142
8135.000000;0.822430
8134.000000;0.822830
8133.000000;0.823154
8132.000000;0.823234
8131.000000;0.823048
8130.000000;0.822746
8129.000000;0.822525
8128.000000;0.822479
8127.000000;0.822570
8126.000000;0.822709
8125.000000;0.822818
8124.000000;0.822838
8123.000000;0.822750
8122.000000;0.822618
8121.000000;0.822569
8120.000000;0.822679
8119.000000;0.822875
8118.000000;0.822986
8117.000000;0.822889
8116.000000;0.822619
8115.000000;0.822354
8114.000000;0.822284
8113.000000;0.822445
8112.000000;0.822667
8111.000000;0.822714
8110.000000;0.822528
8109.000000;0.822304
8108.000000;0.822296
8107.000000;0.822537
8106.000000;0.822805
8105.000000;0.822867
8104.000000;0.822745
8103.000000;0.822685
8102.000000;0.822857
8101.000000;0.823123
8100.000000;0.823162
8099.000000;0.822831
8098.000000;0.822332
8097.000000;0.821962
8096.000000;0.821779
8095.000000;0.821606
8094.000000;0.821357
8093.000000;0.821204
8092.000000;0.821339
8091.000000;0.821637
8090.000000;0.821693
8089.000000;0.821240
8088.000000;0.820493
8087.000000;0.820008
8086.000000;0.820183
8085.000000;0.820916
8084.000000;0.821717
8083.000000;0.822147
8082.000000;0.822129
8081.000000;0.821903
8080.000000;0.821771
8079.000000;0.821881
8078.000000;0.822156
8077.000000;0.822352
8076.000000;0.822244
8075.000000;0.821847
8074.000000;0.821434
8073.000000;0.821274
8072.000000;0.821360
8071.000000;0.821474
8070.000000;0.821477
8069.000000;0.821432
8068.000000;0.821437
8067.000000;0.821468
8066.000000;0.821453
8065.000000;0.821391
8064.000000;0.821337
8063.000000;0.821299
8062.000000;0.821233
8061.000000;0.821105
8060.000000;0.820929
8059.000000;0.820768
8058.000000;0.820723
8057.000000;0.820870
8056.000000;0.821142
8055.000000;0.821331
8054.000000;0.821259
8053.000000;0.820968
8052.000000;0.820685
8051.000000;0.820616
8050.000000;0.820781
8049.000000;0.821042
8048.000000;0.821259
8047.000000;0.821412
8046.000000;0.821554
8045.000000;0.821703
8044.000000;0.821818
8043.000000;0.821908
8042.000000;0.822063
8041.000000;0.822295
8040.000000;0.822416
8039.000000;0.822231
8038.000000;0.821835
8037.000000;0.821562
8036.000000;0.821605
8035.000000;0.821812
8034.000000;0.821910
8033.000000;0.821794
8032.000000;0.821505
8031.000000;0.821089
8030.000000;0.820615
8029.000000;0.820243
8028.000000;0.820104
8027.000000;0.820144
8026.000000;0.820207
8025.000000;0.820248
8024.000000;0.820322
8023.000000;0.820431
8022.000000;0.820493
8021.000000;0.820483
8020.000000;0.820474
8019.000000;0.820514
8018.000000;0.820566
8017.000000;0.820585
8016.000000;0.820569
8015.000000;0.820542
8014.000000;0.820536
8013.000000;0.820599
8012.000000;0.820715
8011.000000;0.820764
8010.000000;0.820663
8009.000000;0.820537
8008.000000;0.820610
8007.000000;0.820907
8006.000000;0.821215
8005.000000;0.821364
8004.000000;0.821386
8003.000000;0.821367
8002.000000;0.821288
8001.000000;0.821125
8000.000000;0.820961
7999.000000;0.820866
7998.000000;0.820763
7997.000000;0.820572
7996.000000;0.820430
7995.000000;0.820579
7994.000000;0.821030
7993.000000;0.821477
7992.000000;0.821583
7991.000000;0.821274
7990.000000;0.820734
7989.000000;0.820227
7988.000000;0.819948
7987.000000;0.819972
7986.000000;0.820257
7985.000000;0.820697
7984.000000;0.821171
7983.000000;0.821536
7982.000000;0.821631
7981.000000;0.821380
7980.000000;0.820947
7979.000000;0.820678
7978.000000;0.820795
7977.000000;0.821158
7976.000000;0.821401
7975.000000;0.821313
7974.000000;0.821038
7973.000000;0.820880
7972.000000;0.820951
7971.000000;0.821076
7970.000000;0.821017
7969.000000;0.820735
7968.000000;0.820387
7967.000000;0.820122
7966.000000;0.819961
7965.000000;0.819879
7964.000000;0.819911
7963.000000;0.820085
7962.000000;0.820306
7961.000000;0.820365
7960.000000;0.820124
7959.000000;0.819650
7958.000000;0.819163
7957.000000;0.818879
7956.000000;0.818900
7955.000000;0.819240
7954.000000;0.819863
7953.000000;0.820660
7952.000000;0.821400
7951.000000;0.821805
7950.000000;0.821747
7949.000000;0.821388
7948.000000;0.821056
7947.000000;0.820963
7946.000000;0.821049
7945.000000;0.821117
7944.000000;0.821049
7943.000000;0.820870
7942.000000;0.820653
7941.000000;0.820443
7940.000000;0.820293
7939.000000;0.820301
7938.000000;0.820539
7937.000000;0.820931
7936.000000;0.821233
7935.000000;0.821188
7934.000000;0.820772
7933.000000;0.820268
7932.000000;0.820033
7931.000000;0.820154
7930.000000;0.820361
7929.000000;0.820337
7928.000000;0.820049
7927.000000;0.819721
7926.000000;0.819541
7925.000000;0.819504
7924.000000;0.819569
7923.000000;0.819810
7922.000000;0.820316
7921.000000;0.820979
7920.000000;0.821509
7919.000000;0.821691
7918.000000;0.821570
7917.000000;0.821355
7916.000000;0.821176
7915.000000;0.820992
7914.000000;0.820736
7913.000000;0.820491
7912.000000;0.820455
7911.000000;0.820711
7910.000000;0.821092
7909.000000;0.821326
7908.000000;0.821321
7907.000000;0.821226
7906.000000;0.821212
7905.000000;0.821260
7904.000000;0.821215
7903.000000;0.821003
7902.000000;0.820715
7901.000000;0.820502
7900.000000;0.820455
7899.000000;0.820565
7898.000000;0.820719
7897.000000;0.820730
7896.000000;0.820455
7895.000000;0.819966
7894.000000;0.819545
7893.000000;0.819429
7892.000000;0.819593
7891.000000;0.819820
7890.000000;0.819973
7889.000000;0.820096
7888.000000;0.820274
7887.000000;0.820499
7886.000000;0.820706
7885.000000;0.820874
7884.000000;0.821003
7883.000000;0.821044
7882.000000;0.820955
7881.000000;0.820819
7880.000000;0.820799
7879.000000;0.820945
7878.000000;0.821094
7877.000000;0.821030
7876.000000;0.820716
7875.000000;0.820320
7874.000000;0.820032
7873.000000;0.819903
7872.000000;0.819874
7871.000000;0.819892
7870.000000;0.819957
7869.000000;0.820090
7868.000000;0.820285
7867.000000;0.820507
7866.000000;0.820711
7865.000000;0.820880
7864.000000;0.821052
7863.000000;0.821287
7862.000000;0.821573
7861.000000;0.821743
7860.000000;0.821572
7859.000000;0.821005
7858.000000;0.820287
7857.000000;0.819799
7856.000000;0.819740
7855.000000;0.820003
7854.000000;0.820355
7853.000000;0.820673
7852.000000;0.820955
7851.000000;0.821196
7850.000000;0.821359
7849.000000;0.821460
7848.000000;0.821555
7847.000000;0.821637
7846.000000;0.821631
7845.000000;0.821534
7844.000000;0.821465
7843.000000;0.821505
7842.000000;0.821609
7841.000000;0.821738
7840.000000;0.821974
7839.000000;0.822371
7838.000000;0.822757
7837.000000;0.822867
7836.000000;0.822652
7835.000000;0.822301
7834.000000;0.821970
7833.000000;0.821676
7832.000000;0.821487
7831.000000;0.821574
7830.000000;0.821944
7829.000000;0.822281
7828.000000;0.822250
7827.000000;0.821887
7826.000000;0.821528
7825.000000;0.821403
7824.000000;0.821470
7823.000000;0.821601
7822.000000;0.821761
7821.000000;0.821957
7820.000000;0.822141
7819.000000;0.822231
7818.000000;0.822154
7817.000000;0.821867
7816.000000;0.821432
7815.000000;0.821081
7814.000000;0.821083
7813.000000;0.821513
7812.000000;0.822192
7811.000000;0.822868
7810.000000;0.823366
7809.000000;0.823554
7808.000000;0.823342
7807.000000;0.822788
7806.000000;0.822128
7805.000000;0.821601
7804.000000;0.821309
7803.000000;0.821261
7802.000000;0.821460
7801.000000;0.821861
7800.000000;0.822316
7799.000000;0.822670
7798.000000;0.822872
7797.000000;0.822946
7796.000000;0.822911
7795.000000;0.822818
7794.000000;0.822783
7793.000000;0.822871
7792.000000;0.822974
7791.000000;0.822909
7790.000000;0.822662
7789.000000;0.822450
7788.000000;0.822518
7787.000000;0.822901
7786.000000;0.823403
7785.000000;0.823758
7784.000000;0.823854
7783.000000;0.823811
7782.000000;0.823837
7781.000000;0.823989
7780.000000;0.824118
7779.000000;0.824071
7778.000000;0.823892
7777.000000;0.823727
7776.000000;0.823619
7775.000000;0.823487
7774.000000;0.823301
7773.000000;0.823176
7772.000000;0.823264
7771.000000;0.823616
7770.000000;0.824140
7769.000000;0.824615
7768.000000;0.824799
7767.000000;0.824616
7766.000000;0.824260
7765.000000;0.824030
7764.000000;0.824036
7763.000000;0.824129
7762.000000;0.824132
7761.000000;0.824048
7760.000000;0.824029
7759.000000;0.824197
7758.000000;0.824549
7757.000000;0.824968
7756.000000;0.825283
7755.000000;0.825355
7754.000000;0.825177
7753.000000;0.824896
7752.000000;0.824724
7751.000000;0.824808
7750.000000;0.825148
7749.000000;0.825583
7748.000000;0.825891
7747.000000;0.825956
7746.000000;0.825852
7745.000000;0.825740
7744.000000;0.825692
7743.000000;0.825675
7742.000000;0.825662
7741.000000;0.825666
7740.000000;0.825671
7739.000000;0.825639
7738.000000;0.825608
7737.000000;0.825660
7736.000000;0.825777
7735.000000;0.825819
7734.000000;0.825730
7733.000000;0.825679
7732.000000;0.825894
7731.000000;0.826373
7730.000000;0.826850
7729.000000;0.827043
7728.000000;0.826900
7727.000000;0.826626
7726.000000;0.826503
7725.000000;0.826656
7724.000000;0.826966
7723.000000;0.827209
7722.000000;0.827303
7721.000000;0.827382
7720.000000;0.827597
7719.000000;0.827901
7718.000000;0.828098
7717.000000;0.828068
7716.000000;0.827895
7715.000000;0.827748
7714.000000;0.827722
7713.000000;0.827797
7712.000000;0.827907
7711.000000;0.827992
7710.000000;0.827995
7709.000000;0.827877
7708.000000;0.827694
7707.000000;0.827634
7706.000000;0.827898
7705.000000;0.828480
7704.000000;0.829098
7703.000000;0.829407
7702.000000;0.829313
7701.000000;0.829030
7700.000000;0.828871
7699.000000;0.828994
7698.000000;0.829340
7697.000000;0.829706
7696.000000;0.829878
7695.000000;0.829783
7694.000000;0.829554
7693.000000;0.829404
7692.000000;0.829430
7691.000000;0.829575
7690.000000;0.829769
7689.000000;0.830020
7688.000000;0.830306
7687.000000;0.830492
7686.000000;0.830447
7685.000000;0.830185
7684.000000;0.829840
7683.000000;0.829529
7682.000000;0.829315
7681.000000;0.829255
7680.000000;0.829386
7679.000000;0.829691
7678.000000;0.830105
7677.000000;0.830565
7676.000000;0.830982
7675.000000;0.831252
7674.000000;0.831344
7673.000000;0.831372
7672.000000;0.831466
7671.000000;0.831585
7670.000000;0.831569
7669.000000;0.831372
7668.000000;0.831169
7667.000000;0.831188
7666.000000;0.831498
7665.000000;0.831999
7664.000000;0.832534
7663.000000;0.832954
7662.000000;0.833143
7661.000000;0.833088
7660.000000;0.832920
7659.000000;0.832838
7658.000000;0.832939
7657.000000;0.833171
7656.000000;0.833428
7655.000000;0.833663
7654.000000;0.833897
7653.000000;0.834161
7652.000000;0.834443
7651.000000;0.834689
7650.000000;0.834817
7649.000000;0.834776
7648.000000;0.834628
7647.000000;0.834536
7646.000000;0.834612
7645.000000;0.834768
7644.000000;0.834794
7643.000000;0.834625
7642.000000;0.834466
7641.000000;0.834561
7640.000000;0.834898
7639.000000;0.835237
7638.000000;0.835415
7637.000000;0.835515
7636.000000;0.835706
7635.000000;0.836031
7634.000000;0.836399
7633.000000;0.836732
7632.000000;0.837003
7631.000000;0.837194
7630.000000;0.837301
7629.000000;0.837371
7628.000000;0.837474
7627.000000;0.837616
7626.000000;0.837718
7625.000000;0.837714
7624.000000;0.837646
7623.000000;0.837646
7622.000000;0.837822
7621.000000;0.838151
7620.000000;0.838486
7619.000000;0.838702
7618.000000;0.838820
7617.000000;0.838980
7616.000000;0.839272
7615.000000;0.839649
7614.000000;0.839993
7613.000000;0.840217
7612.000000;0.840289
7611.000000;0.840242
7610.000000;0.840198
7609.000000;0.840327
7608.000000;0.840690
7607.000000;0.841169
7606.000000;0.841593
7605.000000;0.841894
7604.000000;0.842103
7603.000000;0.842242
7602.000000;0.842320
7601.000000;0.842381
7600.000000;0.842460
7599.000000;0.842495
7598.000000;0.842400
7597.000000;0.842239
7596.000000;0.842240
7595.000000;0.842568
7594.000000;0.843150
7593.000000;0.843758
7592.000000;0.844231
7591.000000;0.844562
7590.000000;0.844828
7589.000000;0.845107
7588.000000;0.845438
7587.000000;0.845795
7586.000000;0.846080
7585.000000;0.846209
7584.000000;0.846206
7583.000000;0.846211
7582.000000;0.846337
7581.000000;0.846573
7580.000000;0.846833
7579.000000;0.847089
7578.000000;0.847372
7577.000000;0.847658
7576.000000;0.847833
7575.000000;0.847844
7574.000000;0.847813
7573.000000;0.847904
7572.000000;0.848108
7571.000000;0.848278
7570.000000;0.848366
7569.000000;0.848508
7568.000000;0.848813
7567.000000;0.849195
7566.000000;0.849506
7565.000000;0.849740
7564.000000;0.850009
7563.000000;0.850364
7562.000000;0.850741
7561.000000;0.851070
7560.000000;0.851346
7559.000000;0.851596
7558.000000;0.851872
7557.000000;0.852240
7556.000000;0.852688
7555.000000;0.853066
7554.000000;0.853207
7553.000000;0.853131
7552.000000;0.853044
7551.000000;0.853136
7550.000000;0.853424
7549.000000;0.853799
7548.000000;0.854135
7547.000000;0.854352
7546.000000;0.854469
7545.000000;0.854618
7544.000000;0.854916
7543.000000;0.855297
7542.000000;0.855562
7541.000000;0.855634
7540.000000;0.855694
7539.000000;0.855969
7538.000000;0.856467
7537.000000;0.856972
7536.000000;0.857279
7535.000000;0.857361
7534.000000;0.857366
7533.000000;0.857498
7532.000000;0.857878
7531.000000;0.858451
7530.000000;0.859019
7529.000000;0.859435
7528.000000;0.859738
7527.000000;0.860085
7526.000000;0.860529
7525.000000;0.860935
7524.000000;0.861117
7523.000000;0.861040
7522.000000;0.860889
7521.000000;0.860945
7520.000000;0.861372
7519.000000;0.862095
7518.000000;0.862880
7517.000000;0.863521
7516.000000;0.863951
7515.000000;0.864185
7514.000000;0.864253
7513.000000;0.864209
7512.000000;0.864164
7511.000000;0.864239
7510.000000;0.864487
7509.000000;0.864885
7508.000000;0.865361
7507.000000;0.865824
7506.000000;0.866197
7505.000000;0.866486
7504.000000;0.866778
7503.000000;0.867114
7502.000000;0.867404
7501.000000;0.867548
7500.000000;0.867641
7499.000000;0.867938
7498.000000;0.868582
7497.000000;0.869416
7496.000000;0.870109
7495.000000;0.870456
7494.000000;0.870516
7493.000000;0.870502
7492.000000;0.870589
7491.000000;0.870803
7490.000000;0.871057
7489.000000;0.871235
7488.000000;0.871337
7487.000000;0.871467
7486.000000;0.871729
7485.000000;0.872115
7484.000000;0.872532
7483.000000;0.872911
7482.000000;0.873265
7481.000000;0.873651
7480.000000;0.874094
7479.000000;0.874574
7478.000000;0.875040
7477.000000;0.875432
7476.000000;0.875725
7475.000000;0.875959
7474.000000;0.876212
7473.000000;0.876498
7472.000000;0.876748
7471.000000;0.876915
7470.000000;0.877076
7469.000000;0.877351
7468.000000;0.877747
7467.000000;0.878146
7466.000000;0.878486
7465.000000;0.878857
7464.000000;0.879359
7463.000000;0.879927
7462.000000;0.880379
7461.000000;0.880635
7460.000000;0.880789
7459.000000;0.880959
7458.000000;0.881135
7457.000000;0.881256
7456.000000;0.881357
7455.000000;0.881583
7454.000000;0.882043
7453.000000;0.882689
7452.000000;0.883353
7451.000000;0.883876
7450.000000;0.884179
7449.000000;0.884285
7448.000000;0.884300
7447.000000;0.884392
7446.000000;0.884683
7445.000000;0.885139
7444.000000;0.885567
7443.000000;0.885797
7442.000000;0.885871
7441.000000;0.886008
7440.000000;0.886364
7439.000000;0.886864
7438.000000;0.887307
7437.000000;0.887602
7436.000000;0.887853
7435.000000;0.888208
7434.000000;0.888675
7433.000000;0.889112
7432.000000;0.889377
7431.000000;0.889465
7430.000000;0.889505
7429.000000;0.889637
7428.000000;0.889893
7427.000000;0.890196
7426.000000;0.890466
7425.000000;0.890708
7424.000000;0.890991
7423.000000;0.891344
7422.000000;0.891709
7421.000000;0.892020
7420.000000;0.892291
7419.000000;0.892601
7418.000000;0.892997
7417.000000;0.893429
7416.000000;0.893807
7415.000000;0.894113
7414.000000;0.894433
7413.000000;0.894853
7412.000000;0.895333
7411.000000;0.895722
7410.000000;0.895926
7409.000000;0.896015
7408.000000;0.896129
7407.000000;0.896305
7406.000000;0.896462
7405.000000;0.896563
7404.000000;0.896737
7403.000000;0.897150
7402.000000;0.897782
7401.000000;0.898389
7400.000000;0.898728
7399.000000;0.898798
7398.000000;0.898810
7397.000000;0.898946
7396.000000;0.899219
7395.000000;0.899542
7394.000000;0.899870
7393.000000;0.900195
7392.000000;0.900505
7391.000000;0.900797
7390.000000;0.901092
7389.000000;0.901368
7388.000000;0.901537
7387.000000;0.901567
7386.000000;0.901587
7385.000000;0.901761
7384.000000;0.902095
7383.000000;0.902463
7382.000000;0.902813
7381.000000;0.903220
7380.000000;0.903684
7379.000000;0.904034
7378.000000;0.904135
7377.000000;0.904107
7376.000000;0.904219
7375.000000;0.904598
7374.000000;0.905128
7373.000000;0.905595
7372.000000;0.905864
7371.000000;0.905948
7370.000000;0.906010
7369.000000;0.906250
7368.000000;0.906676
7367.000000;0.907045
7366.000000;0.907162
7365.000000;0.907167
7364.000000;0.907388
7363.000000;0.907955
7362.000000;0.908708
7361.000000;0.909430
7360.000000;0.910016
7359.000000;0.910396
7358.000000;0.910500
7357.000000;0.910399
7356.000000;0.910317
7355.000000;0.910416
7354.000000;0.910650
7353.000000;0.910907
7352.000000;0.911174
7351.000000;0.911493
7350.000000;0.911880
7349.000000;0.912348
7348.000000;0.912893
7347.000000;0.913379
7346.000000;0.913580
7345.000000;0.913451
7344.000000;0.913225
7343.000000;0.913139
7342.000000;0.913192
7341.000000;0.913288
7340.000000;0.913451
7339.000000;0.913754
7338.000000;0.914090
7337.000000;0.914271
7336.000000;0.914306
7335.000000;0.914428
7334.000000;0.914842
7333.000000;0.915547
7332.000000;0.916368
7331.000000;0.917083
7330.000000;0.917566
7329.000000;0.917947
7328.000000;0.918513
7327.000000;0.919313
7326.000000;0.919999
7325.000000;0.920251
7324.000000;0.920253
7323.000000;0.920478
7322.000000;0.921080
7321.000000;0.921756
7320.000000;0.922218
7319.000000;0.922562
7318.000000;0.923050
7317.000000;0.923740
7316.000000;0.924462
7315.000000;0.925062
7314.000000;0.925507
7313.000000;0.925821
7312.000000;0.926064
7311.000000;0.926317
7310.000000;0.926592
7309.000000;0.926840
7308.000000;0.927112
7307.000000;0.927592
7306.000000;0.928359
7305.000000;0.929198
7304.000000;0.929780
7303.000000;0.930016
7302.000000;0.930142
7301.000000;0.930469
7300.000000;0.931105
7299.000000;0.931905
7298.000000;0.932613
7297.000000;0.933062
7296.000000;0.933324
7295.000000;0.933682
7294.000000;0.934387
7293.000000;0.935390
7292.000000;0.936351
7291.000000;0.937009
7290.000000;0.937464
7289.000000;0.938057
7288.000000;0.939000
7287.000000;0.940176
7286.000000;0.941314
7285.000000;0.942298
7284.000000;0.943243
7283.000000;0.944275
7282.000000;0.945347
7281.000000;0.946343
7280.000000;0.947257
7279.000000;0.948203
7278.000000;0.949245
7277.000000;0.950299
7276.000000;0.951235
7275.000000;0.952032
7274.000000;0.952792
7273.000000;0.953619
7272.000000;0.954554
7271.000000;0.955571
7270.000000;0.956608
7269.000000;0.957607
7268.000000;0.958550
7267.000000;0.959450
7266.000000;0.960313
7265.000000;0.961141
7264.000000;0.961982
7263.000000;0.962938
7262.000000;0.964066
7261.000000;0.965309
7260.000000;0.966586
7259.000000;0.967913
7258.000000;0.969351
7257.000000;0.970845
7256.000000;0.972207
7255.000000;0.973314
7254.000000;0.974248
7253.000000;0.975201
7252.000000;0.976312
7251.000000;0.977639
7250.000000;0.979207
7249.000000;0.980959
7248.000000;0.982689
7247.000000;0.984134
7246.000000;0.985146
7245.000000;0.985805
7244.000000;0.986390
7243.000000;0.987240
7242.000000;0.988570
7241.000000;0.990321
7240.000000;0.992203
7239.000000;0.993985
7238.000000;0.995718
7237.000000;0.997569
7236.000000;0.999486
7235.000000;1.001184
7234.000000;1.002534
7233.000000;1.003830
7232.000000;1.005508
7231.000000;1.007638
7230.000000;1.009873
7229.000000;1.011916
7228.000000;1.013876
7227.000000;1.016059
7226.000000;1.018509
7225.000000;1.020944
7224.000000;1.023105
7223.000000;1.025004
7222.000000;1.026893
7221.000000;1.029069
7220.000000;1.031643
7219.000000;1.034415
7218.000000;1.037038
7217.000000;1.039376
7216.000000;1.041638
7215.000000;1.044110
7214.000000;1.046823
7213.000000;1.049559
7212.000000;1.052136
7211.000000;1.054581
7210.000000;1.057032
7209.000000;1.059574
7208.000000;1.062215
7207.000000;1.064961
7206.000000;1.067829
7205.000000;1.070789
7204.000000;1.073762
7203.000000;1.076673
7202.000000;1.079513
7201.000000;1.082379
7200.000000;1.085416
7199.000000;1.088689
7198.000000;1.092101
7197.000000;1.095510
7196.000000;1.098910
7195.000000;1.102419
7194.000000;1.106070
7193.000000;1.109685
7192.000000;1.113036
7191.000000;1.116105
7190.000000;1.119112
7189.000000;1.122297
7188.000000;1.125747
7187.000000;1.129421
7186.000000;1.133211
7185.000000;1.136940
7184.000000;1.140398
7183.000000;1.143517
7182.000000;1.146516
7181.000000;1.149782
7180.000000;1.153555
7179.000000;1.157756
7178.000000;1.162114
7177.000000;1.166391
7176.000000;1.170468
7175.000000;1.174323
7174.000000;1.178041
7173.000000;1.181848
7172.000000;1.185993
7171.000000;1.190489
7170.000000;1.195015
7169.000000;1.199166
7168.000000;1.202886
7167.000000;1.206557
7166.000000;1.210608
7165.000000;1.215077
7164.000000;1.219640
7163.000000;1.224066
7162.000000;1.228469
7161.000000;1.233073
7160.000000;1.237860
7159.000000;1.242618
7158.000000;1.247234
7157.000000;1.251776
7156.000000;1.256275
7155.000000;1.260594
7154.000000;1.264605
7153.000000;1.268428
7152.000000;1.272381
7151.000000;1.276734
7150.000000;1.281542
7149.000000;1.286638
7148.000000;1.291731
7147.000000;1.296569
7146.000000;1.301084
7145.000000;1.305399
7144.000000;1.309696
7143.000000;1.314082
7142.000000;1.318593
7141.000000;1.323236
7140.000000;1.327971
7139.000000;1.332684
7138.000000;1.337327
7137.000000;1.342081
7136.000000;1.347202
7135.000000;1.352660
7134.000000;1.358058
7133.000000;1.362990
7132.000000;1.367379
7131.000000;1.371409
7130.000000;1.375318
7129.000000;1.379416
7128.000000;1.384092
7127.000000;1.389490
7126.000000;1.395141
7125.000000;1.400190
7124.000000;1.404177
7123.000000;1.407518
7122.000000;1.411077
7121.000000;1.415317
7120.000000;1.419955
7119.000000;1.424392
7118.000000;1.428347
7117.000000;1.432090
7116.000000;1.436150
7115.000000;1.440849
7114.000000;1.446073
7113.000000;1.451370
7112.000000;1.456207
7111.000000;1.460316
7110.000000;1.463902
7109.000000;1.467455
7108.000000;1.471300
7107.000000;1.475349
7106.000000;1.479357
7105.000000;1.483340
7104.000000;1.487606
7103.000000;1.492335
7102.000000;1.497311
7101.000000;1.502121
7100.000000;1.506508
7099.000000;1.510438
7098.000000;1.513922
7097.000000;1.516973
7096.000000;1.519774
7095.000000;1.522719
7094.000000;1.526175
7093.000000;1.530200
7092.000000;1.534554
7091.000000;1.538946
7090.000000;1.543190
7089.000000;1.547135
7088.000000;1.550555
7087.000000;1.553313
7086.000000;1.555678
7085.000000;1.558276
7084.000000;1.561536
7083.000000;1.565252
7082.000000;1.568877
7081.000000;1.572145
7080.000000;1.575190
7079.000000;1.578182
7078.000000;1.581194
7077.000000;1.584434
7076.000000;1.588199
7075.000000;1.592437
7074.000000;1.596653
7073.000000;1.600444
7072.000000;1.603848
7071.000000;1.606964
7070.000000;1.609597
7069.000000;1.611642
7068.000000;1.613573
7067.000000;1.616083
7066.000000;1.619287
7065.000000;1.622619
7064.000000;1.625521
7063.000000;1.627937
7062.000000;1.630113
7061.000000;1.632246
7060.000000;1.634463
7059.000000;1.636902
7058.000000;1.639623
7057.000000;1.642492
7056.000000;1.645308
7055.000000;1.647998
7054.000000;1.650612
7053.000000;1.653133
7052.000000;1.655358
7051.000000;1.657045
7050.000000;1.658226
7049.000000;1.659278
7048.000000;1.660589
7047.000000;1.662229
7046.000000;1.664036
7045.000000;1.665954
7044.000000;1.668129
7043.000000;1.670719
7042.000000;1.673806
7041.000000;1.677441
7040.000000;1.681420
7039.000000;1.684992
7038.000000;1.687221
7037.000000;1.687887
7036.000000;1.687748
7035.000000;1.687785
7034.000000;1.688529
7033.000000;1.690179
7032.000000;1.692773
7031.000000;1.695845
7030.000000;1.698383
7029.000000;1.699702
7028.000000;1.700143
7027.000000;1.700509
7026.000000;1.701118
7025.000000;1.701874
7024.000000;1.702885
7023.000000;1.704330
7022.000000;1.705898
7021.000000;1.707117
7020.000000;1.708256
7019.000000;1.710178
7018.000000;1.713085
7017.000000;1.715975
7016.000000;1.717653
7015.000000;1.717893
7014.000000;1.717420
7013.000000;1.717192
7012.000000;1.717940
7011.000000;1.719888
7010.000000;1.722477
7009.000000;1.724644
7008.000000;1.725759
7007.000000;1.726138
7006.000000;1.726431
7005.000000;1.726862
7004.000000;1.727340
7003.000000;1.727967
7002.000000;1.728927
7001.000000;1.730033
7000.000000;1.730879
6999.000000;1.731461
6998.000000;1.732255
6997.000000;1.733582
6996.000000;1.735138
6995.000000;1.736280
6994.000000;1.736639
6993.000000;1.736417
6992.000000;1.736241
6991.000000;1.736774
6990.000000;1.738269
6989.000000;1.740336
6988.000000;1.742155
6987.000000;1.743045
6986.000000;1.742963
6985.000000;1.742572
6984.000000;1.742806
6983.000000;1.744169
6982.000000;1.746295
6981.000000;1.748233
6980.000000;1.749344
6979.000000;1.749884
6978.000000;1.750563
6977.000000;1.751568
6976.000000;1.752249
6975.000000;1.751864
6974.000000;1.750506
6973.000000;1.749098
6972.000000;1.748519
6971.000000;1.748831
6970.000000;1.749357
6969.000000;1.749402
6968.000000;1.748864
6967.000000;1.748186
6966.000000;1.747891
6965.000000;1.748271
6964.000000;1.749371
6963.000000;1.751011
6962.000000;1.752679
6961.000000;1.753557
6960.000000;1.753017
6959.000000;1.751294
6958.000000;1.749505
6957.000000;1.748763
6956.000000;1.749234
6955.000000;1.750187
6954.000000;1.750929
6953.000000;1.751445
6952.000000;1.752025
6951.000000;1.752584
6950.000000;1.752697
6949.000000;1.752247
6948.000000;1.751722
6947.000000;1.751802
6946.000000;1.752822
6945.000000;1.754614
6944.000000;1.756608
6943.000000;1.758004
6942.000000;1.758168
6941.000000;1.757172
6940.000000;1.755877
6939.000000;1.755259
6938.000000;1.755583
6937.000000;1.756295
6936.000000;1.756683
6935.000000;1.756558
6934.000000;1.756270
6933.000000;1.756144
6932.000000;1.756050
6931.000000;1.755616
6930.000000;1.754784
6929.000000;1.753922
6928.000000;1.753319
6927.000000;1.752876
6926.000000;1.752491
6925.000000;1.752447
6924.000000;1.752987
6923.000000;1.753684
6922.000000;1.753779
6921.000000;1.753161
6920.000000;1.752480
6919.000000;1.752192
6918.000000;1.752122
6917.000000;1.752140
6916.000000;1.752586
6915.000000;1.753523
6914.000000;1.754103
6913.000000;1.753446
6912.000000;1.751909
6911.000000;1.750758
6910.000000;1.750655
6909.000000;1.751119
6908.000000;1.751497
6907.000000;1.751758
6906.000000;1.752048
6905.000000;1.752078
6904.000000;1.751444
6903.000000;1.750248
6902.000000;1.748987
6901.000000;1.748041
6900.000000;1.747574
6899.000000;1.747719
6898.000000;1.748442
6897.000000;1.749263
6896.000000;1.749509
6895.000000;1.748944
6894.000000;1.747971
6893.000000;1.747140
6892.000000;1.746640
6891.000000;1.746324
6890.000000;1.746042
6889.000000;1.745794
6888.000000;1.745575
6887.000000;1.745253
6886.000000;1.744742
6885.000000;1.744303
6884.000000;1.744475
6883.000000;1.745496
6882.000000;1.746821
6881.000000;1.747467
6880.000000;1.746990
6879.000000;1.745990
6878.000000;1.745451
6877.000000;1.745682
6876.000000;1.746062
6875.000000;1.745786
6874.000000;1.744669
6873.000000;1.743190
6872.000000;1.741966
6871.000000;1.741354
6870.000000;1.741378
6869.000000;1.741776
6868.000000;1.742067
6867.000000;1.741853
6866.000000;1.741192
6865.000000;1.740548
6864.000000;1.740234
6863.000000;1.740016
6862.000000;1.739453
6861.000000;1.738511
6860.000000;1.737590
6859.000000;1.736962
6858.000000;1.736464
6857.000000;1.735856
6856.000000;1.735254
6855.000000;1.734970
6854.000000;1.735072
6853.000000;1.735314
6852.000000;1.735448
6851.000000;1.735388
6850.000000;1.735034
6849.000000;1.734182
6848.000000;1.732784
6847.000000;1.731186
6846.000000;1.729914
6845.000000;1.729183
6844.000000;1.728710
6843.000000;1.728031
6842.000000;1.726985
6841.000000;1.725843
6840.000000;1.724997
6839.000000;1.724612
6838.000000;1.724568
6837.000000;1.724569
6836.000000;1.724246
6835.000000;1.723281
6834.000000;1.721669
6833.000000;1.719852
6832.000000;1.718403
6831.000000;1.717544
6830.000000;1.717053
6829.000000;1.716632
6828.000000;1.716182
6827.000000;1.715714
6826.000000;1.715213
6825.000000;1.714751
6824.000000;1.714541
6823.000000;1.714651
6822.000000;1.714703
6821.000000;1.714033
6820.000000;1.712255
6819.000000;1.709673
6818.000000;1.707113
6817.000000;1.705333
6816.000000;1.704415
6815.000000;1.703645
6814.000000;1.702114
6813.000000;1.699627
6812.000000;1.697006
6811.000000;1.695339
6810.000000;1.694939
6809.000000;1.695057
6808.000000;1.694629
6807.000000;1.693237
6806.000000;1.691308
6805.000000;1.689500
6804.000000;1.688050
6803.000000;1.686717
6802.000000;1.685218
6801.000000;1.683537
6800.000000;1.681798
6799.000000;1.680036
6798.000000;1.678294
6797.000000;1.676799
6796.000000;1.675766
6795.000000;1.675008
6794.000000;1.673981
6793.000000;1.672274
6792.000000;1.669935
6791.000000;1.667282
6790.000000;1.664634
6789.000000;1.662259
6788.000000;1.660336
6787.000000;1.658757
6786.000000;1.657165
6785.000000;1.655363
6784.000000;1.653569
6783.000000;1.652089
6782.000000;1.650865
6781.000000;1.649550
6780.000000;1.647926
6779.000000;1.646030
6778.000000;1.643989
6777.000000;1.641968
6776.000000;1.640263
6775.000000;1.639114
6774.000000;1.638376
6773.000000;1.637577
6772.000000;1.636402
6771.000000;1.634953
6770.000000;1.633418
6769.000000;1.631678
6768.000000;1.629431
6767.000000;1.626663
6766.000000;1.623780
6765.000000;1.621232
6764.000000;1.619068
6763.000000;1.616950
6762.000000;1.614605
6761.000000;1.612155
6760.000000;1.609959
6759.000000;1.608188
6758.000000;1.606643
6757.000000;1.604979
6756.000000;1.602974
6755.000000;1.600648
6754.000000;1.598262
6753.000000;1.596257
6752.000000;1.594939
6751.000000;1.594078
6750.000000;1.592961
6749.000000;1.591046
6748.000000;1.588507
6747.000000;1.585981
6746.000000;1.583878
6745.000000;1.582130
6744.000000;1.580501
6743.000000;1.578878
6742.000000;1.577273
6741.000000;1.575747
6740.000000;1.574365
6739.000000;1.573061
6738.000000;1.571558
6737.000000;1.569621
6736.000000;1.567379
6735.000000;1.565188
6734.000000;1.563148
6733.000000;1.561005
6732.000000;1.558601
6731.000000;1.556156
6730.000000;1.553966
6729.000000;1.552042
6728.000000;1.550233
6727.000000;1.548526
6726.000000;1.546991
6725.000000;1.545525
6724.000000;1.543902
6723.000000;1.542059
6722.000000;1.540125
6721.000000;1.538160
6720.000000;1.536077
6719.000000;1.533863
6718.000000;1.531700
6717.000000;1.529797
6716.000000;1.528194
6715.000000;1.526750
6714.000000;1.525228
6713.000000;1.523390
6712.000000;1.521109
6711.000000;1.518484
6710.000000;1.515773
6709.000000;1.513206
6708.000000;1.510888
6707.000000;1.508868
6706.000000;1.507176
6705.000000;1.505739
6704.000000;1.504366
6703.000000;1.502888
6702.000000;1.501265
6701.000000;1.499526
6700.000000;1.497713
6699.000000;1.495885
6698.000000;1.494131
6697.000000;1.492430
6696.000000;1.490768
6695.000000;1.489108
6694.000000;1.487411
6693.000000;1.485555
6692.000000;1.483316
6691.000000;1.480731
6690.000000;1.478307
6689.000000;1.476645
6688.000000;1.475791
6687.000000;1.475115
6686.000000;1.473915
6685.000000;1.472048
6684.000000;1.469902
6683.000000;1.467887
6682.000000;1.466082
6681.000000;1.464291
6680.000000;1.462304
6679.000000;1.460116
6678.000000;1.457963
6677.000000;1.456147
6676.000000;1.454733
6675.000000;1.453439
6674.000000;1.451895
6673.000000;1.450006
6672.000000;1.447992
6671.000000;1.446069
6670.000000;1.444214
6669.000000;1.442299
6668.000000;1.440355
6667.000000;1.438578
6666.000000;1.437063
6665.000000;1.435632
6664.000000;1.434004
6663.000000;1.432071
6662.000000;1.429981
6661.000000;1.427956
6660.000000;1.426104
6659.000000;1.424421
6658.000000;1.422892
6657.000000;1.421489
6656.000000;1.420119
6655.000000;1.418664
6654.000000;1.417098
6653.000000;1.415507
6652.000000;1.413954
6651.000000;1.412386
6650.000000;1.410709
6649.000000;1.408920
6648.000000;1.407119
6647.000000;1.405405
6646.000000;1.403804
6645.000000;1.402263
6644.000000;1.400660
6643.000000;1.398876
6642.000000;1.396906
6641.000000;1.394904
6640.000000;1.393065
6639.000000;1.391457
6638.000000;1.390002
6637.000000;1.388627
6636.000000;1.387359
6635.000000;1.386227
6634.000000;1.385111
6633.000000;1.383766
6632.000000;1.382059
6631.000000;1.380163
6630.000000;1.378437
6629.000000;1.377055
6628.000000;1.375810
6627.000000;1.374346
6626.000000;1.372577
6625.000000;1.370767
6624.000000;1.369184
6623.000000;1.367806
6622.000000;1.366444
6621.000000;1.365036
6620.000000;1.363693
6619.000000;1.362463
6618.000000;1.361216
6617.000000;1.359798
6616.000000;1.358227
6615.000000;1.356674
6614.000000;1.355277
6613.000000;1.354012
6612.000000;1.352716
6611.000000;1.351228
6610.000000;1.349522
6609.000000;1.347723
6608.000000;1.345963
6607.000000;1.344256
6606.000000;1.342571
6605.000000;1.340994
6604.000000;1.339719
6603.000000;1.338795
6602.000000;1.337949
6601.000000;1.336746
6600.000000;1.334997
6599.000000;1.332965
6598.000000;1.331144
6597.000000;1.329807
6596.000000;1.328789
6595.000000;1.327698
6594.000000;1.326309
6593.000000;1.324730
6592.000000;1.323208
6591.000000;1.321874
6590.000000;1.320683
6589.000000;1.319529
6588.000000;1.318328
6587.000000;1.317041
6586.000000;1.315675
6585.000000;1.314262
6584.000000;1.312807
6583.000000;1.311283
6582.000000;1.309736
6581.000000;1.308343
6580.000000;1.307252
6579.000000;1.306352
6578.000000;1.305307
6577.000000;1.303884
6576.000000;1.302194
6575.000000;1.300581
6574.000000;1.299290
6573.000000;1.298284
6572.000000;1.297334
6571.000000;1.296219
6570.000000;1.294878
6569.000000;1.293405
6568.000000;1.291932
6567.000000;1.290503
6566.000000;1.289092
6565.000000;1.287701
6564.000000;1.286405
6563.000000;1.285252
6562.000000;1.284175
6561.000000;1.283054
6560.000000;1.281847
6559.000000;1.280610
6558.000000;1.279392
6557.000000;1.278195
6556.000000;1.277029
6555.000000;1.275974
6554.000000;1.275087
6553.000000;1.274271
6552.000000;1.273293
6551.000000;1.272004
6550.000000;1.270502
6549.000000;1.269040
6548.000000;1.267777
6547.000000;1.266668
6546.000000;1.265590
6545.000000;1.264499
6544.000000;1.263457
6543.000000;1.262523
6542.000000;1.261667
6541.000000;1.260752
6540.000000;1.259610
6539.000000;1.258189
6538.000000;1.256652
6537.000000;1.255265
6536.000000;1.254150
6535.000000;1.253183
6534.000000;1.252190
6533.000000;1.251153
6532.000000;1.250158
6531.000000;1.249183
6530.000000;1.248086
6529.000000;1.246794
6528.000000;1.245419
6527.000000;1.244137
6526.000000;1.243018
6525.000000;1.242019
6524.000000;1.241061
6523.000000;1.240097
6522.000000;1.239126
6521.000000;1.238183
6520.000000;1.237282
6519.000000;1.236372
6518.000000;1.235381
6517.000000;1.234314
6516.000000;1.233251
6515.000000;1.232234
6514.000000;1.231203
6513.000000;1.230088
6512.000000;1.228903
6511.000000;1.227741
6510.000000;1.226688
6509.000000;1.225763
6508.000000;1.224907
6507.000000;1.224025
6506.000000;1.223082
6505.000000;1.222168
6504.000000;1.221403
6503.000000;1.220789
6502.000000;1.220173
6501.000000;1.219382
6500.000000;1.218335
6499.000000;1.217038
6498.000000;1.215564
6497.000000;1.214079
6496.000000;1.212798
6495.000000;1.211825
6494.000000;1.211066
6493.000000;1.210343
6492.000000;1.209572
6491.000000;1.208783
6490.000000;1.208009
6489.000000;1.207231
6488.000000;1.206423
6487.000000;1.205598
6486.000000;1.204774
6485.000000;1.203945
6484.000000;1.203069
6483.000000;1.202095
6482.000000;1.201000
6481.000000;1.199834
6480.000000;1.198694
6479.000000;1.197659
6478.000000;1.196761
6477.000000;1.196001
6476.000000;1.195353
6475.000000;1.194725
6474.000000;1.193999
6473.000000;1.193145
6472.000000;1.192257
6471.000000;1.191415
6470.000000;1.190569
6469.000000;1.189626
6468.000000;1.188596
6467.000000;1.187593
6466.000000;1.186704
6465.000000;1.185927
6464.000000;1.185213
6463.000000;1.184504
6462.000000;1.183720
6461.000000;1.182796
6460.000000;1.181772
6459.000000;1.180775
6458.000000;1.179900
6457.000000;1.179118
6456.000000;1.178322
6455.000000;1.177431
6454.000000;1.176441
6453.000000;1.175436
6452.000000;1.174548
6451.000000;1.173865
6450.000000;1.173345
6449.000000;1.172830
6448.000000;1.172161
6447.000000;1.171282
6446.000000;1.170262
6445.000000;1.169270
6444.000000;1.168496
6443.000000;1.168010
6442.000000;1.167669
6441.000000;1.167192
6440.000000;1.166394
6439.000000;1.165343
6438.000000;1.164270
6437.000000;1.163361
6436.000000;1.162632
6435.000000;1.161968
6434.000000;1.161250
6433.000000;1.160447
6432.000000;1.159627
6431.000000;1.158867
6430.000000;1.158169
6429.000000;1.157478
6428.000000;1.156759
6427.000000;1.156006
6426.000000;1.155198
6425.000000;1.154305
6424.000000;1.153368
6423.000000;1.152518
6422.000000;1.151854
6421.000000;1.151324
6420.000000;1.150781
6419.000000;1.150136
6418.000000;1.149417
6417.000000;1.148692
6416.000000;1.147988
6415.000000;1.147292
6414.000000;1.146595
6413.000000;1.145917
6412.000000;1.145287
6411.000000;1.144701
6410.000000;1.144093
6409.000000;1.143382
6408.000000;1.142557
6407.000000;1.141701
6406.000000;1.140912
6405.000000;1.140214
6404.000000;1.139565
6403.000000;1.138922
6402.000000;1.138265
6401.000000;1.137576
6400.000000;1.136844
6399.000000;1.136099
6398.000000;1.135394
6397.000000;1.134753
6396.000000;1.134160
6395.000000;1.133588
6394.000000;1.133008
6393.000000;1.132362
6392.000000;1.131598
6391.000000;1.130756
6390.000000;1.129979
6389.000000;1.129387
6388.000000;1.128952
6387.000000;1.128512
6386.000000;1.127926
6385.000000;1.127204
6384.000000;1.126496
6383.000000;1.125940
6382.000000;1.125524
6381.000000;1.125085
6380.000000;1.124471
6379.000000;1.123680
6378.000000;1.122846
6377.000000;1.122089
6376.000000;1.121433
6375.000000;1.120844
6374.000000;1.120291
6373.000000;1.119755
6372.000000;1.119211
6371.000000;1.118655
6370.000000;1.118111
6369.000000;1.117576
6368.000000;1.116985
6367.000000;1.116273
6366.000000;1.115461
6365.000000;1.114655
6364.000000;1.113959
6363.000000;1.113420
6362.000000;1.113018
6361.000000;1.112686
6360.000000;1.112316
6359.000000;1.111816
6358.000000;1.111180
6357.000000;1.110490
6356.000000;1.109833
6355.000000;1.109243
6354.000000;1.108704
6353.000000;1.108185
6352.000000;1.107650
6351.000000;1.107063
6350.000000;1.106401
6349.000000;1.105673
6348.000000;1.104939
6347.000000;1.104295
6346.000000;1.103822
6345.000000;1.103498
6344.000000;1.103175
6343.000000;1.102703
6342.000000;1.102088
6341.000000;1.101487
6340.000000;1.101023
6339.000000;1.100639
6338.000000;1.100185
6337.000000;1.099616
6336.000000;1.099034
6335.000000;1.098531
6334.000000;1.098060
6333.000000;1.097490
6332.000000;1.096766
6331.000000;1.095975
6330.000000;1.095270
6329.000000;1.094737
6328.000000;1.094359
6327.000000;1.094057
6326.000000;1.093753
6325.000000;1.093385
6324.000000;1.092920
6323.000000;1.092356
6322.000000;1.091744
6321.000000;1.091165
6320.000000;1.090680
6319.000000;1.090279
6318.000000;1.089880
6317.000000;1.089377
6316.000000;1.088731
6315.000000;1.088001
6314.000000;1.087310
6313.000000;1.086748
6312.000000;1.086313
6311.000000;1.085933
6310.000000;1.085537
6309.000000;1.085101
6308.000000;1.084634
6307.000000;1.084151
6306.000000;1.083660
6305.000000;1.083173
6304.000000;1.082713
6303.000000;1.082302
6302.000000;1.081948
6301.000000;1.081634
6300.000000;1.081315
6299.000000;1.080926
6298.000000;1.080415
6297.000000;1.079780
6296.000000;1.079100
6295.000000;1.078509
6294.000000;1.078106
6293.000000;1.077871
6292.000000;1.077674
6291.000000;1.077375
6290.000000;1.076935
6289.000000;1.076414
6288.000000;1.075892
6287.000000;1.075408
6286.000000;1.074956
6285.000000;1.074505
6284.000000;1.074018
6283.000000;1.073470
6282.000000;1.072882
6281.000000;1.072330
6280.000000;1.071905
6279.000000;1.071650
6278.000000;1.071528
6277.000000;1.071438
6276.000000;1.071273
6275.000000;1.070980
6274.000000;1.070582
6273.000000;1.070140
6272.000000;1.069700
6271.000000;1.069267
6270.000000;1.068818
6269.000000;1.068329
6268.000000;1.067798
6267.000000;1.067245
6266.000000;1.066708
6265.000000;1.066213
6264.000000;1.065770
6263.000000;1.065384
6262.000000;1.065064
6261.000000;1.064803
6260.000000;1.064560
6259.000000;1.064286
6258.000000;1.063966
6257.000000;1.063626
6256.000000;1.063293
6255.000000;1.062964
6254.000000;1.062614
6253.000000;1.062217
6252.000000;1.061761
6251.000000;1.061267
6250.000000;1.060788
6249.000000;1.060383
6248.000000;1.060072
6247.000000;1.059825
6246.000000;1.059596
6245.000000;1.059352
6244.000000;1.059063
6243.000000;1.058695
6242.000000;1.058231
6241.000000;1.057705
6240.000000;1.057203
6239.000000;1.056808
6238.000000;1.056532
6237.000000;1.056309
6236.000000;1.056068
6235.000000;1.055803
6234.000000;1.055542
6233.000000;1.055268
6232.000000;1.054903
6231.000000;1.054414
6230.000000;1.053893
6229.000000;1.053486
6228.000000;1.053246
6227.000000;1.053091
6226.000000;1.052891
6225.000000;1.052597
6224.000000;1.052277
6223.000000;1.052036
6222.000000;1.051896
6221.000000;1.051737
6220.000000;1.051395
6219.000000;1.050842
6218.000000;1.050246
6217.000000;1.049799
6216.000000;1.049517
6215.000000;1.049260
6214.000000;1.048921
6213.000000;1.048540
6212.000000;1.048214
6211.000000;1.047986
6210.000000;1.047844
6209.000000;1.047751
6208.000000;1.047655
6207.000000;1.047487
6206.000000;1.047220
6205.000000;1.046884
6204.000000;1.046511
6203.000000;1.046097
6202.000000;1.045647
6201.000000;1.045226
6200.000000;1.044917
6199.000000;1.044749
6198.000000;1.044664
6197.000000;1.044553
6196.000000;1.044305
6195.000000;1.043878
6194.000000;1.043348
6193.000000;1.042868
6192.000000;1.042530
6191.000000;1.042292
6190.000000;1.042052
6189.000000;1.041761
6188.000000;1.041445
6187.000000;1.041146
6186.000000;1.040901
6185.000000;1.040730
6184.000000;1.040605
6183.000000;1.040443
6182.000000;1.040189
6181.000000;1.039885
6180.000000;1.039619
6179.000000;1.039414
6178.000000;1.039199
6177.000000;1.038913
6176.000000;1.038563
6175.000000;1.038193
6174.000000;1.037838
6173.000000;1.037523
6172.000000;1.037269
6171.000000;1.037075
6170.000000;1.036914
6169.000000;1.036762
6168.000000;1.036625
6167.000000;1.036514
6166.000000;1.036429
6165.000000;1.036358
6164.000000;1.036278
6163.000000;1.036152
6162.000000;1.035936
6161.000000;1.035613
6160.000000;1.035208
6159.000000;1.034774
6158.000000;1.034381
6157.000000;1.034097
6156.000000;1.033942
6155.000000;1.033859
6154.000000;1.033753
6153.000000;1.033567
6152.000000;1.033308
6151.000000;1.033005
6150.000000;1.032688
6149.000000;1.032407
6148.000000;1.032222
6147.000000;1.032135
6146.000000;1.032064
6145.000000;1.031913
6144.000000;1.031661
6143.000000;1.031357
6142.000000;1.031057
6141.000000;1.030790
6140.000000;1.030566
6139.000000;1.030380
6138.000000;1.030207
6137.000000;1.030017
6136.000000;1.029810
6135.000000;1.029613
6134.000000;1.029449
6133.000000;1.029304
6132.000000;1.029145
6131.000000;1.028936
6130.000000;1.028665
6129.000000;1.028359
6128.000000;1.028088
6127.000000;1.027920
6126.000000;1.027859
6125.000000;1.027825
6124.000000;1.027715
6123.000000;1.027491
6122.000000;1.027207
6121.000000;1.026939
6120.000000;1.026708
6119.000000;1.026486
6118.000000;1.026259
6117.000000;1.026066
6116.000000;1.025944
6115.000000;1.025857
6114.000000;1.025710
6113.000000;1.025453
6112.000000;1.025151
6111.000000;1.024915
6110.000000;1.024800
6109.000000;1.024759
6108.000000;1.024706
6107.000000;1.024586
6106.000000;1.024399
6105.000000;1.024173
6104.000000;1.023944
6103.000000;1.023737
6102.000000;1.023560
6101.000000;1.023395
6100.000000;1.023220
6099.000000;1.023034
6098.000000;1.022869
6097.000000;1.022770
6096.000000;1.022753
6095.000000;1.022778
6094.000000;1.022771
6093.000000;1.022685
6092.000000;1.022534
6091.000000;1.022369
6090.000000;1.022205
6089.000000;1.022015
6088.000000;1.021767
6087.000000;1.021467
6086.000000;1.021138
6085.000000;1.020809
6084.000000;1.020524
6083.000000;1.020355
6082.000000;1.020343
6081.000000;1.020439
6080.000000;1.020521
6079.000000;1.020501
6078.000000;1.020394
6077.000000;1.020257
6076.000000;1.020112
6075.000000;1.019941
6074.000000;1.019747
6073.000000;1.019570
6072.000000;1.019454
6071.000000;1.019412
6070.000000;1.019433
6069.000000;1.019479
6068.000000;1.019477
6067.000000;1.019356
6066.000000;1.019131
6065.000000;1.018907
6064.000000;1.018790
6063.000000;1.018786
6062.000000;1.018822
6061.000000;1.018828
6060.000000;1.018788
6059.000000;1.018704
6058.000000;1.018569
6057.000000;1.018378
6056.000000;1.018148
6055.000000;1.017910
6054.000000;1.017695
6053.000000;1.017532
6052.000000;1.017433
6051.000000;1.017376
6050.000000;1.017325
6049.000000;1.017273
6048.000000;1.017258
6047.000000;1.017308
6046.000000;1.017371
6045.000000;1.017354
6044.000000;1.017220
6043.000000;1.017033
6042.000000;1.016877
6041.000000;1.016765
6040.000000;1.016654
6039.000000;1.016529
6038.000000;1.016434
6037.000000;1.016402
6036.000000;1.016403
6035.000000;1.016374
6034.000000;1.016294
6033.000000;1.016183
6032.000000;1.016065
6031.000000;1.015951
6030.000000;1.015865
6029.000000;1.015833
6028.000000;1.015842
6027.000000;1.015836
6026.000000;1.015776
6025.000000;1.015686
6024.000000;1.015612
6023.000000;1.015581
6022.000000;1.015585
6021.000000;1.015610
6020.000000;1.015636
6019.000000;1.015629
6018.000000;1.015563
6017.000000;1.015457
6016.000000;1.015370
6015.000000;1.015363
6014.000000;1.015455
6013.000000;1.015602
6012.000000;1.015717
6011.000000;1.015729
6010.000000;1.015654
6009.000000;1.015588
6008.000000;1.015597
6007.000000;1.015626
6006.000000;1.015564
6005.000000;1.015388
6004.000000;1.015215
6003.000000;1.015170
6002.000000;1.015263
6001.000000;1.015410
6000.000000;1.015545
5999.000000;1.015662
5998.000000;1.015774
5997.000000;1.015862
5996.000000;1.015908
5995.000000;1.015932
5994.000000;1.015986
5993.000000;1.016107
5992.000000;1.016272
5991.000000;1.016417
5990.000000;1.016483
5989.000000;1.016480
5988.000000;1.016481
5987.000000;1.016552
5986.000000;1.016682
5985.000000;1.016796
5984.000000;1.016844
5983.000000;1.016865
5982.000000;1.016948
5981.000000;1.017141
5980.000000;1.017408
5979.000000;1.017671
5978.000000;1.017878
5977.000000;1.018030
5976.000000;1.018152
5975.000000;1.018258
5974.000000;1.018349
5973.000000;1.018442
5972.000000;1.018568
5971.000000;1.018732
5970.000000;1.018899
5969.000000;1.019029
5968.000000;1.019138
5967.000000;1.019278
5966.000000;1.019489
5965.000000;1.019766
5964.000000;1.020090
5963.000000;1.020451
5962.000000;1.020825
5961.000000;1.021166
5960.000000;1.021435
5959.000000;1.021639
5958.000000;1.021822
5957.000000;1.022022
5956.000000;1.022249
5955.000000;1.022488
5954.000000;1.022704
5953.000000;1.022877
5952.000000;1.023031
5951.000000;1.023230
5950.000000;1.023507
5949.000000;1.023835
5948.000000;1.024161
5947.000000;1.024464
5946.000000;1.024737
5945.000000;1.024959
5944.000000;1.025119
5943.000000;1.025270
5942.000000;1.025495
5941.000000;1.025808
5940.000000;1.026131
5939.000000;1.026387
5938.000000;1.026584
5937.000000;1.026783
5936.000000;1.027013
5935.000000;1.027247
5934.000000;1.027441
5933.000000;1.027573
5932.000000;1.027664
5931.000000;1.027764
5930.000000;1.027921
5929.000000;1.028145
5928.000000;1.028415
5927.000000;1.028712
5926.000000;1.029031
5925.000000;1.029353
5924.000000;1.029639
5923.000000;1.029862
5922.000000;1.030031
5921.000000;1.030173
5920.000000;1.030319
5919.000000;1.030499
5918.000000;1.030735
5917.000000;1.031010
5916.000000;1.031261
5915.000000;1.031427
5914.000000;1.031492
5913.000000;1.031472
5912.000000;1.031388
5911.000000;1.031267
5910.000000;1.031146
5909.000000;1.031052
5908.000000;1.030989
5907.000000;1.030952
5906.000000;1.030935
5905.000000;1.030935
5904.000000;1.030952
5903.000000;1.030999
5902.000000;1.031074
5901.000000;1.031127
5900.000000;1.031084
5899.000000;1.030946
5898.000000;1.030821
5897.000000;1.030815
5896.000000;1.030913
5895.000000;1.031009
5894.000000;1.031027
5893.000000;1.030981
5892.000000;1.030917
5891.000000;1.030859
5890.000000;1.030826
5889.000000;1.030842
5888.000000;1.030922
5887.000000;1.031041
5886.000000;1.031137
5885.000000;1.031161
5884.000000;1.031126
5883.000000;1.031109
5882.000000;1.031183
5881.000000;1.031329
5880.000000;1.031439
5879.000000;1.031440
5878.000000;1.031399
5877.000000;1.031457
5876.000000;1.031678
5875.000000;1.031980
5874.000000;1.032213
5873.000000;1.032291
5872.000000;1.032244
5871.000000;1.032202
5870.000000;1.032314
5869.000000;1.032635
5868.000000;1.033079
5867.000000;1.033484
5866.000000;1.033752
5865.000000;1.033903
5864.000000;1.034018
5863.000000;1.034172
5862.000000;1.034404
5861.000000;1.034716
5860.000000;1.035080
5859.000000;1.035453
5858.000000;1.035810
5857.000000;1.036142
5856.000000;1.036448
5855.000000;1.036729
5854.000000;1.037001
5853.000000;1.037278
5852.000000;1.037570
5851.000000;1.037905
5850.000000;1.038340
5849.000000;1.038883
5848.000000;1.039441
5847.000000;1.039886
5846.000000;1.040200
5845.000000;1.040482
5844.000000;1.040808
5843.000000;1.041144
5842.000000;1.041425
5841.000000;1.041680
5840.000000;1.042012
5839.000000;1.042468
5838.000000;1.042988
5837.000000;1.043480
5836.000000;1.043916
5835.000000;1.044351
5834.000000;1.044848
5833.000000;1.045397
5832.000000;1.045909
5831.000000;1.046293
5830.000000;1.046560
5829.000000;1.046824
5828.000000;1.047189
5827.000000;1.047659
5826.000000;1.048151
5825.000000;1.048595
5824.000000;1.048999
5823.000000;1.049428
5822.000000;1.049930
5821.000000;1.050489
5820.000000;1.051047
5819.000000;1.051567
5818.000000;1.052057
5817.000000;1.052537
5816.000000;1.052999
5815.000000;1.053429
5814.000000;1.053844
5813.000000;1.054277
5812.000000;1.054730
5811.000000;1.055171
5810.000000;1.055582
5809.000000;1.055980
5808.000000;1.056402
5807.000000;1.056882
5806.000000;1.057431
5805.000000;1.058010
5804.000000;1.058541
5803.000000;1.058981
5802.000000;1.059404
5801.000000;1.059944
5800.000000;1.060637
5799.000000;1.061368
5798.000000;1.061990
5797.000000;1.062463
5796.000000;1.062863
5795.000000;1.063288
5794.000000;1.063786
5793.000000;1.064346
5792.000000;1.064919
5791.000000;1.065465
5790.000000;1.065993
5789.000000;1.066533
5788.000000;1.067082
5787.000000;1.067596
5786.000000;1.068068
5785.000000;1.068557
5784.000000;1.069118
5783.000000;1.069720
5782.000000;1.070286
5781.000000;1.070788
5780.000000;1.071278
5779.000000;1.071819
5778.000000;1.072424
5777.000000;1.073048
5776.000000;1.073612
5775.000000;1.074062
5774.000000;1.074436
5773.000000;1.074848
5772.000000;1.075378
5771.000000;1.075987
5770.000000;1.076576
5769.000000;1.077119
5768.000000;1.077672
5767.000000;1.078260
5766.000000;1.078822
5765.000000;1.079283
5764.000000;1.079665
5763.000000;1.080069
5762.000000;1.080563
5761.000000;1.081119
5760.000000;1.081663
5759.000000;1.082142
5758.000000;1.082561
5757.000000;1.082949
5756.000000;1.083333
5755.000000;1.083735
5754.000000;1.084171
5753.000000;1.084648
5752.000000;1.085163
5751.000000;1.085694
5750.000000;1.086208
5749.000000;1.086664
5748.000000;1.087039
5747.000000;1.087363
5746.000000;1.087713
5745.000000;1.088148
5744.000000;1.088663
5743.000000;1.089202
5742.000000;1.089731
5741.000000;1.090248
5740.000000;1.090755
5739.000000;1.091263
5738.000000;1.091822
5737.000000;1.092482
5736.000000;1.093211
5735.000000;1.093882
5734.000000;1.094398
5733.000000;1.094791
5732.000000;1.095173
5731.000000;1.095618
5730.000000;1.096125
5729.000000;1.096674
5728.000000;1.097252
5727.000000;1.097826
5726.000000;1.098351
5725.000000;1.098820
5724.000000;1.099280
5723.000000;1.099777
5722.000000;1.100301
5721.000000;1.100816
5720.000000;1.101312
5719.000000;1.101823
5718.000000;1.102387
5717.000000;1.102998
5716.000000;1.103613
5715.000000;1.104183
5714.000000;1.104684
5713.000000;1.105115
5712.000000;1.105503
5711.000000;1.105916
5710.000000;1.106445
5709.000000;1.107122
5708.000000;1.107856
5707.000000;1.108495
5706.000000;1.108965
5705.000000;1.109332
5704.000000;1.109713
5703.000000;1.110185
5702.000000;1.110776
5701.000000;1.111481
5700.000000;1.112238
5699.000000;1.112923
5698.000000;1.113465
5697.000000;1.113919
5696.000000;1.114395
5695.000000;1.114911
5694.000000;1.115377
5693.000000;1.115739
5692.000000;1.116040
5691.000000;1.116399
5690.000000;1.116934
5689.000000;1.117673
5688.000000;1.118533
5687.000000;1.119321
5686.000000;1.119866
5685.000000;1.120161
5684.000000;1.120376
5683.000000;1.120686
5682.000000;1.121126
5681.000000;1.121625
5680.000000;1.122134
5679.000000;1.122692
5678.000000;1.123354
5677.000000;1.124121
5676.000000;1.124910
5675.000000;1.125599
5674.000000;1.126102
5673.000000;1.126439
5672.000000;1.126720
5671.000000;1.127054
5670.000000;1.127469
5669.000000;1.127929
5668.000000;1.128410
5667.000000;1.128932
5666.000000;1.129524
5665.000000;1.130167
5664.000000;1.130783
5663.000000;1.131283
5662.000000;1.131636
5661.000000;1.131902
5660.000000;1.132184
5659.000000;1.132541
5658.000000;1.132960
5657.000000;1.133396
5656.000000;1.133829
5655.000000;1.134265
5654.000000;1.134705
5653.000000;1.135145
5652.000000;1.135589
5651.000000;1.136047
5650.000000;1.136524
5649.000000;1.137012
5648.000000;1.137490
5647.000000;1.137936
5646.000000;1.138331
5645.000000;1.138689
5644.000000;1.139046
5643.000000;1.139423
5642.000000;1.139808
5641.000000;1.140188
5640.000000;1.140572
5639.000000;1.140970
5638.000000;1.141366
5637.000000;1.141736
5636.000000;1.142090
5635.000000;1.142466
5634.000000;1.142883
5633.000000;1.143326
5632.000000;1.143781
5631.000000;1.144250
5630.000000;1.144726
5629.000000;1.145165
5628.000000;1.145507
5627.000000;1.145745
5626.000000;1.145944
5625.000000;1.146202
5624.000000;1.146571
5623.000000;1.147002
5622.000000;1.147393
5621.000000;1.147681
5620.000000;1.147895
5619.000000;1.148122
5618.000000;1.148421
5617.000000;1.148798
5616.000000;1.149221
5615.000000;1.149650
5614.000000;1.150030
5613.000000;1.150315
5612.000000;1.150500
5611.000000;1.150627
5610.000000;1.150729
5609.000000;1.150804
5608.000000;1.150848
5607.000000;1.150906
5606.000000;1.151040
5605.000000;1.151261
5604.000000;1.151530
5603.000000;1.151829
5602.000000;1.152187
5601.000000;1.152613
5600.000000;1.153027
5599.000000;1.153313
5598.000000;1.153437
5597.000000;1.153479
5596.000000;1.153529
5595.000000;1.153610
5594.000000;1.153705
5593.000000;1.153832
5592.000000;1.154035
5591.000000;1.154315
5590.000000;1.154599
5589.000000;1.154808
5588.000000;1.154921
5587.000000;1.154961
5586.000000;1.154946
5585.000000;1.154894
5584.000000;1.154861
5583.000000;1.154925
5582.000000;1.155120
5581.000000;1.155387
5580.000000;1.155621
5579.000000;1.155756
5578.000000;1.155784
5577.000000;1.155737
5576.000000;1.155662
5575.000000;1.155628
5574.000000;1.155689
5573.000000;1.155830
5572.000000;1.155967
5571.000000;1.156038
5570.000000;1.156076
5569.000000;1.156166
5568.000000;1.156338
5567.000000;1.156522
5566.000000;1.156625
5565.000000;1.156612
5564.000000;1.156514
5563.000000;1.156392
5562.000000;1.156300
5561.000000;1.156274
5560.000000;1.156315
5559.000000;1.156382
5558.000000;1.156423
5557.000000;1.156409
5556.000000;1.156320
5555.000000;1.156133
5554.000000;1.155861
5553.000000;1.155588
5552.000000;1.155451
5551.000000;1.155527
5550.000000;1.155761
5549.000000;1.156000
5548.000000;1.156107
5547.000000;1.156052
5546.000000;1.155903
5545.000000;1.155757
5544.000000;1.155658
5543.000000;1.155565
5542.000000;1.155419
5541.000000;1.155239
5540.000000;1.155140
5539.000000;1.155210
5538.000000;1.155387
5537.000000;1.155489
5536.000000;1.155402
5535.000000;1.155212
5534.000000;1.155112
5533.000000;1.155203
5532.000000;1.155406
5531.000000;1.155559
5530.000000;1.155571
5529.000000;1.155479
5528.000000;1.155391
5527.000000;1.155370
5526.000000;1.155381
5525.000000;1.155333
5524.000000;1.155196
5523.000000;1.155038
5522.000000;1.154937
5521.000000;1.154897
5520.000000;1.154868
5519.000000;1.154851
5518.000000;1.154906
5517.000000;1.155059
5516.000000;1.155247
5515.000000;1.155375
5514.000000;1.155384
5513.000000;1.155272
5512.000000;1.155062
5511.000000;1.154809
5510.000000;1.154595
5509.000000;1.154478
5508.000000;1.154442
5507.000000;1.154429
5506.000000;1.154406
5505.000000;1.154399
5504.000000;1.154461
5503.000000;1.154621
5502.000000;1.154865
5501.000000;1.155147
5500.000000;1.155407
5499.000000;1.155603
5498.000000;1.155709
5497.000000;1.155694
5496.000000;1.155566
5495.000000;1.155424
5494.000000;1.155389
5493.000000;1.155457
5492.000000;1.155482
5491.000000;1.155377
5490.000000;1.155291
5489.000000;1.155449
5488.000000;1.155866
5487.000000;1.156338
5486.000000;1.156699
5485.000000;1.156975
5484.000000;1.157243
5483.000000;1.157463
5482.000000;1.157556
5481.000000;1.157575
5480.000000;1.157661
5479.000000;1.157842
5478.000000;1.158011
5477.000000;1.158070
5476.000000;1.158059
5475.000000;1.158073
5474.000000;1.158141
5473.000000;1.158256
5472.000000;1.158474
5471.000000;1.158855
5470.000000;1.159331
5469.000000;1.159724
5468.000000;1.159944
5467.000000;1.160093
5466.000000;1.160368
5465.000000;1.160838
5464.000000;1.161385
5463.000000;1.161833
5462.000000;1.162127
5461.000000;1.162337
5460.000000;1.162541
5459.000000;1.162773
5458.000000;1.163100
5457.000000;1.163603
5456.000000;1.164264
5455.000000;1.164962
5454.000000;1.165602
5453.000000;1.166194
5452.000000;1.166786
5451.000000;1.167380
5450.000000;1.167925
5449.000000;1.168356
5448.000000;1.168661
5447.000000;1.168941
5446.000000;1.169344
5445.000000;1.169886
5444.000000;1.170415
5443.000000;1.170845
5442.000000;1.171299
5441.000000;1.171913
5440.000000;1.172622
5439.000000;1.173270
5438.000000;1.173886
5437.000000;1.174645
5436.000000;1.175596
5435.000000;1.176613
5434.000000;1.177613
5433.000000;1.178646
5432.000000;1.179747
5431.000000;1.180822
5430.000000;1.181739
5429.000000;1.182504
5428.000000;1.183289
5427.000000;1.184298
5426.000000;1.185623
5425.000000;1.187166
5424.000000;1.188712
5423.000000;1.190118
5422.000000;1.191458
5421.000000;1.192943
5420.000000;1.194690
5419.000000;1.196614
5418.000000;1.198477
5417.000000;1.200054
5416.000000;1.201304
5415.000000;1.202386
5414.000000;1.203478
5413.000000;1.204614
5412.000000;1.205737
5411.000000;1.206885
5410.000000;1.208203
5409.000000;1.209772
5408.000000;1.211548
5407.000000;1.213519
5406.000000;1.215765
5405.000000;1.218283
5404.000000;1.220915
5403.000000;1.223513
5402.000000;1.226089
5401.000000;1.228690
5400.000000;1.231250
5399.000000;1.233703
5398.000000;1.236089
5397.000000;1.238475
5396.000000;1.240855
5395.000000;1.243221
5394.000000;1.245672
5393.000000;1.248305
5392.000000;1.251074
5391.000000;1.253908
5390.000000;1.256866
5389.000000;1.260022
5388.000000;1.263300
5387.000000;1.266593
5386.000000;1.269955
5385.000000;1.273518
5384.000000;1.277297
5383.000000;1.281207
5382.000000;1.285223
5381.000000;1.289354
5380.000000;1.293515
5379.000000;1.297646
5378.000000;1.301869
5377.000000;1.306314
5376.000000;1.310859
5375.000000;1.315286
5374.000000;1.319672
5373.000000;1.324388
5372.000000;1.329654
5371.000000;1.335333
5370.000000;1.341230
5369.000000;1.347325
5368.000000;1.353595
5367.000000;1.359859
5366.000000;1.365996
5365.000000;1.372132
5364.000000;1.378508
5363.000000;1.385272
5362.000000;1.392450
5361.000000;1.399970
5360.000000;1.407621
5359.000000;1.415136
5358.000000;1.422411
5357.000000;1.429613
5356.000000;1.437003
5355.000000;1.444756
5354.000000;1.452929
5353.000000;1.461451
5352.000000;1.470125
5351.000000;1.478836
5350.000000;1.487774
5349.000000;1.497200
5348.000000;1.507048
5347.000000;1.517034
5346.000000;1.527127
5345.000000;1.537626
5344.000000;1.548729
5343.000000;1.560229
5342.000000;1.571816
5341.000000;1.583530
5340.000000;1.595630
5339.000000;1.608215
5338.000000;1.621206
5337.000000;1.634541
5336.000000;1.648219
5335.000000;1.662294
5334.000000;1.676884
5333.000000;1.692074
5332.000000;1.707763
5331.000000;1.723796
5330.000000;1.740251
5329.000000;1.757353
5328.000000;1.775074
5327.000000;1.793057
5326.000000;1.811040
5325.000000;1.829150
5324.000000;1.847669
5323.000000;1.866743
5322.000000;1.886410
5321.000000;1.906654
5320.000000;1.927251
5319.000000;1.947885
5318.000000;1.968583
5317.000000;1.989810
5316.000000;2.011912
5315.000000;2.034719
5314.000000;2.057873
5313.000000;2.081265
5312.000000;2.104945
5311.000000;2.128939
5310.000000;2.153392
5309.000000;2.178598
5308.000000;2.204636
5307.000000;2.231199
5306.000000;2.257910
5305.000000;2.284549
5304.000000;2.310931
5303.000000;2.337065
5302.000000;2.363529
5301.000000;2.391050
5300.000000;2.419421
5299.000000;2.447374
5298.000000;2.473881
5297.000000;2.499152
5296.000000;2.524124
5295.000000;2.549451
5294.000000;2.575106
5293.000000;2.600490
5292.000000;2.624877
5291.000000;2.648172
5290.000000;2.671048
5289.000000;2.693882
5288.000000;2.716155
5287.000000;2.737590
5286.000000;2.758939
5285.000000;2.780622
5284.000000;2.801472
5283.000000;2.820067
5282.000000;2.836217
5281.000000;2.849774
5280.000000;2.859572
5279.000000;2.865395
5278.000000;2.869491
5277.000000;2.874604
5276.000000;2.882003
5275.000000;2.892445
5274.000000;2.906531
5273.000000;2.922388
5272.000000;2.935441
5271.000000;2.943224
5270.000000;2.948407
5269.000000;2.953978
5268.000000;2.958010
5267.000000;2.957038
5266.000000;2.952677
5265.000000;2.950336
5264.000000;2.953074
5263.000000;2.959540
5262.000000;2.966187
5261.000000;2.969496
5260.000000;2.967834
5259.000000;2.963352
5258.000000;2.961065
5257.000000;2.964413
5256.000000;2.971851
5255.000000;2.978825
5254.000000;2.981999
5253.000000;2.980266
5252.000000;2.974743
5251.000000;2.969838
5250.000000;2.971010
5249.000000;2.978517
5248.000000;2.984842
5247.000000;2.982402
5246.000000;2.972815
5245.000000;2.963445
5244.000000;2.958378
5243.000000;2.957037
5242.000000;2.958055
5241.000000;2.960342
5240.000000;2.961993
5239.000000;2.962331
5238.000000;2.964005
5237.000000;2.969089
5236.000000;2.974198
5235.000000;2.973463
5234.000000;2.966408
5233.000000;2.958898
5232.000000;2.956494
5231.000000;2.960706
5230.000000;2.970223
5229.000000;2.981356
5228.000000;2.987825
5227.000000;2.985312
5226.000000;2.977688
5225.000000;2.974041
5224.000000;2.978230
5223.000000;2.985194
5222.000000;2.988464
5221.000000;2.987934
5220.000000;2.987758
5219.000000;2.989720
5218.000000;2.991699
5217.000000;2.991128
5216.000000;2.987924
5215.000000;2.984028
5214.000000;2.981760
5213.000000;2.982300
5212.000000;2.984145
5211.000000;2.983767
5210.000000;2.978695
5209.000000;2.969491
5208.000000;2.959278
5207.000000;2.952210
5206.000000;2.951699
5205.000000;2.958426
5204.000000;2.968983
5203.000000;2.977696
5202.000000;2.981102
5201.000000;2.979917
5200.000000;2.976793
5199.000000;2.973923
5198.000000;2.972879
5197.000000;2.974480
5196.000000;2.977891
5195.000000;2.980684
5194.000000;2.980411
5193.000000;2.976749
5192.000000;2.971436
5191.000000;2.966412
5190.000000;2.963125
5189.000000;2.962487
5188.000000;2.964642
5187.000000;2.968840
5186.000000;2.973602
5185.000000;2.977131
5184.000000;2.978151
5183.000000;2.976881
5182.000000;2.974861
5181.000000;2.973421
5180.000000;2.972916
5179.000000;2.973520
5178.000000;2.975311
5177.000000;2.977049
5176.000000;2.976494
5175.000000;2.973084
5174.000000;2.969052
5173.000000;2.966552
5172.000000;2.965064
5171.000000;2.963217
5170.000000;2.961926
5169.000000;2.963310
5168.000000;2.966839
5167.000000;2.969439
5166.000000;2.970134
5165.000000;2.971745
5164.000000;2.976891
5163.000000;2.984456
5162.000000;2.990959
5161.000000;2.994013
5160.000000;2.993165
5159.000000;2.988387
5158.000000;2.979474
5157.000000;2.967164
5156.000000;2.954286
5155.000000;2.945189
5154.000000;2.943312
5153.000000;2.948630
5152.000000;2.957116
5151.000000;2.963478
5150.000000;2.965316
5149.000000;2.963759
5148.000000;2.960214
5147.000000;2.954560
5146.000000;2.947062
5145.000000;2.940753
5144.000000;2.940370
5143.000000;2.948302
5142.000000;2.961537
5141.000000;2.973059
5140.000000;2.977202
5139.000000;2.974473
5138.000000;2.969903
5137.000000;2.967221
5136.000000;2.966381
5135.000000;2.966310
5134.000000;2.967645
5133.000000;2.971076
5132.000000;2.974686
5131.000000;2.975873
5130.000000;2.975036
5129.000000;2.974493
5128.000000;2.974416
5127.000000;2.971834
5126.000000;2.964417
5125.000000;2.954154
5124.000000;2.945696
5123.000000;2.942284
5122.000000;2.944311
5121.000000;2.950419
5120.000000;2.958725
5119.000000;2.967520
5118.000000;2.975400
5117.000000;2.980449
5116.000000;2.979771
5115.000000;2.971722
5114.000000;2.959290
5113.000000;2.949152
5112.000000;2.946204
5111.000000;2.949677
5110.000000;2.954674
5109.000000;2.957375
5108.000000;2.958408
5107.000000;2.960723
5106.000000;2.965154
5105.000000;2.968486
5104.000000;2.965834
5103.000000;2.956000
5102.000000;2.944031
5101.000000;2.937347
5100.000000;2.939880
5099.000000;2.949619
5098.000000;2.960343
5097.000000;2.966431
5096.000000;2.967212
5095.000000;2.965332
5094.000000;2.962539
5093.000000;2.959261
5092.000000;2.956356
5091.000000;2.955414
5090.000000;2.957353
5089.000000;2.961369
5088.000000;2.965206
5087.000000;2.966304
5086.000000;2.963469
5085.000000;2.958405
5084.000000;2.955224
5083.000000;2.957117
5082.000000;2.962552
5081.000000;2.965512
5080.000000;2.961530
5079.000000;2.952968
5078.000000;2.945912
5077.000000;2.943658
5076.000000;2.944972
5075.000000;2.946976
5074.000000;2.948325
5073.000000;2.949559
5072.000000;2.951284
5071.000000;2.952701
5070.000000;2.952081
5069.000000;2.948611
5068.000000;2.943654
5067.000000;2.939919
5066.000000;2.939387
5065.000000;2.941993
5064.000000;2.945927
5063.000000;2.949316
5062.000000;2.951456
5061.000000;2.952508
5060.000000;2.952900
5059.000000;2.952560
5058.000000;2.949879
5057.000000;2.942772
5056.000000;2.932247
5055.000000;2.923363
5054.000000;2.920421
5053.000000;2.922310
5052.000000;2.924108
5051.000000;2.922242
5050.000000;2.917250
5049.000000;2.912185
5048.000000;2.909540
5047.000000;2.910175
5046.000000;2.913525
5045.000000;2.917725
5044.000000;2.920641
5043.000000;2.921490
5042.000000;2.920601
5041.000000;2.917700
5040.000000;2.912387
5039.000000;2.906341
5038.000000;2.902594
5037.000000;2.901685
5036.000000;2.899901
5035.000000;2.893717
5034.000000;2.885297
5033.000000;2.879917
5032.000000;2.879394
5031.000000;2.881281
5030.000000;2.883355
5029.000000;2.885865
5028.000000;2.888831
5027.000000;2.890050
5026.000000;2.887884
5025.000000;2.884233
5024.000000;2.882423
5023.000000;2.883179
5022.000000;2.884246
5021.000000;2.883195
5020.000000;2.879328
5019.000000;2.873384
5018.000000;2.867037
5017.000000;2.862343
5016.000000;2.860035
5015.000000;2.858173
5014.000000;2.853967
5013.000000;2.847759
5012.000000;2.843394
5011.000000;2.843306
5010.000000;2.844743
5009.000000;2.842461
5008.000000;2.834929
5007.000000;2.825904
5006.000000;2.819605
5005.000000;2.816623
5004.000000;2.815105
5003.000000;2.813883
5002.000000;2.813063
5001.000000;2.812678
5000.000000;2.812191
4999.000000;2.811205
4998.000000;2.809770
4997.000000;2.808028
4996.000000;2.806231
4995.000000;2.804667
4994.000000;2.802742
4993.000000;2.798541
4992.000000;2.790450
4991.000000;2.779303
4990.000000;2.768311
4989.000000;2.760706
4988.000000;2.757565
4987.000000;2.757313
4986.000000;2.756840
4985.000000;2.753912
4984.000000;2.749388
4983.000000;2.746462
4982.000000;2.747164
4981.000000;2.749714
4980.000000;2.749903
4979.000000;2.745302
4978.000000;2.737281
4977.000000;2.728969
4976.000000;2.722538
4975.000000;2.718442
4974.000000;2.715874
4973.000000;2.713620
4972.000000;2.711059
4971.000000;2.708468
4970.000000;2.706115
4969.000000;2.703321
4968.000000;2.699340
4967.000000;2.694772
4966.000000;2.690997
4965.000000;2.688160
4964.000000;2.684909
4963.000000;2.680266
4962.000000;2.674693
4961.000000;2.669351
4960.000000;2.664941
4959.000000;2.661419
4958.000000;2.658387
4957.000000;2.655655
4956.000000;2.653492
4955.000000;2.652078
4954.000000;2.650112
4953.000000;2.644947
4952.000000;2.635477
4951.000000;2.624484
4950.000000;2.616383
4949.000000;2.612809
4948.000000;2.611750
4947.000000;2.610605
4946.000000;2.608562
4945.000000;2.605568
4944.000000;2.601217
4943.000000;2.596027
4942.000000;2.592036
4941.000000;2.590518
4940.000000;2.589857
4939.000000;2.587212
4938.000000;2.581900
4937.000000;2.575794
4936.000000;2.570614
4935.000000;2.566654
4934.000000;2.563878
4933.000000;2.562334
4932.000000;2.560976
4931.000000;2.557750
4930.000000;2.551812
4929.000000;2.544682
4928.000000;2.538456
4927.000000;2.533714
4926.000000;2.529521
4925.000000;2.524869
4924.000000;2.519474
4923.000000;2.513747
4922.000000;2.508728
4921.000000;2.505674
4920.000000;2.504893
4919.000000;2.505046
4918.000000;2.504105
4917.000000;2.501068
4916.000000;2.496381
4915.000000;2.490920
4914.000000;2.485257
4913.000000;2.479918
4912.000000;2.475647
4911.000000;2.472847
4910.000000;2.471031
4909.000000;2.469112
4908.000000;2.466095
4907.000000;2.461501
4906.000000;2.455544
4905.000000;2.449388
4904.000000;2.444837
4903.000000;2.442914
4902.000000;2.442697
4901.000000;2.442134
4900.000000;2.440109
4899.000000;2.437050
4898.000000;2.433353
4897.000000;2.428391
4896.000000;2.421686
4895.000000;2.414213
4894.000000;2.407678
4893.000000;2.402862
4892.000000;2.399234
4891.000000;2.395929
4890.000000;2.392539
4889.000000;2.389146
4888.000000;2.386095
4887.000000;2.383648
4886.000000;2.381532
4885.000000;2.378911
4884.000000;2.375204
4883.000000;2.370771
4882.000000;2.366435
4881.000000;2.362620
4880.000000;2.359377
4879.000000;2.356767
4878.000000;2.354547
4877.000000;2.351825
4876.000000;2.347961
4875.000000;2.343731
4874.000000;2.340571
4873.000000;2.338519
4872.000000;2.335924
4871.000000;2.331569
4870.000000;2.326143
4869.000000;2.321106
4868.000000;2.317020
4867.000000;2.313667
4866.000000;2.311012
4865.000000;2.309082
4864.000000;2.307179
4863.000000;2.304201
4862.000000;2.299891
4861.000000;2.295185
4860.000000;2.291204
4859.000000;2.288316
4858.000000;2.286178
4857.000000;2.284291
4856.000000;2.282285
4855.000000;2.279879
4854.000000;2.276896
4853.000000;2.273391
4852.000000;2.269655
4851.000000;2.265922
4850.000000;2.261992
4849.000000;2.257469
4848.000000;2.252592
4847.000000;2.248441
4846.000000;2.245852
4845.000000;2.244266
4844.000000;2.242259
4843.000000;2.239117
4842.000000;2.235306
4841.000000;2.231412
4840.000000;2.227486
4839.000000;2.223662
4838.000000;2.220476
4837.000000;2.218063
4836.000000;2.215685
4835.000000;2.212673
4834.000000;2.209361
4833.000000;2.206453
4832.000000;2.203931
4831.000000;2.201204
4830.000000;2.198038
4829.000000;2.194656
4828.000000;2.191134
4827.000000;2.187361
4826.000000;2.183555
4825.000000;2.180269
4824.000000;2.177856
4823.000000;2.176242
4822.000000;2.175060
4821.000000;2.173638
4820.000000;2.171119
4819.000000;2.167231
4818.000000;2.162790
4817.000000;2.158916
4816.000000;2.155831
4815.000000;2.152964
4814.000000;2.150036
4813.000000;2.147346
4812.000000;2.144979
4811.000000;2.142390
4810.000000;2.139101
4809.000000;2.135362
4808.000000;2.131847
4807.000000;2.128909
4806.000000;2.126444
4805.000000;2.124065
4804.000000;2.121321
4803.000000;2.117986
4802.000000;2.114228
4801.000000;2.110469
4800.000000;2.106898
4799.000000;2.103476
4798.000000;2.100243
4797.000000;2.097283
4796.000000;2.094462
4795.000000;2.091569
4794.000000;2.088704
4793.000000;2.086142
4792.000000;2.083833
4791.000000;2.081412
4790.000000;2.078724
4789.000000;2.075894
4788.000000;2.072897
4787.000000;2.069582
4786.000000;2.066234
4785.000000;2.063522
4784.000000;2.061554
4783.000000;2.059480
4782.000000;2.056450
4781.000000;2.052598
4780.000000;2.048709
4779.000000;2.045231
4778.000000;2.042079
4777.000000;2.039152
4776.000000;2.036540
4775.000000;2.034255
4774.000000;2.032159
4773.000000;2.030202
4772.000000;2.028426
4771.000000;2.026630
4770.000000;2.024294
4769.000000;2.020985
4768.000000;2.016792
4767.000000;2.012331
4766.000000;2.008322
4765.000000;2.005098
4764.000000;2.002439
4763.000000;1.999892
4762.000000;1.997251
4761.000000;1.994644
4760.000000;1.992261
4759.000000;1.990205
4758.000000;1.988551
4757.000000;1.987176
4756.000000;1.985448
4755.000000;1.982542
4754.000000;1.978398
4753.000000;1.974074
4752.000000;1.970781
4751.000000;1.968706
4750.000000;1.967055
4749.000000;1.965051
4748.000000;1.962554
4747.000000;1.959829
4746.000000;1.957156
4745.000000;1.954719
4744.000000;1.952511
4743.000000;1.950181
4742.000000;1.947219
4741.000000;1.943503
4740.000000;1.939544
4739.000000;1.936028
4738.000000;1.933217
4737.000000;1.930833
4736.000000;1.928412
4735.000000;1.925736
4734.000000;1.922992
4733.000000;1.920539
4732.000000;1.918455
4731.000000;1.916339
4730.000000;1.913711
4729.000000;1.910612
4728.000000;1.907629
4727.000000;1.905268
4726.000000;1.903437
4725.000000;1.901649
4724.000000;1.899615
4723.000000;1.897540
4722.000000;1.895817
4721.000000;1.894519
4720.000000;1.893216
4719.000000;1.891291
4718.000000;1.888499
4717.000000;1.885224
4716.000000;1.882149
4715.000000;1.879663
4714.000000;1.877597
4713.000000;1.875511
4712.000000;1.873143
4711.000000;1.870561
4710.000000;1.867947
4709.000000;1.865393
4708.000000;1.862908
4707.000000;1.860552
4706.000000;1.858447
4705.000000;1.856654
4704.000000;1.855110
4703.000000;1.853690
4702.000000;1.852270
4701.000000;1.850678
4700.000000;1.848705
4699.000000;1.846277
4698.000000;1.843570
4697.000000;1.840817
4696.000000;1.838052
4695.000000;1.835230
4694.000000;1.832582
4693.000000;1.830555
4692.000000;1.829238
4691.000000;1.828045
4690.000000;1.826216
4689.000000;1.823569
4688.000000;1.820595
4687.000000;1.817903
4686.000000;1.815817
4685.000000;1.814416
4684.000000;1.813596
4683.000000;1.812951
4682.000000;1.811814
4681.000000;1.809732
4680.000000;1.806960
4679.000000;1.804348
4678.000000;1.802602
4677.000000;1.801590
4676.000000;1.800384
4675.000000;1.798088
4674.000000;1.794715
4673.000000;1.791207
4672.000000;1.788561
4671.000000;1.787028
4670.000000;1.786158
4669.000000;1.785416
4668.000000;1.784547
4667.000000;1.783421
4666.000000;1.781862
4665.000000;1.779810
4664.000000;1.777521
4663.000000;1.775380
4662.000000;1.773544
4661.000000;1.771825
4660.000000;1.769951
4659.000000;1.767903
4658.000000;1.765957
4657.000000;1.764377
4656.000000;1.763112
4655.000000;1.761847
4654.000000;1.760324
4653.000000;1.758559
4652.000000;1.756721
4651.000000;1.754938
4650.000000;1.753263
4649.000000;1.751683
4648.000000;1.750056
4647.000000;1.748170
4646.000000;1.746041
4645.000000;1.744032
4644.000000;1.742444
4643.000000;1.741079
4642.000000;1.739450
4641.000000;1.737441
4640.000000;1.735461
4639.000000;1.733869
4638.000000;1.732517
4637.000000;1.731016
4636.000000;1.729257
4635.000000;1.727473
4634.000000;1.725900
4633.000000;1.724596
4632.000000;1.723542
4631.000000;1.722692
4630.000000;1.721914
4629.000000;1.720976
4628.000000;1.719658
4627.000000;1.717850
4626.000000;1.715617
4625.000000;1.713223
4624.000000;1.711037
4623.000000;1.709304
4622.000000;1.708015
4621.000000;1.707033
4620.000000;1.706281
4619.000000;1.705692
4618.000000;1.705059
4617.000000;1.704115
4616.000000;1.702802
4615.000000;1.701356
4614.000000;1.700103
4613.000000;1.699209
4612.000000;1.698604
4611.000000;1.698044
4610.000000;1.697226
4609.000000;1.695968
4608.000000;1.694353
4607.000000;1.692620
4606.000000;1.690899
4605.000000;1.689152
4604.000000;1.687400
4603.000000;1.685870
4602.000000;1.684743
4601.000000;1.683817
4600.000000;1.682617
4599.000000;1.680927
4598.000000;1.679075
4597.000000;1.677604
4596.000000;1.676730
4595.000000;1.676227
4594.000000;1.675741
4593.000000;1.675072
4592.000000;1.674162
4591.000000;1.673011
4590.000000;1.671736
4589.000000;1.670619
4588.000000;1.669924
4587.000000;1.669618
4586.000000;1.669324
4585.000000;1.668593
4584.000000;1.667250
4583.000000;1.665515
4582.000000;1.663826
4581.000000;1.662528
4580.000000;1.661676
4579.000000;1.661089
4578.000000;1.660536
4577.000000;1.659869
4576.000000;1.659050
4575.000000;1.658169
4574.000000;1.657403
4573.000000;1.656827
4572.000000;1.656229
4571.000000;1.655280
4570.000000;1.653961
4569.000000;1.652648
4568.000000;1.651645
4567.000000;1.650797
4566.000000;1.649778
4565.000000;1.648616
4564.000000;1.647685
4563.000000;1.647186
4562.000000;1.646895
4561.000000;1.646428
4560.000000;1.645526
4559.000000;1.644073
4558.000000;1.642147
4557.000000;1.640192
4556.000000;1.638881
4555.000000;1.638545
4554.000000;1.638826
4553.000000;1.639023
4552.000000;1.638705
4551.000000;1.637884
4550.000000;1.636733
4549.000000;1.635373
4548.000000;1.633910
4547.000000;1.632511
4546.000000;1.631381
4545.000000;1.630708
4544.000000;1.630561
4543.000000;1.630741
4542.000000;1.630824
4541.000000;1.630482
4540.000000;1.629755
4539.000000;1.628916
4538.000000;1.628154
4537.000000;1.627502
4536.000000;1.626957
4535.000000;1.626479
4534.000000;1.625918
4533.000000;1.625138
4532.000000;1.624236
4531.000000;1.623456
4530.000000;1.622886
4529.000000;1.622403
4528.000000;1.621952
4527.000000;1.621660
4526.000000;1.621582
4525.000000;1.621525
4524.000000;1.621250
4523.000000;1.620739
4522.000000;1.620129
4521.000000;1.619488
4520.000000;1.618819
4519.000000;1.618226
4518.000000;1.617880
4517.000000;1.617782
4516.000000;1.617691
4515.000000;1.617354
4514.000000;1.616743
4513.000000;1.616030
4512.000000;1.615375
4511.000000;1.614788
4510.000000;1.614197
4509.000000;1.613612
4508.000000;1.613159
4507.000000;1.612922
4506.000000;1.612799
4505.000000;1.612561
4504.000000;1.612073
4503.000000;1.611396
4502.000000;1.610698
4501.000000;1.610132
4500.000000;1.609796
4499.000000;1.609697
4498.000000;1.609705
4497.000000;1.609635
4496.000000;1.609466
4495.000000;1.609393
4494.000000;1.609561
4493.000000;1.609823
4492.000000;1.609872
4491.000000;1.609567
4490.000000;1.608996
4489.000000;1.608276
4488.000000;1.607508
4487.000000;1.606894
4486.000000;1.606635
4485.000000;1.606612
4484.000000;1.606404
4483.000000;1.605802
4482.000000;1.605149
4481.000000;1.604965
4480.000000;1.605355
4479.000000;1.606045
4478.000000;1.606868
4477.000000;1.607868
4476.000000;1.608923
4475.000000;1.609643
4474.000000;1.609849
4473.000000;1.609855
4472.000000;1.610052
4471.000000;1.610433
4470.000000;1.610772
4469.000000;1.611094
4468.000000;1.611614
4467.000000;1.612280
4466.000000;1.612756
4465.000000;1.612903
4464.000000;1.612983
4463.000000;1.613269
4462.000000;1.613719
4461.000000;1.614200
4460.000000;1.614834
4459.000000;1.615885
4458.000000;1.617395
4457.000000;1.619083
4456.000000;1.620579
4455.000000;1.621647
4454.000000;1.622302
4453.000000;1.622853
4452.000000;1.623746
4451.000000;1.625171
4450.000000;1.626809
4449.000000;1.628095
4448.000000;1.628799
4447.000000;1.629263
4446.000000;1.630033
4445.000000;1.631312
4444.000000;1.632785
4443.000000;1.633974
4442.000000;1.634770
4441.000000;1.635584
4440.000000;1.636938
4439.000000;1.638916
4438.000000;1.641147
4437.000000;1.643346
4436.000000;1.645652
4435.000000;1.648252
4434.000000;1.650834
4433.000000;1.652756
4432.000000;1.653809
4431.000000;1.654531
4430.000000;1.655643
4429.000000;1.657380
4428.000000;1.659506
4427.000000;1.661814
4426.000000;1.664372
4425.000000;1.667316
4424.000000;1.670582
4423.000000;1.673828
4422.000000;1.676573
4421.000000;1.678511
4420.000000;1.679841
4419.000000;1.681250
4418.000000;1.683359
4417.000000;1.686145
4416.000000;1.689027
4415.000000;1.691534
4414.000000;1.693722
4413.000000;1.695899
4412.000000;1.698190
4411.000000;1.700545
4410.000000;1.702976
4409.000000;1.705552
4408.000000;1.708239
4407.000000;1.710992
4406.000000;1.714000
4405.000000;1.717557
4404.000000;1.721587
4403.000000;1.725482
4402.000000;1.728581
4401.000000;1.730753
4400.000000;1.732427
4399.000000;1.734141
4398.000000;1.736169
4397.000000;1.738491
4396.000000;1.741018
4395.000000;1.743822
4394.000000;1.747083
4393.000000;1.750735
4392.000000;1.754266
4391.000000;1.757159
4390.000000;1.759533
4389.000000;1.762037
4388.000000;1.765017
4387.000000;1.768103
4386.000000;1.770778
4385.000000;1.773041
4384.000000;1.775216
4383.000000;1.777412
4382.000000;1.779609
4381.000000;1.782041
4380.000000;1.784957
4379.000000;1.788033
4378.000000;1.790567
4377.000000;1.792309
4376.000000;1.793741
4375.000000;1.795495
4374.000000;1.797855
4373.000000;1.800835
4372.000000;1.804232
4371.000000;1.807483
4370.000000;1.810012
4369.000000;1.811958
4368.000000;1.814077
4367.000000;1.816678
4366.000000;1.819198
4365.000000;1.821162
4364.000000;1.823051
4363.000000;1.825674
4362.000000;1.828996
4361.000000;1.832177
4360.000000;1.834695
4359.000000;1.836803
4358.000000;1.838914
4357.000000;1.841128
4356.000000;1.843370
4355.000000;1.845443
4354.000000;1.846926
4353.000000;1.847610
4352.000000;1.848209
4351.000000;1.850026
4350.000000;1.853528
4349.000000;1.857547
4348.000000;1.860279
4347.000000;1.861000
4346.000000;1.860592
4345.000000;1.860539
4344.000000;1.861740
4343.000000;1.864201
4342.000000;1.867485
4341.000000;1.871126
4340.000000;1.874586
4339.000000;1.877054
4338.000000;1.877761
4337.000000;1.876861
4336.000000;1.875804
4335.000000;1.876309
4334.000000;1.878808
4333.000000;1.882057
4332.000000;1.884362
4331.000000;1.885106
4330.000000;1.885120
4329.000000;1.885861
4328.000000;1.888335
4327.000000;1.892382
4326.000000;1.896657
4325.000000;1.899559
4324.000000;1.900462
4323.000000;1.899974
4322.000000;1.898989
4321.000000;1.897945
4320.000000;1.897267
4319.000000;1.897897
4318.000000;1.900706
4317.000000;1.905522
4316.000000;1.911196
4315.000000;1.916496
4314.000000;1.920561
4313.000000;1.922723
4312.000000;1.922640
4311.000000;1.920942
4310.000000;1.919180
4309.000000;1.918688
4308.000000;1.919687
4307.000000;1.921588
4306.000000;1.923764
4305.000000;1.925848
4304.000000;1.927656
4303.000000;1.929143
4302.000000;1.930348
4301.000000;1.931254
4300.000000;1.931890
4299.000000;1.932624
4298.000000;1.934021
4297.000000;1.936345
4296.000000;1.939469
4295.000000;1.943336
4294.000000;1.948002
4293.000000;1.952819
4292.000000;1.956165
4291.000000;1.956926
4290.000000;1.956204
4289.000000;1.956644
4288.000000;1.959857
4287.000000;1.965134
4286.000000;1.970779
4285.000000;1.975866
4284.000000;1.980252
4283.000000;1.983656
4282.000000;1.985711
4281.000000;1.986943
4280.000000;1.988968
4279.000000;1.993175
4278.000000;1.999144
4277.000000;2.004620
4276.000000;2.007761
4275.000000;2.009768
4274.000000;2.014193
4273.000000;2.022651
4272.000000;2.031993
4271.000000;2.037191
4270.000000;2.037261
4269.000000;2.036251
4268.000000;2.037876
4267.000000;2.041630
4266.000000;2.045019
4265.000000;2.047564
4264.000000;2.050686
4263.000000;2.055115
4262.000000;2.060734
4261.000000;2.068127
4260.000000;2.077735
4259.000000;2.087364
4258.000000;2.092997
4257.000000;2.093661
4256.000000;2.093507
4255.000000;2.097260
4254.000000;2.105522
4253.000000;2.115072
4252.000000;2.121758
4251.000000;2.122791
4250.000000;2.118265
4249.000000;2.111706
4248.000000;2.107853
4247.000000;2.108692
4246.000000;2.112386
4245.000000;2.116917
4244.000000;2.123365
4243.000000;2.133446
4242.000000;2.144804
4241.000000;2.151569
4240.000000;2.150755
4239.000000;2.146193
4238.000000;2.144476
4237.000000;2.148269
4236.000000;2.154781
4235.000000;2.159939
4234.000000;2.162599
4233.000000;2.165425
4232.000000;2.172711
4231.000000;2.186076
4230.000000;2.201356
4229.000000;2.210782
4228.000000;2.210040
4227.000000;2.202670
4226.000000;2.196589
4225.000000;2.198209
4224.000000;2.209902
4223.000000;2.229882
4222.000000;2.252546
4221.000000;2.270303
4220.000000;2.277923
4219.000000;2.275887
4218.000000;2.268790
4217.000000;2.261796
4216.000000;2.258574
4215.000000;2.260685
4214.000000;2.266878
4213.000000;2.273029
4212.000000;2.275348
4211.000000;2.273984
4210.000000;2.272000
4209.000000;2.271216
4208.000000;2.271214
4207.000000;2.272894
4206.000000;2.280470
4205.000000;2.297438
4204.000000;2.320697
4203.000000;2.340186
4202.000000;2.346254
4201.000000;2.339071
4200.000000;2.329226
4199.000000;2.328034
4198.000000;2.338785
4197.000000;2.353769
4196.000000;2.359604
4195.000000;2.351908
4194.000000;2.340703
4193.000000;2.337121
4192.000000;2.342752
4191.000000;2.352895
4190.000000;2.364905
4189.000000;2.379551
4188.000000;2.395656
4187.000000;2.407908
4186.000000;2.411517
4185.000000;2.406206
4184.000000;2.395247
4183.000000;2.382896
4182.000000;2.372978
4181.000000;2.368957
4180.000000;2.371962
4179.000000;2.378817
4178.000000;2.384501
4177.000000;2.389016
4176.000000;2.400146
4175.000000;2.422874
4174.000000;2.451920
4173.000000;2.477969
4172.000000;2.496281
4171.000000;2.509628
4170.000000;2.519417
4169.000000;2.517265
4168.000000;2.496123
4167.000000;2.467932
4166.000000;2.452175
4165.000000;2.451245
4164.000000;2.451384
4163.000000;2.443074
4162.000000;2.432473
4161.000000;2.432094
4160.000000;2.441995
4159.000000;2.451111
4158.000000;2.457665
4157.000000;2.471167
4156.000000;2.502613
4155.000000;2.553278
4154.000000;2.603540
4153.000000;2.625991
4152.000000;2.617442
4151.000000;2.597971
4150.000000;2.583550
4149.000000;2.576734
4148.000000;2.575823
4147.000000;2.581001
4146.000000;2.586528
4145.000000;2.579904
4144.000000;2.557722
4143.000000;2.532282
4142.000000;2.519916
4141.000000;2.530874
4140.000000;2.562401
4139.000000;2.591051
4138.000000;2.587885
4137.000000;2.558781
4136.000000;2.537438
4135.000000;2.543869
4134.000000;2.565010
4133.000000;2.569499
4132.000000;2.557874
4131.000000;2.558218
4130.000000;2.573119
4129.000000;2.572602
4128.000000;2.538604
4127.000000;2.500707
4126.000000;2.491529
4125.000000;2.507709
4124.000000;2.531565
4123.000000;2.560087
4122.000000;2.592907
4121.000000;2.625909
4120.000000;2.650815
4119.000000;2.644821
4118.000000;2.603211
4117.000000;2.565263
4116.000000;2.572822
4115.000000;2.643859
4114.000000;2.760748
4113.000000;2.846163
4112.000000;2.819541
4111.000000;2.732692
4110.000000;2.673201
4109.000000;2.663341
4108.000000;2.685647
4107.000000;2.712099
4106.000000;2.723624
4105.000000;2.713659
4104.000000;2.680911
4103.000000;2.630529
4102.000000;2.575782
4101.000000;2.530198
4100.000000;2.502385
4099.000000;2.496836
4098.000000;2.518948
4097.000000;2.580609
4096.000000;2.697948
4095.000000;2.853657
4094.000000;2.918193
4093.000000;2.849932
4092.000000;2.742041
4091.000000;2.658535
4090.000000;2.629051
4089.000000;2.669709
4088.000000;2.819497
4087.000000;3.096614
4086.000000;3.032375
4085.000000;2.680757
4084.000000;2.462981
4083.000000;2.370539
4082.000000;2.377524
4081.000000;2.442889
4080.000000;2.514577
4079.000000;2.572544
4078.000000;2.651014
4077.000000;2.748138
4076.000000;2.780497
4075.000000;2.744135
4074.000000;2.726690
4073.000000;2.729066
4072.000000;2.640599
4071.000000;2.520673
4070.000000;2.471761
4069.000000;2.476348
4068.000000;2.499524
4067.000000;2.552725
4066.000000;2.669665
4065.000000;2.796350
4064.000000;2.792987
4063.000000;2.764324
4062.000000;2.751269
4061.000000;2.718192
4060.000000;2.666491
4059.000000;2.579531
4058.000000;2.487643
4057.000000;2.442692
4056.000000;2.423534
4055.000000;2.393508
4054.000000;2.376450
4053.000000;2.388701
4052.000000;2.409119
4051.000000;2.410224
4050.000000;2.388799
4049.000000;2.371299
4048.000000;2.377048
4047.000000;2.405765
4046.000000;2.456885
4045.000000;2.541189
4044.000000;2.663954
4043.000000;2.821541
4042.000000;2.908868
4041.000000;2.844607
4040.000000;2.780843
4039.000000;2.739841
4038.000000;2.705419
4037.000000;2.693271
4036.000000;2.644372
4035.000000;2.523251
4034.000000;2.455212
4033.000000;2.524759
4032.000000;2.779849
4031.000000;2.998283
4030.000000;2.734548
4029.000000;2.550971
4028.000000;2.473806
4027.000000;2.459629
4026.000000;2.456870
4025.000000;2.441351
4024.000000;2.422652
4023.000000;2.412560
4022.000000;2.415539
4021.000000;2.418208
4020.000000;2.407488
4019.000000;2.390833
4018.000000;2.405286
4017.000000;2.495759
4016.000000;2.723890
4015.000000;2.972030
4014.000000;2.977729
4013.000000;3.107564
4012.000000;3.047900
4011.000000;2.848912
4010.000000;2.746757
4009.000000;2.649028
4008.000000;2.562298
4007.000000;2.536581
4006.000000;2.575758
4005.000000;2.657162
4004.000000;2.755912
4003.000000;2.743665
4002.000000;2.675877
4001.000000;2.668420
4000.000000;2.632540
3999.000000;2.528439
3998.000000;2.433887
3997.000000;2.407939
3996.000000;2.461144
3995.000000;2.559104
3994.000000;2.636168
3993.000000;2.658091
3992.000000;2.647356
3991.000000;2.605290
3990.000000;2.545631
3989.000000;2.530903
3988.000000;2.601101
3987.000000;2.738191
3986.000000;2.848710
3985.000000;2.828228
3984.000000;2.748771
3983.000000;2.694828
3982.000000;2.572405
3981.000000;2.408796
3980.000000;2.336516
3979.000000;2.381704
3978.000000;2.526420
3977.000000;2.724800
3976.000000;2.890696
3975.000000;2.984586
3974.000000;3.012340
3973.000000;2.934200
3972.000000;2.820288
3971.000000;2.754117
3970.000000;2.717514
3969.000000;2.658544
3968.000000;2.602090
3967.000000;2.615354
3966.000000;2.735296
3965.000000;3.014048
3964.000000;3.258727
3963.000000;3.398329
3962.000000;3.538957
3961.000000;2.924287
3960.000000;2.610428
3959.000000;2.472599
3958.000000;2.417376
3957.000000;2.433432
3956.000000;2.493126
3955.000000;2.583677
3954.000000;2.689422
3953.000000;2.731466
3952.000000;2.669632
3951.000000;2.622774
3950.000000;2.680464
3949.000000;2.864633
3948.000000;3.100234
3947.000000;3.073590
3946.000000;2.893775
3945.000000;2.775825
3944.000000;2.725022
3943.000000;2.783641
3942.000000;2.773361
3941.000000;2.591450
3940.000000;2.510822
3939.000000;2.539668
3938.000000;2.546563
3937.000000;2.475991
3936.000000;2.411650
3935.000000;2.416548
3934.000000;2.478244
3933.000000;2.546344
3932.000000;2.569552
3931.000000;2.533850
3930.000000;2.463609
3929.000000;2.406768
3928.000000;2.407226
3927.000000;2.471335
3926.000000;2.549330
3925.000000;2.610815
3924.000000;2.733062
3923.000000;2.747339
3922.000000;2.562400
3921.000000;2.451752
3920.000000;2.422175
3919.000000;2.450686
3918.000000;2.507272
3917.000000;2.547940
3916.000000;2.593513
3915.000000;2.899024
3914.000000;3.210701
3913.000000;2.742883
3912.000000;2.580426
3911.000000;2.590293
3910.000000;2.694992
3909.000000;2.905520
3908.000000;3.225227
3907.000000;3.274098
3906.000000;3.110075
3905.000000;3.202385
3904.000000;3.528391
3903.000000;3.679319
3902.000000;3.999462
3901.000000;3.114854
3900.000000;2.626876
3899.000000;2.373516
3898.000000;2.292161
3897.000000;2.399418
3896.000000;2.617297
3895.000000;2.760879
3894.000000;2.829808
3893.000000;2.867188
3892.000000;2.812785
3891.000000;2.712327
3890.000000;2.642656
3889.000000;2.587261
3888.000000;2.573028
3887.000000;2.593397
3886.000000;2.680769
3885.000000;3.084854
3884.000000;2.987559
3883.000000;2.711148
3882.000000;2.761528
3881.000000;2.741770
3880.000000;2.728026
3879.000000;2.834355
3878.000000;2.873949
3877.000000;2.814418
3876.000000;2.814625
3875.000000;2.825081
3874.000000;2.847006
3873.000000;3.018498
3872.000000;3.530636
3871.000000;3.391174
3870.000000;3.082154
3869.000000;2.970866
3868.000000;3.130492
3867.000000;3.619749
3866.000000;3.375918
3865.000000;3.126014
3864.000000;2.837820
3863.000000;2.649111
3862.000000;2.660838
3861.000000;2.794021
3860.000000;2.912914
3859.000000;2.799943
3858.000000;2.656319
3857.000000;2.655573
3856.000000;2.795479
3855.000000;2.973426
3854.000000;2.961673
3853.000000;3.019702
3852.000000;2.909547
3851.000000;2.751876
3850.000000;2.802604
3849.000000;2.875661
3848.000000;3.163859
3847.000000;3.077755
3846.000000;2.787823
3845.000000;2.780355
3844.000000;2.907247
3843.000000;3.127115
3842.000000;2.923665
3841.000000;2.705901
3840.000000;2.638850
3839.000000;2.610231
3838.000000;2.588728
3837.000000;2.588526
3836.000000;2.654586
3835.000000;2.780611
3834.000000;2.877911
3833.000000;2.855159
3832.000000;2.750810
3831.000000;2.670509
3830.000000;2.673307
3829.000000;2.751965
3828.000000;2.865126
3827.000000;3.001614
3826.000000;3.226747
3825.000000;3.486445
3824.000000;3.713459
3823.000000;3.778590
3822.000000;3.245606
3821.000000;2.880714
3820.000000;2.772788
3819.000000;2.969493
3818.000000;3.453505
3817.000000;3.530421
3816.000000;3.327603
3815.000000;3.428978
3814.000000;3.290399
3813.000000;3.087196
3812.000000;3.103851
3811.000000;3.001778
3810.000000;2.911721
3809.000000;2.954465
3808.000000;3.168615
3807.000000;3.229504
3806.000000;3.254821
3805.000000;3.664256
3804.000000;3.516227
3803.000000;3.275544
3802.000000;3.480017
3801.000000;3.631007
3800.000000;3.244249
3799.000000;3.169079
3798.000000;3.194590
3797.000000;3.072362
3796.000000;2.928592
3795.000000;2.942177
3794.000000;3.144681
3793.000000;3.356200
3792.000000;3.340045
3791.000000;3.510040
3790.000000;4.105213
3789.000000;3.369554
3788.000000;3.130007
3787.000000;3.124734
3786.000000;3.285776
3785.000000;3.345358
3784.000000;3.054272
3783.000000;2.922634
3782.000000;2.903675
3781.000000;2.985035
3780.000000;3.116672
3779.000000;3.239448
3778.000000;3.455701
3777.000000;3.313386
3776.000000;3.074620
3775.000000;3.010938
3774.000000;3.046366
3773.000000;3.298531
3772.000000;3.435978
3771.000000;3.474581
3770.000000;3.728077
3769.000000;3.304022
3768.000000;3.204644
3767.000000;3.298338
3766.000000;3.178439
3765.000000;3.234204
3764.000000;3.498159
3763.000000;3.187593
3762.000000;2.998264
3761.000000;2.962951
3760.000000;2.891880
3759.000000;2.888253
3758.000000;3.218292
3757.000000;3.718923
3756.000000;3.186936
3755.000000;3.058566
3754.000000;3.016921
3753.000000;3.009589
3752.000000;2.835075
3751.000000;2.620495
3750.000000;2.502208
3749.000000;2.595929
3748.000000;3.070619
3747.000000;3.122743
3746.000000;2.821412
3745.000000;2.823380
3744.000000;2.714048
3743.000000;2.510916
3742.000000;2.564243
3741.000000;2.808859
3740.000000;2.881879
3739.000000;2.837465
3738.000000;2.832706
3737.000000;2.816482
3736.000000;2.819191
3735.000000;3.102215
3734.000000;3.308334
3733.000000;3.070106
3732.000000;3.183638
3731.000000;3.410409
3730.000000;3.486684
3729.000000;3.587381
3728.000000;3.764543
3727.000000;3.455061
3726.000000;3.116710
3725.000000;3.040082
3724.000000;3.313621
3723.000000;3.755969
3722.000000;3.431930
3721.000000;3.588975
3720.000000;3.414944
3719.000000;3.130249
3718.000000;2.987385
3717.000000;2.788479
3716.000000;2.682912
3715.000000;2.698407
3714.000000;2.826988
3713.000000;3.074830
3712.000000;3.238852
3711.000000;3.151895
3710.000000;3.205356
3709.000000;3.408046
3708.000000;3.547704
3707.000000;3.475144
3706.000000;3.327125
3705.000000;3.275350
3704.000000;3.356814
3703.000000;3.553350
3702.000000;3.373775
3701.000000;3.178707
3700.000000;3.152621
3699.000000;3.118349
3698.000000;3.067114
3697.000000;3.035609
3696.000000;2.988917
3695.000000;3.033228
3694.000000;3.405133
3693.000000;3.533186
3692.000000;3.126826
3691.000000;2.994804
3690.000000;3.054275
3689.000000;3.154783
3688.000000;3.045268
3687.000000;2.934038
3686.000000;2.964755
3685.000000;3.057829
3684.000000;3.358636
3683.000000;4.132353
3682.000000;3.441044
3681.000000;3.615294
3680.000000;3.659241
3679.000000;3.157180
3678.000000;3.090300
3677.000000;3.027543
3676.000000;2.900632
3675.000000;2.811300
3674.000000;2.778981
3673.000000;2.829613
3672.000000;2.927216
3671.000000;2.925229
3670.000000;3.019312
3669.000000;2.851243
3668.000000;2.694663
3667.000000;2.805864
3666.000000;2.918449
3665.000000;2.989753
3664.000000;3.077336
3663.000000;3.071155
3662.000000;3.068147
3661.000000;3.345386
3660.000000;4.092927
3659.000000;3.426445
3658.000000;3.273065
3657.000000;3.148899
3656.000000;3.223935
3655.000000;3.635397
3654.000000;3.023350
3653.000000;2.752346
3652.000000;2.635674
3651.000000;2.559865
3650.000000;2.600914
3649.000000;2.751447
3648.000000;2.923731
3647.000000;3.030648
3646.000000;3.085602
3645.000000;3.029943
3644.000000;2.916801
3643.000000;2.838010
3642.000000;2.877782
3641.000000;3.124730
3640.000000;3.228076
3639.000000;3.073490
3638.000000;3.075706
3637.000000;3.130394
3636.000000;3.180416
3635.000000;3.281124
3634.000000;3.210109
3633.000000;2.944795
3632.000000;2.767108
3631.000000;2.684387
3630.000000;2.652457
3629.000000;2.700002
3628.000000;2.918948
3627.000000;2.999547
3626.000000;2.913321
3625.000000;2.955225
3624.000000;2.967684
3623.000000;3.012910
3622.000000;3.086348
3621.000000;3.088779
3620.000000;3.020860
3619.000000;3.037870
3618.000000;3.330212
3617.000000;3.324890
3616.000000;3.065452
3615.000000;2.998330
3614.000000;2.933487
3613.000000;2.856325
3612.000000;2.791683
3611.000000;2.755994
3610.000000;2.781277
3609.000000;2.812226
3608.000000;2.892507
3607.000000;3.306833
3606.000000;3.179745
3605.000000;2.808314
3604.000000;2.695613
3603.000000;2.703121
3602.000000;2.800032
3601.000000;3.175977
3600.000000;3.869635
3599.000000;3.131924
3598.000000;3.035580
3597.000000;3.175138
3596.000000;3.491059
3595.000000;3.524003
3594.000000;3.421628
3593.000000;3.591256
3592.000000;3.324356
3591.000000;3.167509
3590.000000;3.064064
3589.000000;2.926579
3588.000000;2.802315
3587.000000;2.733411
3586.000000;2.758444
3585.000000;2.877871
3584.000000;3.075927
3583.000000;3.357653
3582.000000;3.666029
3581.000000;3.501545
3580.000000;3.301697
3579.000000;3.194506
3578.000000;3.080266
3577.000000;2.978450
3576.000000;2.889189
3575.000000;2.841662
3574.000000;2.876193
3573.000000;3.062201
3572.000000;3.398971
3571.000000;3.406779
3570.000000;3.305305
3569.000000;3.483272
3568.000000;3.434394
3567.000000;3.020693
3566.000000;2.807906
3565.000000;2.743367
3564.000000;2.799149
3563.000000;2.891889
3562.000000;2.947208
3561.000000;2.929047
3560.000000;2.978425
3559.000000;3.264555
3558.000000;3.144609
3557.000000;2.897768
3556.000000;2.881357
3555.000000;2.997040
3554.000000;3.095496
3553.000000;3.025587
3552.000000;2.958462
3551.000000;2.968687
3550.000000;3.040927
3549.000000;3.191128
3548.000000;3.214454
3547.000000;3.008300
3546.000000;2.891404
3545.000000;2.923967
3544.000000;2.965082
3543.000000;2.836795
3542.000000;2.758081
3541.000000;2.873352
3540.000000;3.193162
3539.000000;3.314890
3538.000000;3.181997
3537.000000;3.209255
3536.000000;3.211330
3535.000000;3.090230
3534.000000;3.053441
3533.000000;3.108532
3532.000000;3.291618
3531.000000;3.653693
3530.000000;3.210298
3529.000000;3.137144
3528.000000;3.302436
3527.000000;2.990922
3526.000000;2.881023
3525.000000;2.988646
3524.000000;3.013076
3523.000000;2.955831
3522.000000;3.006165
3521.000000;3.054771
3520.000000;3.036102
3519.000000;2.946426
3518.000000;2.923372
3517.000000;3.077335
3516.000000;3.139712
3515.000000;3.034504
3514.000000;3.158641
3513.000000;3.685087
3512.000000;3.709321
3511.000000;3.612571
3510.000000;3.493502
3509.000000;3.159743
3508.000000;3.145475
3507.000000;3.407501
3506.000000;3.777754
3505.000000;3.198742
3504.000000;2.908443
3503.000000;2.832968
3502.000000;2.967700
3501.000000;3.699280
3500.000000;3.302786
3499.000000;3.094208
3498.000000;3.158619
3497.000000;3.022452
3496.000000;2.887465
3495.000000;2.809942
3494.000000;2.807042
3493.000000;2.884230
3492.000000;2.972410
3491.000000;2.934737
3490.000000;2.839077
3489.000000;2.780038
3488.000000;2.754201
3487.000000;2.744540
3486.000000;2.748916
3485.000000;2.774290
3484.000000;2.804332
3483.000000;2.862936
3482.000000;2.944471
3481.000000;2.776916
3480.000000;2.635416
3479.000000;2.656705
3478.000000;2.868480
3477.000000;3.529547
3476.000000;3.249746
3475.000000;3.010851
3474.000000;3.164528
3473.000000;3.806999
3472.000000;3.112052
3471.000000;2.763948
3470.000000;2.681547
3469.000000;2.746477
3468.000000;2.924464
3467.000000;3.047836
3466.000000;3.039085
3465.000000;3.063553
3464.000000;3.200114
3463.000000;3.094829
3462.000000;2.917808
3461.000000;2.929989
3460.000000;3.299986
3459.000000;3.761629
3458.000000;3.438422
3457.000000;3.511859
3456.000000;3.169290
3455.000000;2.926928
3454.000000;2.927696
3453.000000;3.466496
3452.000000;3.213634
3451.000000;2.779900
3450.000000;2.688507
3449.000000;2.675229
3448.000000;2.700148
3447.000000;2.737688
3446.000000;2.832462
3445.000000;3.038668
3444.000000;3.155156
3443.000000;3.018297
3442.000000;2.907671
3441.000000;2.883656
3440.000000;2.938852
3439.000000;3.235549
3438.000000;3.842212
3437.000000;3.154243
3436.000000;2.934605
3435.000000;2.857412
3434.000000;2.832558
3433.000000;2.847591
3432.000000;2.904306
3431.000000;3.076010
3430.000000;3.278902
3429.000000;3.049866
3428.000000;2.835170
3427.000000;2.801376
3426.000000;2.880389
3425.000000;3.033648
3424.000000;3.196055
3423.000000;3.228333
3422.000000;3.082333
3421.000000;2.963040
3420.000000;2.891678
3419.000000;2.826864
3418.000000;2.800118
3417.000000;2.810074
3416.000000;2.815020
3415.000000;2.799765
3414.000000;2.757957
3413.000000;2.692791
3412.000000;2.659768
3411.000000;2.718479
3410.000000;2.944524
3409.000000;3.369846
3408.000000;3.351378
3407.000000;3.125977
3406.000000;3.066595
3405.000000;3.250086
3404.000000;3.463143
3403.000000;3.093710
3402.000000;2.815291
3401.000000;2.682945
3400.000000;2.681079
3399.000000;2.810081
3398.000000;3.253248
3397.000000;3.456899
3396.000000;3.067718
3395.000000;3.000048
3394.000000;3.117126
3393.000000;3.556822
3392.000000;3.351605
3391.000000;3.112134
3390.000000;3.115667
3389.000000;3.240043
3388.000000;3.421923
3387.000000;3.171234
3386.000000;2.978942
3385.000000;2.952621
3384.000000;3.002713
3383.000000;3.053691
3382.000000;3.068177
3381.000000;3.045286
3380.000000;3.069352
3379.000000;3.214544
3378.000000;3.476526
3377.000000;3.432106
3376.000000;3.098613
3375.000000;2.893693
3374.000000;2.812178
3373.000000;2.832341
3372.000000;2.930486
3371.000000;3.097810
3370.000000;3.261760
3369.000000;3.135515
3368.000000;2.938033
3367.000000;2.841340
3366.000000;2.853641
3365.000000;3.032337
3364.000000;3.423237
3363.000000;3.176383
3362.000000;3.033921
3361.000000;2.992424
3360.000000;2.970576
3359.000000;3.094969
3358.000000;3.340363
3357.000000;3.258353
3356.000000;3.188396
3355.000000;3.239230
3354.000000;3.087747
3353.000000;2.877176
3352.000000;2.801959
3351.000000;2.830230
3350.000000;2.894939
3349.000000;2.942724
3348.000000;2.990398
3347.000000;3.067153
3346.000000;3.137650
3345.000000;3.374865
3344.000000;3.528738
3343.000000;3.208071
3342.000000;3.180082
3341.000000;3.345736
3340.000000;3.258871
3339.000000;3.218584
3338.000000;3.353000
3337.000000;3.007727
3336.000000;2.709322
3335.000000;2.635161
3334.000000;2.827002
3333.000000;3.194256
3332.000000;2.800934
3331.000000;2.701477
3330.000000;2.740718
3329.000000;2.872933
3328.000000;3.038738
3327.000000;2.953053
3326.000000;2.760778
3325.000000;2.699429
3324.000000;2.774554
3323.000000;2.934901
3322.000000;2.867431
3321.000000;2.753188
3320.000000;2.812270
3319.000000;2.983634
3318.000000;3.046260
3317.000000;2.973420
3316.000000;2.969756
3315.000000;3.078690
3314.000000;3.279195
3313.000000;3.423195
3312.000000;3.408121
3311.000000;3.411940
3310.000000;3.468120
3309.000000;3.245460
3308.000000;3.072689
3307.000000;3.111513
3306.000000;3.462423
3305.000000;3.581106
3304.000000;3.275069
3303.000000;3.338868
3302.000000;3.166041
3301.000000;2.951056
3300.000000;2.892936
3299.000000;2.916246
3298.000000;2.964052
3297.000000;3.026563
3296.000000;3.148674
3295.000000;3.144954
3294.000000;3.015619
3293.000000;2.997547
3292.000000;3.067395
3291.000000;3.171990
3290.000000;3.256646
3289.000000;3.788865
3288.000000;3.536075
3287.000000;3.163599
3286.000000;3.207249
3285.000000;3.163525
3284.000000;2.878025
3283.000000;2.740750
3282.000000;2.717641
3281.000000;2.754291
3280.000000;2.815391
3279.000000;2.884947
3278.000000;2.965225
3277.000000;3.029392
3276.000000;3.031742
3275.000000;3.058010
3274.000000;3.179411
3273.000000;3.477324
3272.000000;3.922402
3271.000000;3.470219
3270.000000;3.214395
3269.000000;3.189995
3268.000000;3.269520
3267.000000;3.501235
3266.000000;3.651448
3265.000000;3.254222
3264.000000;3.012387
3263.000000;2.965582
3262.000000;3.098932
3261.000000;3.310784
3260.000000;3.280568
3259.000000;3.290737
3258.000000;3.454408
3257.000000;3.609967
3256.000000;3.280368
3255.000000;3.046311
3254.000000;2.977194
3253.000000;3.095164
3252.000000;3.542063
3251.000000;3.413383
3250.000000;3.017190
3249.000000;2.919105
3248.000000;2.970356
3247.000000;3.166774
3246.000000;3.390092
3245.000000;3.730313
3244.000000;3.978382
3243.000000;3.445583
3242.000000;3.183303
3241.000000;3.026052
3240.000000;2.944918
3239.000000;2.901236
3238.000000;2.934209
3237.000000;3.054886
3236.000000;3.618265
3235.000000;3.539761
3234.000000;3.134315
3233.000000;3.031060
3232.000000;3.010956
3231.000000;3.040406
3230.000000;3.114730
3229.000000;3.212224
3228.000000;3.163873
3227.000000;3.103764
3226.000000;3.194631
3225.000000;3.348132
3224.000000;3.572300
3223.000000;4.204684
3222.000000;3.302614
3221.000000;3.116849
3220.000000;3.061168
3219.000000;3.084719
3218.000000;3.071673
3217.000000;2.941403
3216.000000;2.827251
3215.000000;2.815731
3214.000000;2.864569
3213.000000;2.875406
3212.000000;2.829452
3211.000000;2.823080
3210.000000;2.904739
3209.000000;3.084239
3208.000000;3.342979
3207.000000;3.886465
3206.000000;3.861175
3205.000000;3.489065
3204.000000;3.374378
3203.000000;3.328768
3202.000000;3.083815
3201.000000;2.923855
3200.000000;2.926891
3199.000000;3.103422
3198.000000;3.497368
3197.000000;3.283444
3196.000000;3.052692
3195.000000;3.180566
3194.000000;3.699670
3193.000000;3.430864
3192.000000;3.392373
3191.000000;3.262210
3190.000000;3.048770
3189.000000;3.140944
3188.000000;3.136177
3187.000000;2.985800
3186.000000;2.974258
3185.000000;3.052273
3184.000000;3.108684
3183.000000;3.671323
3182.000000;3.494778
3181.000000;3.148805
3180.000000;3.246830
3179.000000;3.682718
3178.000000;3.391317
3177.000000;3.300744
3176.000000;3.505408
3175.000000;3.506638
3174.000000;3.284352
3173.000000;3.188559
3172.000000;3.075687
3171.000000;2.982176
3170.000000;3.074598
3169.000000;3.398630
3168.000000;3.171119
3167.000000;2.936600
3166.000000;2.901515
3165.000000;2.988145
3164.000000;3.228523
3163.000000;3.625204
3162.000000;3.465803
3161.000000;3.212855
3160.000000;3.257670
3159.000000;3.326488
3158.000000;3.063233
3157.000000;2.886746
3156.000000;2.884421
3155.000000;3.017540
3154.000000;3.349241
3153.000000;3.450094
3152.000000;3.148172
3151.000000;2.952100
3150.000000;2.920680
3149.000000;3.071198
3148.000000;3.494328
3147.000000;3.432553
3146.000000;3.186392
3145.000000;3.152892
3144.000000;3.274514
3143.000000;3.507589
3142.000000;3.380740
3141.000000;3.159487
3140.000000;3.038391
3139.000000;2.903771
3138.000000;2.779024
3137.000000;2.705744
3136.000000;2.693509
3135.000000;2.740067
3134.000000;2.828182
3133.000000;2.921765
3132.000000;2.993476
3131.000000;3.054162
3130.000000;3.117126
3129.000000;3.166041
3128.000000;3.286665
3127.000000;3.430491
3126.000000;4.190191
3125.000000;3.354542
3124.000000;3.003251
3123.000000;2.884429
3122.000000;2.841077
3121.000000;2.840240
3120.000000;2.923831
3119.000000;3.121697
3118.000000;3.095652
3117.000000;3.002299
3116.000000;3.073583
3115.000000;3.120818
3114.000000;3.027469
3113.000000;2.984561
3112.000000;3.035388
3111.000000;3.162190
3110.000000;3.529326
3109.000000;3.757470
3108.000000;3.416865
3107.000000;3.427102
3106.000000;3.336678
3105.000000;3.234014
3104.000000;3.144168
3103.000000;3.003995
3102.000000;2.883109
3101.000000;2.827796
3100.000000;2.853650
3099.000000;2.932520
3098.000000;2.973910
3097.000000;3.001086
3096.000000;3.048976
3095.000000;3.055609
3094.000000;2.985589
3093.000000;2.875377
3092.000000;2.841808
3091.000000;2.959394
3090.000000;3.299166
3089.000000;3.421832
3088.000000;3.108024
3087.000000;2.923827
3086.000000;2.794943
3085.000000;2.776958
3084.000000;2.891363
3083.000000;2.933037
3082.000000;2.796510
3081.000000;2.792469
3080.000000;2.965120
3079.000000;3.250162
3078.000000;3.332725
3077.000000;3.072413
3076.000000;2.930870
3075.000000;2.981833
3074.000000;3.159893
3073.000000;3.384600
3072.000000;3.094765
3071.000000;2.928022
3070.000000;3.039236
3069.000000;3.880482
3068.000000;3.052936
3067.000000;2.895644
3066.000000;2.910414
3065.000000;2.884864
3064.000000;2.878871
3063.000000;2.971338
3062.000000;3.308755
3061.000000;3.520974
3060.000000;2.924193
3059.000000;2.743561
3058.000000;2.691981
3057.000000;2.747258
3056.000000;2.877507
3055.000000;3.038119
3054.000000;3.026450
3053.000000;2.939332
3052.000000;2.975636
3051.000000;3.212105
3050.000000;3.283671
3049.000000;3.027198
3048.000000;2.892912
3047.000000;2.865004
3046.000000;2.937193
3045.000000;3.102463
3044.000000;3.250090
3043.000000;3.142530
3042.000000;2.933208
3041.000000;2.813529
3040.000000;2.804645
3039.000000;2.909048
3038.000000;3.149289
3037.000000;3.573127
3036.000000;3.750311
3035.000000;3.348233
3034.000000;3.159563
3033.000000;3.127418
3032.000000;3.309461
3031.000000;3.544121
3030.000000;3.225110
3029.000000;3.086370
3028.000000;3.038904
3027.000000;2.912486
3026.000000;2.821554
3025.000000;2.834890
3024.000000;2.945107
3023.000000;3.109606
3022.000000;3.278200
3021.000000;3.193949
3020.000000;3.057604
3019.000000;3.188058
3018.000000;3.585176
3017.000000;3.089089
3016.000000;2.922922
3015.000000;3.026295
3014.000000;3.441452
3013.000000;3.423789
3012.000000;3.156499
3011.000000;3.173496
3010.000000;3.364566
3009.000000;3.648308
3008.000000;3.903001
3007.000000;4.122105
3006.000000;3.566732
3005.000000;3.343896
3004.000000;3.326068
3003.000000;3.510233
3002.000000;3.498673
3001.000000;3.137985
3000.000000;2.883363
2999.000000;2.744215
2998.000000;2.737207
2997.000000;2.848548
2996.000000;3.213923
2995.000000;3.414926
2994.000000;2.998462
2993.000000;2.876638
2992.000000;2.983295
2991.000000;3.386583
2990.000000;3.698275
2989.000000;3.178863
2988.000000;2.944409
2987.000000;2.886597
2986.000000;2.982617
2985.000000;3.181936
2984.000000;3.217121
2983.000000;3.191906
2982.000000;3.135097
2981.000000;3.033457
2980.000000;3.023437
2979.000000;3.045610
2978.000000;2.991526
2977.000000;2.962116
2976.000000;3.056596
2975.000000;3.228276
2974.000000;3.402489
2973.000000;3.366682
2972.000000;3.093206
2971.000000;2.955487
2970.000000;3.008757
2969.000000;3.134810
2968.000000;2.994223
2967.000000;2.810164
2966.000000;2.737933
2965.000000;2.745300
2964.000000;2.813709
2963.000000;2.929520
2962.000000;3.049115
2961.000000;3.072896
2960.000000;3.002803
2959.000000;2.924832
2958.000000;2.870638
2957.000000;2.859552
2956.000000;2.921940
2955.000000;3.121223
2954.000000;3.449310
2953.000000;3.362056
2952.000000;3.116032
2951.000000;2.983783
2950.000000;2.977397
2949.000000;3.171483
2948.000000;3.533202
2947.000000;3.512101
2946.000000;3.426849
2945.000000;3.472884
2944.000000;3.332148
2943.000000;3.157461
2942.000000;3.120469
2941.000000;3.149058
2940.000000;2.975616
2939.000000;2.818628
2938.000000;2.805873
2937.000000;3.008490
2936.000000;3.868526
2935.000000;3.157449
2934.000000;2.952673
2933.000000;2.975193
2932.000000;3.013979
2931.000000;3.039822
2930.000000;2.961317
2929.000000;2.942906
2928.000000;3.005738
2927.000000;3.015433
2926.000000;2.976025
2925.000000;3.186389
2924.000000;3.604546
2923.000000;3.127133
2922.000000;2.948288
2921.000000;3.060823
2920.000000;3.550493
2919.000000;3.407172
2918.000000;3.055431
2917.000000;3.011187
2916.000000;2.962342
2915.000000;2.926802
2914.000000;2.950592
2913.000000;3.057498
2912.000000;3.038027
2911.000000;2.875232
2910.000000;2.825998
2909.000000;2.936543
2908.000000;3.230808
2907.000000;3.417023
2906.000000;3.290517
2905.000000;3.203118
2904.000000;3.083487
2903.000000;3.040382
2902.000000;3.024460
2901.000000;2.925482
2900.000000;2.867202
2899.000000;2.913773
2898.000000;3.039218
2897.000000;3.169533
2896.000000;3.147970
2895.000000;3.011871
2894.000000;2.944190
2893.000000;2.990928
2892.000000;3.098572
2891.000000;3.193802
2890.000000;3.505752
2889.000000;3.397888
2888.000000;2.978153
2887.000000;2.844553
2886.000000;2.893914
2885.000000;3.079862
2884.000000;3.313188
2883.000000;3.254496
2882.000000;2.996448
2881.000000;2.838463
2880.000000;2.897734
2879.000000;3.303168
2878.000000;3.122458
2877.000000;2.820700
2876.000000;2.765484
2875.000000;2.778834
2874.000000;2.802451
2873.000000;2.864831
2872.000000;3.020834
2871.000000;3.181168
2870.000000;3.144473
2869.000000;3.013510
2868.000000;2.941440
2867.000000;2.970587
2866.000000;3.111548
2865.000000;3.223269
2864.000000;3.104822
2863.000000;3.027823
2862.000000;3.235729
2861.000000;3.472825
2860.000000;3.118424
2859.000000;2.886463
2858.000000;2.760140
2857.000000;2.708745
2856.000000;2.758342
2855.000000;2.910672
2854.000000;3.116825
2853.000000;3.153888
2852.000000;3.153463
2851.000000;3.261362
2850.000000;3.199504
2849.000000;3.036690
2848.000000;2.972937
2847.000000;2.993274
2846.000000;3.055483
2845.000000;3.082593
2844.000000;2.995838
2843.000000;2.879297
2842.000000;2.843932
2841.000000;2.947695
2840.000000;3.230726
2839.000000;3.320730
2838.000000;3.110037
2837.000000;3.124071
2836.000000;3.253508
2835.000000;3.096581
2834.000000;2.941289
2833.000000;2.990282
2832.000000;3.275071
2831.000000;3.443459
2830.000000;3.195451
2829.000000;3.066206
2828.000000;3.007129
2827.000000;2.975085
2826.000000;2.981822
2825.000000;3.042368
2824.000000;3.126211
2823.000000;3.118620
2822.000000;3.096627
2821.000000;3.116709
2820.000000;3.051211
2819.000000;2.923372
2818.000000;2.871709
2817.000000;2.905040
2816.000000;2.930972
2815.000000;3.128944
2814.000000;3.400222
2813.000000;2.993633
2812.000000;2.741446
2811.000000;2.669402
2810.000000;2.671699
2809.000000;2.794669
2808.000000;3.194476
2807.000000;3.154706
2806.000000;2.891284
2805.000000;3.072813
2804.000000;3.424754
2803.000000;2.949779
2802.000000;2.723551
2801.000000;2.709122
2800.000000;2.777760
2799.000000;2.931144
2798.000000;3.123604
2797.000000;3.508331
2796.000000;4.195932
2795.000000;3.504490
2794.000000;3.318360
2793.000000;3.244485
2792.000000;3.180760
2791.000000;3.221297
2790.000000;3.589257
2789.000000;4.025267
2788.000000;3.340796
2787.000000;2.997034
2786.000000;2.805860
2785.000000;2.795573
2784.000000;2.894672
2783.000000;2.955225
2782.000000;2.988669
2781.000000;3.006152
2780.000000;2.971271
2779.000000;2.962486
2778.000000;2.948307
2777.000000;2.909551
2776.000000;2.882731
2775.000000;2.913163
2774.000000;2.951393
2773.000000;3.109856
2772.000000;3.525057
2771.000000;3.111238
2770.000000;2.853602
2769.000000;2.815288
2768.000000;2.850496
2767.000000;2.905250
2766.000000;2.924254
2765.000000;2.927620
2764.000000;2.902963
2763.000000;2.898647
2762.000000;2.954435
2761.000000;2.966465
2760.000000;2.861678
2759.000000;2.743394
2758.000000;2.697558
2757.000000;2.741989
2756.000000;2.921346
2755.000000;3.333318
2754.000000;3.172577
2753.000000;2.895116
2752.000000;2.866441
2751.000000;2.946431
2750.000000;3.095026
2749.000000;3.068809
2748.000000;2.908708
2747.000000;2.861383
2746.000000;2.931227
2745.000000;3.224751
2744.000000;3.517174
2743.000000;3.016953
2742.000000;2.790479
2741.000000;2.715995
2740.000000;2.713675
2739.000000;2.784688
2738.000000;2.921531
2737.000000;3.179031
2736.000000;3.547348
2735.000000;3.533304
2734.000000;3.189428
2733.000000;2.981645
2732.000000;2.885498
2731.000000;2.886059
2730.000000;2.972720
2729.000000;3.217626
2728.000000;3.563119
2727.000000;3.414900
2726.000000;3.311754
2725.000000;3.336315
2724.000000;3.228825
2723.000000;3.049218
2722.000000;2.891196
2721.000000;2.844838
2720.000000;2.888203
2719.000000;2.972431
2718.000000;2.983216
2717.000000;3.131105
2716.000000;3.582658
2715.000000;3.119459
2714.000000;2.894800
2713.000000;2.911649
2712.000000;2.969018
2711.000000;2.957041
2710.000000;2.873377
2709.000000;2.803689
2708.000000;2.753878
2707.000000;2.723680
2706.000000;2.717464
2705.000000;2.769498
2704.000000;2.894882
2703.000000;3.279078
2702.000000;3.518520
2701.000000;3.025962
2700.000000;2.872667
2699.000000;2.905431
2698.000000;2.978133
2697.000000;2.967364
2696.000000;3.064854
2695.000000;3.421189
2694.000000;3.510048
2693.000000;3.520233
2692.000000;3.411022
2691.000000;3.116253
2690.000000;2.919988
2689.000000;2.781792
2688.000000;2.720961
2687.000000;2.777531
2686.000000;2.946897
2685.000000;2.978869
2684.000000;2.879957
2683.000000;2.901920
2682.000000;3.080142
2681.000000;3.376817
2680.000000;3.327590
2679.000000;3.175264
2678.000000;3.254462
2677.000000;3.606108
2676.000000;3.599619
2675.000000;3.240847
2674.000000;3.065409
2673.000000;3.117985
2672.000000;3.488927
2671.000000;3.720567
2670.000000;3.752164
2669.000000;3.166306
2668.000000;2.747618
2667.000000;2.583016
2666.000000;2.575458
2665.000000;2.706087
2664.000000;2.758349
2663.000000;2.641794
2662.000000;2.584232
2661.000000;2.604762
2660.000000;2.685295
2659.000000;2.834399
2658.000000;3.175024
2657.000000;3.320292
2656.000000;2.994247
2655.000000;3.005857
2654.000000;3.234078
2653.000000;3.381647
2652.000000;3.461192
2651.000000;3.505141
2650.000000;3.271046
2649.000000;3.026192
2648.000000;2.845660
2647.000000;2.732454
2646.000000;2.730250
2645.000000;2.858226
2644.000000;3.037892
2643.000000;3.028118
2642.000000;2.899659
2641.000000;2.767853
2640.000000;2.666515
2639.000000;2.619874
2638.000000;2.638209
2637.000000;2.734363
2636.000000;2.897362
2635.000000;3.039514
2634.000000;3.033709
2633.000000;2.950264
2632.000000;2.936023
2631.000000;3.026551
2630.000000;3.285702
2629.000000;3.573505
2628.000000;3.401656
2627.000000;3.207599
2626.000000;3.215032
2625.000000;3.646400
2624.000000;3.502403
2623.000000;3.115183
2622.000000;3.139257
2621.000000;3.149132
2620.000000;3.162331
2619.000000;3.489845
2618.000000;3.230270
2617.000000;2.823025
2616.000000;2.693542
2615.000000;2.734962
2614.000000;2.902797
2613.000000;3.030892
2612.000000;3.096562
2611.000000;3.320573
2610.000000;3.387338
2609.000000;3.190458
2608.000000;3.143478
2607.000000;3.180722
2606.000000;3.123694
2605.000000;2.969767
2604.000000;2.859836
2603.000000;2.853230
2602.000000;2.982462
2601.000000;3.353640
2600.000000;3.879567
2599.000000;3.462683
2598.000000;3.134355
2597.000000;2.996445
2596.000000;2.919679
2595.000000;2.880795
2594.000000;2.917417
2593.000000;2.880873
2592.000000;2.781131
2591.000000;2.780751
2590.000000;2.952645
2589.000000;3.213235
2588.000000;3.163388
2587.000000;3.295225
2586.000000;3.365017
2585.000000;2.933938
2584.000000;2.748173
2583.000000;2.719155
2582.000000;2.827567
2581.000000;3.023500
2580.000000;3.046183
2579.000000;3.036385
2578.000000;3.101678
2577.000000;3.057315
2576.000000;2.901998
2575.000000;2.813820
2574.000000;2.858147
2573.000000;2.975471
2572.000000;2.969968
2571.000000;2.896052
2570.000000;2.872087
2569.000000;2.890834
2568.000000;2.965314
2567.000000;3.169980
2566.000000;3.675021
2565.000000;3.758516
2564.000000;3.289100
2563.000000;2.994779
2562.000000;2.849014
2561.000000;2.837545
2560.000000;2.879394
2559.000000;2.893020
2558.000000;2.865136
2557.000000;2.903722
2556.000000;3.102969
2555.000000;3.459732
2554.000000;3.572779
2553.000000;3.213236
2552.000000;2.958997
2551.000000;2.884866
2550.000000;2.836021
2549.000000;2.701562
2548.000000;2.602692
2547.000000;2.588430
2546.000000;2.640157
2545.000000;2.710499
2544.000000;2.801578
2543.000000;2.847931
2542.000000;2.849911
2541.000000;2.879211
2540.000000;3.005081
2539.000000;3.702974
2538.000000;3.268807
2537.000000;2.813702
2536.000000;2.700041
2535.000000;2.652904
2534.000000;2.685583
2533.000000;2.811483
2532.000000;3.199495
2531.000000;3.320870
2530.000000;2.894016
2529.000000;2.772237
2528.000000;2.789940
2527.000000;2.852586
2526.000000;2.891988
2525.000000;3.027533
2524.000000;3.420898
2523.000000;3.374481
2522.000000;3.198662
2521.000000;3.130533
2520.000000;2.968040
2519.000000;2.912017
2518.000000;2.949153
2517.000000;2.994948
2516.000000;3.032621
2515.000000;3.099268
2514.000000;3.149092
2513.000000;3.155412
2512.000000;3.152613
2511.000000;3.000274
2510.000000;2.826005
2509.000000;2.742284
2508.000000;2.742809
2507.000000;2.859806
2506.000000;3.083625
2505.000000;3.148663
2504.000000;3.155914
2503.000000;3.297213
2502.000000;3.435526
2501.000000;3.621895
2500.000000;3.280321
2499.000000;2.891960
2498.000000;2.737366
2497.000000;2.736071
2496.000000;2.867444
2495.000000;3.077799
2494.000000;3.366202
2493.000000;3.585838
2492.000000;3.225880
2491.000000;3.051754
2490.000000;3.170898
2489.000000;3.335826
2488.000000;3.147154
2487.000000;2.982121
2486.000000;2.914336
2485.000000;2.892145
2484.000000;2.886207
2483.000000;2.928997
2482.000000;3.016718
2481.000000;3.229947
2480.000000;3.761126
2479.000000;3.469049
2478.000000;3.267399
2477.000000;3.055780
2476.000000;2.885739
2475.000000;2.893213
2474.000000;3.115785
2473.000000;3.563917
2472.000000;3.341745
2471.000000;3.148548
2470.000000;3.086919
2469.000000;3.092833
2468.000000;3.174836
2467.000000;3.576939
2466.000000;3.647892
2465.000000;3.114502
2464.000000;3.037667
2463.000000;3.091547
2462.000000;3.193528
2461.000000;3.370780
2460.000000;3.543084
2459.000000;3.310165
2458.000000;3.063416
2457.000000;2.975165
2456.000000;2.985483
2455.000000;3.093003
2454.000000;3.272083
2453.000000;3.455013
2452.000000;3.502372
2451.000000;3.375552
2450.000000;3.174030
2449.000000;2.978290
2448.000000;2.841460
2447.000000;2.758700
2446.000000;2.729091
2445.000000;2.755998
2444.000000;2.908617
2443.000000;3.237175
2442.000000;2.992065
2441.000000;2.697103
2440.000000;2.636528
2439.000000;2.781087
2438.000000;3.148381
2437.000000;3.081088
2436.000000;2.876204
2435.000000;2.984159
2434.000000;3.461156
2433.000000;3.211498
2432.000000;2.810507
2431.000000;2.723960
2430.000000;2.742812
2429.000000;2.920876
2428.000000;3.499152
2427.000000;3.155714
2426.000000;2.868281
2425.000000;2.869547
2424.000000;2.943038
2423.000000;2.987028
2422.000000;2.948126
2421.000000;3.018647
2420.000000;3.425919
2419.000000;3.290391
2418.000000;2.969312
2417.000000;3.000477
2416.000000;3.010139
2415.000000;2.812551
2414.000000;2.677175
2413.000000;2.642226
2412.000000;2.724181
2411.000000;2.995106
2410.000000;3.392123
2409.000000;3.209018
2408.000000;2.949481
2407.000000;2.819189
2406.000000;2.790886
2405.000000;2.814215
2404.000000;2.895488
2403.000000;3.351018
2402.000000;3.285358
2401.000000;2.842816
2400.000000;2.718859
2399.000000;2.732520
2398.000000;2.801817
2397.000000;2.852443
2396.000000;2.961909
2395.000000;3.181239
2394.000000;3.348626
2393.000000;3.563694
2392.000000;3.667116
2391.000000;3.177161
2390.000000;2.913562
2389.000000;2.800841
2388.000000;2.810154
2387.000000;2.918972
2386.000000;3.019095
2385.000000;2.996377
2384.000000;2.944787
2383.000000;2.978348
2382.000000;3.117911
2381.000000;3.291770
2380.000000;3.363125
2379.000000;3.343321
2378.000000;3.409514
2377.000000;3.634305
2376.000000;3.974389
2375.000000;4.752674
2374.000000;4.295634
2373.000000;3.842523
2372.000000;3.673131
2371.000000;3.554472
2370.000000;3.489595
2369.000000;3.530018
2368.000000;3.709422
2367.000000;3.917535
2366.000000;3.949820
2365.000000;4.019473
2364.000000;4.013216
2363.000000;3.783566
2362.000000;3.659680
2361.000000;3.682551
2360.000000;4.019737
2359.000000;4.307412
2358.000000;3.773836
2357.000000;3.649288
2356.000000;3.696405
2355.000000;3.851079
2354.000000;4.061197
2353.000000;4.037076
2352.000000;3.906986
2351.000000;3.856442
2350.000000;3.946982
2349.000000;4.282008
2348.000000;4.779650
2347.000000;5.098471
2346.000000;5.083813
2345.000000;4.631075
2344.000000;4.132228
2343.000000;3.894400
2342.000000;3.994768
2341.000000;4.289738
2340.000000;4.247539
2339.000000;3.933196
2338.000000;3.721655
2337.000000;3.619235
2336.000000;3.600220
2335.000000;3.696005
2334.000000;3.944901
2333.000000;4.360161
2332.000000;4.213582
2331.000000;3.934151
2330.000000;3.764428
2329.000000;3.749577
2328.000000;3.704613
2327.000000;3.571245
2326.000000;3.484777
2325.000000;3.514097
2324.000000;3.622602
2323.000000;3.884513
2322.000000;4.159772
2321.000000;3.724959
2320.000000;3.489501
2319.000000;3.403902
2318.000000;3.366703
2317.000000;3.395859
2316.000000;3.447693
2315.000000;3.514453
2314.000000;3.543771
2313.000000;3.646030
2312.000000;3.840552
2311.000000;3.970477
2310.000000;3.922864
2309.000000;3.734062
2308.000000;3.661982
2307.000000;3.894812
2306.000000;4.397333
2305.000000;4.187524
2304.000000;4.090743
2303.000000;3.927266
2302.000000;3.970005
2301.000000;3.682356
2300.000000;3.302539
2299.000000;3.128861
2298.000000;3.062623
2297.000000;3.113289
2296.000000;3.283740
2295.000000;3.816827
2294.000000;3.674838
2293.000000;3.319211
2292.000000;3.204104
2291.000000;3.162221
2290.000000;3.143825
2289.000000;3.066235
2288.000000;3.029163
2287.000000;3.138734
2286.000000;3.122959
2285.000000;2.909118
2284.000000;2.828472
2283.000000;2.808305
2282.000000;2.807969
2281.000000;2.874914
2280.000000;2.996034
2279.000000;3.051519
2278.000000;3.085218
2277.000000;3.312098
2276.000000;3.675861
2275.000000;3.335515
2274.000000;3.068860
2273.000000;2.982943
2272.000000;3.011350
2271.000000;3.172725
2270.000000;3.171612
2269.000000;2.955186
2268.000000;2.845488
2267.000000;2.867172
2266.000000;3.009245
2265.000000;3.257718
2264.000000;3.240999
2263.000000;3.014286
2262.000000;2.877371
2261.000000;2.858781
2260.000000;2.982387
2259.000000;3.268418
2258.000000;3.571138
2257.000000;3.626075
2256.000000;3.436614
2255.000000;3.209873
2254.000000;3.101023
2253.000000;3.069947
2252.000000;3.085465
2251.000000;3.113151
2250.000000;3.105975
2249.000000;3.013539
2248.000000;2.887381
2247.000000;2.816662
2246.000000;2.817230
2245.000000;2.858185
2244.000000;2.903795
2243.000000;2.963683
2242.000000;3.064352
2241.000000;3.364696
2240.000000;3.502264
2239.000000;3.162783
2238.000000;3.017232
2237.000000;2.950767
2236.000000;2.893574
2235.000000;2.903199
2234.000000;3.101710
2233.000000;3.648816
2232.000000;3.279077
2231.000000;3.213623
2230.000000;3.101217
2229.000000;3.000209
2228.000000;2.992000
2227.000000;3.012121
2226.000000;3.011819
2225.000000;3.025642
2224.000000;3.106534
2223.000000;3.362805
2222.000000;3.490365
2221.000000;3.210992
2220.000000;3.131531
2219.000000;3.117160
2218.000000;3.073417
2217.000000;3.062489
2216.000000;3.142893
2215.000000;3.399980
2214.000000;3.549533
2213.000000;3.367977
2212.000000;3.283050
2211.000000;3.229911
2210.000000;3.147396
2209.000000;3.004544
2208.000000;2.893267
2207.000000;2.897130
2206.000000;3.058316
2205.000000;3.094062
2204.000000;2.859682
2203.000000;2.774057
2202.000000;2.813693
2201.000000;2.933963
2200.000000;3.027584
2199.000000;2.991427
2198.000000;2.866880
2197.000000;2.765827
2196.000000;2.762074
2195.000000;2.856857
2194.000000;2.983884
2193.000000;3.065394
2192.000000;3.238441
2191.000000;3.319034
2190.000000;3.167384
2189.000000;3.129980
2188.000000;3.086046
2187.000000;3.066055
2186.000000;3.149533
2185.000000;3.279375
2184.000000;3.215668
2183.000000;3.089256
2182.000000;3.090455
2181.000000;3.575606
2180.000000;3.106021
2179.000000;2.797922
2178.000000;2.742363
2177.000000;2.902185
2176.000000;3.484664
2175.000000;3.083322
2174.000000;2.810427
2173.000000;2.773809
2172.000000;2.889913
2171.000000;3.338191
2170.000000;3.380382
2169.000000;2.861241
2168.000000;2.751332
2167.000000;2.715001
2166.000000;2.713005
2165.000000;2.696230
2164.000000;2.733846
2163.000000;2.831722
2162.000000;2.968355
2161.000000;3.153940
2160.000000;3.468137
2159.000000;3.309010
2158.000000;3.118555
2157.000000;3.175561
2156.000000;3.668715
2155.000000;3.113570
2154.000000;2.903625
2153.000000;2.954791
2152.000000;3.196718
2151.000000;3.350692
2150.000000;3.377637
2149.000000;3.526397
2148.000000;3.279052
2147.000000;2.945119
2146.000000;2.883734
2145.000000;3.031414
2144.000000;3.097117
2143.000000;2.957112
2142.000000;2.968537
2141.000000;3.085566
2140.000000;3.271643
2139.000000;3.438469
2138.000000;3.441216
2137.000000;3.332184
2136.000000;3.283699
2135.000000;3.310454
2134.000000;3.407024
2133.000000;3.726749
2132.000000;3.422845
2131.000000;3.160554
2130.000000;3.142633
2129.000000;3.294873
2128.000000;4.064910
2127.000000;3.459743
2126.000000;3.334900
2125.000000;3.454415
2124.000000;3.242909
2123.000000;3.066126
2122.000000;3.034049
2121.000000;3.106072
2120.000000;3.321737
2119.000000;3.506755
2118.000000;3.273180
2117.000000;3.175907
2116.000000;3.180896
2115.000000;3.074480
2114.000000;2.917307
2113.000000;2.907248
2112.000000;3.023169
2111.000000;3.224928
2110.000000;3.200472
2109.000000;2.997589
2108.000000;2.965453
2107.000000;3.119696
2106.000000;3.248125
2105.000000;3.237415
2104.000000;4.111910
2103.000000;3.219766
2102.000000;2.909643
2101.000000;2.865872
2100.000000;2.943993
2099.000000;3.087032
2098.000000;3.185718
2097.000000;3.126725
2096.000000;3.020032
2095.000000;3.001053
2094.000000;3.066152
2093.000000;3.180509
2092.000000;3.346631
2091.000000;3.394795
2090.000000;3.139546
2089.000000;2.945295
2088.000000;2.882548
2087.000000;2.955649
2086.000000;3.281652
2085.000000;3.828868
2084.000000;3.551901
2083.000000;3.551244
2082.000000;3.309526
2081.000000;2.997988
2080.000000;2.835812
2079.000000;2.798378
2078.000000;2.865870
2077.000000;2.952862
2076.000000;3.058050
2075.000000;3.621092
2074.000000;3.187125
2073.000000;2.868955
2072.000000;2.720429
2071.000000;2.660464
2070.000000;2.700971
2069.000000;2.845389
2068.000000;3.101361
2067.000000;3.499268
2066.000000;3.448105
2065.000000;3.511501
2064.000000;3.706412
2063.000000;3.120117
2062.000000;3.021823
2061.000000;3.208803
2060.000000;3.662067
2059.000000;3.839379
2058.000000;3.318110
2057.000000;2.934667
2056.000000;2.786203
2055.000000;2.791213
2054.000000;3.003486
2053.000000;3.337287
2052.000000;3.041466
2051.000000;2.876084
2050.000000;2.871900
2049.000000;2.953047
2048.000000;3.164507
2047.000000;3.198311
2046.000000;3.165890
2045.000000;3.124442
2044.000000;3.073889
2043.000000;3.334518
2042.000000;3.745976
2041.000000;3.199214
2040.000000;3.318775
2039.000000;3.278209
2038.000000;2.998108
2037.000000;2.977236
2036.000000;3.056572
2035.000000;2.954765
2034.000000;2.852219
2033.000000;2.903839
2032.000000;2.999094
2031.000000;3.015013
2030.000000;3.025422
2029.000000;3.054310
2028.000000;3.067381
2027.000000;3.136731
2026.000000;3.319693
2025.000000;3.627880
2024.000000;4.007462
2023.000000;3.564050
2022.000000;3.345857
2021.000000;3.285693
2020.000000;3.279502
2019.000000;3.448284
2018.000000;3.888319
2017.000000;3.272419
2016.000000;3.078952
2015.000000;3.070464
2014.000000;3.155967
2013.000000;3.178389
2012.000000;3.119405
2011.000000;3.040864
2010.000000;2.989589
2009.000000;2.994398
2008.000000;2.995723
2007.000000;2.935031
2006.000000;2.875733
2005.000000;2.860576
2004.000000;2.882174
2003.000000;3.007479
2002.000000;3.131602
2001.000000;2.937741
2000.000000;2.827240
1999.000000;2.843250
1998.000000;2.805022
1997.000000;2.752812
1996.000000;2.755438
1995.000000;2.811245
1994.000000;2.927944
1993.000000;3.010181
1992.000000;2.884049
1991.000000;2.811431
1990.000000;2.880749
1989.000000;3.019692
1988.000000;3.063471
1987.000000;3.002544
1986.000000;2.996610
1985.000000;3.156505
1984.000000;3.333802
1983.000000;3.025368
1982.000000;2.784635
1981.000000;2.674791
1980.000000;2.662128
1979.000000;2.697914
1978.000000;2.721419
1977.000000;2.778344
1976.000000;2.967026
1975.000000;3.586011
1974.000000;3.896716
1973.000000;3.403641
1972.000000;3.127988
1971.000000;2.915907
1970.000000;2.789647
1969.000000;2.720254
1968.000000;2.734726
1967.000000;2.803249
1966.000000;2.727837
1965.000000;2.629532
1964.000000;2.681818
1963.000000;2.858650
1962.000000;2.945426
1961.000000;2.877733
1960.000000;2.818148
1959.000000;2.818202
1958.000000;2.896223
1957.000000;2.932864
1956.000000;2.842979
1955.000000;2.788161
1954.000000;2.822054
1953.000000;2.932761
1952.000000;3.062820
1951.000000;3.085507
1950.000000;2.932842
1949.000000;2.765622
1948.000000;2.687915
1947.000000;2.678023
1946.000000;2.677135
1945.000000;2.676992
1944.000000;2.693435
1943.000000;2.701602
1942.000000;2.717485
1941.000000;2.801331
1940.000000;2.950852
1939.000000;3.064131
1938.000000;3.120594
1937.000000;2.990125
1936.000000;2.829869
1935.000000;2.772941
1934.000000;2.812781
1933.000000;2.946552
1932.000000;3.083014
1931.000000;3.229013
1930.000000;3.616349
1929.000000;3.291063
1928.000000;3.000077
1927.000000;2.969184
1926.000000;3.189401
1925.000000;3.520219
1924.000000;2.993169
1923.000000;2.721760
1922.000000;2.665891
1921.000000;2.774368
1920.000000;3.196637
1919.000000;3.305486
1918.000000;3.057795
1917.000000;3.053703
1916.000000;3.306270
1915.000000;3.391869
1914.000000;2.946239
1913.000000;2.793127
1912.000000;2.863168
1911.000000;3.133205
1910.000000;3.092406
1909.000000;2.840324
1908.000000;2.768074
1907.000000;2.815329
1906.000000;2.936827
1905.000000;3.111872
1904.000000;3.316174
1903.000000;3.275331
1902.000000;3.134356
1901.000000;3.142357
1900.000000;3.196310
1899.000000;3.210381
1898.000000;3.225529
1897.000000;3.207683
1896.000000;3.196363
1895.000000;3.245139
1894.000000;3.272655
1893.000000;3.330805
1892.000000;3.167627
1891.000000;2.889087
1890.000000;2.757724
1889.000000;2.737814
1888.000000;2.751830
1887.000000;2.765787
1886.000000;2.794421
1885.000000;2.826251
1884.000000;2.863484
1883.000000;3.039391
1882.000000;3.191782
1881.000000;2.888897
1880.000000;2.807438
1879.000000;2.898598
1878.000000;2.991942
1877.000000;3.045970
1876.000000;3.108573
1875.000000;3.119490
1874.000000;3.189174
1873.000000;3.217113
1872.000000;3.050642
1871.000000;2.902683
1870.000000;2.785428
1869.000000;2.709732
1868.000000;2.706145
1867.000000;2.800025
1866.000000;3.009095
1865.000000;3.193409
1864.000000;3.198167
1863.000000;3.197269
1862.000000;3.250658
1861.000000;3.449126
1860.000000;3.644045
1859.000000;3.325941
1858.000000;3.244755
1857.000000;3.304465
1856.000000;3.235366
1855.000000;3.115588
1854.000000;3.211920
1853.000000;3.451739
1852.000000;2.993472
1851.000000;2.779350
1850.000000;2.762269
1849.000000;2.885638
1848.000000;3.119127
1847.000000;3.027677
1846.000000;2.809810
1845.000000;2.806307
1844.000000;2.989374
1843.000000;3.342064
1842.000000;3.807360
1841.000000;3.664219
1840.000000;3.402731
1839.000000;3.205679
1838.000000;2.974758
1837.000000;2.939253
1836.000000;2.932111
1835.000000;2.783146
1834.000000;2.715296
1833.000000;2.900022
1832.000000;3.802403
1831.000000;3.133630
1830.000000;2.892987
1829.000000;2.983588
1828.000000;3.392917
1827.000000;3.165049
1826.000000;2.829099
1825.000000;2.815089
1824.000000;3.155574
1823.000000;3.555547
1822.000000;2.887179
1821.000000;2.900141
1820.000000;3.138912
1819.000000;2.883978
1818.000000;2.665041
1817.000000;2.658073
1816.000000;2.765906
1815.000000;2.969982
1814.000000;3.431900
1813.000000;4.081924
1812.000000;3.700757
1811.000000;3.048998
1810.000000;2.745684
1809.000000;2.684253
1808.000000;2.764603
1807.000000;2.880902
1806.000000;2.889271
1805.000000;2.845225
1804.000000;2.837673
1803.000000;2.857319
1802.000000;2.851197
1801.000000;2.833225
1800.000000;2.891273
1799.000000;2.945427
1798.000000;2.946333
1797.000000;3.063466
1796.000000;3.081773
1795.000000;2.898011
1794.000000;2.870943
1793.000000;3.066453
1792.000000;3.289695
1791.000000;3.184814
1790.000000;3.148279
1789.000000;3.185354
1788.000000;3.058495
1787.000000;2.876423
1786.000000;2.832234
1785.000000;2.954286
1784.000000;3.098675
1783.000000;3.132064
1782.000000;3.297383
1781.000000;3.687291
1780.000000;3.322142
1779.000000;3.035105
1778.000000;3.047330
1777.000000;3.342953
1776.000000;3.295429
1775.000000;3.005994
1774.000000;2.832009
1773.000000;2.717634
1772.000000;2.725772
1771.000000;2.854165
1770.000000;3.054655
1769.000000;3.154867
1768.000000;3.201871
1767.000000;3.304809
1766.000000;3.236641
1765.000000;3.118704
1764.000000;2.979298
1763.000000;2.830632
1762.000000;2.750358
1761.000000;2.738531
1760.000000;2.784855
1759.000000;2.872980
1758.000000;2.933430
1757.000000;2.923563
1756.000000;2.933826
1755.000000;3.179716
1754.000000;3.413557
1753.000000;2.994857
1752.000000;2.876177
1751.000000;2.978436
1750.000000;3.313983
1749.000000;3.612235
1748.000000;2.969736
1747.000000;2.751364
1746.000000;2.795865
1745.000000;2.984054
1744.000000;2.943325
1743.000000;2.752343
1742.000000;2.700988
1741.000000;2.753638
1740.000000;2.929254
1739.000000;3.221938
1738.000000;3.155031
1737.000000;2.836590
1736.000000;2.663996
1735.000000;2.612359
1734.000000;2.682891
1733.000000;2.847070
1732.000000;3.113384
1731.000000;3.703176
1730.000000;3.235412
1729.000000;2.962913
1728.000000;2.966953
1727.000000;2.796747
1726.000000;2.658311
1725.000000;2.606343
1724.000000;2.622390
1723.000000;2.692158
1722.000000;2.956610
1721.000000;3.554282
1720.000000;3.171765
1719.000000;3.096702
1718.000000;3.249481
1717.000000;3.475355
1716.000000;3.429286
1715.000000;3.052233
1714.000000;2.989186
1713.000000;3.156246
1712.000000;3.268809
1711.000000;3.230792
1710.000000;3.305174
1709.000000;3.165068
1708.000000;2.914818
1707.000000;2.897571
1706.000000;3.332259
1705.000000;3.385657
1704.000000;2.809035
1703.000000;2.565228
1702.000000;2.471027
1701.000000;2.555755
1700.000000;2.828745
1699.000000;3.155863
1698.000000;3.556698
1697.000000;3.338272
1696.000000;2.901834
1695.000000;2.730366
1694.000000;2.687844
1693.000000;2.665122
1692.000000;2.607730
1691.000000;2.554057
1690.000000;2.540312
1689.000000;2.574017
1688.000000;2.665898
1687.000000;2.777741
1686.000000;2.757033
1685.000000;2.659891
1684.000000;2.670835
1683.000000;2.898764
1682.000000;3.088571
1681.000000;2.822762
1680.000000;2.656748
1679.000000;2.629466
1678.000000;2.709041
1677.000000;2.828760
1676.000000;2.879644
1675.000000;2.871599
1674.000000;2.834928
1673.000000;2.784703
1672.000000;2.790929
1671.000000;2.918224
1670.000000;2.947221
1669.000000;2.992459
1668.000000;3.157355
1667.000000;3.009988
1666.000000;2.866642
1665.000000;2.911380
1664.000000;3.228612
1663.000000;3.140855
1662.000000;2.758427
1661.000000;2.609365
1660.000000;2.556046
1659.000000;2.587408
1658.000000;2.671517
1657.000000;2.806616
1656.000000;3.111176
1655.000000;3.150379
1654.000000;2.921946
1653.000000;2.881655
1652.000000;2.865485
1651.000000;2.872639
1650.000000;2.874117
1649.000000;2.906265
1648.000000;3.102783
1647.000000;3.104843
1646.000000;2.835584
1645.000000;2.712566
1644.000000;2.739490
1643.000000;2.842847
1642.000000;2.995555
1641.000000;3.150898
1640.000000;3.273176
1639.000000;3.421655
1638.000000;3.495803
1637.000000;3.209908
1636.000000;3.033361
1635.000000;2.917700
1634.000000;2.806067
1633.000000;2.789245
1632.000000;2.851290
1631.000000;3.092070
1630.000000;3.104942
1629.000000;2.918589
1628.000000;2.956100
1627.000000;3.118405
1626.000000;3.737188
1625.000000;3.662061
1624.000000;3.226564
1623.000000;3.076032
1622.000000;2.853560
1621.000000;2.718921
1620.000000;2.690687
1619.000000;2.772590
1618.000000;2.940616
1617.000000;3.081737
1616.000000;2.986008
1615.000000;2.790278
1614.000000;2.726401
1613.000000;2.771057
1612.000000;2.948574
1611.000000;3.175031
1610.000000;2.956792
1609.000000;2.785305
1608.000000;2.767801
1607.000000;2.819025
1606.000000;2.892750
1605.000000;3.034449
1604.000000;3.203671
1603.000000;2.937633
1602.000000;2.698916
1601.000000;2.641753
1600.000000;2.732677
1599.000000;2.912957
1598.000000;2.880472
1597.000000;2.725323
1596.000000;2.657004
1595.000000;2.664415
1594.000000;2.732541
1593.000000;2.837063
1592.000000;2.962365
1591.000000;3.060120
1590.000000;2.972976
1589.000000;2.733648
1588.000000;2.559997
1587.000000;2.525525
1586.000000;2.654340
1585.000000;3.026569
1584.000000;3.294460
1583.000000;3.320250
1582.000000;3.428253
1581.000000;2.997173
1580.000000;2.817756
1579.000000;2.793993
1578.000000;2.884929
1577.000000;3.054823
1576.000000;3.015864
1575.000000;2.924815
1574.000000;2.862301
1573.000000;2.773596
1572.000000;2.693264
1571.000000;2.649653
1570.000000;2.647818
1569.000000;2.696811
1568.000000;2.799185
1567.000000;2.971324
1566.000000;3.156546
1565.000000;3.111349
1564.000000;2.906647
1563.000000;2.750221
1562.000000;2.688811
1561.000000;2.757380
1560.000000;3.047038
1559.000000;3.468617
1558.000000;3.219150
1557.000000;3.064508
1556.000000;3.086453
1555.000000;2.972772
1554.000000;2.725460
1553.000000;2.599578
1552.000000;2.645387
1551.000000;2.733008
1550.000000;2.763011
1549.000000;2.758403
1548.000000;2.647173
1547.000000;2.605303
1546.000000;2.737465
1545.000000;2.968049
1544.000000;3.184201
1543.000000;3.190257
1542.000000;3.040666
1541.000000;2.952256
1540.000000;2.941793
1539.000000;2.931514
1538.000000;2.842499
1537.000000;2.812597
1536.000000;2.757176
1535.000000;2.746953
1534.000000;2.945312
1533.000000;2.818917
1532.000000;2.585183
1531.000000;2.545722
1530.000000;2.816676
1529.000000;2.962064
1528.000000;2.531302
1527.000000;2.451260
1526.000000;2.516101
1525.000000;2.917003
1524.000000;3.411285
1523.000000;2.750531
1522.000000;2.690228
1521.000000;2.848692
1520.000000;2.969303
1519.000000;2.738233
1518.000000;2.630592
1517.000000;2.753359
1516.000000;3.251442
1515.000000;3.196838
1514.000000;2.825925
1513.000000;2.825202
1512.000000;2.912560
1511.000000;2.989479
1510.000000;2.781970
1509.000000;2.554845
1508.000000;2.434326
1507.000000;2.458991
1506.000000;2.626664
1505.000000;2.690722
1504.000000;2.782916
1503.000000;3.036041
1502.000000;2.932901
1501.000000;2.728987
1500.000000;2.764980
1499.000000;2.916208
1498.000000;2.974096
1497.000000;3.010510
1496.000000;3.202038
1495.000000;3.024837
1494.000000;2.801701
1493.000000;3.132225
1492.000000;3.316719
1491.000000;2.903136
1490.000000;2.920241
1489.000000;2.959946
1488.000000;2.672111
1487.000000;2.523660
1486.000000;2.614957
1485.000000;2.889166
1484.000000;3.345284
1483.000000;3.539983
1482.000000;3.361417
1481.000000;3.209796
1480.000000;3.026631
1479.000000;2.958498
1478.000000;3.003824
1477.000000;3.156436
1476.000000;3.248504
1475.000000;2.976262
1474.000000;2.734479
1473.000000;2.627710
1472.000000;2.616002
1471.000000;2.664944
1470.000000;2.732944
1469.000000;2.755743
1468.000000;2.738378
1467.000000;2.741383
1466.000000;2.810178
1465.000000;2.868580
1464.000000;2.904753
1463.000000;3.131543
1462.000000;3.109684
1461.000000;2.772494
1460.000000;2.626260
1459.000000;2.605966
1458.000000;2.665178
1457.000000;2.818989
1456.000000;3.058294
1455.000000;3.092578
1454.000000;2.925279
1453.000000;2.839079
1452.000000;2.857439
1451.000000;2.756973
1450.000000;2.602326
1449.000000;2.575188
1448.000000;2.671649
1447.000000;2.877464
1446.000000;3.348517
1445.000000;3.589341
1444.000000;3.087277
1443.000000;3.091983
1442.000000;3.200268
1441.000000;2.995787
1440.000000;2.892193
1439.000000;2.822783
1438.000000;2.642861
1437.000000;2.554933
1436.000000;2.559616
1435.000000;2.559438
1434.000000;2.554668
1433.000000;2.583099
1432.000000;2.637374
1431.000000;2.706486
1430.000000;2.785964
1429.000000;2.748738
1428.000000;2.595569
1427.000000;2.488893
1426.000000;2.496999
1425.000000;2.619657
1424.000000;2.883525
1423.000000;3.312629
1422.000000;3.301753
1421.000000;3.110407
1420.000000;3.037781
1419.000000;3.069697
1418.000000;3.203689
1417.000000;3.208720
1416.000000;3.015751
1415.000000;2.884908
1414.000000;2.949240
1413.000000;3.358021
1412.000000;3.564448
1411.000000;3.134233
1410.000000;2.971295
1409.000000;2.857621
1408.000000;2.816227
1407.000000;2.796482
1406.000000;2.797725
1405.000000;2.820166
1404.000000;2.978962
1403.000000;3.744109
1402.000000;3.123964
1401.000000;2.776485
1400.000000;2.680051
1399.000000;2.638596
1398.000000;2.617126
1397.000000;2.547353
1396.000000;2.498144
1395.000000;2.486428
1394.000000;2.497380
1393.000000;2.523464
1392.000000;2.525579
1391.000000;2.522672
1390.000000;2.623155
1389.000000;3.104047
1388.000000;3.541791
1387.000000;3.043047
1386.000000;3.043206
1385.000000;2.988588
1384.000000;3.075016
1383.000000;3.184840
1382.000000;3.178214
1381.000000;3.153118
1380.000000;2.964687
1379.000000;2.780488
1378.000000;2.716713
1377.000000;2.805671
1376.000000;3.138287
1375.000000;3.668169
1374.000000;3.111103
1373.000000;2.895426
1372.000000;2.844878
1371.000000;2.819086
1370.000000;2.770731
1369.000000;2.680998
1368.000000;2.597267
1367.000000;2.514019
1366.000000;2.451458
1365.000000;2.423157
1364.000000;2.428504
1363.000000;2.471871
1362.000000;2.591250
1361.000000;3.029917
1360.000000;3.122089
1359.000000;2.778298
1358.000000;2.854082
1357.000000;3.195811
1356.000000;3.256808
1355.000000;3.159975
1354.000000;3.601974
1353.000000;3.023782
1352.000000;2.694839
1351.000000;2.627485
1350.000000;2.641917
1349.000000;2.702298
1348.000000;2.729200
1347.000000;2.720244
1346.000000;2.725318
1345.000000;2.782963
1344.000000;2.886368
1343.000000;2.870789
1342.000000;2.705184
1341.000000;2.614328
1340.000000;2.652209
1339.000000;2.866936
1338.000000;3.382586
1337.000000;3.148949
1336.000000;2.755436
1335.000000;2.661800
1334.000000;2.780943
1333.000000;2.964996
1332.000000;2.835992
1331.000000;2.763758
1330.000000;2.787615
1329.000000;2.686285
1328.000000;2.605581
1327.000000;2.642164
1326.000000;2.772046
1325.000000;2.928094
1324.000000;3.031630
1323.000000;3.047978
1322.000000;2.980469
1321.000000;2.911860
1320.000000;2.971312
1319.000000;3.163782
1318.000000;2.991953
1317.000000;2.801449
1316.000000;2.747475
1315.000000;2.745466
1314.000000;2.876164
1313.000000;3.043793
1312.000000;2.759142
1311.000000;2.616477
1310.000000;2.640503
1309.000000;2.611793
1308.000000;2.511253
1307.000000;2.479141
1306.000000;2.547699
1305.000000;2.696246
1304.000000;2.793228
1303.000000;2.727478
1302.000000;2.681224
1301.000000;2.812972
1300.000000;2.908129
1299.000000;2.759734
1298.000000;2.842164
1297.000000;3.045414
1296.000000;2.799055
1295.000000;2.735725
1294.000000;2.816693
1293.000000;2.784819
1292.000000;2.721568
1291.000000;2.712648
1290.000000;2.774142
1289.000000;2.980853
1288.000000;3.098408
1287.000000;2.874959
1286.000000;2.765881
1285.000000;2.629061
1284.000000;2.534061
1283.000000;2.573403
1282.000000;2.749288
1281.000000;2.950359
1280.000000;2.879904
1279.000000;2.688536
1278.000000;2.586489
1277.000000;2.562129
1276.000000;2.595217
1275.000000;2.685234
1274.000000;2.859232
1273.000000;2.961371
1272.000000;2.763934
1271.000000;2.648474
1270.000000;2.662969
1269.000000;2.760839
1268.000000;3.002171
1267.000000;3.055121
1266.000000;2.880368
1265.000000;2.820388
1264.000000;2.933207
1263.000000;3.442569
1262.000000;3.009565
1261.000000;2.678561
1260.000000;2.579581
1259.000000;2.575003
1258.000000;2.622936
1257.000000;2.755611
1256.000000;2.888164
1255.000000;2.744217
1254.000000;2.777884
1253.000000;2.859555
1252.000000;2.512175
1251.000000;2.289012
1250.000000;2.226017
1249.000000;2.279280
1248.000000;2.523059
1247.000000;2.722869
1246.000000;2.523172
1245.000000;2.489159
1244.000000;2.694803
1243.000000;3.154159
1242.000000;3.056915
1241.000000;2.773057
1240.000000;2.613967
1239.000000;2.552021
1238.000000;2.610997
1237.000000;2.763739
1236.000000;2.835333
1235.000000;2.974753
1234.000000;3.460745
1233.000000;2.989058
1232.000000;2.696097
1231.000000;2.598851
1230.000000;2.639886
1229.000000;2.993775
1228.000000;3.550973
1227.000000;3.005250
1226.000000;3.009931
1225.000000;2.954995
1224.000000;2.793256
1223.000000;2.751330
1222.000000;2.944123
1221.000000;3.042330
1220.000000;2.768043
1219.000000;2.555031
1218.000000;2.447328
1217.000000;2.484192
1216.000000;2.723272
1215.000000;3.026480
1214.000000;2.813561
1213.000000;2.626870
1212.000000;2.514062
1211.000000;2.539075
1210.000000;2.888229
1209.000000;2.934461
1208.000000;2.542601
1207.000000;2.526950
1206.000000;2.632067
1205.000000;2.645321
1204.000000;2.761559
1203.000000;3.031204
1202.000000;2.772566
1201.000000;2.650496
1200.000000;2.668762
