Criado como novo conjunto de dados;"e0108.spp","-4252123.3 Secs"
cm-1;Abs
10000.000000;1.029812
9999.000000;1.029659
9998.000000;1.030093
9997.000000;1.030811
9996.000000;1.031592
9995.000000;1.032103
9994.000000;1.031581
9993.000000;1.029862
9992.000000;1.027710
9991.000000;1.026306
9990.000000;1.026141
9989.000000;1.026864
9988.000000;1.027812
9987.000000;1.028360
9986.000000;1.027866
9985.000000;1.026003
9984.000000;1.023445
9983.000000;1.021740
9982.000000;1.022008
9981.000000;1.023878
9980.000000;1.025928
9979.000000;1.027037
9978.000000;1.027011
9977.000000;1.026128
9976.000000;1.024728
9975.000000;1.023395
9974.000000;1.022859
9973.000000;1.023277
9972.000000;1.023880
9971.000000;1.023725
9970.000000;1.022697
9969.000000;1.021497
9968.000000;1.020780
9967.000000;1.020612
9966.000000;1.020660
9965.000000;1.020536
9964.000000;1.019937
9963.000000;1.018806
9962.000000;1.017509
9961.000000;1.016646
9960.000000;1.016521
9959.000000;1.016864
9958.000000;1.017109
9957.000000;1.016838
9956.000000;1.015978
9955.000000;1.014795
9954.000000;1.013797
9953.000000;1.013502
9952.000000;1.014046
9951.000000;1.014955
9950.000000;1.015407
9949.000000;1.014876
9948.000000;1.013559
9947.000000;1.012107
9946.000000;1.010908
9945.000000;1.009732
9944.000000;1.008264
9943.000000;1.006844
9942.000000;1.006273
9941.000000;1.006711
9940.000000;1.007140
9939.000000;1.006378
9938.000000;1.004574
9937.000000;1.003249
9936.000000;1.003673
9935.000000;1.005503
9934.000000;1.007166
9933.000000;1.007415
9932.000000;1.006397
9931.000000;1.005324
9930.000000;1.005230
9929.000000;1.005996
9928.000000;1.006563
9927.000000;1.006142
9926.000000;1.005081
9925.000000;1.004323
9924.000000;1.004206
9923.000000;1.004233
9922.000000;1.004015
9921.000000;1.003883
9920.000000;1.004276
9919.000000;1.004967
9918.000000;1.005372
9917.000000;1.005361
9916.000000;1.005244
9915.000000;1.005048
9914.000000;1.004351
9913.000000;1.002929
9912.000000;1.001218
9911.000000;0.999905
9910.000000;0.999224
9909.000000;0.998817
9908.000000;0.998210
9907.000000;0.997399
9906.000000;0.996946
9905.000000;0.997419
9904.000000;0.998694
9903.000000;0.999890
9902.000000;1.000131
9901.000000;0.999268
9900.000000;0.997759
9899.000000;0.996109
9898.000000;0.994655
9897.000000;0.993645
9896.000000;0.993185
9895.000000;0.993085
9894.000000;0.993049
9893.000000;0.993028
9892.000000;0.993144
9891.000000;0.993319
9890.000000;0.993275
9889.000000;0.992929
9888.000000;0.992447
9887.000000;0.991863
9886.000000;0.991028
9885.000000;0.990049
9884.000000;0.989471
9883.000000;0.989778
9882.000000;0.990907
9881.000000;0.992332
9880.000000;0.993416
9879.000000;0.993628
9878.000000;0.992802
9877.000000;0.991444
9876.000000;0.990463
9875.000000;0.990255
9874.000000;0.990219
9873.000000;0.989555
9872.000000;0.988383
9871.000000;0.987604
9870.000000;0.987640
9869.000000;0.987785
9868.000000;0.987074
9867.000000;0.985506
9866.000000;0.984042
9865.000000;0.983450
9864.000000;0.983508
9863.000000;0.983454
9862.000000;0.983017
9861.000000;0.982693
9860.000000;0.982989
9859.000000;0.983711
9858.000000;0.984239
9857.000000;0.984337
9856.000000;0.984314
9855.000000;0.984380
9854.000000;0.984246
9853.000000;0.983614
9852.000000;0.982797
9851.000000;0.982468
9850.000000;0.982825
9849.000000;0.983306
9848.000000;0.983204
9847.000000;0.982338
9846.000000;0.981011
9845.000000;0.979526
9844.000000;0.978018
9843.000000;0.976675
9842.000000;0.975844
9841.000000;0.975801
9840.000000;0.976429
9839.000000;0.977214
9838.000000;0.977572
9837.000000;0.977197
9836.000000;0.976176
9835.000000;0.974850
9834.000000;0.973605
9833.000000;0.972693
9832.000000;0.972185
9831.000000;0.972057
9830.000000;0.972282
9829.000000;0.972741
9828.000000;0.973102
9827.000000;0.973038
9826.000000;0.972692
9825.000000;0.972680
9824.000000;0.973378
9823.000000;0.974311
9822.000000;0.974505
9821.000000;0.973464
9820.000000;0.971595
9819.000000;0.969744
9818.000000;0.968572
9817.000000;0.968312
9816.000000;0.968695
9815.000000;0.968999
9814.000000;0.968604
9813.000000;0.967687
9812.000000;0.967041
9811.000000;0.966993
9810.000000;0.966897
9809.000000;0.966045
9808.000000;0.964820
9807.000000;0.964390
9806.000000;0.965309
9805.000000;0.966858
9804.000000;0.967812
9803.000000;0.967536
9802.000000;0.966274
9801.000000;0.964741
9800.000000;0.963637
9799.000000;0.963266
9798.000000;0.963324
9797.000000;0.963207
9796.000000;0.962700
9795.000000;0.962226
9794.000000;0.962259
9793.000000;0.962632
9792.000000;0.962658
9791.000000;0.961929
9790.000000;0.960780
9789.000000;0.959895
9788.000000;0.959612
9787.000000;0.959694
9786.000000;0.959684
9785.000000;0.959378
9784.000000;0.958941
9783.000000;0.958621
9782.000000;0.958466
9781.000000;0.958368
9780.000000;0.958286
9779.000000;0.958244
9778.000000;0.958126
9777.000000;0.957683
9776.000000;0.956887
9775.000000;0.956151
9774.000000;0.956011
9773.000000;0.956599
9772.000000;0.957551
9771.000000;0.958317
9770.000000;0.958412
9769.000000;0.957526
9768.000000;0.955742
9767.000000;0.953746
9766.000000;0.952480
9765.000000;0.952351
9764.000000;0.952934
9763.000000;0.953554
9762.000000;0.953962
9761.000000;0.954214
9760.000000;0.954159
9759.000000;0.953492
9758.000000;0.952287
9757.000000;0.951052
9756.000000;0.950190
9755.000000;0.949756
9754.000000;0.949807
9753.000000;0.950523
9752.000000;0.951691
9751.000000;0.952482
9750.000000;0.952229
9749.000000;0.951268
9748.000000;0.950509
9747.000000;0.950247
9746.000000;0.949882
9745.000000;0.948885
9744.000000;0.947558
9743.000000;0.946637
9742.000000;0.946457
9741.000000;0.946743
9740.000000;0.946991
9739.000000;0.946797
9738.000000;0.946027
9737.000000;0.944970
9736.000000;0.944252
9735.000000;0.944320
9734.000000;0.945002
9733.000000;0.945705
9732.000000;0.946046
9731.000000;0.946135
9730.000000;0.946278
9729.000000;0.946549
9728.000000;0.946679
9727.000000;0.946293
9726.000000;0.945268
9725.000000;0.943871
9724.000000;0.942498
9723.000000;0.941319
9722.000000;0.940292
9721.000000;0.939499
9720.000000;0.939223
9719.000000;0.939510
9718.000000;0.939871
9717.000000;0.939723
9716.000000;0.939035
9715.000000;0.938282
9714.000000;0.937803
9713.000000;0.937516
9712.000000;0.937318
9711.000000;0.937419
9710.000000;0.938097
9709.000000;0.939276
9708.000000;0.940472
9707.000000;0.941086
9706.000000;0.940713
9705.000000;0.939347
9704.000000;0.937418
9703.000000;0.935572
9702.000000;0.934285
9701.000000;0.933696
9700.000000;0.933747
9699.000000;0.934311
9698.000000;0.935100
9697.000000;0.935654
9696.000000;0.935643
9695.000000;0.935176
9694.000000;0.934637
9693.000000;0.934254
9692.000000;0.933915
9691.000000;0.933384
9690.000000;0.932558
9689.000000;0.931540
9688.000000;0.930576
9687.000000;0.929907
9686.000000;0.929551
9685.000000;0.929268
9684.000000;0.928884
9683.000000;0.928639
9682.000000;0.928962
9681.000000;0.929820
9680.000000;0.930564
9679.000000;0.930637
9678.000000;0.930236
9677.000000;0.929981
9676.000000;0.930092
9675.000000;0.930226
9674.000000;0.930068
9673.000000;0.929700
9672.000000;0.929286
9671.000000;0.928735
9670.000000;0.927866
9669.000000;0.926674
9668.000000;0.925287
9667.000000;0.923909
9666.000000;0.922992
9665.000000;0.923126
9664.000000;0.924356
9663.000000;0.925772
9662.000000;0.926230
9661.000000;0.925537
9660.000000;0.924536
9659.000000;0.923939
9658.000000;0.923524
9657.000000;0.922722
9656.000000;0.921662
9655.000000;0.921156
9654.000000;0.921701
9653.000000;0.922844
9652.000000;0.923690
9651.000000;0.923835
9650.000000;0.923615
9649.000000;0.923473
9648.000000;0.923360
9647.000000;0.922864
9646.000000;0.921795
9645.000000;0.920424
9644.000000;0.919148
9643.000000;0.918161
9642.000000;0.917542
9641.000000;0.917457
9640.000000;0.917992
9639.000000;0.918859
9638.000000;0.919505
9637.000000;0.919570
9636.000000;0.919094
9635.000000;0.918285
9634.000000;0.917291
9633.000000;0.916282
9632.000000;0.915521
9631.000000;0.915186
9630.000000;0.915178
9629.000000;0.915209
9628.000000;0.915062
9627.000000;0.914757
9626.000000;0.914556
9625.000000;0.914757
9624.000000;0.915335
9623.000000;0.915758
9622.000000;0.915394
9621.000000;0.914192
9620.000000;0.912777
9619.000000;0.911804
9618.000000;0.911421
9617.000000;0.911440
9616.000000;0.911721
9615.000000;0.912179
9614.000000;0.912607
9613.000000;0.912771
9612.000000;0.912574
9611.000000;0.911968
9610.000000;0.910886
9609.000000;0.909521
9608.000000;0.908468
9607.000000;0.908219
9606.000000;0.908542
9605.000000;0.908687
9604.000000;0.908245
9603.000000;0.907507
9602.000000;0.906946
9601.000000;0.906656
9600.000000;0.906438
9599.000000;0.906156
9598.000000;0.905845
9597.000000;0.905605
9596.000000;0.905536
9595.000000;0.905700
9594.000000;0.906032
9593.000000;0.906365
9592.000000;0.906584
9591.000000;0.906659
9590.000000;0.906516
9589.000000;0.906022
9588.000000;0.905186
9587.000000;0.904250
9586.000000;0.903479
9585.000000;0.902977
9584.000000;0.902755
9583.000000;0.902828
9582.000000;0.903098
9581.000000;0.903281
9580.000000;0.903101
9579.000000;0.902551
9578.000000;0.901868
9577.000000;0.901278
9576.000000;0.900814
9575.000000;0.900377
9574.000000;0.899915
9573.000000;0.899564
9572.000000;0.899575
9571.000000;0.900001
9570.000000;0.900450
9569.000000;0.900303
9568.000000;0.899310
9567.000000;0.897873
9566.000000;0.896697
9565.000000;0.896235
9564.000000;0.896511
9563.000000;0.897296
9562.000000;0.898235
9561.000000;0.898878
9560.000000;0.898789
9559.000000;0.897780
9558.000000;0.896060
9557.000000;0.894221
9556.000000;0.892987
9555.000000;0.892773
9554.000000;0.893354
9553.000000;0.894113
9552.000000;0.894723
9551.000000;0.895432
9550.000000;0.896483
9549.000000;0.897462
9548.000000;0.897580
9547.000000;0.896601
9546.000000;0.895143
9545.000000;0.893933
9544.000000;0.893073
9543.000000;0.892201
9542.000000;0.891171
9541.000000;0.890295
9540.000000;0.889951
9539.000000;0.890220
9538.000000;0.890935
9537.000000;0.891868
9536.000000;0.892728
9535.000000;0.893129
9534.000000;0.892792
9533.000000;0.891856
9532.000000;0.890847
9531.000000;0.890263
9530.000000;0.890177
9529.000000;0.890285
9528.000000;0.890235
9527.000000;0.889833
9526.000000;0.889068
9525.000000;0.888183
9524.000000;0.887646
9523.000000;0.887715
9522.000000;0.887977
9521.000000;0.887680
9520.000000;0.886714
9519.000000;0.885940
9518.000000;0.886199
9517.000000;0.887207
9516.000000;0.887886
9515.000000;0.887676
9514.000000;0.887023
9513.000000;0.886551
9512.000000;0.886268
9511.000000;0.885826
9510.000000;0.885173
9509.000000;0.884618
9508.000000;0.884419
9507.000000;0.884575
9506.000000;0.884856
9505.000000;0.884904
9504.000000;0.884469
9503.000000;0.883725
9502.000000;0.883113
9501.000000;0.882707
9500.000000;0.882032
9499.000000;0.880842
9498.000000;0.879785
9497.000000;0.879798
9496.000000;0.880919
9495.000000;0.882177
9494.000000;0.882707
9493.000000;0.882580
9492.000000;0.882373
9491.000000;0.882349
9490.000000;0.882341
9489.000000;0.882144
9488.000000;0.881680
9487.000000;0.880921
9486.000000;0.879958
9485.000000;0.879117
9484.000000;0.878770
9483.000000;0.879007
9482.000000;0.879539
9481.000000;0.879879
9480.000000;0.879574
9479.000000;0.878461
9478.000000;0.876906
9477.000000;0.875640
9476.000000;0.875146
9475.000000;0.875192
9474.000000;0.875129
9473.000000;0.874596
9472.000000;0.873782
9471.000000;0.873066
9470.000000;0.872655
9469.000000;0.872603
9468.000000;0.872898
9467.000000;0.873413
9466.000000;0.873942
9465.000000;0.874411
9464.000000;0.874871
9463.000000;0.875162
9462.000000;0.874850
9461.000000;0.873744
9460.000000;0.872390
9459.000000;0.871701
9458.000000;0.872075
9457.000000;0.873066
9456.000000;0.873966
9455.000000;0.874447
9454.000000;0.874538
9453.000000;0.874298
9452.000000;0.873842
9451.000000;0.873512
9450.000000;0.873630
9449.000000;0.874004
9448.000000;0.874016
9447.000000;0.873335
9446.000000;0.872334
9445.000000;0.871584
9444.000000;0.871157
9443.000000;0.870652
9442.000000;0.869777
9441.000000;0.868636
9440.000000;0.867531
9439.000000;0.866808
9438.000000;0.866842
9437.000000;0.867789
9436.000000;0.869183
9435.000000;0.870066
9434.000000;0.869813
9433.000000;0.868728
9432.000000;0.867655
9431.000000;0.867138
9430.000000;0.867136
9429.000000;0.867402
9428.000000;0.867773
9427.000000;0.868074
9426.000000;0.868071
9425.000000;0.867738
9424.000000;0.867411
9423.000000;0.867447
9422.000000;0.867749
9421.000000;0.867822
9420.000000;0.867328
9419.000000;0.866484
9418.000000;0.865819
9417.000000;0.865631
9416.000000;0.865759
9415.000000;0.865861
9414.000000;0.865769
9413.000000;0.865527
9412.000000;0.865178
9411.000000;0.864637
9410.000000;0.863797
9409.000000;0.862695
9408.000000;0.861572
9407.000000;0.860820
9406.000000;0.860823
9405.000000;0.861699
9404.000000;0.863088
9403.000000;0.864272
9402.000000;0.864600
9401.000000;0.863900
9400.000000;0.862529
9399.000000;0.861083
9398.000000;0.860032
9397.000000;0.859512
9396.000000;0.859343
9395.000000;0.859244
9394.000000;0.859114
9393.000000;0.859138
9392.000000;0.859547
9391.000000;0.860253
9390.000000;0.860762
9389.000000;0.860559
9388.000000;0.859628
9387.000000;0.858533
9386.000000;0.857927
9385.000000;0.857969
9384.000000;0.858265
9383.000000;0.858353
9382.000000;0.858119
9381.000000;0.857671
9380.000000;0.856991
9379.000000;0.855914
9378.000000;0.854475
9377.000000;0.853124
9376.000000;0.852468
9375.000000;0.852786
9374.000000;0.853785
9373.000000;0.854785
9372.000000;0.855229
9371.000000;0.855101
9370.000000;0.854858
9369.000000;0.854945
9368.000000;0.855424
9367.000000;0.856051
9366.000000;0.856541
9365.000000;0.856658
9364.000000;0.856238
9363.000000;0.855372
9362.000000;0.854521
9361.000000;0.854196
9360.000000;0.854494
9359.000000;0.855053
9358.000000;0.855439
9357.000000;0.855414
9356.000000;0.854920
9355.000000;0.854107
9354.000000;0.853395
9353.000000;0.853190
9352.000000;0.853402
9351.000000;0.853470
9350.000000;0.852950
9349.000000;0.851898
9348.000000;0.850641
9347.000000;0.849459
9346.000000;0.848612
9345.000000;0.848324
9344.000000;0.848492
9343.000000;0.848664
9342.000000;0.848563
9341.000000;0.848437
9340.000000;0.848634
9339.000000;0.849081
9338.000000;0.849486
9337.000000;0.849852
9336.000000;0.850384
9335.000000;0.851010
9334.000000;0.851405
9333.000000;0.851421
9332.000000;0.851120
9331.000000;0.850409
9330.000000;0.849105
9329.000000;0.847466
9328.000000;0.846221
9327.000000;0.845849
9326.000000;0.846110
9325.000000;0.846436
9324.000000;0.846514
9323.000000;0.846334
9322.000000;0.845939
9321.000000;0.845468
9320.000000;0.845244
9319.000000;0.845452
9318.000000;0.845725
9317.000000;0.845380
9316.000000;0.844219
9315.000000;0.842874
9314.000000;0.842238
9313.000000;0.842622
9312.000000;0.843568
9311.000000;0.844377
9310.000000;0.844725
9309.000000;0.844744
9308.000000;0.844689
9307.000000;0.844650
9306.000000;0.844552
9305.000000;0.844274
9304.000000;0.843757
9303.000000;0.843126
9302.000000;0.842739
9301.000000;0.842904
9300.000000;0.843424
9299.000000;0.843595
9298.000000;0.842920
9297.000000;0.841728
9296.000000;0.840875
9295.000000;0.840855
9294.000000;0.841441
9293.000000;0.842149
9292.000000;0.842724
9291.000000;0.843114
9290.000000;0.843227
9289.000000;0.842963
9288.000000;0.842403
9287.000000;0.841864
9286.000000;0.841766
9285.000000;0.842365
9284.000000;0.843441
9283.000000;0.844242
9282.000000;0.844040
9281.000000;0.842858
9280.000000;0.841455
9279.000000;0.840486
9278.000000;0.839938
9277.000000;0.839498
9276.000000;0.839184
9275.000000;0.839227
9274.000000;0.839492
9273.000000;0.839468
9272.000000;0.838908
9271.000000;0.838114
9270.000000;0.837469
9269.000000;0.836958
9268.000000;0.836406
9267.000000;0.835942
9266.000000;0.835880
9265.000000;0.836193
9264.000000;0.836484
9263.000000;0.836550
9262.000000;0.836683
9261.000000;0.837171
9260.000000;0.837741
9259.000000;0.837834
9258.000000;0.837397
9257.000000;0.837018
9256.000000;0.837154
9255.000000;0.837525
9254.000000;0.837503
9253.000000;0.836884
9252.000000;0.836034
9251.000000;0.835345
9250.000000;0.834855
9249.000000;0.834414
9248.000000;0.833955
9247.000000;0.833507
9246.000000;0.833092
9245.000000;0.832742
9244.000000;0.832542
9243.000000;0.832588
9242.000000;0.832915
9241.000000;0.833468
9240.000000;0.834071
9239.000000;0.834443
9238.000000;0.834354
9237.000000;0.833821
9236.000000;0.833085
9235.000000;0.832433
9234.000000;0.832081
9233.000000;0.832188
9232.000000;0.832805
9231.000000;0.833730
9230.000000;0.834523
9229.000000;0.834745
9228.000000;0.834211
9227.000000;0.833057
9226.000000;0.831657
9225.000000;0.830458
9224.000000;0.829736
9223.000000;0.829441
9222.000000;0.829316
9221.000000;0.829173
9220.000000;0.829024
9219.000000;0.828952
9218.000000;0.828947
9217.000000;0.828866
9216.000000;0.828562
9215.000000;0.828109
9214.000000;0.827895
9213.000000;0.828315
9212.000000;0.829203
9211.000000;0.829780
9210.000000;0.829444
9209.000000;0.828517
9208.000000;0.827885
9207.000000;0.827933
9206.000000;0.828214
9205.000000;0.828169
9204.000000;0.827808
9203.000000;0.827475
9202.000000;0.827320
9201.000000;0.827236
9200.000000;0.827100
9199.000000;0.826858
9198.000000;0.826517
9197.000000;0.826229
9196.000000;0.826176
9195.000000;0.826249
9194.000000;0.826073
9193.000000;0.825558
9192.000000;0.825129
9191.000000;0.825129
9190.000000;0.825313
9189.000000;0.825298
9188.000000;0.825250
9187.000000;0.825552
9186.000000;0.825933
9185.000000;0.825595
9184.000000;0.824368
9183.000000;0.823156
9182.000000;0.822926
9181.000000;0.823628
9180.000000;0.824431
9179.000000;0.824699
9178.000000;0.824374
9177.000000;0.823669
9176.000000;0.822877
9175.000000;0.822411
9174.000000;0.822549
9173.000000;0.823022
9172.000000;0.823172
9171.000000;0.822712
9170.000000;0.822100
9169.000000;0.821981
9168.000000;0.822432
9167.000000;0.822934
9166.000000;0.822999
9165.000000;0.822629
9164.000000;0.822174
9163.000000;0.821946
9162.000000;0.822053
9161.000000;0.822397
9160.000000;0.822702
9159.000000;0.822621
9158.000000;0.822041
9157.000000;0.821265
9156.000000;0.820763
9155.000000;0.820657
9154.000000;0.820588
9153.000000;0.820189
9152.000000;0.819608
9151.000000;0.819439
9150.000000;0.820103
9149.000000;0.821371
9148.000000;0.822483
9147.000000;0.822706
9146.000000;0.821866
9145.000000;0.820457
9144.000000;0.819265
9143.000000;0.818799
9142.000000;0.818984
9141.000000;0.819358
9140.000000;0.819542
9139.000000;0.819501
9138.000000;0.819385
9137.000000;0.819251
9136.000000;0.819061
9135.000000;0.818861
9134.000000;0.818818
9133.000000;0.818969
9132.000000;0.819053
9131.000000;0.818734
9130.000000;0.817996
9129.000000;0.817176
9128.000000;0.816586
9127.000000;0.816257
9126.000000;0.816185
9125.000000;0.816606
9124.000000;0.817733
9123.000000;0.819180
9122.000000;0.820023
9121.000000;0.819695
9120.000000;0.818694
9119.000000;0.818111
9118.000000;0.818494
9117.000000;0.819377
9116.000000;0.819905
9115.000000;0.819681
9114.000000;0.818898
9113.000000;0.817885
9112.000000;0.816820
9111.000000;0.815871
9110.000000;0.815333
9109.000000;0.815396
9108.000000;0.815830
9107.000000;0.816092
9106.000000;0.815824
9105.000000;0.815199
9104.000000;0.814678
9103.000000;0.814491
9102.000000;0.814480
9101.000000;0.814434
9100.000000;0.814415
9099.000000;0.814635
9098.000000;0.815069
9097.000000;0.815331
9096.000000;0.815030
9095.000000;0.814251
9094.000000;0.813603
9093.000000;0.813674
9092.000000;0.814396
9091.000000;0.815038
9090.000000;0.814956
9089.000000;0.814291
9088.000000;0.813742
9087.000000;0.813693
9086.000000;0.813852
9085.000000;0.813805
9084.000000;0.813597
9083.000000;0.813490
9082.000000;0.813415
9081.000000;0.813076
9080.000000;0.812548
9079.000000;0.812348
9078.000000;0.812763
9077.000000;0.813412
9076.000000;0.813660
9075.000000;0.813308
9074.000000;0.812654
9073.000000;0.812040
9072.000000;0.811574
9071.000000;0.811286
9070.000000;0.811304
9069.000000;0.811760
9068.000000;0.812572
9067.000000;0.813390
9066.000000;0.813795
9065.000000;0.813575
9064.000000;0.812844
9063.000000;0.811902
9062.000000;0.811005
9061.000000;0.810321
9060.000000;0.810021
9059.000000;0.810235
9058.000000;0.810857
9057.000000;0.811529
9056.000000;0.811933
9055.000000;0.812033
9054.000000;0.811945
9053.000000;0.811720
9052.000000;0.811405
9051.000000;0.811177
9050.000000;0.811181
9049.000000;0.811219
9048.000000;0.810852
9047.000000;0.809914
9046.000000;0.808773
9045.000000;0.807983
9044.000000;0.807821
9043.000000;0.808192
9042.000000;0.808858
9041.000000;0.809584
9040.000000;0.810173
9039.000000;0.810521
9038.000000;0.810681
9037.000000;0.810781
9036.000000;0.810907
9035.000000;0.811096
9034.000000;0.811327
9033.000000;0.811410
9032.000000;0.811015
9031.000000;0.810036
9030.000000;0.808912
9029.000000;0.808315
9028.000000;0.808424
9027.000000;0.808721
9026.000000;0.808620
9025.000000;0.808110
9024.000000;0.807617
9023.000000;0.807411
9022.000000;0.807421
9021.000000;0.807514
9020.000000;0.807638
9019.000000;0.807659
9018.000000;0.807386
9017.000000;0.806878
9016.000000;0.806471
9015.000000;0.806320
9014.000000;0.806151
9013.000000;0.805699
9012.000000;0.805182
9011.000000;0.805049
9010.000000;0.805373
9009.000000;0.805835
9008.000000;0.806268
9007.000000;0.806836
9006.000000;0.807546
9005.000000;0.807953
9004.000000;0.807635
9003.000000;0.806777
9002.000000;0.806017
9001.000000;0.805789
9000.000000;0.806010
8999.000000;0.806320
8998.000000;0.806417
8997.000000;0.806177
8996.000000;0.805650
8995.000000;0.805042
8994.000000;0.804585
8993.000000;0.804399
8992.000000;0.804496
8991.000000;0.804853
8990.000000;0.805381
8989.000000;0.805880
8988.000000;0.806203
8987.000000;0.806438
8986.000000;0.806742
8985.000000;0.807020
8984.000000;0.806945
8983.000000;0.806383
8982.000000;0.805605
8981.000000;0.805034
8980.000000;0.804917
8979.000000;0.805291
8978.000000;0.805991
8977.000000;0.806558
8976.000000;0.806405
8975.000000;0.805429
8974.000000;0.804335
8973.000000;0.804057
8972.000000;0.804817
8971.000000;0.805964
8970.000000;0.806704
8969.000000;0.806757
8968.000000;0.806293
8967.000000;0.805585
8966.000000;0.804927
8965.000000;0.804641
8964.000000;0.804831
8963.000000;0.805181
8962.000000;0.805225
8961.000000;0.804855
8960.000000;0.804399
8959.000000;0.804219
8958.000000;0.804374
8957.000000;0.804672
8956.000000;0.804907
8955.000000;0.804936
8954.000000;0.804632
8953.000000;0.803950
8952.000000;0.803065
8951.000000;0.802357
8950.000000;0.802181
8949.000000;0.802633
8948.000000;0.803506
8947.000000;0.804418
8946.000000;0.804960
8945.000000;0.804791
8944.000000;0.803783
8943.000000;0.802190
8942.000000;0.800675
8941.000000;0.799956
8940.000000;0.800303
8939.000000;0.801331
8938.000000;0.802366
8937.000000;0.803016
8936.000000;0.803361
8935.000000;0.803654
8934.000000;0.803921
8933.000000;0.803907
8932.000000;0.803378
8931.000000;0.802424
8930.000000;0.801488
8929.000000;0.801069
8928.000000;0.801380
8927.000000;0.802195
8926.000000;0.803015
8925.000000;0.803381
8924.000000;0.803143
8923.000000;0.802544
8922.000000;0.802083
8921.000000;0.802205
8920.000000;0.802938
8919.000000;0.803774
8918.000000;0.803991
8917.000000;0.803252
8916.000000;0.801900
8915.000000;0.800640
8914.000000;0.799948
8913.000000;0.799823
8912.000000;0.800013
8911.000000;0.800321
8910.000000;0.800671
8909.000000;0.801017
8908.000000;0.801318
8907.000000;0.801570
8906.000000;0.801746
8905.000000;0.801726
8904.000000;0.801385
8903.000000;0.800792
8902.000000;0.800229
8901.000000;0.799962
8900.000000;0.800034
8899.000000;0.800301
8898.000000;0.800627
8897.000000;0.801004
8896.000000;0.801465
8895.000000;0.801931
8894.000000;0.802147
8893.000000;0.801862
8892.000000;0.801141
8891.000000;0.800461
8890.000000;0.800343
8889.000000;0.800843
8888.000000;0.801480
8887.000000;0.801736
8886.000000;0.801546
8885.000000;0.801258
8884.000000;0.801201
8883.000000;0.801393
8882.000000;0.801603
8881.000000;0.801601
8880.000000;0.801397
8879.000000;0.801275
8878.000000;0.801505
8877.000000;0.801963
8876.000000;0.802161
8875.000000;0.801827
8874.000000;0.801341
8873.000000;0.801352
8872.000000;0.801985
8871.000000;0.802677
8870.000000;0.802828
8869.000000;0.802416
8868.000000;0.801879
8867.000000;0.801616
8866.000000;0.801747
8865.000000;0.802185
8864.000000;0.802706
8863.000000;0.802977
8862.000000;0.802724
8861.000000;0.801952
8860.000000;0.800983
8859.000000;0.800253
8858.000000;0.800074
8857.000000;0.800461
8856.000000;0.801127
8855.000000;0.801701
8854.000000;0.802056
8853.000000;0.802334
8852.000000;0.802591
8851.000000;0.802556
8850.000000;0.801929
8849.000000;0.800892
8848.000000;0.800071
8847.000000;0.799912
8846.000000;0.800249
8845.000000;0.800603
8844.000000;0.800756
8843.000000;0.800889
8842.000000;0.801261
8841.000000;0.801914
8840.000000;0.802717
8839.000000;0.803456
8838.000000;0.803822
8837.000000;0.803485
8836.000000;0.802447
8835.000000;0.801284
8834.000000;0.800765
8833.000000;0.801124
8832.000000;0.801815
8831.000000;0.802134
8830.000000;0.801936
8829.000000;0.801605
8828.000000;0.801466
8827.000000;0.801484
8826.000000;0.801521
8825.000000;0.801581
8824.000000;0.801705
8823.000000;0.801841
8822.000000;0.801948
8821.000000;0.802054
8820.000000;0.802106
8819.000000;0.801941
8818.000000;0.801599
8817.000000;0.801467
8816.000000;0.801888
8815.000000;0.802693
8814.000000;0.803380
8813.000000;0.803699
8812.000000;0.803816
8811.000000;0.803911
8810.000000;0.803919
8809.000000;0.803783
8808.000000;0.803706
8807.000000;0.803972
8806.000000;0.804626
8805.000000;0.805418
8804.000000;0.805983
8803.000000;0.806021
8802.000000;0.805493
8801.000000;0.804748
8800.000000;0.804304
8799.000000;0.804357
8798.000000;0.804619
8797.000000;0.804745
8796.000000;0.804781
8795.000000;0.805010
8794.000000;0.805474
8793.000000;0.805908
8792.000000;0.806144
8791.000000;0.806303
8790.000000;0.806506
8789.000000;0.806589
8788.000000;0.806314
8787.000000;0.805759
8786.000000;0.805325
8785.000000;0.805341
8784.000000;0.805760
8783.000000;0.806282
8782.000000;0.806716
8781.000000;0.807121
8780.000000;0.807627
8779.000000;0.808204
8778.000000;0.808695
8777.000000;0.809033
8776.000000;0.809251
8775.000000;0.809264
8774.000000;0.808843
8773.000000;0.807970
8772.000000;0.807086
8771.000000;0.806772
8770.000000;0.807199
8769.000000;0.808042
8768.000000;0.808884
8767.000000;0.809503
8766.000000;0.809800
8765.000000;0.809728
8764.000000;0.809443
8763.000000;0.809275
8762.000000;0.809369
8761.000000;0.809518
8760.000000;0.809507
8759.000000;0.809469
8758.000000;0.809674
8757.000000;0.810075
8756.000000;0.810347
8755.000000;0.810345
8754.000000;0.810245
8753.000000;0.810222
8752.000000;0.810249
8751.000000;0.810320
8750.000000;0.810603
8749.000000;0.811201
8748.000000;0.811921
8747.000000;0.812445
8746.000000;0.812669
8745.000000;0.812697
8744.000000;0.812634
8743.000000;0.812547
8742.000000;0.812563
8741.000000;0.812803
8740.000000;0.813205
8739.000000;0.813591
8738.000000;0.813944
8737.000000;0.814448
8736.000000;0.815162
8735.000000;0.815808
8734.000000;0.816051
8733.000000;0.815925
8732.000000;0.815784
8731.000000;0.815803
8730.000000;0.815710
8729.000000;0.815170
8728.000000;0.814375
8727.000000;0.814014
8726.000000;0.814610
8725.000000;0.815991
8724.000000;0.817503
8723.000000;0.818617
8722.000000;0.819224
8721.000000;0.819443
8720.000000;0.819359
8719.000000;0.818984
8718.000000;0.818376
8717.000000;0.817731
8716.000000;0.817398
8715.000000;0.817662
8714.000000;0.818381
8713.000000;0.818939
8712.000000;0.818840
8711.000000;0.818360
8710.000000;0.818293
8709.000000;0.818988
8708.000000;0.819917
8707.000000;0.820388
8706.000000;0.820408
8705.000000;0.820528
8704.000000;0.821026
8703.000000;0.821650
8702.000000;0.822118
8701.000000;0.822454
8700.000000;0.822756
8699.000000;0.822948
8698.000000;0.822929
8697.000000;0.822763
8696.000000;0.822515
8695.000000;0.822062
8694.000000;0.821287
8693.000000;0.820397
8692.000000;0.819849
8691.000000;0.819903
8690.000000;0.820414
8689.000000;0.821069
8688.000000;0.821733
8687.000000;0.822440
8686.000000;0.823117
8685.000000;0.823506
8684.000000;0.823452
8683.000000;0.823197
8682.000000;0.823205
8681.000000;0.823651
8680.000000;0.824239
8679.000000;0.824581
8678.000000;0.824664
8677.000000;0.824793
8676.000000;0.825177
8675.000000;0.825718
8674.000000;0.826198
8673.000000;0.826510
8672.000000;0.826657
8671.000000;0.826628
8670.000000;0.826373
8669.000000;0.825900
8668.000000;0.825376
8667.000000;0.825071
8666.000000;0.825130
8665.000000;0.825397
8664.000000;0.825562
8663.000000;0.825534
8662.000000;0.825529
8661.000000;0.825712
8660.000000;0.825937
8659.000000;0.825987
8658.000000;0.825953
8657.000000;0.826119
8656.000000;0.826539
8655.000000;0.826954
8654.000000;0.827168
8653.000000;0.827291
8652.000000;0.827553
8651.000000;0.828026
8650.000000;0.828553
8649.000000;0.828849
8648.000000;0.828687
8647.000000;0.828178
8646.000000;0.827815
8645.000000;0.828052
8644.000000;0.828776
8643.000000;0.829408
8642.000000;0.829556
8641.000000;0.829373
8640.000000;0.829191
8639.000000;0.829069
8638.000000;0.828863
8637.000000;0.828551
8636.000000;0.828282
8635.000000;0.828209
8634.000000;0.828446
8633.000000;0.829071
8632.000000;0.829984
8631.000000;0.830807
8630.000000;0.831098
8629.000000;0.830687
8628.000000;0.829789
8627.000000;0.828843
8626.000000;0.828308
8625.000000;0.828403
8624.000000;0.828911
8623.000000;0.829328
8622.000000;0.829348
8621.000000;0.829114
8620.000000;0.828927
8619.000000;0.828862
8618.000000;0.828870
8617.000000;0.829065
8616.000000;0.829618
8615.000000;0.830397
8614.000000;0.830997
8613.000000;0.831147
8612.000000;0.830902
8611.000000;0.830433
8610.000000;0.829867
8609.000000;0.829398
8608.000000;0.829274
8607.000000;0.829534
8606.000000;0.829923
8605.000000;0.830201
8604.000000;0.830425
8603.000000;0.830782
8602.000000;0.831287
8601.000000;0.831763
8600.000000;0.832026
8599.000000;0.831947
8598.000000;0.831469
8597.000000;0.830763
8596.000000;0.830274
8595.000000;0.830348
8594.000000;0.830770
8593.000000;0.830906
8592.000000;0.830408
8591.000000;0.829615
8590.000000;0.829116
8589.000000;0.829086
8588.000000;0.829250
8587.000000;0.829408
8586.000000;0.829704
8585.000000;0.830322
8584.000000;0.831100
8583.000000;0.831612
8582.000000;0.831602
8581.000000;0.831233
8580.000000;0.830907
8579.000000;0.830898
8578.000000;0.831135
8577.000000;0.831317
8576.000000;0.831205
8575.000000;0.830829
8574.000000;0.830405
8573.000000;0.830129
8572.000000;0.830067
8571.000000;0.830169
8570.000000;0.830271
8569.000000;0.830142
8568.000000;0.829734
8567.000000;0.829379
8566.000000;0.829551
8565.000000;0.830306
8564.000000;0.831131
8563.000000;0.831489
8562.000000;0.831366
8561.000000;0.831125
8560.000000;0.830955
8559.000000;0.830732
8558.000000;0.830356
8557.000000;0.829937
8556.000000;0.829643
8555.000000;0.829579
8554.000000;0.829853
8553.000000;0.830531
8552.000000;0.831419
8551.000000;0.832096
8550.000000;0.832281
8549.000000;0.832069
8548.000000;0.831721
8547.000000;0.831380
8546.000000;0.831125
8545.000000;0.831119
8544.000000;0.831504
8543.000000;0.832168
8542.000000;0.832793
8541.000000;0.833133
8540.000000;0.833175
8539.000000;0.833026
8538.000000;0.832764
8537.000000;0.832417
8536.000000;0.832033
8535.000000;0.831704
8534.000000;0.831501
8533.000000;0.831389
8532.000000;0.831260
8531.000000;0.831097
8530.000000;0.831056
8529.000000;0.831289
8528.000000;0.831694
8527.000000;0.831977
8526.000000;0.831982
8525.000000;0.831836
8524.000000;0.831736
8523.000000;0.831729
8522.000000;0.831766
8521.000000;0.831835
8520.000000;0.831922
8519.000000;0.831937
8518.000000;0.831795
8517.000000;0.831549
8516.000000;0.831345
8515.000000;0.831289
8514.000000;0.831407
8513.000000;0.831660
8512.000000;0.831906
8511.000000;0.831917
8510.000000;0.831553
8509.000000;0.830922
8508.000000;0.830313
8507.000000;0.829995
8506.000000;0.830124
8505.000000;0.830757
8504.000000;0.831791
8503.000000;0.832868
8502.000000;0.833489
8501.000000;0.833366
8500.000000;0.832715
8499.000000;0.832144
8498.000000;0.832161
8497.000000;0.832740
8496.000000;0.833379
8495.000000;0.833602
8494.000000;0.833372
8493.000000;0.833012
8492.000000;0.832810
8491.000000;0.832795
8490.000000;0.832792
8489.000000;0.832558
8488.000000;0.831944
8487.000000;0.831119
8486.000000;0.830610
8485.000000;0.830903
8484.000000;0.831897
8483.000000;0.832926
8482.000000;0.833373
8481.000000;0.833123
8480.000000;0.832426
8479.000000;0.831593
8478.000000;0.830995
8477.000000;0.831036
8476.000000;0.831786
8475.000000;0.832737
8474.000000;0.833221
8473.000000;0.833111
8472.000000;0.832861
8471.000000;0.832879
8470.000000;0.833107
8469.000000;0.833268
8468.000000;0.833261
8467.000000;0.833171
8466.000000;0.833057
8465.000000;0.832935
8464.000000;0.832886
8463.000000;0.833006
8462.000000;0.833201
8461.000000;0.833215
8460.000000;0.832930
8459.000000;0.832541
8458.000000;0.832307
8457.000000;0.832181
8456.000000;0.831887
8455.000000;0.831396
8454.000000;0.831126
8453.000000;0.831480
8452.000000;0.832350
8451.000000;0.833246
8450.000000;0.833845
8449.000000;0.834169
8448.000000;0.834292
8447.000000;0.834217
8446.000000;0.834086
8445.000000;0.834169
8444.000000;0.834463
8443.000000;0.834578
8442.000000;0.834267
8441.000000;0.833825
8440.000000;0.833688
8439.000000;0.833811
8438.000000;0.833790
8437.000000;0.833476
8436.000000;0.833154
8435.000000;0.833091
8434.000000;0.833214
8433.000000;0.833298
8432.000000;0.833214
8431.000000;0.832943
8430.000000;0.832575
8429.000000;0.832382
8428.000000;0.832678
8427.000000;0.833416
8426.000000;0.834114
8425.000000;0.834324
8424.000000;0.834097
8423.000000;0.833833
8422.000000;0.833777
8421.000000;0.833829
8420.000000;0.833818
8419.000000;0.833766
8418.000000;0.833807
8417.000000;0.833950
8416.000000;0.834040
8415.000000;0.833962
8414.000000;0.833808
8413.000000;0.833783
8412.000000;0.833985
8411.000000;0.834333
8410.000000;0.834695
8409.000000;0.834995
8408.000000;0.835145
8407.000000;0.835003
8406.000000;0.834545
8405.000000;0.834014
8404.000000;0.833761
8403.000000;0.833915
8402.000000;0.834272
8401.000000;0.834526
8400.000000;0.834581
8399.000000;0.834629
8398.000000;0.834953
8397.000000;0.835630
8396.000000;0.836396
8395.000000;0.836857
8394.000000;0.836885
8393.000000;0.836732
8392.000000;0.836704
8391.000000;0.836827
8390.000000;0.836920
8389.000000;0.836891
8388.000000;0.836814
8387.000000;0.836740
8386.000000;0.836586
8385.000000;0.836237
8384.000000;0.835683
8383.000000;0.835082
8382.000000;0.834694
8381.000000;0.834681
8380.000000;0.834860
8379.000000;0.834819
8378.000000;0.834414
8377.000000;0.834040
8376.000000;0.834181
8375.000000;0.834759
8374.000000;0.835211
8373.000000;0.835193
8372.000000;0.834941
8371.000000;0.834872
8370.000000;0.835104
8369.000000;0.835496
8368.000000;0.835918
8367.000000;0.836280
8366.000000;0.836449
8365.000000;0.836344
8364.000000;0.836053
8363.000000;0.835746
8362.000000;0.835554
8361.000000;0.835593
8360.000000;0.835949
8359.000000;0.836484
8358.000000;0.836803
8357.000000;0.836650
8356.000000;0.836261
8355.000000;0.836133
8354.000000;0.836445
8353.000000;0.836888
8352.000000;0.837084
8351.000000;0.836994
8350.000000;0.836882
8349.000000;0.836993
8348.000000;0.837326
8347.000000;0.837668
8346.000000;0.837788
8345.000000;0.837664
8344.000000;0.837494
8343.000000;0.837470
8342.000000;0.837549
8341.000000;0.837547
8340.000000;0.837398
8339.000000;0.837244
8338.000000;0.837277
8337.000000;0.837585
8336.000000;0.838116
8335.000000;0.838656
8334.000000;0.838849
8333.000000;0.838439
8332.000000;0.837570
8331.000000;0.836744
8330.000000;0.836358
8329.000000;0.836362
8328.000000;0.836426
8327.000000;0.836371
8326.000000;0.836347
8325.000000;0.836601
8324.000000;0.837196
8323.000000;0.837930
8322.000000;0.838486
8321.000000;0.838663
8320.000000;0.838502
8319.000000;0.838202
8318.000000;0.837938
8317.000000;0.837777
8316.000000;0.837760
8315.000000;0.837937
8314.000000;0.838271
8313.000000;0.838602
8312.000000;0.838788
8311.000000;0.838827
8310.000000;0.838733
8309.000000;0.838394
8308.000000;0.837736
8307.000000;0.836994
8306.000000;0.836623
8305.000000;0.836863
8304.000000;0.837524
8303.000000;0.838240
8302.000000;0.838799
8301.000000;0.839146
8300.000000;0.839221
8299.000000;0.838994
8298.000000;0.838594
8297.000000;0.838249
8296.000000;0.838084
8295.000000;0.838044
8294.000000;0.838010
8293.000000;0.837915
8292.000000;0.837774
8291.000000;0.837691
8290.000000;0.837793
8289.000000;0.838064
8288.000000;0.838278
8287.000000;0.838211
8286.000000;0.837913
8285.000000;0.837672
8284.000000;0.837716
8283.000000;0.838053
8282.000000;0.838545
8281.000000;0.839019
8280.000000;0.839288
8279.000000;0.839249
8278.000000;0.839046
8277.000000;0.838987
8276.000000;0.839179
8275.000000;0.839340
8274.000000;0.839106
8273.000000;0.838488
8272.000000;0.837924
8271.000000;0.837843
8270.000000;0.838246
8269.000000;0.838725
8268.000000;0.838870
8267.000000;0.838653
8266.000000;0.838411
8265.000000;0.838447
8264.000000;0.838730
8263.000000;0.839030
8262.000000;0.839248
8261.000000;0.839457
8260.000000;0.839620
8259.000000;0.839510
8258.000000;0.839003
8257.000000;0.838323
8256.000000;0.837848
8255.000000;0.837741
8254.000000;0.837860
8253.000000;0.837950
8252.000000;0.837848
8251.000000;0.837562
8250.000000;0.837274
8249.000000;0.837205
8248.000000;0.837379
8247.000000;0.837570
8246.000000;0.837588
8245.000000;0.837531
8244.000000;0.837626
8243.000000;0.837893
8242.000000;0.838136
8241.000000;0.838245
8240.000000;0.838322
8239.000000;0.838492
8238.000000;0.838727
8237.000000;0.838933
8236.000000;0.839099
8235.000000;0.839260
8234.000000;0.839381
8233.000000;0.839351
8232.000000;0.839101
8231.000000;0.838709
8230.000000;0.838416
8229.000000;0.838486
8228.000000;0.838986
8227.000000;0.839713
8226.000000;0.840385
8225.000000;0.840847
8224.000000;0.841034
8223.000000;0.840856
8222.000000;0.840325
8221.000000;0.839753
8220.000000;0.839554
8219.000000;0.839778
8218.000000;0.840041
8217.000000;0.840031
8216.000000;0.839900
8215.000000;0.839990
8214.000000;0.840335
8213.000000;0.840660
8212.000000;0.840772
8211.000000;0.840702
8210.000000;0.840499
8209.000000;0.840122
8208.000000;0.839627
8207.000000;0.839223
8206.000000;0.839067
8205.000000;0.839136
8204.000000;0.839414
8203.000000;0.840014
8202.000000;0.840944
8201.000000;0.841855
8200.000000;0.842254
8199.000000;0.841989
8198.000000;0.841373
8197.000000;0.840817
8196.000000;0.840461
8195.000000;0.840207
8194.000000;0.839990
8193.000000;0.839893
8192.000000;0.840017
8191.000000;0.840301
8190.000000;0.840503
8189.000000;0.840407
8188.000000;0.840087
8187.000000;0.839931
8186.000000;0.840286
8185.000000;0.841070
8184.000000;0.841816
8183.000000;0.842121
8182.000000;0.841979
8181.000000;0.841640
8180.000000;0.841310
8179.000000;0.841092
8178.000000;0.841093
8177.000000;0.841378
8176.000000;0.841818
8175.000000;0.842125
8174.000000;0.842097
8173.000000;0.841778
8172.000000;0.841388
8171.000000;0.841170
8170.000000;0.841281
8169.000000;0.841702
8168.000000;0.842217
8167.000000;0.842547
8166.000000;0.842555
8165.000000;0.842301
8164.000000;0.841946
8163.000000;0.841670
8162.000000;0.841666
8161.000000;0.842046
8160.000000;0.842708
8159.000000;0.843374
8158.000000;0.843796
8157.000000;0.843895
8156.000000;0.843704
8155.000000;0.843301
8154.000000;0.842835
8153.000000;0.842498
8152.000000;0.842365
8151.000000;0.842321
8150.000000;0.842211
8149.000000;0.842000
8148.000000;0.841746
8147.000000;0.841509
8146.000000;0.841367
8145.000000;0.841462
8144.000000;0.841886
8143.000000;0.842531
8142.000000;0.843138
8141.000000;0.843498
8140.000000;0.843588
8139.000000;0.843524
8138.000000;0.843458
8137.000000;0.843490
8136.000000;0.843630
8135.000000;0.843816
8134.000000;0.843977
8133.000000;0.844057
8132.000000;0.844000
8131.000000;0.843767
8130.000000;0.843436
8129.000000;0.843200
8128.000000;0.843205
8127.000000;0.843429
8126.000000;0.843764
8125.000000;0.844157
8124.000000;0.844556
8123.000000;0.844813
8122.000000;0.844779
8121.000000;0.844521
8120.000000;0.844314
8119.000000;0.844343
8118.000000;0.844515
8117.000000;0.844621
8116.000000;0.844624
8115.000000;0.844680
8114.000000;0.844889
8113.000000;0.845136
8112.000000;0.845203
8111.000000;0.845006
8110.000000;0.844669
8109.000000;0.844401
8108.000000;0.844332
8107.000000;0.844480
8106.000000;0.844776
8105.000000;0.845081
8104.000000;0.845239
8103.000000;0.845188
8102.000000;0.845025
8101.000000;0.844903
8100.000000;0.844870
8099.000000;0.844861
8098.000000;0.844823
8097.000000;0.844779
8096.000000;0.844765
8095.000000;0.844789
8094.000000;0.844885
8093.000000;0.845118
8092.000000;0.845462
8091.000000;0.845748
8090.000000;0.845783
8089.000000;0.845532
8088.000000;0.845151
8087.000000;0.844877
8086.000000;0.844871
8085.000000;0.845116
8084.000000;0.845415
8083.000000;0.845541
8082.000000;0.845439
8081.000000;0.845248
8080.000000;0.845142
8079.000000;0.845187
8078.000000;0.845357
8077.000000;0.845593
8076.000000;0.845786
8075.000000;0.845827
8074.000000;0.845724
8073.000000;0.845633
8072.000000;0.845673
8071.000000;0.845788
8070.000000;0.845847
8069.000000;0.845839
8068.000000;0.845844
8067.000000;0.845869
8066.000000;0.845818
8065.000000;0.845663
8064.000000;0.845532
8063.000000;0.845586
8062.000000;0.845832
8061.000000;0.846097
8060.000000;0.846183
8059.000000;0.846074
8058.000000;0.845977
8057.000000;0.846138
8056.000000;0.846580
8055.000000;0.847069
8054.000000;0.847346
8053.000000;0.847350
8052.000000;0.847176
8051.000000;0.846912
8050.000000;0.846612
8049.000000;0.846400
8048.000000;0.846484
8047.000000;0.846982
8046.000000;0.847743
8045.000000;0.848386
8044.000000;0.848601
8043.000000;0.848436
8042.000000;0.848263
8041.000000;0.848382
8040.000000;0.848695
8039.000000;0.848853
8038.000000;0.848689
8037.000000;0.848376
8036.000000;0.848131
8035.000000;0.847966
8034.000000;0.847806
8033.000000;0.847710
8032.000000;0.847790
8031.000000;0.847992
8030.000000;0.848117
8029.000000;0.848053
8028.000000;0.847880
8027.000000;0.847732
8026.000000;0.847666
8025.000000;0.847675
8024.000000;0.847728
8023.000000;0.847797
8022.000000;0.847879
8021.000000;0.847994
8020.000000;0.848128
8019.000000;0.848203
8018.000000;0.848173
8017.000000;0.848128
8016.000000;0.848224
8015.000000;0.848515
8014.000000;0.848866
8013.000000;0.849046
8012.000000;0.848905
8011.000000;0.848513
8010.000000;0.848167
8009.000000;0.848163
8008.000000;0.848530
8007.000000;0.849044
8006.000000;0.849530
8005.000000;0.850037
8004.000000;0.850616
8003.000000;0.851067
8002.000000;0.851080
8001.000000;0.850586
8000.000000;0.849829
7999.000000;0.849107
7998.000000;0.848593
7997.000000;0.848392
7996.000000;0.848574
7995.000000;0.849092
7994.000000;0.849744
7993.000000;0.850293
7992.000000;0.850578
7991.000000;0.850555
7990.000000;0.850316
7989.000000;0.850095
7988.000000;0.850108
7987.000000;0.850369
7986.000000;0.850706
7985.000000;0.850967
7984.000000;0.851135
7983.000000;0.851235
7982.000000;0.851254
7981.000000;0.851205
7980.000000;0.851177
7979.000000;0.851235
7978.000000;0.851329
7977.000000;0.851374
7976.000000;0.851371
7975.000000;0.851393
7974.000000;0.851441
7973.000000;0.851361
7972.000000;0.850964
7971.000000;0.850277
7970.000000;0.849640
7969.000000;0.849479
7968.000000;0.849930
7967.000000;0.850744
7966.000000;0.851555
7965.000000;0.852166
7964.000000;0.852536
7963.000000;0.852677
7962.000000;0.852680
7961.000000;0.852733
7960.000000;0.852913
7959.000000;0.853030
7958.000000;0.852851
7957.000000;0.852440
7956.000000;0.852097
7955.000000;0.851981
7954.000000;0.852004
7953.000000;0.852079
7952.000000;0.852225
7951.000000;0.852391
7950.000000;0.852392
7949.000000;0.852161
7948.000000;0.851887
7947.000000;0.851793
7946.000000;0.851890
7945.000000;0.852071
7944.000000;0.852297
7943.000000;0.852567
7942.000000;0.852827
7941.000000;0.853063
7940.000000;0.853390
7939.000000;0.853883
7938.000000;0.854367
7937.000000;0.854541
7936.000000;0.854333
7935.000000;0.853993
7934.000000;0.853833
7933.000000;0.853937
7932.000000;0.854120
7931.000000;0.854127
7930.000000;0.853873
7929.000000;0.853532
7928.000000;0.853366
7927.000000;0.853438
7926.000000;0.853555
7925.000000;0.853537
7924.000000;0.853458
7923.000000;0.853519
7922.000000;0.853750
7921.000000;0.853986
7920.000000;0.854117
7919.000000;0.854233
7918.000000;0.854483
7917.000000;0.854872
7916.000000;0.855260
7915.000000;0.855487
7914.000000;0.855492
7913.000000;0.855341
7912.000000;0.855181
7911.000000;0.855117
7910.000000;0.855122
7909.000000;0.855089
7908.000000;0.854984
7907.000000;0.854881
7906.000000;0.854857
7905.000000;0.854879
7904.000000;0.854858
7903.000000;0.854781
7902.000000;0.854769
7901.000000;0.854966
7900.000000;0.855384
7899.000000;0.855859
7898.000000;0.856168
7897.000000;0.856205
7896.000000;0.856049
7895.000000;0.855878
7894.000000;0.855827
7893.000000;0.855914
7892.000000;0.856049
7891.000000;0.856104
7890.000000;0.856007
7889.000000;0.855832
7888.000000;0.855766
7887.000000;0.855979
7886.000000;0.856479
7885.000000;0.857091
7884.000000;0.857569
7883.000000;0.857753
7882.000000;0.857650
7881.000000;0.857398
7880.000000;0.857133
7879.000000;0.856901
7878.000000;0.856690
7877.000000;0.856542
7876.000000;0.856575
7875.000000;0.856895
7874.000000;0.857488
7873.000000;0.858206
7872.000000;0.858833
7871.000000;0.859190
7870.000000;0.859217
7869.000000;0.858998
7868.000000;0.858671
7867.000000;0.858317
7866.000000;0.857945
7865.000000;0.857589
7864.000000;0.857360
7863.000000;0.857399
7862.000000;0.857749
7861.000000;0.858275
7860.000000;0.858685
7859.000000;0.858743
7858.000000;0.858506
7857.000000;0.858337
7856.000000;0.858547
7855.000000;0.859033
7854.000000;0.859383
7853.000000;0.859363
7852.000000;0.859180
7851.000000;0.859205
7850.000000;0.859535
7849.000000;0.859949
7848.000000;0.860195
7847.000000;0.860216
7846.000000;0.860115
7845.000000;0.860026
7844.000000;0.860055
7843.000000;0.860231
7842.000000;0.860492
7841.000000;0.860723
7840.000000;0.860853
7839.000000;0.860892
7838.000000;0.860883
7837.000000;0.860864
7836.000000;0.860860
7835.000000;0.860886
7834.000000;0.860930
7833.000000;0.860963
7832.000000;0.860963
7831.000000;0.860918
7830.000000;0.860831
7829.000000;0.860738
7828.000000;0.860714
7827.000000;0.860788
7826.000000;0.860871
7825.000000;0.860832
7824.000000;0.860685
7823.000000;0.860611
7822.000000;0.860739
7821.000000;0.860958
7820.000000;0.861064
7819.000000;0.861059
7818.000000;0.861176
7817.000000;0.861537
7816.000000;0.861937
7815.000000;0.862094
7814.000000;0.862056
7813.000000;0.862141
7812.000000;0.862483
7811.000000;0.862834
7810.000000;0.862924
7809.000000;0.862827
7808.000000;0.862788
7807.000000;0.862831
7806.000000;0.862771
7805.000000;0.862584
7804.000000;0.862494
7803.000000;0.862638
7802.000000;0.862839
7801.000000;0.862849
7800.000000;0.862687
7799.000000;0.862612
7798.000000;0.862827
7797.000000;0.863313
7796.000000;0.863888
7795.000000;0.864348
7794.000000;0.864576
7793.000000;0.864616
7792.000000;0.864612
7791.000000;0.864654
7790.000000;0.864717
7789.000000;0.864783
7788.000000;0.864910
7787.000000;0.865115
7786.000000;0.865283
7785.000000;0.865305
7784.000000;0.865247
7783.000000;0.865275
7782.000000;0.865433
7781.000000;0.865633
7780.000000;0.865840
7779.000000;0.866138
7778.000000;0.866572
7777.000000;0.867025
7776.000000;0.867318
7775.000000;0.867375
7774.000000;0.867282
7773.000000;0.867202
7772.000000;0.867271
7771.000000;0.867502
7770.000000;0.867783
7769.000000;0.867951
7768.000000;0.867918
7767.000000;0.867722
7766.000000;0.867509
7765.000000;0.867463
7764.000000;0.867699
7763.000000;0.868128
7762.000000;0.868498
7761.000000;0.868621
7760.000000;0.868555
7759.000000;0.868488
7758.000000;0.868496
7757.000000;0.868505
7756.000000;0.868474
7755.000000;0.868468
7754.000000;0.868519
7753.000000;0.868539
7752.000000;0.868442
7751.000000;0.868293
7750.000000;0.868271
7749.000000;0.868521
7748.000000;0.869056
7747.000000;0.869742
7746.000000;0.870345
7745.000000;0.870671
7744.000000;0.870728
7743.000000;0.870713
7742.000000;0.870801
7741.000000;0.870994
7740.000000;0.871206
7739.000000;0.871414
7738.000000;0.871658
7737.000000;0.871938
7736.000000;0.872205
7735.000000;0.872419
7734.000000;0.872573
7733.000000;0.872661
7732.000000;0.872707
7731.000000;0.872800
7730.000000;0.873025
7729.000000;0.873344
7728.000000;0.873604
7727.000000;0.873678
7726.000000;0.873584
7725.000000;0.873435
7724.000000;0.873318
7723.000000;0.873239
7722.000000;0.873152
7721.000000;0.873041
7720.000000;0.872959
7719.000000;0.872991
7718.000000;0.873166
7717.000000;0.873432
7716.000000;0.873714
7715.000000;0.873964
7714.000000;0.874175
7713.000000;0.874382
7712.000000;0.874670
7711.000000;0.875096
7710.000000;0.875553
7709.000000;0.875799
7708.000000;0.875715
7707.000000;0.875517
7706.000000;0.875553
7705.000000;0.875903
7704.000000;0.876281
7703.000000;0.876387
7702.000000;0.876238
7701.000000;0.876111
7700.000000;0.876246
7699.000000;0.876693
7698.000000;0.877349
7697.000000;0.878008
7696.000000;0.878433
7695.000000;0.878519
7694.000000;0.878399
7693.000000;0.878304
7692.000000;0.878324
7691.000000;0.878372
7690.000000;0.878369
7689.000000;0.878337
7688.000000;0.878297
7687.000000;0.878205
7686.000000;0.878076
7685.000000;0.878054
7684.000000;0.878261
7683.000000;0.878641
7682.000000;0.879038
7681.000000;0.879387
7680.000000;0.879722
7679.000000;0.880040
7678.000000;0.880287
7677.000000;0.880442
7676.000000;0.880529
7675.000000;0.880534
7674.000000;0.880441
7673.000000;0.880360
7672.000000;0.880485
7671.000000;0.880874
7670.000000;0.881367
7669.000000;0.881800
7668.000000;0.882190
7667.000000;0.882604
7666.000000;0.882973
7665.000000;0.883165
7664.000000;0.883210
7663.000000;0.883279
7662.000000;0.883440
7661.000000;0.883569
7660.000000;0.883553
7659.000000;0.883460
7658.000000;0.883440
7657.000000;0.883552
7656.000000;0.883746
7655.000000;0.883969
7654.000000;0.884200
7653.000000;0.884436
7652.000000;0.884705
7651.000000;0.885052
7650.000000;0.885461
7649.000000;0.885822
7648.000000;0.886069
7647.000000;0.886282
7646.000000;0.886552
7645.000000;0.886794
7644.000000;0.886813
7643.000000;0.886605
7642.000000;0.886436
7641.000000;0.886578
7640.000000;0.887027
7639.000000;0.887562
7638.000000;0.888002
7637.000000;0.888312
7636.000000;0.888526
7635.000000;0.888687
7634.000000;0.888858
7633.000000;0.889077
7632.000000;0.889292
7631.000000;0.889415
7630.000000;0.889463
7629.000000;0.889558
7628.000000;0.889752
7627.000000;0.889951
7626.000000;0.890068
7625.000000;0.890186
7624.000000;0.890453
7623.000000;0.890867
7622.000000;0.891260
7621.000000;0.891516
7620.000000;0.891712
7619.000000;0.892013
7618.000000;0.892460
7617.000000;0.892912
7616.000000;0.893173
7615.000000;0.893165
7614.000000;0.893012
7613.000000;0.892949
7612.000000;0.893108
7611.000000;0.893388
7610.000000;0.893584
7609.000000;0.893658
7608.000000;0.893826
7607.000000;0.894306
7606.000000;0.895043
7605.000000;0.895738
7604.000000;0.896150
7603.000000;0.896311
7602.000000;0.896459
7601.000000;0.896783
7600.000000;0.897251
7599.000000;0.897650
7598.000000;0.897775
7597.000000;0.897630
7596.000000;0.897449
7595.000000;0.897506
7594.000000;0.897908
7593.000000;0.898546
7592.000000;0.899220
7591.000000;0.899788
7590.000000;0.900219
7589.000000;0.900577
7588.000000;0.900953
7587.000000;0.901366
7586.000000;0.901746
7585.000000;0.902032
7584.000000;0.902253
7583.000000;0.902472
7582.000000;0.902671
7581.000000;0.902792
7580.000000;0.902863
7579.000000;0.902982
7578.000000;0.903160
7577.000000;0.903301
7576.000000;0.903407
7575.000000;0.903643
7574.000000;0.904104
7573.000000;0.904601
7572.000000;0.904872
7571.000000;0.904928
7570.000000;0.905045
7569.000000;0.905390
7568.000000;0.905850
7567.000000;0.906257
7566.000000;0.906630
7565.000000;0.907077
7564.000000;0.907596
7563.000000;0.908092
7562.000000;0.908547
7561.000000;0.909023
7560.000000;0.909502
7559.000000;0.909853
7558.000000;0.909979
7557.000000;0.909943
7556.000000;0.909925
7555.000000;0.910067
7554.000000;0.910365
7553.000000;0.910688
7552.000000;0.910903
7551.000000;0.911006
7550.000000;0.911148
7549.000000;0.911491
7548.000000;0.912043
7547.000000;0.912653
7546.000000;0.913140
7545.000000;0.913426
7544.000000;0.913550
7543.000000;0.913633
7542.000000;0.913806
7541.000000;0.914153
7540.000000;0.914654
7539.000000;0.915217
7538.000000;0.915744
7537.000000;0.916179
7536.000000;0.916512
7535.000000;0.916765
7534.000000;0.916987
7533.000000;0.917251
7532.000000;0.917634
7531.000000;0.918175
7530.000000;0.918818
7529.000000;0.919410
7528.000000;0.919808
7527.000000;0.920043
7526.000000;0.920309
7525.000000;0.920734
7524.000000;0.921205
7523.000000;0.921497
7522.000000;0.921560
7521.000000;0.921597
7520.000000;0.921832
7519.000000;0.922272
7518.000000;0.922726
7517.000000;0.923019
7516.000000;0.923161
7515.000000;0.923341
7514.000000;0.923769
7513.000000;0.924482
7512.000000;0.925301
7511.000000;0.925982
7510.000000;0.926443
7509.000000;0.926786
7508.000000;0.927126
7507.000000;0.927440
7506.000000;0.927632
7505.000000;0.927699
7504.000000;0.927775
7503.000000;0.928005
7502.000000;0.928469
7501.000000;0.929092
7500.000000;0.929721
7499.000000;0.930247
7498.000000;0.930681
7497.000000;0.931097
7496.000000;0.931510
7495.000000;0.931868
7494.000000;0.932170
7493.000000;0.932526
7492.000000;0.933035
7491.000000;0.933641
7490.000000;0.934158
7489.000000;0.934434
7488.000000;0.934473
7487.000000;0.934425
7486.000000;0.934499
7485.000000;0.934837
7484.000000;0.935416
7483.000000;0.936069
7482.000000;0.936643
7481.000000;0.937125
7480.000000;0.937593
7479.000000;0.938081
7478.000000;0.938531
7477.000000;0.938887
7476.000000;0.939164
7475.000000;0.939432
7474.000000;0.939736
7473.000000;0.940066
7472.000000;0.940372
7471.000000;0.940602
7470.000000;0.940752
7469.000000;0.940908
7468.000000;0.941205
7467.000000;0.941751
7466.000000;0.942541
7465.000000;0.943450
7464.000000;0.944275
7463.000000;0.944854
7462.000000;0.945173
7461.000000;0.945372
7460.000000;0.945617
7459.000000;0.945955
7458.000000;0.946311
7457.000000;0.946601
7456.000000;0.946806
7455.000000;0.946940
7454.000000;0.947017
7453.000000;0.947091
7452.000000;0.947270
7451.000000;0.947652
7450.000000;0.948216
7449.000000;0.948828
7448.000000;0.949359
7447.000000;0.949807
7446.000000;0.950300
7445.000000;0.950963
7444.000000;0.951762
7443.000000;0.952465
7442.000000;0.952816
7441.000000;0.952784
7440.000000;0.952629
7439.000000;0.952685
7438.000000;0.953061
7437.000000;0.953591
7436.000000;0.954066
7435.000000;0.954458
7434.000000;0.954882
7433.000000;0.955397
7432.000000;0.955939
7431.000000;0.956419
7430.000000;0.956812
7429.000000;0.957128
7428.000000;0.957382
7427.000000;0.957630
7426.000000;0.957945
7425.000000;0.958312
7424.000000;0.958604
7423.000000;0.958751
7422.000000;0.958908
7421.000000;0.959322
7420.000000;0.960059
7419.000000;0.960911
7418.000000;0.961607
7417.000000;0.962040
7416.000000;0.962269
7415.000000;0.962399
7414.000000;0.962515
7413.000000;0.962701
7412.000000;0.963024
7411.000000;0.963491
7410.000000;0.964030
7409.000000;0.964499
7408.000000;0.964769
7407.000000;0.964840
7406.000000;0.964907
7405.000000;0.965210
7404.000000;0.965789
7403.000000;0.966416
7402.000000;0.966835
7401.000000;0.967017
7400.000000;0.967122
7399.000000;0.967276
7398.000000;0.967488
7397.000000;0.967772
7396.000000;0.968232
7395.000000;0.968929
7394.000000;0.969732
7393.000000;0.970374
7392.000000;0.970690
7391.000000;0.970792
7390.000000;0.970946
7389.000000;0.971300
7388.000000;0.971746
7387.000000;0.972082
7386.000000;0.972243
7385.000000;0.972320
7384.000000;0.972382
7383.000000;0.972412
7382.000000;0.972443
7381.000000;0.972643
7380.000000;0.973135
7379.000000;0.973770
7378.000000;0.974217
7377.000000;0.974333
7376.000000;0.974336
7375.000000;0.974600
7374.000000;0.975286
7373.000000;0.976217
7372.000000;0.977063
7371.000000;0.977610
7370.000000;0.977868
7369.000000;0.977999
7368.000000;0.978176
7367.000000;0.978495
7366.000000;0.978966
7365.000000;0.979507
7364.000000;0.979942
7363.000000;0.980127
7362.000000;0.980154
7361.000000;0.980344
7360.000000;0.980909
7359.000000;0.981659
7358.000000;0.982165
7357.000000;0.982219
7356.000000;0.982009
7355.000000;0.981883
7354.000000;0.982012
7353.000000;0.982326
7352.000000;0.982658
7351.000000;0.982918
7350.000000;0.983163
7349.000000;0.983540
7348.000000;0.984114
7347.000000;0.984762
7346.000000;0.985347
7345.000000;0.985921
7344.000000;0.986596
7343.000000;0.987248
7342.000000;0.987591
7341.000000;0.987610
7340.000000;0.987691
7339.000000;0.988175
7338.000000;0.988954
7337.000000;0.989680
7336.000000;0.990203
7335.000000;0.990620
7334.000000;0.991043
7333.000000;0.991520
7332.000000;0.992079
7331.000000;0.992642
7330.000000;0.992976
7329.000000;0.992974
7328.000000;0.992949
7327.000000;0.993382
7326.000000;0.994323
7325.000000;0.995315
7324.000000;0.995987
7323.000000;0.996470
7322.000000;0.997152
7321.000000;0.998184
7320.000000;0.999358
7319.000000;1.000342
7318.000000;1.000912
7317.000000;1.001069
7316.000000;1.001070
7315.000000;1.001233
7314.000000;1.001610
7313.000000;1.001954
7312.000000;1.002101
7311.000000;1.002255
7310.000000;1.002692
7309.000000;1.003357
7308.000000;1.003988
7307.000000;1.004547
7306.000000;1.005261
7305.000000;1.006222
7304.000000;1.007216
7303.000000;1.008029
7302.000000;1.008697
7301.000000;1.009338
7300.000000;1.009950
7299.000000;1.010514
7298.000000;1.011165
7297.000000;1.012060
7296.000000;1.013150
7295.000000;1.014234
7294.000000;1.015214
7293.000000;1.016150
7292.000000;1.017078
7291.000000;1.017921
7290.000000;1.018638
7289.000000;1.019345
7288.000000;1.020187
7287.000000;1.021152
7286.000000;1.022096
7285.000000;1.022952
7284.000000;1.023814
7283.000000;1.024775
7282.000000;1.025790
7281.000000;1.026732
7280.000000;1.027558
7279.000000;1.028329
7278.000000;1.029086
7277.000000;1.029810
7276.000000;1.030536
7275.000000;1.031413
7274.000000;1.032563
7273.000000;1.033900
7272.000000;1.035189
7271.000000;1.036301
7270.000000;1.037333
7269.000000;1.038456
7268.000000;1.039713
7267.000000;1.041013
7266.000000;1.042283
7265.000000;1.043548
7264.000000;1.044869
7263.000000;1.046256
7262.000000;1.047647
7261.000000;1.048936
7260.000000;1.050044
7259.000000;1.050993
7258.000000;1.051914
7257.000000;1.052958
7256.000000;1.054139
7255.000000;1.055310
7254.000000;1.056324
7253.000000;1.057241
7252.000000;1.058345
7251.000000;1.059890
7250.000000;1.061824
7249.000000;1.063820
7248.000000;1.065553
7247.000000;1.066941
7246.000000;1.068120
7245.000000;1.069261
7244.000000;1.070501
7243.000000;1.072018
7242.000000;1.074000
7241.000000;1.076433
7240.000000;1.078971
7239.000000;1.081169
7238.000000;1.082864
7237.000000;1.084276
7236.000000;1.085757
7235.000000;1.087507
7234.000000;1.089518
7233.000000;1.091701
7232.000000;1.094001
7231.000000;1.096374
7230.000000;1.098741
7229.000000;1.101011
7228.000000;1.103133
7227.000000;1.105141
7226.000000;1.107182
7225.000000;1.109477
7224.000000;1.112139
7223.000000;1.115008
7222.000000;1.117728
7221.000000;1.120061
7220.000000;1.122099
7219.000000;1.124140
7218.000000;1.126411
7217.000000;1.128976
7216.000000;1.131842
7215.000000;1.134974
7214.000000;1.138213
7213.000000;1.141337
7212.000000;1.144290
7211.000000;1.147244
7210.000000;1.150343
7209.000000;1.153473
7208.000000;1.156409
7207.000000;1.159120
7206.000000;1.161778
7205.000000;1.164530
7204.000000;1.167412
7203.000000;1.170499
7202.000000;1.173936
7201.000000;1.177714
7200.000000;1.181541
7199.000000;1.185073
7198.000000;1.188228
7197.000000;1.191200
7196.000000;1.194240
7195.000000;1.197518
7194.000000;1.201105
7193.000000;1.204923
7192.000000;1.208737
7191.000000;1.212324
7190.000000;1.215700
7189.000000;1.219061
7188.000000;1.222522
7187.000000;1.226058
7186.000000;1.229712
7185.000000;1.233654
7184.000000;1.237917
7183.000000;1.242245
7182.000000;1.246366
7181.000000;1.250343
7180.000000;1.254492
7179.000000;1.259006
7178.000000;1.263757
7177.000000;1.268455
7176.000000;1.272891
7175.000000;1.277035
7174.000000;1.280996
7173.000000;1.284909
7172.000000;1.288841
7171.000000;1.292813
7170.000000;1.296888
7169.000000;1.301133
7168.000000;1.305493
7167.000000;1.309844
7166.000000;1.314261
7165.000000;1.319076
7164.000000;1.324482
7163.000000;1.330189
7162.000000;1.335657
7161.000000;1.340612
7160.000000;1.345171
7159.000000;1.349535
7158.000000;1.353812
7157.000000;1.358160
7156.000000;1.362823
7155.000000;1.367874
7154.000000;1.373075
7153.000000;1.378141
7152.000000;1.383057
7151.000000;1.388024
7150.000000;1.393141
7149.000000;1.398252
7148.000000;1.403072
7147.000000;1.407451
7146.000000;1.411554
7145.000000;1.415784
7144.000000;1.420441
7143.000000;1.425405
7142.000000;1.430251
7141.000000;1.434751
7140.000000;1.439180
7139.000000;1.444054
7138.000000;1.449555
7137.000000;1.455328
7136.000000;1.460843
7135.000000;1.465912
7134.000000;1.470774
7133.000000;1.475716
7132.000000;1.480689
7131.000000;1.485428
7130.000000;1.489897
7129.000000;1.494415
7128.000000;1.499230
7127.000000;1.504135
7126.000000;1.508733
7125.000000;1.512975
7124.000000;1.517210
7123.000000;1.521738
7122.000000;1.526565
7121.000000;1.531572
7120.000000;1.536594
7119.000000;1.541346
7118.000000;1.545644
7117.000000;1.549797
7116.000000;1.554416
7115.000000;1.559654
7114.000000;1.564963
7113.000000;1.569801
7112.000000;1.574240
7111.000000;1.578602
7110.000000;1.582827
7109.000000;1.586663
7108.000000;1.590355
7107.000000;1.594626
7106.000000;1.599817
7105.000000;1.605343
7104.000000;1.610228
7103.000000;1.614117
7102.000000;1.617569
7101.000000;1.621362
7100.000000;1.625655
7099.000000;1.629954
7098.000000;1.633858
7097.000000;1.637611
7096.000000;1.641753
7095.000000;1.646388
7094.000000;1.651109
7093.000000;1.655569
7092.000000;1.659717
7091.000000;1.663432
7090.000000;1.666446
7089.000000;1.668869
7088.000000;1.671355
7087.000000;1.674400
7086.000000;1.677767
7085.000000;1.681033
7084.000000;1.684450
7083.000000;1.688749
7082.000000;1.694098
7081.000000;1.699683
7080.000000;1.704384
7079.000000;1.707687
7078.000000;1.709945
7077.000000;1.712007
7076.000000;1.714632
7075.000000;1.718008
7074.000000;1.721744
7073.000000;1.725397
7072.000000;1.728902
7071.000000;1.732338
7070.000000;1.735507
7069.000000;1.738156
7068.000000;1.740556
7067.000000;1.743349
7066.000000;1.746635
7065.000000;1.749548
7064.000000;1.751156
7063.000000;1.751676
7062.000000;1.752489
7061.000000;1.754893
7060.000000;1.759035
7059.000000;1.763957
7058.000000;1.768443
7057.000000;1.771759
7056.000000;1.773895
7055.000000;1.775530
7054.000000;1.777748
7053.000000;1.781268
7052.000000;1.785583
7051.000000;1.789146
7050.000000;1.790894
7049.000000;1.791414
7048.000000;1.792122
7047.000000;1.793521
7046.000000;1.794937
7045.000000;1.795914
7044.000000;1.796958
7043.000000;1.798515
7042.000000;1.800045
7041.000000;1.800880
7040.000000;1.801526
7039.000000;1.803294
7038.000000;1.806688
7037.000000;1.810763
7036.000000;1.814113
7035.000000;1.816079
7034.000000;1.816985
7033.000000;1.817683
7032.000000;1.819038
7031.000000;1.821438
7030.000000;1.824484
7029.000000;1.827273
7028.000000;1.829119
7027.000000;1.830055
7026.000000;1.830740
7025.000000;1.831956
7024.000000;1.833986
7023.000000;1.836229
7022.000000;1.837639
7021.000000;1.837881
7020.000000;1.837864
7019.000000;1.838769
7018.000000;1.840721
7017.000000;1.842805
7016.000000;1.844276
7015.000000;1.845272
7014.000000;1.846345
7013.000000;1.847788
7012.000000;1.849555
7011.000000;1.851395
7010.000000;1.852905
7009.000000;1.853824
7008.000000;1.854459
7007.000000;1.855466
7006.000000;1.856992
7005.000000;1.858328
7004.000000;1.858686
7003.000000;1.858107
7002.000000;1.857308
7001.000000;1.856800
7000.000000;1.856559
6999.000000;1.856532
6998.000000;1.857010
6997.000000;1.858317
6996.000000;1.860306
6995.000000;1.862366
6994.000000;1.863918
6993.000000;1.864825
6992.000000;1.865488
6991.000000;1.866605
6990.000000;1.868604
6989.000000;1.871061
6988.000000;1.872857
6987.000000;1.873269
6986.000000;1.872913
6985.000000;1.873128
6984.000000;1.874351
6983.000000;1.875605
6982.000000;1.875862
6981.000000;1.875398
6980.000000;1.875181
6979.000000;1.875316
6978.000000;1.874970
6977.000000;1.873793
6976.000000;1.872619
6975.000000;1.872543
6974.000000;1.873884
6973.000000;1.876228
6972.000000;1.878884
6971.000000;1.880977
6970.000000;1.881683
6969.000000;1.881034
6968.000000;1.880229
6967.000000;1.880627
6966.000000;1.882432
6965.000000;1.884515
6964.000000;1.885461
6963.000000;1.884763
6962.000000;1.883215
6961.000000;1.882223
6960.000000;1.882462
6959.000000;1.883120
6958.000000;1.882836
6957.000000;1.881504
6956.000000;1.880520
6955.000000;1.880965
6954.000000;1.882276
6953.000000;1.883168
6952.000000;1.883247
6951.000000;1.882979
6950.000000;1.882576
6949.000000;1.881833
6948.000000;1.880915
6947.000000;1.880417
6946.000000;1.880574
6945.000000;1.881042
6944.000000;1.881525
6943.000000;1.882034
6942.000000;1.882434
6941.000000;1.882330
6940.000000;1.881598
6939.000000;1.880638
6938.000000;1.880031
6937.000000;1.880292
6936.000000;1.881803
6935.000000;1.884351
6934.000000;1.886704
6933.000000;1.887390
6932.000000;1.886238
6931.000000;1.884574
6930.000000;1.883641
6929.000000;1.883402
6928.000000;1.883128
6927.000000;1.882553
6926.000000;1.881999
6925.000000;1.881808
6924.000000;1.882190
6923.000000;1.883333
6922.000000;1.885153
6921.000000;1.886982
6920.000000;1.887861
6919.000000;1.887271
6918.000000;1.885506
6917.000000;1.883361
6916.000000;1.881568
6915.000000;1.880407
6914.000000;1.879737
6913.000000;1.879380
6912.000000;1.879419
6911.000000;1.879990
6910.000000;1.880865
6909.000000;1.881546
6908.000000;1.881811
6907.000000;1.881879
6906.000000;1.881965
6905.000000;1.881957
6904.000000;1.881632
6903.000000;1.881008
6902.000000;1.880375
6901.000000;1.880193
6900.000000;1.880942
6899.000000;1.882678
6898.000000;1.884594
6897.000000;1.885389
6896.000000;1.884403
6895.000000;1.882261
6894.000000;1.880232
6893.000000;1.879163
6892.000000;1.879082
6891.000000;1.879458
6890.000000;1.879634
6889.000000;1.879250
6888.000000;1.878473
6887.000000;1.877713
6886.000000;1.877114
6885.000000;1.876584
6884.000000;1.876280
6883.000000;1.876584
6882.000000;1.877446
6881.000000;1.878212
6880.000000;1.878374
6879.000000;1.878041
6878.000000;1.877406
6877.000000;1.876248
6876.000000;1.874483
6875.000000;1.872783
6874.000000;1.872043
6873.000000;1.872421
6872.000000;1.873393
6871.000000;1.874443
6870.000000;1.875161
6869.000000;1.874925
6868.000000;1.873301
6867.000000;1.870824
6866.000000;1.868713
6865.000000;1.867615
6864.000000;1.867183
6863.000000;1.866990
6862.000000;1.867292
6861.000000;1.868492
6860.000000;1.870248
6859.000000;1.871570
6858.000000;1.871732
6857.000000;1.870819
6856.000000;1.869443
6855.000000;1.868102
6854.000000;1.866811
6853.000000;1.865284
6852.000000;1.863561
6851.000000;1.862339
6850.000000;1.862339
6849.000000;1.863334
6848.000000;1.864211
6847.000000;1.864191
6846.000000;1.863601
6845.000000;1.863158
6844.000000;1.862880
6843.000000;1.862219
6842.000000;1.861041
6841.000000;1.859890
6840.000000;1.859215
6839.000000;1.858803
6838.000000;1.858140
6837.000000;1.857077
6836.000000;1.855969
6835.000000;1.855268
6834.000000;1.855061
6833.000000;1.854950
6832.000000;1.854408
6831.000000;1.853410
6830.000000;1.852584
6829.000000;1.852436
6828.000000;1.852431
6827.000000;1.851283
6826.000000;1.848442
6825.000000;1.844959
6824.000000;1.842539
6823.000000;1.841896
6822.000000;1.842274
6821.000000;1.842407
6820.000000;1.841586
6819.000000;1.839818
6818.000000;1.837395
6817.000000;1.834601
6816.000000;1.831712
6815.000000;1.829095
6814.000000;1.827251
6813.000000;1.826653
6812.000000;1.827272
6811.000000;1.828178
6810.000000;1.828000
6809.000000;1.826173
6808.000000;1.823568
6807.000000;1.821538
6806.000000;1.820456
6805.000000;1.819523
6804.000000;1.817965
6803.000000;1.815942
6802.000000;1.814132
6801.000000;1.812828
6800.000000;1.811794
6799.000000;1.810698
6798.000000;1.809288
6797.000000;1.807290
6796.000000;1.804615
6795.000000;1.801695
6794.000000;1.799193
6793.000000;1.797297
6792.000000;1.795596
6791.000000;1.793775
6790.000000;1.792108
6789.000000;1.791009
6788.000000;1.790330
6787.000000;1.789487
6786.000000;1.788189
6785.000000;1.786667
6784.000000;1.785153
6783.000000;1.783499
6782.000000;1.781499
6781.000000;1.779374
6780.000000;1.777647
6779.000000;1.776521
6778.000000;1.775546
6777.000000;1.773995
6776.000000;1.771575
6775.000000;1.768701
6774.000000;1.766049
6773.000000;1.763894
6772.000000;1.761990
6771.000000;1.760003
6770.000000;1.757931
6769.000000;1.756014
6768.000000;1.754359
6767.000000;1.752815
6766.000000;1.751177
6765.000000;1.749370
6764.000000;1.747423
6763.000000;1.745445
6762.000000;1.743652
6761.000000;1.742227
6760.000000;1.741012
6759.000000;1.739481
6758.000000;1.737219
6757.000000;1.734412
6756.000000;1.731716
6755.000000;1.729619
6754.000000;1.728029
6753.000000;1.726485
6752.000000;1.724629
6751.000000;1.722450
6750.000000;1.720186
6749.000000;1.718127
6748.000000;1.716487
6747.000000;1.715253
6746.000000;1.714117
6745.000000;1.712699
6744.000000;1.710890
6743.000000;1.708905
6742.000000;1.706919
6741.000000;1.704785
6740.000000;1.702223
6739.000000;1.699228
6738.000000;1.696169
6737.000000;1.693522
6736.000000;1.691578
6735.000000;1.690292
6734.000000;1.689251
6733.000000;1.687849
6732.000000;1.685772
6731.000000;1.683330
6730.000000;1.681154
6729.000000;1.679535
6728.000000;1.678244
6727.000000;1.676972
6726.000000;1.675644
6725.000000;1.674195
6724.000000;1.672371
6723.000000;1.670044
6722.000000;1.667526
6721.000000;1.665257
6720.000000;1.663265
6719.000000;1.661218
6718.000000;1.658947
6717.000000;1.656657
6716.000000;1.654613
6715.000000;1.652889
6714.000000;1.651400
6713.000000;1.649957
6712.000000;1.648233
6711.000000;1.645978
6710.000000;1.643348
6709.000000;1.640918
6708.000000;1.639174
6707.000000;1.638040
6706.000000;1.636999
6705.000000;1.635453
6704.000000;1.633108
6703.000000;1.630218
6702.000000;1.627514
6701.000000;1.625650
6700.000000;1.624575
6699.000000;1.623578
6698.000000;1.622041
6697.000000;1.619999
6696.000000;1.617884
6695.000000;1.615949
6694.000000;1.614145
6693.000000;1.612386
6692.000000;1.610675
6691.000000;1.609008
6690.000000;1.607318
6689.000000;1.605516
6688.000000;1.603486
6687.000000;1.601109
6686.000000;1.598425
6685.000000;1.595745
6684.000000;1.593456
6683.000000;1.591707
6682.000000;1.590341
6681.000000;1.589093
6680.000000;1.587784
6679.000000;1.586345
6678.000000;1.584771
6677.000000;1.583063
6676.000000;1.581207
6675.000000;1.579248
6674.000000;1.577372
6673.000000;1.575806
6672.000000;1.574533
6671.000000;1.573218
6670.000000;1.571535
6669.000000;1.569546
6668.000000;1.567617
6667.000000;1.565986
6666.000000;1.564536
6665.000000;1.562998
6664.000000;1.561259
6663.000000;1.559396
6662.000000;1.557477
6661.000000;1.555449
6660.000000;1.553247
6659.000000;1.550965
6658.000000;1.548837
6657.000000;1.547031
6656.000000;1.545539
6655.000000;1.544290
6654.000000;1.543264
6653.000000;1.542356
6652.000000;1.541231
6651.000000;1.539547
6650.000000;1.537356
6649.000000;1.535098
6648.000000;1.533173
6647.000000;1.531652
6646.000000;1.530434
6645.000000;1.529400
6644.000000;1.528327
6643.000000;1.526867
6642.000000;1.524859
6641.000000;1.522536
6640.000000;1.520284
6639.000000;1.518271
6638.000000;1.516468
6637.000000;1.514864
6636.000000;1.513465
6635.000000;1.512178
6634.000000;1.510880
6633.000000;1.509558
6632.000000;1.508237
6631.000000;1.506832
6630.000000;1.505230
6629.000000;1.503437
6628.000000;1.501524
6627.000000;1.499558
6626.000000;1.497735
6625.000000;1.496415
6624.000000;1.495721
6623.000000;1.495212
6622.000000;1.494253
6621.000000;1.492723
6620.000000;1.491039
6619.000000;1.489499
6618.000000;1.487958
6617.000000;1.486228
6616.000000;1.484450
6615.000000;1.482846
6614.000000;1.481363
6613.000000;1.479775
6612.000000;1.477986
6611.000000;1.476084
6610.000000;1.474210
6609.000000;1.472546
6608.000000;1.471240
6607.000000;1.470181
6606.000000;1.468977
6605.000000;1.467370
6604.000000;1.465554
6603.000000;1.463908
6602.000000;1.462524
6601.000000;1.461218
6600.000000;1.459920
6599.000000;1.458763
6598.000000;1.457769
6597.000000;1.456708
6596.000000;1.455370
6595.000000;1.453807
6594.000000;1.452214
6593.000000;1.450691
6592.000000;1.449225
6591.000000;1.447772
6590.000000;1.446273
6589.000000;1.444666
6588.000000;1.442998
6587.000000;1.441450
6586.000000;1.440158
6585.000000;1.439047
6584.000000;1.437957
6583.000000;1.436862
6582.000000;1.435851
6581.000000;1.434883
6580.000000;1.433750
6579.000000;1.432335
6578.000000;1.430786
6577.000000;1.429331
6576.000000;1.427987
6575.000000;1.426603
6574.000000;1.425152
6573.000000;1.423783
6572.000000;1.422554
6571.000000;1.421280
6570.000000;1.419780
6569.000000;1.418173
6568.000000;1.416735
6567.000000;1.415508
6566.000000;1.414250
6565.000000;1.412810
6564.000000;1.411404
6563.000000;1.410370
6562.000000;1.409739
6561.000000;1.409172
6560.000000;1.408306
6559.000000;1.407070
6558.000000;1.405645
6557.000000;1.404225
6556.000000;1.402859
6555.000000;1.401490
6554.000000;1.400064
6553.000000;1.398623
6552.000000;1.397300
6551.000000;1.396224
6550.000000;1.395399
6549.000000;1.394647
6548.000000;1.393707
6547.000000;1.392422
6546.000000;1.390876
6545.000000;1.389321
6544.000000;1.387995
6543.000000;1.386994
6542.000000;1.386284
6541.000000;1.385725
6540.000000;1.385074
6539.000000;1.384065
6538.000000;1.382636
6537.000000;1.381048
6536.000000;1.379670
6535.000000;1.378615
6534.000000;1.377677
6533.000000;1.376659
6532.000000;1.375635
6531.000000;1.374782
6530.000000;1.374051
6529.000000;1.373158
6528.000000;1.371906
6527.000000;1.370388
6526.000000;1.368856
6525.000000;1.367481
6524.000000;1.366311
6523.000000;1.365350
6522.000000;1.364534
6521.000000;1.363695
6520.000000;1.362655
6519.000000;1.361430
6518.000000;1.360235
6517.000000;1.359262
6516.000000;1.358490
6515.000000;1.357730
6514.000000;1.356821
6513.000000;1.355734
6512.000000;1.354529
6511.000000;1.353275
6510.000000;1.352011
6509.000000;1.350781
6508.000000;1.349671
6507.000000;1.348799
6506.000000;1.348199
6505.000000;1.347707
6504.000000;1.347040
6503.000000;1.346075
6502.000000;1.344995
6501.000000;1.344065
6500.000000;1.343298
6499.000000;1.342437
6498.000000;1.341298
6497.000000;1.339997
6496.000000;1.338802
6495.000000;1.337827
6494.000000;1.336958
6493.000000;1.336026
6492.000000;1.334986
6491.000000;1.333931
6490.000000;1.332988
6489.000000;1.332212
6488.000000;1.331551
6487.000000;1.330916
6486.000000;1.330268
6485.000000;1.329606
6484.000000;1.328893
6483.000000;1.328022
6482.000000;1.326912
6481.000000;1.325613
6480.000000;1.324316
6479.000000;1.323238
6478.000000;1.322484
6477.000000;1.321949
6476.000000;1.321393
6475.000000;1.320656
6474.000000;1.319793
6473.000000;1.318929
6472.000000;1.318019
6471.000000;1.316894
6470.000000;1.315564
6469.000000;1.314333
6468.000000;1.313521
6467.000000;1.313132
6466.000000;1.312905
6465.000000;1.312573
6464.000000;1.311997
6463.000000;1.311114
6462.000000;1.309931
6461.000000;1.308589
6460.000000;1.307309
6459.000000;1.306243
6458.000000;1.305414
6457.000000;1.304780
6456.000000;1.304281
6455.000000;1.303803
6454.000000;1.303202
6453.000000;1.302416
6452.000000;1.301500
6451.000000;1.300547
6450.000000;1.299601
6449.000000;1.298672
6448.000000;1.297806
6447.000000;1.297065
6446.000000;1.296442
6445.000000;1.295783
6444.000000;1.294870
6443.000000;1.293637
6442.000000;1.292308
6441.000000;1.291239
6440.000000;1.290588
6439.000000;1.290204
6438.000000;1.289860
6437.000000;1.289469
6436.000000;1.289018
6435.000000;1.288415
6434.000000;1.287589
6433.000000;1.286675
6432.000000;1.285939
6431.000000;1.285464
6430.000000;1.285050
6429.000000;1.284453
6428.000000;1.283608
6427.000000;1.282605
6426.000000;1.281539
6425.000000;1.280474
6424.000000;1.279475
6423.000000;1.278595
6422.000000;1.277844
6421.000000;1.277191
6420.000000;1.276582
6419.000000;1.275963
6418.000000;1.275334
6417.000000;1.274761
6416.000000;1.274288
6415.000000;1.273863
6414.000000;1.273372
6413.000000;1.272735
6412.000000;1.271909
6411.000000;1.270893
6410.000000;1.269805
6409.000000;1.268896
6408.000000;1.268298
6407.000000;1.267803
6406.000000;1.267089
6405.000000;1.266168
6404.000000;1.265397
6403.000000;1.264970
6402.000000;1.264628
6401.000000;1.264033
6400.000000;1.263237
6399.000000;1.262567
6398.000000;1.262135
6397.000000;1.261705
6396.000000;1.261028
6395.000000;1.260122
6394.000000;1.259176
6393.000000;1.258345
6392.000000;1.257687
6391.000000;1.257196
6390.000000;1.256783
6389.000000;1.256302
6388.000000;1.255640
6387.000000;1.254790
6386.000000;1.253825
6385.000000;1.252889
6384.000000;1.252166
6383.000000;1.251765
6382.000000;1.251579
6381.000000;1.251341
6380.000000;1.250864
6379.000000;1.250190
6378.000000;1.249455
6377.000000;1.248727
6376.000000;1.248024
6375.000000;1.247419
6374.000000;1.246997
6373.000000;1.246690
6372.000000;1.246290
6371.000000;1.245665
6370.000000;1.244909
6369.000000;1.244222
6368.000000;1.243675
6367.000000;1.243169
6366.000000;1.242582
6365.000000;1.241903
6364.000000;1.241222
6363.000000;1.240636
6362.000000;1.240211
6361.000000;1.239940
6360.000000;1.239717
6359.000000;1.239382
6358.000000;1.238855
6357.000000;1.238212
6356.000000;1.237557
6355.000000;1.236875
6354.000000;1.236080
6353.000000;1.235212
6352.000000;1.234460
6351.000000;1.233942
6350.000000;1.233542
6349.000000;1.233053
6348.000000;1.232432
6347.000000;1.231833
6346.000000;1.231392
6345.000000;1.231080
6344.000000;1.230769
6343.000000;1.230372
6342.000000;1.229885
6341.000000;1.229319
6340.000000;1.228675
6339.000000;1.227962
6338.000000;1.227231
6337.000000;1.226557
6336.000000;1.225992
6335.000000;1.225534
6334.000000;1.225146
6333.000000;1.224792
6332.000000;1.224450
6331.000000;1.224078
6330.000000;1.223618
6329.000000;1.223059
6328.000000;1.222486
6327.000000;1.222011
6326.000000;1.221646
6325.000000;1.221268
6324.000000;1.220763
6323.000000;1.220179
6322.000000;1.219703
6321.000000;1.219469
6320.000000;1.219408
6319.000000;1.219302
6318.000000;1.218965
6317.000000;1.218370
6316.000000;1.217622
6315.000000;1.216855
6314.000000;1.216180
6313.000000;1.215678
6312.000000;1.215372
6311.000000;1.215171
6310.000000;1.214885
6309.000000;1.214357
6308.000000;1.213604
6307.000000;1.212820
6306.000000;1.212222
6305.000000;1.211880
6304.000000;1.211691
6303.000000;1.211501
6302.000000;1.211235
6301.000000;1.210883
6300.000000;1.210426
6299.000000;1.209833
6298.000000;1.209138
6297.000000;1.208479
6296.000000;1.207988
6295.000000;1.207689
6294.000000;1.207492
6293.000000;1.207286
6292.000000;1.206990
6291.000000;1.206570
6290.000000;1.206064
6289.000000;1.205603
6288.000000;1.205319
6287.000000;1.205218
6286.000000;1.205154
6285.000000;1.204952
6284.000000;1.204530
6283.000000;1.203914
6282.000000;1.203203
6281.000000;1.202518
6280.000000;1.201943
6279.000000;1.201476
6278.000000;1.201059
6277.000000;1.200673
6276.000000;1.200366
6275.000000;1.200168
6274.000000;1.200008
6273.000000;1.199768
6272.000000;1.199382
6271.000000;1.198872
6270.000000;1.198314
6269.000000;1.197793
6268.000000;1.197352
6267.000000;1.196964
6266.000000;1.196571
6265.000000;1.196179
6264.000000;1.195878
6263.000000;1.195721
6262.000000;1.195622
6261.000000;1.195423
6260.000000;1.195055
6259.000000;1.194593
6258.000000;1.194165
6257.000000;1.193854
6256.000000;1.193677
6255.000000;1.193588
6254.000000;1.193498
6253.000000;1.193325
6252.000000;1.193068
6251.000000;1.192807
6250.000000;1.192607
6249.000000;1.192447
6248.000000;1.192225
6247.000000;1.191845
6246.000000;1.191310
6245.000000;1.190731
6244.000000;1.190237
6243.000000;1.189844
6242.000000;1.189438
6241.000000;1.188916
6240.000000;1.188335
6239.000000;1.187866
6238.000000;1.187605
6237.000000;1.187492
6236.000000;1.187399
6235.000000;1.187251
6234.000000;1.187033
6233.000000;1.186748
6232.000000;1.186432
6231.000000;1.186161
6230.000000;1.185975
6229.000000;1.185795
6228.000000;1.185476
6227.000000;1.184973
6226.000000;1.184404
6225.000000;1.183942
6224.000000;1.183645
6223.000000;1.183425
6222.000000;1.183165
6221.000000;1.182833
6220.000000;1.182491
6219.000000;1.182209
6218.000000;1.182005
6217.000000;1.181869
6216.000000;1.181797
6215.000000;1.181782
6214.000000;1.181786
6213.000000;1.181738
6212.000000;1.181592
6211.000000;1.181357
6210.000000;1.181078
6209.000000;1.180776
6208.000000;1.180446
6207.000000;1.180094
6206.000000;1.179761
6205.000000;1.179485
6204.000000;1.179251
6203.000000;1.179005
6202.000000;1.178734
6201.000000;1.178502
6200.000000;1.178367
6199.000000;1.178278
6198.000000;1.178081
6197.000000;1.177663
6196.000000;1.177076
6195.000000;1.176503
6194.000000;1.176118
6193.000000;1.175968
6192.000000;1.175969
6191.000000;1.175966
6190.000000;1.175829
6189.000000;1.175531
6188.000000;1.175135
6187.000000;1.174717
6186.000000;1.174315
6185.000000;1.173965
6184.000000;1.173744
6183.000000;1.173689
6182.000000;1.173711
6181.000000;1.173630
6180.000000;1.173359
6179.000000;1.172986
6178.000000;1.172680
6177.000000;1.172527
6176.000000;1.172488
6175.000000;1.172459
6174.000000;1.172354
6173.000000;1.172143
6172.000000;1.171881
6171.000000;1.171653
6170.000000;1.171472
6169.000000;1.171247
6168.000000;1.170897
6167.000000;1.170492
6166.000000;1.170202
6165.000000;1.170109
6164.000000;1.170106
6163.000000;1.170016
6162.000000;1.169776
6161.000000;1.169480
6160.000000;1.169252
6159.000000;1.169121
6158.000000;1.169013
6157.000000;1.168842
6156.000000;1.168585
6155.000000;1.168287
6154.000000;1.167997
6153.000000;1.167727
6152.000000;1.167463
6151.000000;1.167207
6150.000000;1.166991
6149.000000;1.166841
6148.000000;1.166747
6147.000000;1.166670
6146.000000;1.166588
6145.000000;1.166522
6144.000000;1.166499
6143.000000;1.166497
6142.000000;1.166453
6141.000000;1.166343
6140.000000;1.166211
6139.000000;1.166090
6138.000000;1.165932
6137.000000;1.165662
6136.000000;1.165310
6135.000000;1.165009
6134.000000;1.164837
6133.000000;1.164711
6132.000000;1.164484
6131.000000;1.164136
6130.000000;1.163797
6129.000000;1.163611
6128.000000;1.163604
6127.000000;1.163681
6126.000000;1.163706
6125.000000;1.163597
6124.000000;1.163388
6123.000000;1.163195
6122.000000;1.163095
6121.000000;1.163038
6120.000000;1.162919
6119.000000;1.162717
6118.000000;1.162517
6117.000000;1.162393
6116.000000;1.162310
6115.000000;1.162170
6114.000000;1.161906
6113.000000;1.161533
6112.000000;1.161140
6111.000000;1.160866
6110.000000;1.160812
6109.000000;1.160940
6108.000000;1.161079
6107.000000;1.161069
6106.000000;1.160892
6105.000000;1.160646
6104.000000;1.160437
6103.000000;1.160316
6102.000000;1.160281
6101.000000;1.160277
6100.000000;1.160219
6099.000000;1.160068
6098.000000;1.159885
6097.000000;1.159769
6096.000000;1.159733
6095.000000;1.159690
6094.000000;1.159548
6093.000000;1.159303
6092.000000;1.159022
6091.000000;1.158775
6090.000000;1.158592
6089.000000;1.158466
6088.000000;1.158369
6087.000000;1.158272
6086.000000;1.158176
6085.000000;1.158108
6084.000000;1.158094
6083.000000;1.158128
6082.000000;1.158181
6081.000000;1.158217
6080.000000;1.158214
6079.000000;1.158152
6078.000000;1.158009
6077.000000;1.157777
6076.000000;1.157522
6075.000000;1.157385
6074.000000;1.157457
6073.000000;1.157645
6072.000000;1.157723
6071.000000;1.157554
6070.000000;1.157240
6069.000000;1.156994
6068.000000;1.156909
6067.000000;1.156906
6066.000000;1.156869
6065.000000;1.156768
6064.000000;1.156641
6063.000000;1.156542
6062.000000;1.156523
6061.000000;1.156599
6060.000000;1.156712
6059.000000;1.156759
6058.000000;1.156681
6057.000000;1.156511
6056.000000;1.156310
6055.000000;1.156124
6054.000000;1.156000
6053.000000;1.155995
6052.000000;1.156104
6051.000000;1.156234
6050.000000;1.156286
6049.000000;1.156258
6048.000000;1.156207
6047.000000;1.156152
6046.000000;1.156055
6045.000000;1.155894
6044.000000;1.155709
6043.000000;1.155543
6042.000000;1.155398
6041.000000;1.155254
6040.000000;1.155124
6039.000000;1.155066
6038.000000;1.155131
6037.000000;1.155313
6036.000000;1.155535
6035.000000;1.155693
6034.000000;1.155732
6033.000000;1.155687
6032.000000;1.155638
6031.000000;1.155643
6030.000000;1.155697
6029.000000;1.155743
6028.000000;1.155708
6027.000000;1.155562
6026.000000;1.155383
6025.000000;1.155321
6024.000000;1.155453
6023.000000;1.155667
6022.000000;1.155753
6021.000000;1.155624
6020.000000;1.155404
6019.000000;1.155285
6018.000000;1.155321
6017.000000;1.155421
6016.000000;1.155488
6015.000000;1.155511
6014.000000;1.155515
6013.000000;1.155492
6012.000000;1.155414
6011.000000;1.155306
6010.000000;1.155234
6009.000000;1.155244
6008.000000;1.155314
6007.000000;1.155396
6006.000000;1.155486
6005.000000;1.155641
6004.000000;1.155913
6003.000000;1.156273
6002.000000;1.156592
6001.000000;1.156734
6000.000000;1.156672
5999.000000;1.156513
5998.000000;1.156402
5997.000000;1.156393
5996.000000;1.156440
5995.000000;1.156490
5994.000000;1.156565
5993.000000;1.156729
5992.000000;1.157003
5991.000000;1.157330
5990.000000;1.157632
5989.000000;1.157877
5988.000000;1.158076
5987.000000;1.158231
5986.000000;1.158311
5985.000000;1.158297
5984.000000;1.158229
5983.000000;1.158189
5982.000000;1.158234
5981.000000;1.158371
5980.000000;1.158583
5979.000000;1.158857
5978.000000;1.159173
5977.000000;1.159471
5976.000000;1.159678
5975.000000;1.159756
5974.000000;1.159728
5973.000000;1.159668
5972.000000;1.159669
5971.000000;1.159803
5970.000000;1.160072
5969.000000;1.160395
5968.000000;1.160695
5967.000000;1.160975
5966.000000;1.161273
5965.000000;1.161555
5964.000000;1.161732
5963.000000;1.161806
5962.000000;1.161916
5961.000000;1.162188
5960.000000;1.162589
5959.000000;1.162980
5958.000000;1.163277
5957.000000;1.163485
5956.000000;1.163627
5955.000000;1.163727
5954.000000;1.163857
5953.000000;1.164104
5952.000000;1.164455
5951.000000;1.164786
5950.000000;1.165011
5949.000000;1.165183
5948.000000;1.165413
5947.000000;1.165743
5946.000000;1.166144
5945.000000;1.166557
5944.000000;1.166909
5943.000000;1.167116
5942.000000;1.167170
5941.000000;1.167196
5940.000000;1.167350
5939.000000;1.167675
5938.000000;1.168081
5937.000000;1.168461
5936.000000;1.168774
5935.000000;1.169022
5934.000000;1.169212
5933.000000;1.169381
5932.000000;1.169599
5931.000000;1.169914
5930.000000;1.170292
5929.000000;1.170658
5928.000000;1.170971
5927.000000;1.171248
5926.000000;1.171509
5925.000000;1.171736
5924.000000;1.171897
5923.000000;1.172003
5922.000000;1.172106
5921.000000;1.172251
5920.000000;1.172429
5919.000000;1.172606
5918.000000;1.172766
5917.000000;1.172922
5916.000000;1.173081
5915.000000;1.173234
5914.000000;1.173381
5913.000000;1.173543
5912.000000;1.173729
5911.000000;1.173908
5910.000000;1.174033
5909.000000;1.174089
5908.000000;1.174090
5907.000000;1.174061
5906.000000;1.174029
5905.000000;1.174030
5904.000000;1.174093
5903.000000;1.174216
5902.000000;1.174382
5901.000000;1.174568
5900.000000;1.174731
5899.000000;1.174810
5898.000000;1.174788
5897.000000;1.174737
5896.000000;1.174771
5895.000000;1.174930
5894.000000;1.175155
5893.000000;1.175382
5892.000000;1.175617
5891.000000;1.175879
5890.000000;1.176131
5889.000000;1.176305
5888.000000;1.176398
5887.000000;1.176464
5886.000000;1.176523
5885.000000;1.176518
5884.000000;1.176407
5883.000000;1.176238
5882.000000;1.176119
5881.000000;1.176116
5880.000000;1.176234
5879.000000;1.176466
5878.000000;1.176811
5877.000000;1.177223
5876.000000;1.177597
5875.000000;1.177842
5874.000000;1.177959
5873.000000;1.178015
5872.000000;1.178055
5871.000000;1.178088
5870.000000;1.178152
5869.000000;1.178335
5868.000000;1.178687
5867.000000;1.179136
5866.000000;1.179535
5865.000000;1.179808
5864.000000;1.180012
5863.000000;1.180254
5862.000000;1.180566
5861.000000;1.180879
5860.000000;1.181109
5859.000000;1.181249
5858.000000;1.181373
5857.000000;1.181580
5856.000000;1.181932
5855.000000;1.182422
5854.000000;1.182982
5853.000000;1.183515
5852.000000;1.183959
5851.000000;1.184332
5850.000000;1.184717
5849.000000;1.185164
5848.000000;1.185630
5847.000000;1.186029
5846.000000;1.186339
5845.000000;1.186640
5844.000000;1.187014
5843.000000;1.187456
5842.000000;1.187904
5841.000000;1.188335
5840.000000;1.188781
5839.000000;1.189258
5838.000000;1.189738
5837.000000;1.190209
5836.000000;1.190731
5835.000000;1.191367
5834.000000;1.192076
5833.000000;1.192727
5832.000000;1.193213
5831.000000;1.193542
5830.000000;1.193797
5829.000000;1.194041
5828.000000;1.194298
5827.000000;1.194579
5826.000000;1.194908
5825.000000;1.195297
5824.000000;1.195725
5823.000000;1.196171
5822.000000;1.196656
5821.000000;1.197240
5820.000000;1.197934
5819.000000;1.198645
5818.000000;1.199222
5817.000000;1.199599
5816.000000;1.199862
5815.000000;1.200161
5814.000000;1.200570
5813.000000;1.201051
5812.000000;1.201553
5811.000000;1.202087
5810.000000;1.202691
5809.000000;1.203361
5808.000000;1.204044
5807.000000;1.204691
5806.000000;1.205281
5805.000000;1.205818
5804.000000;1.206329
5803.000000;1.206866
5802.000000;1.207460
5801.000000;1.208075
5800.000000;1.208642
5799.000000;1.209148
5798.000000;1.209669
5797.000000;1.210287
5796.000000;1.211006
5795.000000;1.211742
5794.000000;1.212398
5793.000000;1.212912
5792.000000;1.213282
5791.000000;1.213567
5790.000000;1.213872
5789.000000;1.214287
5788.000000;1.214824
5787.000000;1.215417
5786.000000;1.215988
5785.000000;1.216516
5784.000000;1.217050
5783.000000;1.217654
5782.000000;1.218338
5781.000000;1.219023
5780.000000;1.219608
5779.000000;1.220068
5778.000000;1.220489
5777.000000;1.220982
5776.000000;1.221564
5775.000000;1.222167
5774.000000;1.222731
5773.000000;1.223275
5772.000000;1.223844
5771.000000;1.224424
5770.000000;1.224947
5769.000000;1.225380
5768.000000;1.225779
5767.000000;1.226236
5766.000000;1.226788
5765.000000;1.227411
5764.000000;1.228058
5763.000000;1.228689
5762.000000;1.229265
5761.000000;1.229760
5760.000000;1.230182
5759.000000;1.230582
5758.000000;1.231035
5757.000000;1.231610
5756.000000;1.232343
5755.000000;1.233194
5754.000000;1.234036
5753.000000;1.234722
5752.000000;1.235221
5751.000000;1.235637
5750.000000;1.236095
5749.000000;1.236618
5748.000000;1.237149
5747.000000;1.237653
5746.000000;1.238148
5745.000000;1.238660
5744.000000;1.239202
5743.000000;1.239788
5742.000000;1.240418
5741.000000;1.241041
5740.000000;1.241592
5739.000000;1.242067
5738.000000;1.242533
5737.000000;1.243046
5736.000000;1.243600
5735.000000;1.244160
5734.000000;1.244690
5733.000000;1.245147
5732.000000;1.245507
5731.000000;1.245831
5730.000000;1.246260
5729.000000;1.246884
5728.000000;1.247655
5727.000000;1.248452
5726.000000;1.249202
5725.000000;1.249903
5724.000000;1.250560
5723.000000;1.251165
5722.000000;1.251723
5721.000000;1.252248
5720.000000;1.252727
5719.000000;1.253146
5718.000000;1.253541
5717.000000;1.254000
5716.000000;1.254594
5715.000000;1.255314
5714.000000;1.256069
5713.000000;1.256751
5712.000000;1.257322
5711.000000;1.257876
5710.000000;1.258571
5709.000000;1.259473
5708.000000;1.260455
5707.000000;1.261325
5706.000000;1.262021
5705.000000;1.262633
5704.000000;1.263260
5703.000000;1.263888
5702.000000;1.264461
5701.000000;1.264999
5700.000000;1.265555
5699.000000;1.266136
5698.000000;1.266676
5697.000000;1.267115
5696.000000;1.267465
5695.000000;1.267810
5694.000000;1.268245
5693.000000;1.268810
5692.000000;1.269470
5691.000000;1.270162
5690.000000;1.270857
5689.000000;1.271567
5688.000000;1.272291
5687.000000;1.272980
5686.000000;1.273587
5685.000000;1.274131
5684.000000;1.274697
5683.000000;1.275354
5682.000000;1.276083
5681.000000;1.276801
5680.000000;1.277456
5679.000000;1.278093
5678.000000;1.278796
5677.000000;1.279562
5676.000000;1.280261
5675.000000;1.280758
5674.000000;1.281058
5673.000000;1.281315
5672.000000;1.281703
5671.000000;1.282300
5670.000000;1.283081
5669.000000;1.283964
5668.000000;1.284843
5667.000000;1.285603
5666.000000;1.286163
5665.000000;1.286532
5664.000000;1.286813
5663.000000;1.287138
5662.000000;1.287586
5661.000000;1.288129
5660.000000;1.288682
5659.000000;1.289198
5658.000000;1.289716
5657.000000;1.290289
5656.000000;1.290880
5655.000000;1.291375
5654.000000;1.291698
5653.000000;1.291893
5652.000000;1.292090
5651.000000;1.292407
5650.000000;1.292899
5649.000000;1.293556
5648.000000;1.294305
5647.000000;1.295024
5646.000000;1.295603
5645.000000;1.296009
5644.000000;1.296313
5643.000000;1.296647
5642.000000;1.297133
5641.000000;1.297817
5640.000000;1.298630
5639.000000;1.299411
5638.000000;1.300000
5637.000000;1.300343
5636.000000;1.300513
5635.000000;1.300662
5634.000000;1.300939
5633.000000;1.301421
5632.000000;1.302088
5631.000000;1.302830
5630.000000;1.303516
5629.000000;1.304062
5628.000000;1.304467
5627.000000;1.304793
5626.000000;1.305134
5625.000000;1.305594
5624.000000;1.306212
5623.000000;1.306894
5622.000000;1.307442
5621.000000;1.307714
5620.000000;1.307767
5619.000000;1.307794
5618.000000;1.307923
5617.000000;1.308129
5616.000000;1.308357
5615.000000;1.308654
5614.000000;1.309095
5613.000000;1.309627
5612.000000;1.310091
5611.000000;1.310402
5610.000000;1.310634
5609.000000;1.310910
5608.000000;1.311274
5607.000000;1.311719
5606.000000;1.312245
5605.000000;1.312821
5604.000000;1.313329
5603.000000;1.313655
5602.000000;1.313833
5601.000000;1.314017
5600.000000;1.314295
5599.000000;1.314595
5598.000000;1.314811
5597.000000;1.314943
5596.000000;1.315075
5595.000000;1.315247
5594.000000;1.315411
5593.000000;1.315523
5592.000000;1.315608
5591.000000;1.315725
5590.000000;1.315886
5589.000000;1.316053
5588.000000;1.316205
5587.000000;1.316367
5586.000000;1.316567
5585.000000;1.316786
5584.000000;1.316975
5583.000000;1.317125
5582.000000;1.317278
5581.000000;1.317467
5580.000000;1.317691
5579.000000;1.317937
5578.000000;1.318189
5577.000000;1.318396
5576.000000;1.318482
5575.000000;1.318438
5574.000000;1.318370
5573.000000;1.318403
5572.000000;1.318557
5571.000000;1.318748
5570.000000;1.318907
5569.000000;1.319033
5568.000000;1.319161
5567.000000;1.319313
5566.000000;1.319499
5565.000000;1.319700
5564.000000;1.319858
5563.000000;1.319910
5562.000000;1.319852
5561.000000;1.319732
5560.000000;1.319603
5559.000000;1.319497
5558.000000;1.319461
5557.000000;1.319537
5556.000000;1.319704
5555.000000;1.319877
5554.000000;1.319978
5553.000000;1.319992
5552.000000;1.319947
5551.000000;1.319901
5550.000000;1.319935
5549.000000;1.320101
5548.000000;1.320333
5547.000000;1.320481
5546.000000;1.320447
5545.000000;1.320277
5544.000000;1.320085
5543.000000;1.319936
5542.000000;1.319835
5541.000000;1.319786
5540.000000;1.319806
5539.000000;1.319884
5538.000000;1.319987
5537.000000;1.320114
5536.000000;1.320292
5535.000000;1.320514
5534.000000;1.320708
5533.000000;1.320796
5532.000000;1.320777
5531.000000;1.320729
5530.000000;1.320727
5529.000000;1.320767
5528.000000;1.320785
5527.000000;1.320746
5526.000000;1.320686
5525.000000;1.320683
5524.000000;1.320770
5523.000000;1.320907
5522.000000;1.320997
5521.000000;1.320946
5520.000000;1.320743
5519.000000;1.320504
5518.000000;1.320393
5517.000000;1.320472
5516.000000;1.320652
5515.000000;1.320821
5514.000000;1.320942
5513.000000;1.321011
5512.000000;1.320981
5511.000000;1.320822
5510.000000;1.320646
5509.000000;1.320648
5508.000000;1.320907
5507.000000;1.321292
5506.000000;1.321598
5505.000000;1.321724
5504.000000;1.321708
5503.000000;1.321639
5502.000000;1.321588
5501.000000;1.321580
5500.000000;1.321581
5499.000000;1.321540
5498.000000;1.321458
5497.000000;1.321404
5496.000000;1.321424
5495.000000;1.321488
5494.000000;1.321545
5493.000000;1.321615
5492.000000;1.321785
5491.000000;1.322109
5490.000000;1.322562
5489.000000;1.323066
5488.000000;1.323569
5487.000000;1.324054
5486.000000;1.324479
5485.000000;1.324713
5484.000000;1.324604
5483.000000;1.324166
5482.000000;1.323649
5481.000000;1.323380
5480.000000;1.323532
5479.000000;1.324045
5478.000000;1.324732
5477.000000;1.325403
5476.000000;1.325951
5475.000000;1.326386
5474.000000;1.326786
5473.000000;1.327184
5472.000000;1.327543
5471.000000;1.327819
5470.000000;1.328022
5469.000000;1.328191
5468.000000;1.328343
5467.000000;1.328488
5466.000000;1.328665
5465.000000;1.328939
5464.000000;1.329362
5463.000000;1.329945
5462.000000;1.330668
5461.000000;1.331495
5460.000000;1.332346
5459.000000;1.333103
5458.000000;1.333671
5457.000000;1.334064
5456.000000;1.334398
5455.000000;1.334763
5454.000000;1.335141
5453.000000;1.335470
5452.000000;1.335774
5451.000000;1.336135
5450.000000;1.336552
5449.000000;1.336923
5448.000000;1.337207
5447.000000;1.337571
5446.000000;1.338285
5445.000000;1.339427
5444.000000;1.340746
5443.000000;1.341915
5442.000000;1.342851
5441.000000;1.343752
5440.000000;1.344831
5439.000000;1.346042
5438.000000;1.347131
5437.000000;1.347909
5436.000000;1.348433
5435.000000;1.348966
5434.000000;1.349784
5433.000000;1.350947
5432.000000;1.352247
5431.000000;1.353403
5430.000000;1.354331
5429.000000;1.355230
5428.000000;1.356359
5427.000000;1.357764
5426.000000;1.359325
5425.000000;1.360949
5424.000000;1.362614
5423.000000;1.364271
5422.000000;1.365815
5421.000000;1.367167
5420.000000;1.368361
5419.000000;1.369525
5418.000000;1.370745
5417.000000;1.371984
5416.000000;1.373137
5415.000000;1.374200
5414.000000;1.375362
5413.000000;1.376858
5412.000000;1.378744
5411.000000;1.380883
5410.000000;1.383152
5409.000000;1.385541
5408.000000;1.388040
5407.000000;1.390527
5406.000000;1.392869
5405.000000;1.395066
5404.000000;1.397226
5403.000000;1.399406
5402.000000;1.401553
5401.000000;1.403625
5400.000000;1.405685
5399.000000;1.407870
5398.000000;1.410277
5397.000000;1.412900
5396.000000;1.415636
5395.000000;1.418399
5394.000000;1.421247
5393.000000;1.424295
5392.000000;1.427550
5391.000000;1.430903
5390.000000;1.434238
5389.000000;1.437554
5388.000000;1.440970
5387.000000;1.444609
5386.000000;1.448484
5385.000000;1.452446
5384.000000;1.456266
5383.000000;1.459875
5382.000000;1.463468
5381.000000;1.467288
5380.000000;1.471392
5379.000000;1.475682
5378.000000;1.480115
5377.000000;1.484801
5376.000000;1.489843
5375.000000;1.495182
5374.000000;1.500681
5373.000000;1.506237
5372.000000;1.511780
5371.000000;1.517286
5370.000000;1.522851
5369.000000;1.528640
5368.000000;1.534670
5367.000000;1.540772
5366.000000;1.546860
5365.000000;1.553115
5364.000000;1.559740
5363.000000;1.566642
5362.000000;1.573554
5361.000000;1.580446
5360.000000;1.587615
5359.000000;1.595304
5358.000000;1.603378
5357.000000;1.611482
5356.000000;1.619457
5355.000000;1.627513
5354.000000;1.636019
5353.000000;1.645117
5352.000000;1.654536
5351.000000;1.663917
5350.000000;1.673255
5349.000000;1.682840
5348.000000;1.692834
5347.000000;1.703100
5346.000000;1.713525
5345.000000;1.724361
5344.000000;1.736010
5343.000000;1.748486
5342.000000;1.761302
5341.000000;1.773993
5340.000000;1.786537
5339.000000;1.799286
5338.000000;1.812589
5337.000000;1.826471
5336.000000;1.840659
5335.000000;1.854934
5334.000000;1.869412
5333.000000;1.884497
5332.000000;1.900515
5331.000000;1.917393
5330.000000;1.934673
5329.000000;1.951873
5328.000000;1.968881
5327.000000;1.986148
5326.000000;2.004352
5325.000000;2.023705
5324.000000;2.043651
5323.000000;2.063375
5322.000000;2.082528
5321.000000;2.101381
5320.000000;2.120471
5319.000000;2.140341
5318.000000;2.161452
5317.000000;2.183924
5316.000000;2.207272
5315.000000;2.230643
5314.000000;2.253470
5313.000000;2.275812
5312.000000;2.298085
5311.000000;2.320634
5310.000000;2.343534
5309.000000;2.366737
5308.000000;2.390558
5307.000000;2.415848
5306.000000;2.442965
5305.000000;2.470389
5304.000000;2.495307
5303.000000;2.516422
5302.000000;2.535559
5301.000000;2.555514
5300.000000;2.576960
5299.000000;2.598552
5298.000000;2.619599
5297.000000;2.641279
5296.000000;2.664994
5295.000000;2.690471
5294.000000;2.715596
5293.000000;2.737555
5292.000000;2.754729
5291.000000;2.768085
5290.000000;2.780273
5289.000000;2.793487
5288.000000;2.808232
5287.000000;2.823678
5286.000000;2.838969
5285.000000;2.853556
5284.000000;2.866830
5283.000000;2.878549
5282.000000;2.888890
5281.000000;2.897725
5280.000000;2.905010
5279.000000;2.911792
5278.000000;2.919073
5277.000000;2.925566
5276.000000;2.928878
5275.000000;2.929382
5274.000000;2.929866
5273.000000;2.931167
5272.000000;2.931823
5271.000000;2.932523
5270.000000;2.937349
5269.000000;2.948441
5268.000000;2.961411
5267.000000;2.969094
5266.000000;2.969747
5265.000000;2.968006
5264.000000;2.968337
5263.000000;2.970935
5262.000000;2.973218
5261.000000;2.972769
5260.000000;2.969033
5259.000000;2.963865
5258.000000;2.960263
5257.000000;2.959523
5256.000000;2.960222
5255.000000;2.960615
5254.000000;2.960703
5253.000000;2.960645
5252.000000;2.958776
5251.000000;2.953826
5250.000000;2.948178
5249.000000;2.946416
5248.000000;2.950505
5247.000000;2.957943
5246.000000;2.965167
5245.000000;2.971329
5244.000000;2.977520
5243.000000;2.983519
5242.000000;2.987117
5241.000000;2.986808
5240.000000;2.983583
5239.000000;2.979256
5238.000000;2.973990
5237.000000;2.966869
5236.000000;2.958749
5235.000000;2.952285
5234.000000;2.948573
5233.000000;2.945949
5232.000000;2.943294
5231.000000;2.942636
5230.000000;2.946302
5229.000000;2.952783
5228.000000;2.958245
5227.000000;2.961631
5226.000000;2.964920
5225.000000;2.968370
5224.000000;2.969258
5223.000000;2.966882
5222.000000;2.964923
5221.000000;2.966737
5220.000000;2.971646
5219.000000;2.977210
5218.000000;2.982324
5217.000000;2.985821
5216.000000;2.984921
5215.000000;2.978619
5214.000000;2.970634
5213.000000;2.965822
5212.000000;2.965098
5211.000000;2.965784
5210.000000;2.965554
5209.000000;2.963865
5208.000000;2.960314
5207.000000;2.954540
5206.000000;2.948291
5205.000000;2.944974
5204.000000;2.946174
5203.000000;2.950148
5202.000000;2.953797
5201.000000;2.955657
5200.000000;2.957114
5199.000000;2.960788
5198.000000;2.967310
5197.000000;2.972928
5196.000000;2.971828
5195.000000;2.962793
5194.000000;2.951562
5193.000000;2.944676
5192.000000;2.943838
5191.000000;2.947047
5190.000000;2.952606
5189.000000;2.960356
5188.000000;2.969330
5187.000000;2.976244
5186.000000;2.977556
5185.000000;2.972330
5184.000000;2.962883
5183.000000;2.953489
5182.000000;2.948027
5181.000000;2.947342
5180.000000;2.948456
5179.000000;2.947767
5178.000000;2.945509
5177.000000;2.945394
5176.000000;2.950011
5175.000000;2.957811
5174.000000;2.964303
5173.000000;2.966031
5172.000000;2.963467
5171.000000;2.960487
5170.000000;2.961210
5169.000000;2.966279
5168.000000;2.972334
5167.000000;2.975967
5166.000000;2.977021
5165.000000;2.976494
5164.000000;2.973124
5163.000000;2.965296
5162.000000;2.956015
5161.000000;2.951887
5160.000000;2.955892
5159.000000;2.963826
5158.000000;2.969212
5157.000000;2.970428
5156.000000;2.970436
5155.000000;2.970425
5154.000000;2.967494
5153.000000;2.959428
5152.000000;2.949035
5151.000000;2.941665
5150.000000;2.940042
5149.000000;2.942787
5148.000000;2.946928
5147.000000;2.950611
5146.000000;2.953433
5145.000000;2.955663
5144.000000;2.958129
5143.000000;2.961643
5142.000000;2.965427
5141.000000;2.966860
5140.000000;2.964055
5139.000000;2.959127
5138.000000;2.957257
5137.000000;2.961621
5136.000000;2.969934
5135.000000;2.976257
5134.000000;2.976412
5133.000000;2.970901
5132.000000;2.963302
5131.000000;2.957630
5130.000000;2.956450
5129.000000;2.959171
5128.000000;2.961754
5127.000000;2.960493
5126.000000;2.956512
5125.000000;2.954317
5124.000000;2.956227
5123.000000;2.960003
5122.000000;2.961979
5121.000000;2.961151
5120.000000;2.958991
5119.000000;2.956517
5118.000000;2.953641
5117.000000;2.950786
5116.000000;2.948982
5115.000000;2.947822
5114.000000;2.945191
5113.000000;2.940550
5112.000000;2.937009
5111.000000;2.938716
5110.000000;2.946888
5109.000000;2.958245
5108.000000;2.967110
5107.000000;2.969424
5106.000000;2.964679
5105.000000;2.954777
5104.000000;2.942353
5103.000000;2.930543
5102.000000;2.922784
5101.000000;2.921050
5100.000000;2.924198
5099.000000;2.928393
5098.000000;2.929776
5097.000000;2.927706
5096.000000;2.925654
5095.000000;2.928347
5094.000000;2.937434
5093.000000;2.949068
5092.000000;2.956381
5091.000000;2.955814
5090.000000;2.949883
5089.000000;2.943754
5088.000000;2.940951
5087.000000;2.941727
5086.000000;2.943784
5085.000000;2.944340
5084.000000;2.942872
5083.000000;2.942211
5082.000000;2.945879
5081.000000;2.953679
5080.000000;2.960200
5079.000000;2.959671
5078.000000;2.952829
5077.000000;2.945867
5076.000000;2.942775
5075.000000;2.941926
5074.000000;2.940234
5073.000000;2.937858
5072.000000;2.936883
5071.000000;2.937376
5070.000000;2.937640
5069.000000;2.937612
5068.000000;2.939010
5067.000000;2.942197
5066.000000;2.945216
5065.000000;2.945829
5064.000000;2.943209
5063.000000;2.938050
5062.000000;2.932414
5061.000000;2.929259
5060.000000;2.930426
5059.000000;2.934471
5058.000000;2.937564
5057.000000;2.937327
5056.000000;2.935049
5055.000000;2.933347
5054.000000;2.932612
5053.000000;2.931125
5052.000000;2.927995
5051.000000;2.924297
5050.000000;2.921729
5049.000000;2.921493
5048.000000;2.923819
5047.000000;2.927346
5046.000000;2.929655
5045.000000;2.929650
5044.000000;2.928811
5043.000000;2.928993
5042.000000;2.930192
5041.000000;2.931838
5040.000000;2.934757
5039.000000;2.939305
5038.000000;2.942416
5037.000000;2.940199
5036.000000;2.933903
5035.000000;2.929568
5034.000000;2.930921
5033.000000;2.935438
5032.000000;2.938530
5031.000000;2.938459
5030.000000;2.935157
5029.000000;2.927869
5028.000000;2.916882
5027.000000;2.906006
5026.000000;2.900310
5025.000000;2.901285
5024.000000;2.905685
5023.000000;2.909176
5022.000000;2.910184
5021.000000;2.909656
5020.000000;2.908766
5019.000000;2.907898
5018.000000;2.906528
5017.000000;2.903637
5016.000000;2.898661
5015.000000;2.892100
5014.000000;2.885221
5013.000000;2.878919
5012.000000;2.873379
5011.000000;2.868855
5010.000000;2.865371
5009.000000;2.862660
5008.000000;2.861712
5007.000000;2.864332
5006.000000;2.870082
5005.000000;2.875161
5004.000000;2.875666
5003.000000;2.871687
5002.000000;2.866762
5001.000000;2.863602
5000.000000;2.862248
4999.000000;2.861939
4998.000000;2.862549
4997.000000;2.863501
4996.000000;2.863143
4995.000000;2.860770
4994.000000;2.857984
4993.000000;2.856614
4992.000000;2.856054
4991.000000;2.853805
4990.000000;2.848445
4989.000000;2.841133
4988.000000;2.834482
4987.000000;2.830481
4986.000000;2.829173
4985.000000;2.829387
4984.000000;2.830065
4983.000000;2.830162
4982.000000;2.828709
4981.000000;2.825955
4980.000000;2.823377
4979.000000;2.821509
4978.000000;2.818484
4977.000000;2.812084
4976.000000;2.802982
4975.000000;2.794418
4974.000000;2.788462
4973.000000;2.784057
4972.000000;2.779517
4971.000000;2.775704
4970.000000;2.775027
4969.000000;2.777769
4968.000000;2.781153
4967.000000;2.782177
4966.000000;2.780093
4965.000000;2.775693
4964.000000;2.769475
4963.000000;2.761550
4962.000000;2.752725
4961.000000;2.744979
4960.000000;2.740775
4959.000000;2.741476
4958.000000;2.745636
4957.000000;2.749126
4956.000000;2.748121
4955.000000;2.742155
4954.000000;2.733735
4953.000000;2.725350
4952.000000;2.717810
4951.000000;2.711419
4950.000000;2.707188
4949.000000;2.706105
4948.000000;2.707779
4947.000000;2.710244
4946.000000;2.711434
4945.000000;2.710930
4944.000000;2.709955
4943.000000;2.709614
4942.000000;2.709495
4941.000000;2.708393
4940.000000;2.706174
4939.000000;2.703947
4938.000000;2.702310
4937.000000;2.700400
4936.000000;2.697015
4935.000000;2.691981
4934.000000;2.686070
4933.000000;2.680353
4932.000000;2.675994
4931.000000;2.673555
4930.000000;2.671805
4929.000000;2.668267
4928.000000;2.662043
4927.000000;2.655400
4926.000000;2.651181
4925.000000;2.649395
4924.000000;2.647821
4923.000000;2.645129
4922.000000;2.641480
4921.000000;2.636437
4920.000000;2.628877
4919.000000;2.619647
4918.000000;2.612065
4917.000000;2.608586
4916.000000;2.608243
4915.000000;2.608132
4914.000000;2.606726
4913.000000;2.604703
4912.000000;2.603004
4911.000000;2.601402
4910.000000;2.598791
4909.000000;2.594021
4908.000000;2.586879
4907.000000;2.578842
4906.000000;2.572386
4905.000000;2.568968
4904.000000;2.567874
4903.000000;2.567300
4902.000000;2.566137
4901.000000;2.564225
4900.000000;2.561432
4899.000000;2.557504
4898.000000;2.552728
4897.000000;2.547904
4896.000000;2.543612
4895.000000;2.540096
4894.000000;2.537722
4893.000000;2.536773
4892.000000;2.536538
4891.000000;2.535228
4890.000000;2.531513
4889.000000;2.525990
4888.000000;2.520542
4887.000000;2.516297
4886.000000;2.512733
4885.000000;2.508954
4884.000000;2.505234
4883.000000;2.502572
4882.000000;2.500923
4881.000000;2.498766
4880.000000;2.494896
4879.000000;2.490139
4878.000000;2.486551
4877.000000;2.485134
4876.000000;2.484883
4875.000000;2.483904
4874.000000;2.481096
4873.000000;2.476835
4872.000000;2.472560
4871.000000;2.469704
4870.000000;2.468519
4869.000000;2.467807
4868.000000;2.466161
4867.000000;2.463409
4866.000000;2.460302
4865.000000;2.457036
4864.000000;2.453017
4863.000000;2.448231
4862.000000;2.443860
4861.000000;2.440998
4860.000000;2.439343
4859.000000;2.437692
4858.000000;2.435244
4857.000000;2.431870
4856.000000;2.427609
4855.000000;2.422748
4854.000000;2.418146
4853.000000;2.414669
4852.000000;2.412283
4851.000000;2.410171
4850.000000;2.407648
4849.000000;2.404618
4848.000000;2.401259
4847.000000;2.397747
4846.000000;2.394337
4845.000000;2.391372
4844.000000;2.389022
4843.000000;2.387155
4842.000000;2.385402
4841.000000;2.383174
4840.000000;2.379801
4839.000000;2.375089
4838.000000;2.369762
4837.000000;2.365038
4836.000000;2.361640
4835.000000;2.359289
4834.000000;2.357108
4833.000000;2.354367
4832.000000;2.350930
4831.000000;2.347234
4830.000000;2.343930
4829.000000;2.341407
4828.000000;2.339502
4827.000000;2.337661
4826.000000;2.335344
4825.000000;2.332318
4824.000000;2.328709
4823.000000;2.324894
4822.000000;2.321238
4821.000000;2.317772
4820.000000;2.314216
4819.000000;2.310510
4818.000000;2.307135
4817.000000;2.304611
4816.000000;2.302848
4815.000000;2.301222
4814.000000;2.299145
4813.000000;2.296342
4812.000000;2.292773
4811.000000;2.288737
4810.000000;2.285004
4809.000000;2.282342
4808.000000;2.280639
4807.000000;2.278952
4806.000000;2.276653
4805.000000;2.274098
4804.000000;2.271797
4803.000000;2.269398
4802.000000;2.266109
4801.000000;2.261943
4800.000000;2.257916
4799.000000;2.254924
4798.000000;2.252902
4797.000000;2.251201
4796.000000;2.249435
4795.000000;2.247707
4794.000000;2.246163
4793.000000;2.244537
4792.000000;2.242185
4791.000000;2.238630
4790.000000;2.234208
4789.000000;2.230036
4788.000000;2.227103
4787.000000;2.225351
4786.000000;2.223870
4785.000000;2.221928
4784.000000;2.219455
4783.000000;2.216564
4782.000000;2.213246
4781.000000;2.209782
4780.000000;2.206764
4779.000000;2.204227
4778.000000;2.201229
4777.000000;2.196987
4776.000000;2.192130
4775.000000;2.188072
4774.000000;2.185309
4773.000000;2.183071
4772.000000;2.180624
4771.000000;2.178080
4770.000000;2.175725
4769.000000;2.173342
4768.000000;2.170711
4767.000000;2.168263
4766.000000;2.166606
4765.000000;2.165554
4764.000000;2.164147
4763.000000;2.161602
4762.000000;2.157925
4761.000000;2.153723
4760.000000;2.149771
4759.000000;2.146685
4758.000000;2.144615
4757.000000;2.143101
4756.000000;2.141412
4755.000000;2.139083
4754.000000;2.136114
4753.000000;2.132817
4752.000000;2.129618
4751.000000;2.126829
4750.000000;2.124365
4749.000000;2.121783
4748.000000;2.118781
4747.000000;2.115607
4746.000000;2.112826
4745.000000;2.110752
4744.000000;2.109218
4743.000000;2.107787
4742.000000;2.106034
4741.000000;2.103795
4740.000000;2.101345
4739.000000;2.099190
4738.000000;2.097462
4737.000000;2.095660
4736.000000;2.093238
4735.000000;2.090305
4734.000000;2.087391
4733.000000;2.084683
4732.000000;2.081910
4731.000000;2.078971
4730.000000;2.076231
4729.000000;2.073991
4728.000000;2.072011
4727.000000;2.069798
4726.000000;2.067188
4725.000000;2.064458
4724.000000;2.061949
4723.000000;2.059752
4722.000000;2.057757
4721.000000;2.055878
4720.000000;2.054147
4719.000000;2.052562
4718.000000;2.050917
4717.000000;2.048987
4716.000000;2.046871
4715.000000;2.044930
4714.000000;2.043202
4713.000000;2.041134
4712.000000;2.038220
4711.000000;2.034769
4710.000000;2.031668
4709.000000;2.029410
4708.000000;2.027669
4707.000000;2.025831
4706.000000;2.023630
4705.000000;2.021165
4704.000000;2.018645
4703.000000;2.016318
4702.000000;2.014393
4701.000000;2.012765
4700.000000;2.010973
4699.000000;2.008690
4698.000000;2.006183
4697.000000;2.004110
4696.000000;2.002820
4695.000000;2.001964
4694.000000;2.000780
4693.000000;1.998773
4692.000000;1.996171
4691.000000;1.993714
4690.000000;1.991933
4689.000000;1.990655
4688.000000;1.989283
4687.000000;1.987488
4686.000000;1.985418
4685.000000;1.983254
4684.000000;1.980878
4683.000000;1.978116
4682.000000;1.975153
4681.000000;1.972488
4680.000000;1.970509
4679.000000;1.969177
4678.000000;1.968084
4677.000000;1.966751
4676.000000;1.964998
4675.000000;1.963081
4674.000000;1.961351
4673.000000;1.959794
4672.000000;1.958108
4671.000000;1.956271
4670.000000;1.954717
4669.000000;1.953700
4668.000000;1.952756
4667.000000;1.951161
4666.000000;1.948874
4665.000000;1.946656
4664.000000;1.945149
4663.000000;1.944131
4662.000000;1.942848
4661.000000;1.940919
4660.000000;1.938688
4659.000000;1.936697
4658.000000;1.935068
4657.000000;1.933520
4656.000000;1.931849
4655.000000;1.930158
4654.000000;1.928597
4653.000000;1.927100
4652.000000;1.925534
4651.000000;1.923968
4650.000000;1.922578
4649.000000;1.921346
4648.000000;1.920041
4647.000000;1.918528
4646.000000;1.916921
4645.000000;1.915377
4644.000000;1.913873
4643.000000;1.912237
4642.000000;1.910301
4641.000000;1.908037
4640.000000;1.905659
4639.000000;1.903568
4638.000000;1.902011
4637.000000;1.900810
4636.000000;1.899609
4635.000000;1.898344
4634.000000;1.897163
4633.000000;1.895918
4632.000000;1.894215
4631.000000;1.892140
4630.000000;1.890468
4629.000000;1.889764
4628.000000;1.889584
4627.000000;1.889010
4626.000000;1.887813
4625.000000;1.886565
4624.000000;1.885685
4623.000000;1.884887
4622.000000;1.883705
4621.000000;1.882109
4620.000000;1.880410
4619.000000;1.878856
4618.000000;1.877534
4617.000000;1.876414
4616.000000;1.875300
4615.000000;1.873934
4614.000000;1.872349
4613.000000;1.870934
4612.000000;1.869970
4611.000000;1.869229
4610.000000;1.868228
4609.000000;1.866811
4608.000000;1.865274
4607.000000;1.863988
4606.000000;1.863047
4605.000000;1.862265
4604.000000;1.861347
4603.000000;1.860108
4602.000000;1.858625
4601.000000;1.857191
4600.000000;1.856016
4599.000000;1.855046
4598.000000;1.854162
4597.000000;1.853453
4596.000000;1.853104
4595.000000;1.852987
4594.000000;1.852606
4593.000000;1.851575
4592.000000;1.850051
4591.000000;1.848549
4590.000000;1.847362
4589.000000;1.846262
4588.000000;1.844851
4587.000000;1.843129
4586.000000;1.841624
4585.000000;1.840856
4584.000000;1.840738
4583.000000;1.840613
4582.000000;1.839958
4581.000000;1.838929
4580.000000;1.838131
4579.000000;1.837917
4578.000000;1.838025
4577.000000;1.837851
4576.000000;1.836965
4575.000000;1.835388
4574.000000;1.833499
4573.000000;1.831769
4572.000000;1.830526
4571.000000;1.829875
4570.000000;1.829714
4569.000000;1.829764
4568.000000;1.829591
4567.000000;1.828788
4566.000000;1.827292
4565.000000;1.825501
4564.000000;1.823953
4563.000000;1.822886
4562.000000;1.822164
4561.000000;1.821544
4560.000000;1.820861
4559.000000;1.820028
4558.000000;1.819072
4557.000000;1.818199
4556.000000;1.817614
4555.000000;1.817227
4554.000000;1.816739
4553.000000;1.816088
4552.000000;1.815570
4551.000000;1.815371
4550.000000;1.815186
4549.000000;1.814566
4548.000000;1.813496
4547.000000;1.812376
4546.000000;1.811508
4545.000000;1.810895
4544.000000;1.810466
4543.000000;1.810205
4542.000000;1.810020
4541.000000;1.809750
4540.000000;1.809378
4539.000000;1.809025
4538.000000;1.808709
4537.000000;1.808347
4536.000000;1.808049
4535.000000;1.808080
4534.000000;1.808346
4533.000000;1.808238
4532.000000;1.807320
4531.000000;1.805994
4530.000000;1.805085
4529.000000;1.804835
4528.000000;1.804678
4527.000000;1.804073
4526.000000;1.803195
4525.000000;1.802603
4524.000000;1.802440
4523.000000;1.802261
4522.000000;1.801624
4521.000000;1.800632
4520.000000;1.799811
4519.000000;1.799561
4518.000000;1.799830
4517.000000;1.800242
4516.000000;1.800444
4515.000000;1.800319
4514.000000;1.799936
4513.000000;1.799397
4512.000000;1.798759
4511.000000;1.798045
4510.000000;1.797311
4509.000000;1.796703
4508.000000;1.796414
4507.000000;1.796513
4506.000000;1.796814
4505.000000;1.797012
4504.000000;1.796996
4503.000000;1.796917
4502.000000;1.796891
4501.000000;1.796795
4500.000000;1.796467
4499.000000;1.796029
4498.000000;1.795779
4497.000000;1.795773
4496.000000;1.795661
4495.000000;1.795037
4494.000000;1.793866
4493.000000;1.792544
4492.000000;1.791626
4491.000000;1.791532
4490.000000;1.792358
4489.000000;1.793805
4488.000000;1.795315
4487.000000;1.796358
4486.000000;1.796651
4485.000000;1.796184
4484.000000;1.795154
4483.000000;1.793916
4482.000000;1.792910
4481.000000;1.792495
4480.000000;1.792769
4479.000000;1.793499
4478.000000;1.794237
4477.000000;1.794604
4476.000000;1.794591
4475.000000;1.794557
4474.000000;1.794824
4473.000000;1.795291
4472.000000;1.795576
4471.000000;1.795582
4470.000000;1.795755
4469.000000;1.796608
4468.000000;1.798085
4467.000000;1.799577
4466.000000;1.800566
4465.000000;1.801129
4464.000000;1.801733
4463.000000;1.802637
4462.000000;1.803589
4461.000000;1.804133
4460.000000;1.804116
4459.000000;1.803807
4458.000000;1.803566
4457.000000;1.803558
4456.000000;1.803862
4455.000000;1.804668
4454.000000;1.806123
4453.000000;1.807974
4452.000000;1.809632
4451.000000;1.810756
4450.000000;1.811620
4449.000000;1.812737
4448.000000;1.814221
4447.000000;1.815751
4446.000000;1.817094
4445.000000;1.818408
4444.000000;1.819975
4443.000000;1.821827
4442.000000;1.823699
4441.000000;1.825195
4440.000000;1.826002
4439.000000;1.826175
4438.000000;1.826317
4437.000000;1.827246
4436.000000;1.829243
4435.000000;1.831766
4434.000000;1.834121
4433.000000;1.836271
4432.000000;1.838628
4431.000000;1.841157
4430.000000;1.843164
4429.000000;1.844165
4428.000000;1.844587
4427.000000;1.845316
4426.000000;1.846810
4425.000000;1.848989
4424.000000;1.851756
4423.000000;1.855126
4422.000000;1.858813
4421.000000;1.862143
4420.000000;1.864638
4419.000000;1.866461
4418.000000;1.868077
4417.000000;1.869667
4416.000000;1.871117
4415.000000;1.872420
4414.000000;1.873862
4413.000000;1.875765
4412.000000;1.878200
4411.000000;1.880969
4410.000000;1.883751
4409.000000;1.886305
4408.000000;1.888645
4407.000000;1.891039
4406.000000;1.893758
4405.000000;1.896882
4404.000000;1.900388
4403.000000;1.904264
4402.000000;1.908362
4401.000000;1.912234
4400.000000;1.915378
4399.000000;1.917657
4398.000000;1.919317
4397.000000;1.920620
4396.000000;1.921692
4395.000000;1.922756
4394.000000;1.924291
4393.000000;1.926822
4392.000000;1.930611
4391.000000;1.935442
4390.000000;1.940399
4389.000000;1.943989
4388.000000;1.945197
4387.000000;1.944821
4386.000000;1.945276
4385.000000;1.948452
4384.000000;1.953816
4383.000000;1.958955
4382.000000;1.962084
4381.000000;1.963597
4380.000000;1.964955
4379.000000;1.966724
4378.000000;1.968318
4377.000000;1.969339
4376.000000;1.970443
4375.000000;1.972650
4374.000000;1.976109
4373.000000;1.979828
4372.000000;1.982626
4371.000000;1.984321
4370.000000;1.985933
4369.000000;1.988559
4368.000000;1.991963
4367.000000;1.994548
4366.000000;1.995048
4365.000000;1.994080
4364.000000;1.993499
4363.000000;1.994318
4362.000000;1.995955
4361.000000;1.997604
4360.000000;1.999585
4359.000000;2.002713
4358.000000;2.006839
4357.000000;2.010847
4356.000000;2.013970
4355.000000;2.016398
4354.000000;2.018527
4353.000000;2.020334
4352.000000;2.021798
4351.000000;2.023299
4350.000000;2.025119
4349.000000;2.026924
4348.000000;2.028176
4347.000000;2.028883
4346.000000;2.029616
4345.000000;2.030934
4344.000000;2.033036
4343.000000;2.035787
4342.000000;2.038880
4341.000000;2.042069
4340.000000;2.045290
4339.000000;2.048413
4338.000000;2.050981
4337.000000;2.052635
4336.000000;2.053865
4335.000000;2.055756
4334.000000;2.058768
4333.000000;2.062372
4332.000000;2.065993
4331.000000;2.069436
4330.000000;2.071981
4329.000000;2.072130
4328.000000;2.069307
4327.000000;2.065167
4326.000000;2.062110
4325.000000;2.061003
4324.000000;2.061402
4323.000000;2.063300
4322.000000;2.067162
4321.000000;2.072234
4320.000000;2.076325
4319.000000;2.078118
4318.000000;2.078757
4317.000000;2.080284
4316.000000;2.083197
4315.000000;2.086040
4314.000000;2.086948
4313.000000;2.085335
4312.000000;2.082540
4311.000000;2.081093
4310.000000;2.082877
4309.000000;2.087541
4308.000000;2.092847
4307.000000;2.096935
4306.000000;2.100031
4305.000000;2.103694
4304.000000;2.108744
4303.000000;2.114138
4302.000000;2.117748
4301.000000;2.118348
4300.000000;2.117147
4299.000000;2.117221
4298.000000;2.120798
4297.000000;2.126831
4296.000000;2.131642
4295.000000;2.132434
4294.000000;2.129771
4293.000000;2.126286
4292.000000;2.124105
4291.000000;2.124212
4290.000000;2.127054
4289.000000;2.132534
4288.000000;2.139676
4287.000000;2.147080
4286.000000;2.153760
4285.000000;2.159191
4284.000000;2.163220
4283.000000;2.166391
4282.000000;2.169623
4281.000000;2.173081
4280.000000;2.176003
4279.000000;2.178212
4278.000000;2.180798
4277.000000;2.184201
4276.000000;2.186566
4275.000000;2.185679
4274.000000;2.182543
4273.000000;2.181374
4272.000000;2.185476
4271.000000;2.194133
4270.000000;2.203505
4269.000000;2.209898
4268.000000;2.212178
4267.000000;2.211695
4266.000000;2.210545
4265.000000;2.209820
4264.000000;2.209384
4263.000000;2.209416
4262.000000;2.211495
4261.000000;2.217546
4260.000000;2.227997
4259.000000;2.241094
4258.000000;2.253946
4257.000000;2.263697
4256.000000;2.267814
4255.000000;2.265659
4254.000000;2.260426
4253.000000;2.257192
4252.000000;2.258052
4251.000000;2.260272
4250.000000;2.260132
4249.000000;2.258119
4248.000000;2.258956
4247.000000;2.266253
4246.000000;2.278516
4245.000000;2.290446
4244.000000;2.297707
4243.000000;2.300200
4242.000000;2.300809
4241.000000;2.302219
4240.000000;2.304760
4239.000000;2.306600
4238.000000;2.306853
4237.000000;2.308173
4236.000000;2.315206
4235.000000;2.330393
4234.000000;2.350361
4233.000000;2.366339
4232.000000;2.371574
4231.000000;2.367987
4230.000000;2.361913
4229.000000;2.355868
4228.000000;2.348049
4227.000000;2.338868
4226.000000;2.333140
4225.000000;2.333939
4224.000000;2.338077
4223.000000;2.341079
4222.000000;2.345211
4221.000000;2.357536
4220.000000;2.379566
4219.000000;2.402060
4218.000000;2.412824
4217.000000;2.410618
4216.000000;2.405791
4215.000000;2.407392
4214.000000;2.416212
4213.000000;2.426923
4212.000000;2.432008
4211.000000;2.426811
4210.000000;2.414873
4209.000000;2.408138
4208.000000;2.416392
4207.000000;2.434713
4206.000000;2.445728
4205.000000;2.438635
4204.000000;2.423384
4203.000000;2.418335
4202.000000;2.430977
4201.000000;2.454137
4200.000000;2.473939
4199.000000;2.479625
4198.000000;2.470746
4197.000000;2.457372
4196.000000;2.451872
4195.000000;2.457689
4194.000000;2.462782
4193.000000;2.451771
4192.000000;2.429303
4191.000000;2.417024
4190.000000;2.427944
4189.000000;2.454360
4188.000000;2.478509
4187.000000;2.493353
4186.000000;2.505409
4185.000000;2.516887
4184.000000;2.520636
4183.000000;2.516131
4182.000000;2.512939
4181.000000;2.514793
4180.000000;2.515456
4179.000000;2.513730
4178.000000;2.520747
4177.000000;2.545419
4176.000000;2.580666
4175.000000;2.608301
4174.000000;2.617084
4173.000000;2.612371
4172.000000;2.604957
4171.000000;2.600244
4170.000000;2.598269
4169.000000;2.595208
4168.000000;2.580474
4167.000000;2.543341
4166.000000;2.489476
4165.000000;2.436950
4164.000000;2.401600
4163.000000;2.393452
4162.000000;2.414673
4161.000000;2.453698
4160.000000;2.485349
4159.000000;2.491574
4158.000000;2.485511
4157.000000;2.495253
4156.000000;2.531817
4155.000000;2.582848
4154.000000;2.624368
4153.000000;2.641904
4152.000000;2.649484
4151.000000;2.662936
4150.000000;2.673813
4149.000000;2.661714
4148.000000;2.616147
4147.000000;2.551617
4146.000000;2.500814
4145.000000;2.491140
4144.000000;2.524956
4143.000000;2.570977
4142.000000;2.593395
4141.000000;2.592539
4140.000000;2.579047
4139.000000;2.555028
4138.000000;2.528235
4137.000000;2.522822
4136.000000;2.563980
4135.000000;2.654166
4134.000000;2.752997
4133.000000;2.796724
4132.000000;2.783057
4131.000000;2.747178
4130.000000;2.695410
4129.000000;2.631426
4128.000000;2.574064
4127.000000;2.536344
4126.000000;2.511050
4125.000000;2.481775
4124.000000;2.446730
4123.000000;2.423608
4122.000000;2.431841
4121.000000;2.478329
4120.000000;2.556717
4119.000000;2.654463
4118.000000;2.747338
4117.000000;2.790106
4116.000000;2.766409
4115.000000;2.714909
4114.000000;2.669249
4113.000000;2.628765
4112.000000;2.571839
4111.000000;2.495737
4110.000000;2.434659
4109.000000;2.419662
4108.000000;2.454368
4107.000000;2.518934
4106.000000;2.586438
4105.000000;2.641195
4104.000000;2.685255
4103.000000;2.717492
4102.000000;2.711347
4101.000000;2.677553
4100.000000;2.667070
4099.000000;2.699056
4098.000000;2.729182
4097.000000;2.679367
4096.000000;2.588248
4095.000000;2.533687
4094.000000;2.529391
4093.000000;2.554846
4092.000000;2.584575
4091.000000;2.602091
4090.000000;2.593997
4089.000000;2.565171
4088.000000;2.551120
4087.000000;2.578421
4086.000000;2.635248
4085.000000;2.670526
4084.000000;2.649873
4083.000000;2.602248
4082.000000;2.552386
4081.000000;2.493205
4080.000000;2.428013
4079.000000;2.382118
4078.000000;2.376925
4077.000000;2.412240
4076.000000;2.465887
4075.000000;2.500611
4074.000000;2.487718
4073.000000;2.451276
4072.000000;2.433550
4071.000000;2.445743
4070.000000;2.476876
4069.000000;2.519689
4068.000000;2.590166
4067.000000;2.712787
4066.000000;2.876945
4065.000000;2.999231
4064.000000;3.016524
4063.000000;2.855067
4062.000000;2.648470
4061.000000;2.515737
4060.000000;2.456602
4059.000000;2.460868
4058.000000;2.510464
4057.000000;2.549593
4056.000000;2.545004
4055.000000;2.569608
4054.000000;2.675575
4053.000000;2.749209
4052.000000;2.724784
4051.000000;2.778402
4050.000000;2.905693
4049.000000;2.911038
4048.000000;2.780072
4047.000000;2.639174
4046.000000;2.549558
4045.000000;2.504428
4044.000000;2.445696
4043.000000;2.392608
4042.000000;2.414524
4041.000000;2.560931
4040.000000;2.796655
4039.000000;2.859411
4038.000000;2.734976
4037.000000;2.577541
4036.000000;2.491519
4035.000000;2.482586
4034.000000;2.498134
4033.000000;2.486186
4032.000000;2.444772
4031.000000;2.419474
4030.000000;2.439934
4029.000000;2.487846
4028.000000;2.496714
4027.000000;2.439565
4026.000000;2.370793
4025.000000;2.330055
4024.000000;2.317719
4023.000000;2.324532
4022.000000;2.352839
4021.000000;2.405167
4020.000000;2.468292
4019.000000;2.515478
4018.000000;2.519349
4017.000000;2.491588
4016.000000;2.461160
4015.000000;2.438850
4014.000000;2.437603
4013.000000;2.473228
4012.000000;2.544182
4011.000000;2.636439
4010.000000;2.727730
4009.000000;2.735882
4008.000000;2.666655
4007.000000;2.653062
4006.000000;2.665906
4005.000000;2.573023
4004.000000;2.483697
4003.000000;2.479344
4002.000000;2.469040
4001.000000;2.373088
4000.000000;2.277552
3999.000000;2.247109
3998.000000;2.300353
3997.000000;2.448373
3996.000000;2.645780
3995.000000;2.727833
3994.000000;2.714238
3993.000000;2.709122
3992.000000;2.669856
3991.000000;2.596365
3990.000000;2.536774
3989.000000;2.517772
3988.000000;2.532082
3987.000000;2.562335
3986.000000;2.590111
3985.000000;2.614255
3984.000000;2.656099
3983.000000;2.732398
3982.000000;2.763328
3981.000000;2.675515
3980.000000;2.620301
3979.000000;2.693330
3978.000000;2.820420
3977.000000;2.757779
3976.000000;2.647189
3975.000000;2.633789
3974.000000;2.722754
3973.000000;2.848328
3972.000000;2.928461
3971.000000;3.006225
3970.000000;2.870597
3969.000000;2.670713
3968.000000;2.602610
3967.000000;2.627194
3966.000000;2.668301
3965.000000;2.681463
3964.000000;2.659482
3963.000000;2.625151
3962.000000;2.627983
3961.000000;2.763625
3960.000000;3.070867
3959.000000;2.951660
3958.000000;2.820052
3957.000000;2.912673
3956.000000;2.970569
3955.000000;2.846026
3954.000000;2.763050
3953.000000;2.798396
3952.000000;2.961113
3951.000000;2.931523
3950.000000;2.685663
3949.000000;2.585582
3948.000000;2.589048
3947.000000;2.627550
3946.000000;2.703738
3945.000000;2.823537
3944.000000;2.869797
3943.000000;2.883893
3942.000000;2.951439
3941.000000;2.953229
3940.000000;3.042177
3939.000000;3.463108
3938.000000;3.621478
3937.000000;3.515975
3936.000000;3.158219
3935.000000;2.805659
3934.000000;2.666901
3933.000000;2.631182
3932.000000;2.638605
3931.000000;2.662058
3930.000000;2.706574
3929.000000;2.783152
3928.000000;2.840934
3927.000000;2.880498
3926.000000;2.935036
3925.000000;3.240912
3924.000000;3.809110
3923.000000;3.133003
3922.000000;3.110458
3921.000000;3.459690
3920.000000;3.304872
3919.000000;2.977777
3918.000000;2.915201
3917.000000;2.958571
3916.000000;3.170626
3915.000000;3.404621
3914.000000;3.039976
3913.000000;2.845503
3912.000000;2.945117
3911.000000;3.180012
3910.000000;2.997368
3909.000000;2.874498
3908.000000;3.062515
3907.000000;3.469949
3906.000000;3.414722
3905.000000;3.582664
3904.000000;3.646180
3903.000000;3.106385
3902.000000;2.873749
3901.000000;2.779971
3900.000000;2.764315
3899.000000;2.797624
3898.000000;2.860038
3897.000000;2.926174
3896.000000;2.930976
3895.000000;2.892621
3894.000000;2.842973
3893.000000;2.771206
3892.000000;2.738022
3891.000000;2.809924
3890.000000;3.014265
3889.000000;3.200201
3888.000000;3.326222
3887.000000;3.321483
3886.000000;3.173188
3885.000000;3.131601
3884.000000;3.058417
3883.000000;3.001501
3882.000000;3.034705
3881.000000;3.115177
3880.000000;3.229368
3879.000000;3.273359
3878.000000;3.234500
3877.000000;3.203407
3876.000000;3.135508
3875.000000;3.042065
3874.000000;3.021317
3873.000000;3.098565
3872.000000;3.057347
3871.000000;2.948938
3870.000000;2.936877
3869.000000;3.010833
3868.000000;3.175306
3867.000000;3.301162
3866.000000;3.486954
3865.000000;3.894097
3864.000000;3.422230
3863.000000;3.213730
3862.000000;3.139003
3861.000000;2.964858
3860.000000;2.827996
3859.000000;2.824904
3858.000000;3.102623
3857.000000;2.816889
3856.000000;2.590073
3855.000000;2.667616
3854.000000;2.744675
3853.000000;2.768861
3852.000000;2.822926
3851.000000;2.982157
3850.000000;3.344351
3849.000000;3.564023
3848.000000;3.428186
3847.000000;3.422184
3846.000000;3.349003
3845.000000;3.250662
3844.000000;3.219910
3843.000000;3.279470
3842.000000;3.399342
3841.000000;3.133103
3840.000000;2.940114
3839.000000;2.990528
3838.000000;3.196498
3837.000000;3.520909
3836.000000;3.421679
3835.000000;3.125110
3834.000000;3.015210
3833.000000;3.116242
3832.000000;3.520718
3831.000000;3.385462
3830.000000;3.115260
3829.000000;3.108479
3828.000000;3.158676
3827.000000;3.233116
3826.000000;3.271268
3825.000000;3.195164
3824.000000;3.064981
3823.000000;3.019578
3822.000000;3.079787
3821.000000;3.154343
3820.000000;3.129984
3819.000000;3.033475
3818.000000;2.906478
3817.000000;2.810413
3816.000000;2.804237
3815.000000;2.890200
3814.000000;3.012805
3813.000000;3.007074
3812.000000;2.903430
3811.000000;2.868048
3810.000000;2.972752
3809.000000;3.173107
3808.000000;3.388186
3807.000000;3.678203
3806.000000;3.653182
3805.000000;3.437842
3804.000000;3.355572
3803.000000;3.204980
3802.000000;3.133272
3801.000000;3.110721
3800.000000;3.251811
3799.000000;3.641597
3798.000000;3.245601
3797.000000;3.038519
3796.000000;3.226113
3795.000000;3.747162
3794.000000;3.456266
3793.000000;3.208841
3792.000000;3.076529
3791.000000;2.951666
3790.000000;2.919560
3789.000000;2.970229
3788.000000;3.009947
3787.000000;2.928501
3786.000000;2.893725
3785.000000;2.988805
3784.000000;3.165541
3783.000000;3.080515
3782.000000;2.910797
3781.000000;2.879673
3780.000000;3.002529
3779.000000;3.301126
3778.000000;3.604532
3777.000000;4.119065
3776.000000;3.661882
3775.000000;3.242317
3774.000000;3.090714
3773.000000;2.955901
3772.000000;2.881469
3771.000000;2.896671
3770.000000;2.970491
3769.000000;3.002481
3768.000000;3.001174
3767.000000;2.944157
3766.000000;2.852209
3765.000000;2.833344
3764.000000;2.900367
3763.000000;3.040019
3762.000000;3.125921
3761.000000;3.104336
3760.000000;3.172015
3759.000000;3.363764
3758.000000;3.464937
3757.000000;3.336349
3756.000000;3.280621
3755.000000;3.689449
3754.000000;3.639279
3753.000000;3.064167
3752.000000;2.922772
3751.000000;2.938272
3750.000000;3.000453
3749.000000;2.963833
3748.000000;2.731992
3747.000000;2.607191
3746.000000;2.703845
3745.000000;2.915080
3744.000000;3.056509
3743.000000;3.161038
3742.000000;3.292399
3741.000000;3.287982
3740.000000;3.177242
3739.000000;3.114839
3738.000000;3.366978
3737.000000;3.591590
3736.000000;2.914443
3735.000000;2.657588
3734.000000;2.583371
3733.000000;2.616248
3732.000000;2.740888
3731.000000;2.897592
3730.000000;3.275828
3729.000000;3.718589
3728.000000;3.246488
3727.000000;3.079175
3726.000000;3.095907
3725.000000;3.272334
3724.000000;3.592398
3723.000000;3.392177
3722.000000;3.074821
3721.000000;2.859377
3720.000000;2.779257
3719.000000;2.837610
3718.000000;3.039813
3717.000000;3.332429
3716.000000;3.638535
3715.000000;4.349909
3714.000000;3.826346
3713.000000;3.401456
3712.000000;3.154107
3711.000000;2.962185
3710.000000;2.858200
3709.000000;2.793148
3708.000000;2.758345
3707.000000;2.766727
3706.000000;2.886727
3705.000000;3.172061
3704.000000;3.108966
3703.000000;2.868757
3702.000000;2.822243
3701.000000;2.861433
3700.000000;2.919134
3699.000000;2.929366
3698.000000;2.935468
3697.000000;3.004422
3696.000000;3.091638
3695.000000;3.105831
3694.000000;3.030475
3693.000000;2.915340
3692.000000;2.772359
3691.000000;2.714270
3690.000000;2.821084
3689.000000;3.063170
3688.000000;3.327969
3687.000000;3.441102
3686.000000;3.341851
3685.000000;3.153904
3684.000000;2.996783
3683.000000;2.934699
3682.000000;2.950147
3681.000000;2.996718
3680.000000;3.012933
3679.000000;2.957028
3678.000000;2.919678
3677.000000;3.014004
3676.000000;3.196132
3675.000000;3.243362
3674.000000;3.221830
3673.000000;3.223813
3672.000000;3.185336
3671.000000;3.175753
3670.000000;3.142733
3669.000000;3.005099
3668.000000;2.873250
3667.000000;2.799899
3666.000000;2.774191
3665.000000;2.780145
3664.000000;2.816132
3663.000000;2.862482
3662.000000;2.878282
3661.000000;2.869323
3660.000000;2.929809
3659.000000;3.177892
3658.000000;3.435073
3657.000000;3.374995
3656.000000;3.295800
3655.000000;3.231444
3654.000000;3.242335
3653.000000;3.333999
3652.000000;3.614556
3651.000000;3.523712
3650.000000;3.228430
3649.000000;3.388295
3648.000000;3.781625
3647.000000;3.444715
3646.000000;3.341680
3645.000000;3.471106
3644.000000;3.317564
3643.000000;3.151087
3642.000000;3.132202
3641.000000;3.105903
3640.000000;2.988054
3639.000000;2.861054
3638.000000;2.824965
3637.000000;2.927034
3636.000000;3.275164
3635.000000;3.502443
3634.000000;3.085975
3633.000000;2.956617
3632.000000;3.128318
3631.000000;3.172705
3630.000000;2.979961
3629.000000;2.948965
3628.000000;3.122232
3627.000000;3.286034
3626.000000;2.991772
3625.000000;2.812838
3624.000000;2.802464
3623.000000;2.863630
3622.000000;3.026714
3621.000000;3.346108
3620.000000;3.209387
3619.000000;2.979807
3618.000000;2.982855
3617.000000;3.084244
3616.000000;3.273896
3615.000000;3.319710
3614.000000;3.056373
3613.000000;2.818611
3612.000000;2.730934
3611.000000;2.825255
3610.000000;3.012290
3609.000000;3.123701
3608.000000;3.155079
3607.000000;3.067638
3606.000000;3.018968
3605.000000;3.117905
3604.000000;3.244854
3603.000000;3.188796
3602.000000;3.141287
3601.000000;3.222144
3600.000000;3.206631
3599.000000;3.139350
3598.000000;3.224841
3597.000000;3.150974
3596.000000;2.970713
3595.000000;2.962051
3594.000000;3.086339
3593.000000;3.210949
3592.000000;3.099894
3591.000000;2.932466
3590.000000;2.779558
3589.000000;2.719436
3588.000000;2.781400
3587.000000;2.980878
3586.000000;3.545222
3585.000000;3.448909
3584.000000;3.115275
3583.000000;3.011629
3582.000000;2.893551
3581.000000;2.804043
3580.000000;2.743676
3579.000000;2.730403
3578.000000;2.772456
3577.000000;2.837568
3576.000000;2.848368
3575.000000;2.773001
3574.000000;2.689921
3573.000000;2.660715
3572.000000;2.701318
3571.000000;2.781452
3570.000000;2.818900
3569.000000;2.805622
3568.000000;2.828460
3567.000000;2.920423
3566.000000;3.058796
3565.000000;3.280479
3564.000000;3.216612
3563.000000;2.912487
3562.000000;2.768427
3561.000000;2.798280
3560.000000;3.033118
3559.000000;3.234486
3558.000000;3.098078
3557.000000;3.224822
3556.000000;3.719823
3555.000000;3.216326
3554.000000;2.969277
3553.000000;2.959039
3552.000000;3.067989
3551.000000;3.169801
3550.000000;3.065787
3549.000000;2.999409
3548.000000;3.026742
3547.000000;3.047730
3546.000000;2.972506
3545.000000;2.894305
3544.000000;2.895003
3543.000000;2.963497
3542.000000;3.047517
3541.000000;3.138542
3540.000000;3.311342
3539.000000;3.709232
3538.000000;3.916620
3537.000000;3.474365
3536.000000;3.258597
3535.000000;3.089853
3534.000000;2.914701
3533.000000;2.834578
3532.000000;2.887894
3531.000000;3.047017
3530.000000;3.269110
3529.000000;3.667430
3528.000000;3.650813
3527.000000;3.580443
3526.000000;4.028291
3525.000000;3.439892
3524.000000;3.044053
3523.000000;2.844619
3522.000000;2.752763
3521.000000;2.745974
3520.000000;2.796780
3519.000000;2.882248
3518.000000;2.978037
3517.000000;3.058092
3516.000000;3.066910
3515.000000;3.175024
3514.000000;3.337660
3513.000000;3.148039
3512.000000;3.076443
3511.000000;3.343434
3510.000000;3.467354
3509.000000;3.188130
3508.000000;3.075467
3507.000000;3.132801
3506.000000;3.366342
3505.000000;3.513261
3504.000000;3.164388
3503.000000;3.084571
3502.000000;3.687559
3501.000000;3.187890
3500.000000;2.874523
3499.000000;2.904144
3498.000000;2.929799
3497.000000;2.865842
3496.000000;3.080672
3495.000000;3.923312
3494.000000;3.229306
3493.000000;3.200671
3492.000000;3.465012
3491.000000;3.660243
3490.000000;3.462535
3489.000000;3.230029
3488.000000;3.128474
3487.000000;3.061485
3486.000000;3.005700
3485.000000;2.950930
3484.000000;2.897417
3483.000000;2.803815
3482.000000;2.733134
3481.000000;2.721920
3480.000000;2.708483
3479.000000;2.677037
3478.000000;2.676264
3477.000000;2.723159
3476.000000;2.824431
3475.000000;2.991175
3474.000000;3.135768
3473.000000;3.118402
3472.000000;3.038135
3471.000000;2.992072
3470.000000;3.048211
3469.000000;3.296817
3468.000000;3.389586
3467.000000;3.099418
3466.000000;3.060147
3465.000000;3.187866
3464.000000;3.157931
3463.000000;3.010217
3462.000000;2.954279
3461.000000;2.970630
3460.000000;3.056470
3459.000000;3.088048
3458.000000;3.022653
3457.000000;3.181226
3456.000000;3.523835
3455.000000;3.441599
3454.000000;3.692933
3453.000000;3.358315
3452.000000;3.021828
3451.000000;2.988569
3450.000000;3.166551
3449.000000;3.601687
3448.000000;3.451532
3447.000000;3.358462
3446.000000;3.146071
3445.000000;2.955642
3444.000000;2.976258
3443.000000;3.133234
3442.000000;3.079875
3441.000000;2.929905
3440.000000;2.936289
3439.000000;3.144535
3438.000000;3.452471
3437.000000;3.290958
3436.000000;3.194920
3435.000000;3.367225
3434.000000;3.606163
3433.000000;3.337403
3432.000000;3.175659
3431.000000;3.245869
3430.000000;3.683124
3429.000000;3.360462
3428.000000;3.048944
3427.000000;3.272469
3426.000000;3.233334
3425.000000;2.859965
3424.000000;2.727927
3423.000000;2.744845
3422.000000;2.833555
3421.000000;2.858915
3420.000000;2.807717
3419.000000;2.832751
3418.000000;3.043591
3417.000000;3.203834
3416.000000;2.977784
3415.000000;2.924197
3414.000000;3.031849
3413.000000;3.336397
3412.000000;3.492901
3411.000000;3.059502
3410.000000;2.880589
3409.000000;2.839536
3408.000000;2.909958
3407.000000;3.063196
3406.000000;3.193847
3405.000000;3.166777
3404.000000;3.083605
3403.000000;3.103693
3402.000000;3.414099
3401.000000;3.864901
3400.000000;3.651978
3399.000000;3.556447
3398.000000;3.412600
3397.000000;3.259379
3396.000000;3.096681
3395.000000;2.977104
3394.000000;2.902256
3393.000000;2.833772
3392.000000;2.779393
3391.000000;2.743936
3390.000000;2.726953
3389.000000;2.741206
3388.000000;2.807278
3387.000000;2.874603
3386.000000;2.808722
3385.000000;2.699064
3384.000000;2.643214
3383.000000;2.638105
3382.000000;2.672535
3381.000000;2.729317
3380.000000;2.785026
3379.000000;2.838823
3378.000000;2.892708
3377.000000;2.906532
3376.000000;2.894835
3375.000000;2.971290
3374.000000;3.216300
3373.000000;3.187821
3372.000000;2.987416
3371.000000;2.904765
3370.000000;2.872262
3369.000000;2.901374
3368.000000;2.987907
3367.000000;3.101202
3366.000000;3.260567
3365.000000;3.722316
3364.000000;3.658660
3363.000000;3.396246
3362.000000;3.536070
3361.000000;3.618116
3360.000000;3.476103
3359.000000;3.554211
3358.000000;3.586072
3357.000000;3.374535
3356.000000;3.207693
3355.000000;3.194359
3354.000000;3.009512
3353.000000;2.822693
3352.000000;2.848263
3351.000000;3.107142
3350.000000;3.266048
3349.000000;3.226725
3348.000000;3.326339
3347.000000;3.188637
3346.000000;3.151724
3345.000000;3.245316
3344.000000;3.260617
3343.000000;3.233217
3342.000000;3.029484
3341.000000;2.833554
3340.000000;2.761563
3339.000000;2.788819
3338.000000;2.868323
3337.000000;2.938800
3336.000000;3.001891
3335.000000;3.142520
3334.000000;3.498711
3333.000000;3.847541
3332.000000;3.520669
3331.000000;3.360049
3330.000000;3.159891
3329.000000;2.983955
3328.000000;2.852918
3327.000000;2.816976
3326.000000;2.920420
3325.000000;3.190761
3324.000000;3.194911
3323.000000;2.923379
3322.000000;2.769263
3321.000000;2.696621
3320.000000;2.704996
3319.000000;2.778091
3318.000000;2.896196
3317.000000;2.928498
3316.000000;2.833892
3315.000000;2.782645
3314.000000;2.841495
3313.000000;3.020807
3312.000000;3.331552
3311.000000;3.487632
3310.000000;3.256737
3309.000000;3.168612
3308.000000;3.197807
3307.000000;3.199576
3306.000000;3.141937
3305.000000;3.062278
3304.000000;2.946538
3303.000000;2.885656
3302.000000;2.943193
3301.000000;3.172738
3300.000000;3.414815
3299.000000;3.271459
3298.000000;3.341337
3297.000000;3.559219
3296.000000;3.275188
3295.000000;3.024711
3294.000000;2.898641
3293.000000;2.802467
3292.000000;2.727693
3291.000000;2.654138
3290.000000;2.593770
3289.000000;2.630956
3288.000000;2.810392
3287.000000;3.585941
3286.000000;3.174786
3285.000000;2.951043
3284.000000;3.055618
3283.000000;3.340920
3282.000000;3.233534
3281.000000;3.047434
3280.000000;3.067761
3279.000000;3.254589
3278.000000;3.237689
3277.000000;3.069483
3276.000000;3.083438
3275.000000;3.351026
3274.000000;3.377900
3273.000000;2.964237
3272.000000;2.783994
3271.000000;2.703225
3270.000000;2.704002
3269.000000;2.730341
3268.000000;2.756861
3267.000000;2.797018
3266.000000;2.880003
3265.000000;3.007922
3264.000000;3.140619
3263.000000;3.180809
3262.000000;3.098600
3261.000000;3.031609
3260.000000;3.043113
3259.000000;3.010924
3258.000000;2.863459
3257.000000;2.764108
3256.000000;2.745018
3255.000000;2.779013
3254.000000;2.864314
3253.000000;3.045908
3252.000000;3.483521
3251.000000;3.321739
3250.000000;3.063685
3249.000000;3.071947
3248.000000;3.013743
3247.000000;2.952696
3246.000000;2.974253
3245.000000;2.917054
3244.000000;2.837771
3243.000000;2.849530
3242.000000;2.934652
3241.000000;3.065052
3240.000000;3.189881
3239.000000;3.216199
3238.000000;3.173438
3237.000000;3.161079
3236.000000;3.161325
3235.000000;3.172784
3234.000000;3.269101
3233.000000;3.449030
3232.000000;3.867160
3231.000000;3.270702
3230.000000;3.022235
3229.000000;2.966499
3228.000000;3.015764
3227.000000;3.185678
3226.000000;3.491485
3225.000000;3.265154
3224.000000;3.144504
3223.000000;3.019626
3222.000000;2.816596
3221.000000;2.768307
3220.000000;2.982101
3219.000000;3.293198
3218.000000;3.065633
3217.000000;3.087708
3216.000000;3.436366
3215.000000;3.320544
3214.000000;3.011428
3213.000000;2.989652
3212.000000;3.064557
3211.000000;3.156093
3210.000000;3.181676
3209.000000;3.114154
3208.000000;2.995065
3207.000000;2.867959
3206.000000;2.745684
3205.000000;2.693364
3204.000000;2.751608
3203.000000;2.929934
3202.000000;3.159103
3201.000000;3.104231
3200.000000;2.918933
3199.000000;2.846402
3198.000000;2.933599
3197.000000;3.096893
3196.000000;2.987347
3195.000000;2.905306
3194.000000;2.947985
3193.000000;3.185697
3192.000000;3.379660
3191.000000;3.096584
3190.000000;3.053733
3189.000000;3.062102
3188.000000;3.037652
3187.000000;3.021852
3186.000000;3.024379
3185.000000;3.040653
3184.000000;3.122314
3183.000000;3.309832
3182.000000;3.431361
3181.000000;3.241529
3180.000000;3.002837
3179.000000;2.866828
3178.000000;2.820776
3177.000000;2.813205
3176.000000;2.791436
3175.000000;2.753026
3174.000000;2.755034
3173.000000;2.858679
3172.000000;3.119716
3171.000000;3.431406
3170.000000;3.190013
3169.000000;2.991386
3168.000000;3.058911
3167.000000;3.235473
3166.000000;2.882883
3165.000000;2.716243
3164.000000;2.734337
3163.000000;2.855029
3162.000000;3.139346
3161.000000;3.324855
3160.000000;3.045293
3159.000000;2.984747
3158.000000;3.108746
3157.000000;3.375274
3156.000000;3.639155
3155.000000;3.346163
3154.000000;3.046629
3153.000000;2.897409
3152.000000;2.878301
3151.000000;2.975887
3150.000000;3.223963
3149.000000;3.324911
3148.000000;2.903330
3147.000000;2.745616
3146.000000;2.732265
3145.000000;2.781975
3144.000000;2.837835
3143.000000;2.903502
3142.000000;3.039395
3141.000000;3.317137
3140.000000;3.372628
3139.000000;3.122830
3138.000000;2.966940
3137.000000;2.825399
3136.000000;2.735709
3135.000000;2.719710
3134.000000;2.804396
3133.000000;2.958307
3132.000000;3.332210
3131.000000;3.240858
3130.000000;2.887144
3129.000000;2.808755
3128.000000;2.898822
3127.000000;3.138253
3126.000000;3.383208
3125.000000;3.291050
3124.000000;3.438460
3123.000000;3.463333
3122.000000;2.911141
3121.000000;2.737189
3120.000000;2.719496
3119.000000;2.763273
3118.000000;2.831890
3117.000000;2.971225
3116.000000;3.040647
3115.000000;2.942280
3114.000000;2.928677
3113.000000;2.911839
3112.000000;2.890545
3111.000000;3.032463
3110.000000;3.423049
3109.000000;3.323303
3108.000000;3.137206
3107.000000;3.309149
3106.000000;3.358587
3105.000000;3.170261
3104.000000;3.141783
3103.000000;3.263099
3102.000000;3.329658
3101.000000;3.307702
3100.000000;3.239053
3099.000000;3.186976
3098.000000;3.159926
3097.000000;3.106112
3096.000000;3.043671
3095.000000;2.994329
3094.000000;2.986654
3093.000000;2.988193
3092.000000;2.947593
3091.000000;2.876639
3090.000000;2.798675
3089.000000;2.752703
3088.000000;2.787063
3087.000000;2.921954
3086.000000;3.122486
3085.000000;3.202807
3084.000000;3.091362
3083.000000;3.010787
3082.000000;3.028829
3081.000000;3.280254
3080.000000;3.226233
3079.000000;2.914860
3078.000000;2.838945
3077.000000;2.886028
3076.000000;3.009965
3075.000000;3.147487
3074.000000;3.322981
3073.000000;3.612844
3072.000000;3.749347
3071.000000;3.390558
3070.000000;3.195194
3069.000000;3.217203
3068.000000;3.268315
3067.000000;3.241267
3066.000000;3.361638
3065.000000;3.227125
3064.000000;3.036559
3063.000000;3.004565
3062.000000;3.266265
3061.000000;4.014256
3060.000000;3.297640
3059.000000;3.346908
3058.000000;3.379150
3057.000000;3.234108
3056.000000;3.172431
3055.000000;3.140200
3054.000000;3.065053
3053.000000;3.005682
3052.000000;3.008683
3051.000000;3.373905
3050.000000;3.143616
3049.000000;2.784189
3048.000000;2.752955
3047.000000;2.919696
3046.000000;3.139026
3045.000000;3.146573
3044.000000;3.233590
3043.000000;3.736063
3042.000000;3.585228
3041.000000;3.242583
3040.000000;3.258209
3039.000000;3.148541
3038.000000;2.831766
3037.000000;2.694586
3036.000000;2.693755
3035.000000;2.938357
3034.000000;3.521731
3033.000000;2.950552
3032.000000;2.833394
3031.000000;3.155434
3030.000000;3.632555
3029.000000;3.153553
3028.000000;3.497293
3027.000000;3.614921
3026.000000;3.313058
3025.000000;3.308216
3024.000000;3.285514
3023.000000;3.243447
3022.000000;3.066809
3021.000000;2.905531
3020.000000;2.847833
3019.000000;2.881359
3018.000000;2.970872
3017.000000;3.036643
3016.000000;3.021113
3015.000000;2.974183
3014.000000;2.950834
3013.000000;2.930495
3012.000000;2.864623
3011.000000;2.790051
3010.000000;2.751538
3009.000000;2.738937
3008.000000;2.731784
3007.000000;2.737532
3006.000000;2.768994
3005.000000;2.819268
3004.000000;2.868310
3003.000000;2.905010
3002.000000;2.954932
3001.000000;3.044830
3000.000000;3.388442
2999.000000;3.538856
2998.000000;3.125531
2997.000000;2.981439
2996.000000;2.904808
2995.000000;2.852003
2994.000000;2.836837
2993.000000;2.848056
2992.000000;2.866976
2991.000000;2.902540
2990.000000;2.994277
2989.000000;3.176939
2988.000000;3.407340
2987.000000;3.337956
2986.000000;3.046270
2985.000000;2.872313
2984.000000;2.820516
2983.000000;2.823834
2982.000000;2.796126
2981.000000;2.785449
2980.000000;2.902242
2979.000000;3.227646
2978.000000;3.659791
2977.000000;3.498081
2976.000000;3.125141
2975.000000;2.863365
2974.000000;2.770523
2973.000000;2.822397
2972.000000;3.173494
2971.000000;3.391193
2970.000000;2.995121
2969.000000;2.848293
2968.000000;2.826272
2967.000000;2.886157
2966.000000;2.946533
2965.000000;2.991034
2964.000000;2.991780
2963.000000;2.920052
2962.000000;2.908651
2961.000000;3.033090
2960.000000;3.204056
2959.000000;3.011659
2958.000000;2.858990
2957.000000;2.874556
2956.000000;3.183384
2955.000000;3.769467
2954.000000;3.082743
2953.000000;2.942758
2952.000000;2.925029
2951.000000;2.981897
2950.000000;3.090290
2949.000000;3.212625
2948.000000;3.420940
2947.000000;3.518397
2946.000000;3.320791
2945.000000;3.208674
2944.000000;3.251335
2943.000000;3.539655
2942.000000;3.964030
2941.000000;3.920968
2940.000000;4.185227
2939.000000;3.702901
2938.000000;3.470235
2937.000000;3.235933
2936.000000;3.001438
2935.000000;2.911083
2934.000000;2.907676
2933.000000;2.902508
2932.000000;2.851705
2931.000000;2.820301
2930.000000;2.880076
2929.000000;3.224569
2928.000000;3.617367
2927.000000;3.099357
2926.000000;3.069055
2925.000000;3.050789
2924.000000;3.104541
2923.000000;3.480037
2922.000000;3.482696
2921.000000;3.228572
2920.000000;3.125496
2919.000000;3.226874
2918.000000;3.319607
2917.000000;2.874868
2916.000000;2.634673
2915.000000;2.557405
2914.000000;2.577008
2913.000000;2.697215
2912.000000;3.022245
2911.000000;3.432272
2910.000000;2.986413
2909.000000;2.867678
2908.000000;3.041179
2907.000000;3.185387
2906.000000;2.999945
2905.000000;2.930679
2904.000000;3.054734
2903.000000;3.259954
2902.000000;3.201152
2901.000000;2.958289
2900.000000;2.826162
2899.000000;2.794262
2898.000000;2.803687
2897.000000;2.824686
2896.000000;2.828705
2895.000000;2.795281
2894.000000;2.754249
2893.000000;2.708680
2892.000000;2.659688
2891.000000;2.670231
2890.000000;2.788823
2889.000000;3.028448
2888.000000;3.334599
2887.000000;3.201895
2886.000000;2.948361
2885.000000;2.847151
2884.000000;2.958971
2883.000000;3.096036
2882.000000;2.775190
2881.000000;2.605213
2880.000000;2.608709
2879.000000;2.697720
2878.000000;2.822767
2877.000000;2.926425
2876.000000;2.987869
2875.000000;2.976414
2874.000000;2.899414
2873.000000;2.771859
2872.000000;2.662724
2871.000000;2.619218
2870.000000;2.640578
2869.000000;2.675544
2868.000000;2.641220
2867.000000;2.572425
2866.000000;2.555139
2865.000000;2.619022
2864.000000;2.744512
2863.000000;2.840236
2862.000000;2.855353
2861.000000;2.866854
2860.000000;2.934653
2859.000000;3.096979
2858.000000;3.334339
2857.000000;3.662635
2856.000000;3.877468
2855.000000;3.468110
2854.000000;3.249504
2853.000000;3.121907
2852.000000;3.017590
2851.000000;2.929867
2850.000000;2.846627
2849.000000;2.822656
2848.000000;2.877628
2847.000000;2.988464
2846.000000;3.148049
2845.000000;3.371488
2844.000000;3.580355
2843.000000;3.534525
2842.000000;3.274321
2841.000000;3.160858
2840.000000;3.195915
2839.000000;3.329859
2838.000000;3.791466
2837.000000;3.446792
2836.000000;3.028308
2835.000000;2.893751
2834.000000;2.850481
2833.000000;2.889606
2832.000000;3.018032
2831.000000;3.200219
2830.000000;3.379321
2829.000000;3.351033
2828.000000;3.445820
2827.000000;3.799453
2826.000000;3.177238
2825.000000;2.933136
2824.000000;2.894218
2823.000000;2.861549
2822.000000;2.809516
2821.000000;2.786671
2820.000000;2.819185
2819.000000;2.868403
2818.000000;2.903621
2817.000000;2.886586
2816.000000;2.834665
2815.000000;2.809742
2814.000000;2.820579
2813.000000;2.865349
2812.000000;2.924682
2811.000000;3.007271
2810.000000;3.103336
2809.000000;3.273994
2808.000000;3.863633
2807.000000;3.413082
2806.000000;3.068167
2805.000000;3.127357
2804.000000;3.177958
2803.000000;3.013863
2802.000000;2.947908
2801.000000;3.030040
2800.000000;3.104083
2799.000000;3.066858
2798.000000;3.014466
2797.000000;2.982502
2796.000000;2.922412
2795.000000;2.904139
2794.000000;2.970808
2793.000000;3.337599
2792.000000;3.724930
2791.000000;3.082617
2790.000000;2.904259
2789.000000;2.902231
2788.000000;3.022430
2787.000000;3.089373
2786.000000;2.899347
2785.000000;2.791358
2784.000000;2.802837
2783.000000;2.972199
2782.000000;3.617322
2781.000000;3.700501
2780.000000;3.472891
2779.000000;3.605048
2778.000000;3.074868
2777.000000;2.867240
2776.000000;2.840981
2775.000000;3.005829
2774.000000;3.517057
2773.000000;3.367674
2772.000000;3.211242
2771.000000;3.124725
2770.000000;2.921092
2769.000000;2.814280
2768.000000;2.789816
2767.000000;2.829224
2766.000000;2.880974
2765.000000;2.911039
2764.000000;2.901010
2763.000000;2.872095
2762.000000;2.915832
2761.000000;3.076282
2760.000000;3.420469
2759.000000;3.633928
2758.000000;3.286516
2757.000000;3.145944
2756.000000;3.110663
2755.000000;3.092056
2754.000000;3.085231
2753.000000;2.984844
2752.000000;2.889599
2751.000000;2.933507
2750.000000;3.196885
2749.000000;3.447415
2748.000000;3.299672
2747.000000;3.200415
2746.000000;3.206738
2745.000000;3.407476
2744.000000;3.396702
2743.000000;3.105381
2742.000000;3.052208
2741.000000;3.183830
2740.000000;3.103453
2739.000000;2.899846
2738.000000;2.824211
2737.000000;2.819136
2736.000000;2.863933
2735.000000;2.973055
2734.000000;3.476159
2733.000000;3.818914
2732.000000;3.197522
2731.000000;3.333176
2730.000000;3.523363
2729.000000;3.292942
2728.000000;3.178563
2727.000000;3.059593
2726.000000;2.904542
2725.000000;2.824480
2724.000000;2.863701
2723.000000;3.026990
2722.000000;3.073902
2721.000000;2.912094
2720.000000;2.885890
2719.000000;3.045676
2718.000000;3.367117
2717.000000;3.682017
2716.000000;3.671364
2715.000000;3.440183
2714.000000;3.257553
2713.000000;3.196496
2712.000000;3.210115
2711.000000;3.195657
2710.000000;3.131520
2709.000000;3.129769
2708.000000;3.183479
2707.000000;3.160653
2706.000000;3.028630
2705.000000;2.909008
2704.000000;2.872082
2703.000000;2.945863
2702.000000;3.104630
2701.000000;3.252198
2700.000000;3.249204
2699.000000;3.174057
2698.000000;3.093306
2697.000000;3.147428
2696.000000;3.512424
2695.000000;3.455782
2694.000000;3.175822
2693.000000;3.195174
2692.000000;3.372771
2691.000000;3.473990
2690.000000;3.541808
2689.000000;3.431312
2688.000000;3.110065
2687.000000;2.961604
2686.000000;2.950323
2685.000000;3.119319
2684.000000;3.273848
2683.000000;3.002008
2682.000000;2.822741
2681.000000;2.782576
2680.000000;2.859495
2679.000000;3.057170
2678.000000;3.088896
2677.000000;2.911742
2676.000000;2.778362
2675.000000;2.703698
2674.000000;2.705914
2673.000000;2.787353
2672.000000;3.143965
2671.000000;3.519959
2670.000000;3.188014
2669.000000;3.487790
2668.000000;3.363108
2667.000000;2.957412
2666.000000;2.902769
2665.000000;2.971893
2664.000000;3.097179
2663.000000;3.199600
2662.000000;3.241145
2661.000000;3.244191
2660.000000;3.176428
2659.000000;3.036741
2658.000000;2.954539
2657.000000;3.073195
2656.000000;3.516266
2655.000000;3.391511
2654.000000;3.094235
2653.000000;3.192776
2652.000000;3.416797
2651.000000;3.614525
2650.000000;3.848152
2649.000000;3.741942
2648.000000;3.982215
2647.000000;3.661957
2646.000000;3.211538
2645.000000;3.059219
2644.000000;2.957614
2643.000000;2.851035
2642.000000;2.783086
2641.000000;2.795281
2640.000000;2.932073
2639.000000;3.148684
2638.000000;3.291823
2637.000000;3.438722
2636.000000;3.350559
2635.000000;3.109863
2634.000000;2.995387
2633.000000;2.947309
2632.000000;2.931678
2631.000000;2.931579
2630.000000;2.927198
2629.000000;2.923138
2628.000000;2.919959
2627.000000;2.930643
2626.000000;2.963515
2625.000000;3.103066
2624.000000;3.452437
2623.000000;3.267082
2622.000000;2.982679
2621.000000;2.935781
2620.000000;2.950666
2619.000000;2.975221
2618.000000;2.908048
2617.000000;2.747301
2616.000000;2.638408
2615.000000;2.641257
2614.000000;2.759422
2613.000000;2.930236
2612.000000;2.922334
2611.000000;2.860972
2610.000000;2.865489
2609.000000;3.111802
2608.000000;3.521676
2607.000000;2.985927
2606.000000;2.822326
2605.000000;2.870028
2604.000000;2.993798
2603.000000;3.127794
2602.000000;3.184980
2601.000000;3.365716
2600.000000;3.807950
2599.000000;3.649620
2598.000000;3.245024
2597.000000;3.316326
2596.000000;3.289986
2595.000000;3.019603
2594.000000;2.894740
2593.000000;2.972165
2592.000000;3.348555
2591.000000;3.324057
2590.000000;3.082572
2589.000000;3.138965
2588.000000;3.248675
2587.000000;3.308856
2586.000000;3.232514
2585.000000;3.021080
2584.000000;2.918970
2583.000000;2.980625
2582.000000;3.129817
2581.000000;3.157582
2580.000000;3.030947
2579.000000;2.869833
2578.000000;2.758552
2577.000000;2.770219
2576.000000;2.905383
2575.000000;3.181824
2574.000000;3.669003
2573.000000;3.468198
2572.000000;3.154849
2571.000000;3.259829
2570.000000;3.590885
2569.000000;3.376376
2568.000000;3.290261
2567.000000;3.312565
2566.000000;3.278424
2565.000000;3.439398
2564.000000;3.318050
2563.000000;3.094427
2562.000000;3.133356
2561.000000;3.272537
2560.000000;3.151253
2559.000000;3.035977
2558.000000;3.112349
2557.000000;3.281838
2556.000000;3.282422
2555.000000;3.293076
2554.000000;3.498605
2553.000000;3.496185
2552.000000;3.259581
2551.000000;3.102339
2550.000000;3.172896
2549.000000;3.427332
2548.000000;3.338108
2547.000000;3.213175
2546.000000;3.258525
2545.000000;3.363320
2544.000000;3.299804
2543.000000;3.063544
2542.000000;2.920868
2541.000000;2.876989
2540.000000;2.911866
2539.000000;2.946866
2538.000000;2.923075
2537.000000;2.934113
2536.000000;3.114940
2535.000000;3.485717
2534.000000;3.646245
2533.000000;3.995242
2532.000000;3.369809
2531.000000;3.281614
2530.000000;3.942316
2529.000000;3.234147
2528.000000;2.912385
2527.000000;2.858276
2526.000000;2.930711
2525.000000;3.248465
2524.000000;3.590261
2523.000000;3.221737
2522.000000;3.076563
2521.000000;3.111722
2520.000000;3.263150
2519.000000;3.192291
2518.000000;3.069073
2517.000000;3.099333
2516.000000;3.218177
2515.000000;3.587053
2514.000000;3.159039
2513.000000;2.845414
2512.000000;2.854943
2511.000000;3.013490
2510.000000;3.067447
2509.000000;2.933852
2508.000000;2.862560
2507.000000;2.865059
2506.000000;2.956260
2505.000000;3.122210
2504.000000;3.311544
2503.000000;3.274266
2502.000000;2.932733
2501.000000;2.720502
2500.000000;2.640006
2499.000000;2.674878
2498.000000;2.838314
2497.000000;3.070832
2496.000000;3.224495
2495.000000;3.287522
2494.000000;3.188298
2493.000000;2.988946
2492.000000;2.873053
2491.000000;2.892005
2490.000000;3.064631
2489.000000;3.399857
2488.000000;3.810883
2487.000000;3.656678
2486.000000;3.399445
2485.000000;3.277247
2484.000000;3.173191
2483.000000;3.091510
2482.000000;3.121499
2481.000000;3.283041
2480.000000;3.257649
2479.000000;3.118872
2478.000000;3.124202
2477.000000;3.127511
2476.000000;3.022527
2475.000000;2.945024
2474.000000;2.912922
2473.000000;2.857316
2472.000000;2.732552
2471.000000;2.604791
2470.000000;2.551886
2469.000000;2.602761
2468.000000;2.776340
2467.000000;3.153610
2466.000000;3.454131
2465.000000;3.125514
2464.000000;2.933878
2463.000000;2.828006
2462.000000;2.775625
2461.000000;2.771326
2460.000000;2.843888
2459.000000;3.123018
2458.000000;3.631682
2457.000000;3.404124
2456.000000;3.070251
2455.000000;2.942666
2454.000000;2.986498
2453.000000;3.278493
2452.000000;4.188781
2451.000000;3.953505
2450.000000;3.638520
2449.000000;3.282136
2448.000000;3.298189
2447.000000;3.755616
2446.000000;3.099547
2445.000000;2.841425
2444.000000;2.805755
2443.000000;3.052686
2442.000000;3.545130
2441.000000;3.087228
2440.000000;2.921749
2439.000000;2.843165
2438.000000;2.797699
2437.000000;2.857017
2436.000000;3.155778
2435.000000;3.471738
2434.000000;3.152997
2433.000000;3.091004
2432.000000;3.206817
2431.000000;3.332351
2430.000000;3.585395
2429.000000;3.587902
2428.000000;3.220603
2427.000000;3.024825
2426.000000;2.920305
2425.000000;2.873129
2424.000000;2.893818
2423.000000;3.025712
2422.000000;3.205280
2421.000000;3.151595
2420.000000;3.042664
2419.000000;2.918297
2418.000000;2.840205
2417.000000;2.873345
2416.000000;2.974813
2415.000000;3.047979
2414.000000;3.019442
2413.000000;2.969573
2412.000000;2.963279
2411.000000;3.122039
2410.000000;3.474062
2409.000000;3.089247
2408.000000;2.823173
2407.000000;2.839000
2406.000000;3.045136
2405.000000;3.624191
2404.000000;3.594695
2403.000000;3.223288
2402.000000;3.097524
2401.000000;3.027067
2400.000000;3.055766
2399.000000;3.111562
2398.000000;3.057724
2397.000000;2.984555
2396.000000;2.988874
2395.000000;2.977761
2394.000000;2.911494
2393.000000;2.903182
2392.000000;3.031814
2391.000000;3.264970
2390.000000;3.195175
2389.000000;2.974255
2388.000000;2.817551
2387.000000;2.725130
2386.000000;2.711167
2385.000000;2.730099
2384.000000;2.614868
2383.000000;2.391358
2382.000000;2.265043
2381.000000;2.281874
2380.000000;2.450320
2379.000000;2.904187
2378.000000;3.107615
2377.000000;2.716805
2376.000000;2.616576
2375.000000;2.635429
2374.000000;2.680060
2373.000000;2.665863
2372.000000;2.593161
2371.000000;2.508277
2370.000000;2.441806
2369.000000;2.421645
2368.000000;2.457163
2367.000000;2.510157
2366.000000;2.579159
2365.000000;2.770139
2364.000000;2.777139
2363.000000;2.534054
2362.000000;2.480242
2361.000000;2.581088
2360.000000;3.045152
2359.000000;3.275260
2358.000000;2.713009
2357.000000;2.563498
2356.000000;2.593330
2355.000000;3.147881
2354.000000;3.155738
2353.000000;3.951434
2352.000000;3.751827
2351.000000;3.483056
2350.000000;3.201719
2349.000000;3.146903
2348.000000;2.784219
2347.000000;2.465286
2346.000000;2.747840
2345.000000;2.782808
2344.000000;2.678202
2343.000000;2.606975
2342.000000;2.592270
2341.000000;2.569269
2340.000000;2.535126
2339.000000;2.513969
2338.000000;2.558800
2337.000000;2.717726
2336.000000;3.055559
2335.000000;3.284658
2334.000000;2.906086
2333.000000;2.617408
2332.000000;2.490535
2331.000000;2.500484
2330.000000;2.638983
2329.000000;2.895338
2328.000000;3.201995
2327.000000;3.059906
2326.000000;2.718654
2325.000000;2.547804
2324.000000;2.628974
2323.000000;2.865313
2322.000000;2.586928
2321.000000;2.439614
2320.000000;2.540798
2319.000000;2.737257
2318.000000;2.769820
2317.000000;2.728287
2316.000000;2.807557
2315.000000;2.980036
2314.000000;2.850564
2313.000000;2.595678
2312.000000;2.545512
2311.000000;2.649250
2310.000000;2.725331
2309.000000;2.768673
2308.000000;2.878857
2307.000000;2.854006
2306.000000;2.747422
2305.000000;2.680760
2304.000000;2.661885
2303.000000;2.690771
2302.000000;2.699446
2301.000000;2.624875
2300.000000;2.537047
2299.000000;2.497486
2298.000000;2.514590
2297.000000;2.568960
2296.000000;2.656247
2295.000000;2.802017
2294.000000;3.063501
2293.000000;3.202936
2292.000000;3.045758
2291.000000;2.948217
2290.000000;2.915517
2289.000000;2.908940
2288.000000;2.912774
2287.000000;2.915075
2286.000000;2.920100
2285.000000;2.935860
2284.000000;2.926830
2283.000000;2.841490
2282.000000;2.729363
2281.000000;2.646483
2280.000000;2.613852
2279.000000;2.656784
2278.000000;2.792237
2277.000000;3.111023
2276.000000;3.340186
2275.000000;3.052820
2274.000000;2.992450
2273.000000;3.061269
2272.000000;3.386377
2271.000000;3.565403
2270.000000;3.224786
2269.000000;3.127220
2268.000000;3.103054
2267.000000;3.156439
2266.000000;3.415826
2265.000000;4.072591
2264.000000;3.481605
2263.000000;3.208780
2262.000000;3.106271
2261.000000;3.031623
2260.000000;2.993317
2259.000000;3.014199
2258.000000;3.066811
2257.000000;3.023886
2256.000000;2.884251
2255.000000;2.814537
2254.000000;2.831281
2253.000000;2.865618
2252.000000;2.869123
2251.000000;2.882972
2250.000000;2.916603
2249.000000;2.924925
2248.000000;2.895371
2247.000000;2.848797
2246.000000;2.824839
2245.000000;2.877130
2244.000000;3.086743
2243.000000;3.115396
2242.000000;2.905410
2241.000000;2.828955
2240.000000;2.844531
2239.000000;2.883430
2238.000000;2.910199
2237.000000;2.954643
2236.000000;3.053238
2235.000000;3.191453
2234.000000;3.383067
2233.000000;3.264248
2232.000000;2.992469
2231.000000;2.874271
2230.000000;2.880936
2229.000000;2.990821
2228.000000;3.353369
2227.000000;3.989477
2226.000000;3.140532
2225.000000;2.955412
2224.000000;2.849484
2223.000000;2.818760
2222.000000;2.832285
2221.000000;2.869816
2220.000000;2.895376
2219.000000;2.940760
2218.000000;2.992059
2217.000000;2.990417
2216.000000;3.013422
2215.000000;3.094040
2214.000000;3.112114
2213.000000;3.000661
2212.000000;2.884494
2211.000000;2.862544
2210.000000;2.956071
2209.000000;3.070458
2208.000000;3.009685
2207.000000;2.905902
2206.000000;2.850752
2205.000000;2.832518
2204.000000;2.827340
2203.000000;2.827310
2202.000000;2.843007
2201.000000;2.890722
2200.000000;2.951415
2199.000000;2.944723
2198.000000;2.895781
2197.000000;2.861542
2196.000000;2.813120
2195.000000;2.745737
2194.000000;2.687572
2193.000000;2.651984
2192.000000;2.666204
2191.000000;2.753601
2190.000000;3.042708
2189.000000;3.477872
2188.000000;3.027981
2187.000000;2.855841
2186.000000;2.894121
2185.000000;2.978189
2184.000000;3.052634
2183.000000;3.056577
2182.000000;3.081625
2181.000000;3.252042
2180.000000;3.197634
2179.000000;2.874092
2178.000000;2.706854
2177.000000;2.678829
2176.000000;2.776878
2175.000000;2.967271
2174.000000;3.211550
2173.000000;3.396092
2172.000000;3.164824
2171.000000;2.952163
2170.000000;2.916996
2169.000000;3.083022
2168.000000;3.095515
2167.000000;2.914183
2166.000000;2.868980
2165.000000;2.823607
2164.000000;2.761182
2163.000000;2.790675
2162.000000;3.068618
2161.000000;3.531259
2160.000000;3.329682
2159.000000;3.317242
2158.000000;3.306911
2157.000000;3.181495
2156.000000;3.153908
2155.000000;3.243335
2154.000000;3.526358
2153.000000;3.900028
2152.000000;4.480725
2151.000000;3.501122
2150.000000;3.269958
2149.000000;3.256764
2148.000000;3.279607
2147.000000;3.208570
2146.000000;3.174907
2145.000000;3.226456
2144.000000;3.427819
2143.000000;3.537660
2142.000000;3.276750
2141.000000;3.141813
2140.000000;3.085989
2139.000000;3.095825
2138.000000;3.189071
2137.000000;3.535912
2136.000000;3.417318
2135.000000;3.202591
2134.000000;3.247181
2133.000000;3.236417
2132.000000;3.230528
2131.000000;3.459789
2130.000000;3.637957
2129.000000;3.169848
2128.000000;2.996576
2127.000000;2.961540
2126.000000;2.993193
2125.000000;3.145686
2124.000000;3.768502
2123.000000;3.190206
2122.000000;2.971330
2121.000000;2.946807
2120.000000;2.989054
2119.000000;2.969189
2118.000000;2.859806
2117.000000;2.741297
2116.000000;2.679879
2115.000000;2.695397
2114.000000;2.793601
2113.000000;3.025510
2112.000000;3.294537
2111.000000;3.213465
2110.000000;3.116977
2109.000000;3.079682
2108.000000;3.035667
2107.000000;2.959560
2106.000000;2.915259
2105.000000;2.971808
2104.000000;3.161682
2103.000000;3.354606
2102.000000;3.407239
2101.000000;3.465764
2100.000000;3.301661
2099.000000;3.259396
2098.000000;3.463921
2097.000000;3.296199
2096.000000;3.066963
2095.000000;3.096278
2094.000000;3.279830
2093.000000;3.178798
2092.000000;3.085696
2091.000000;3.195559
2090.000000;3.449992
2089.000000;3.794516
2088.000000;3.886921
2087.000000;3.587143
2086.000000;3.413467
2085.000000;3.285709
2084.000000;3.176584
2083.000000;3.098433
2082.000000;3.031756
2081.000000;2.973463
2080.000000;2.988478
2079.000000;3.142869
2078.000000;3.114760
2077.000000;3.001320
2076.000000;3.071663
2075.000000;3.407054
2074.000000;3.451715
2073.000000;3.280891
2072.000000;3.234167
2071.000000;3.050050
2070.000000;2.867529
2069.000000;2.778488
2068.000000;2.770867
2067.000000;2.839216
2066.000000;2.996016
2065.000000;3.332601
2064.000000;3.972133
2063.000000;3.676297
2062.000000;3.415861
2061.000000;3.277390
2060.000000;3.225070
2059.000000;3.127096
2058.000000;2.994556
2057.000000;2.938698
2056.000000;2.988197
2055.000000;3.104368
2054.000000;3.152241
2053.000000;3.190922
2052.000000;3.243647
2051.000000;3.085605
2050.000000;2.873645
2049.000000;2.721840
2048.000000;2.640416
2047.000000;2.640990
2046.000000;2.750361
2045.000000;3.012255
2044.000000;3.649739
2043.000000;3.461435
2042.000000;3.148997
2041.000000;3.071452
2040.000000;3.162492
2039.000000;3.519156
2038.000000;3.502901
2037.000000;3.414877
2036.000000;3.736645
2035.000000;3.118800
2034.000000;2.887203
2033.000000;2.932880
2032.000000;3.399892
2031.000000;3.324439
2030.000000;2.972510
2029.000000;2.990972
2028.000000;3.086488
2027.000000;3.287867
2026.000000;3.516460
2025.000000;3.290120
2024.000000;2.988807
2023.000000;2.853141
2022.000000;2.835626
2021.000000;2.877230
2020.000000;2.938439
2019.000000;3.004709
2018.000000;3.049323
2017.000000;3.132333
2016.000000;3.347163
2015.000000;3.404776
2014.000000;3.222203
2013.000000;3.273240
2012.000000;3.460884
2011.000000;3.197368
2010.000000;2.927737
2009.000000;2.795014
2008.000000;2.747736
2007.000000;2.783604
2006.000000;2.897011
2005.000000;3.077896
2004.000000;3.360284
2003.000000;3.238453
2002.000000;2.993225
2001.000000;2.948171
2000.000000;3.539983
1999.000000;3.244533
1998.000000;2.910311
1997.000000;3.008115
1996.000000;3.574698
1995.000000;3.273422
1994.000000;3.002630
1993.000000;3.014542
1992.000000;3.086309
1991.000000;2.954827
1990.000000;2.850489
1989.000000;2.863293
1988.000000;2.963116
1987.000000;3.114759
1986.000000;3.218185
1985.000000;3.232921
1984.000000;3.224704
1983.000000;3.169858
1982.000000;3.077811
1981.000000;3.016559
1980.000000;3.055621
1979.000000;3.192681
1978.000000;3.784368
1977.000000;3.662957
1976.000000;3.127649
1975.000000;3.031631
1974.000000;3.055448
1973.000000;3.031054
1972.000000;2.934924
1971.000000;2.975443
1970.000000;3.324462
1969.000000;3.641207
1968.000000;3.182454
1967.000000;2.983162
1966.000000;2.877021
1965.000000;2.837882
1964.000000;2.903107
1963.000000;3.039628
1962.000000;3.031668
1961.000000;2.956523
1960.000000;3.025117
1959.000000;3.340769
1958.000000;3.603861
1957.000000;3.353310
1956.000000;3.267960
1955.000000;3.118954
1954.000000;3.099494
1953.000000;3.153793
1952.000000;3.110956
1951.000000;3.048219
1950.000000;3.031798
1949.000000;3.443550
1948.000000;3.292916
1947.000000;2.830847
1946.000000;2.723813
1945.000000;2.748599
1944.000000;2.864072
1943.000000;2.945307
1942.000000;2.876117
1941.000000;2.830968
1940.000000;2.912530
1939.000000;3.090705
1938.000000;3.230670
1937.000000;3.060501
1936.000000;2.811490
1935.000000;2.692589
1934.000000;2.671172
1933.000000;2.695383
1932.000000;2.743284
1931.000000;2.858261
1930.000000;3.097277
1929.000000;3.015264
1928.000000;2.715921
1927.000000;2.604272
1926.000000;2.610915
1925.000000;2.699231
1924.000000;2.797284
1923.000000;2.855790
1922.000000;2.961820
1921.000000;3.193439
1920.000000;3.427147
1919.000000;3.452709
1918.000000;3.304632
1917.000000;3.373391
1916.000000;3.498436
1915.000000;3.153456
1914.000000;3.004652
1913.000000;3.037230
1912.000000;3.136193
1911.000000;3.299905
1910.000000;3.700000
1909.000000;3.419985
1908.000000;3.159885
1907.000000;3.073099
1906.000000;3.009705
1905.000000;2.975880
1904.000000;3.030968
1903.000000;3.201930
1902.000000;3.426045
1901.000000;3.490048
1900.000000;3.322216
1899.000000;3.164185
1898.000000;3.104745
1897.000000;3.110199
1896.000000;3.115676
1895.000000;3.009357
1894.000000;2.820524
1893.000000;2.693677
1892.000000;2.665624
1891.000000;2.724708
1890.000000;2.850349
1889.000000;2.988947
1888.000000;3.096663
1887.000000;3.273267
1886.000000;3.483209
1885.000000;3.366227
1884.000000;3.257667
1883.000000;3.233466
1882.000000;3.191837
1881.000000;3.080099
1880.000000;3.007943
1879.000000;3.032731
1878.000000;3.071645
1877.000000;3.041309
1876.000000;3.009655
1875.000000;3.194205
1874.000000;3.527364
1873.000000;3.109516
1872.000000;2.876268
1871.000000;2.846953
1870.000000;3.006815
1869.000000;3.380553
1868.000000;3.181529
1867.000000;3.009351
1866.000000;3.080417
1865.000000;3.162588
1864.000000;3.171878
1863.000000;3.157080
1862.000000;3.264219
1861.000000;3.417489
1860.000000;3.345203
1859.000000;3.288439
1858.000000;3.113449
1857.000000;2.918479
1856.000000;2.863235
1855.000000;2.960535
1854.000000;3.283320
1853.000000;3.683908
1852.000000;3.303090
1851.000000;2.988574
1850.000000;2.797251
1849.000000;2.732286
1848.000000;2.757078
1847.000000;2.799620
1846.000000;2.795574
1845.000000;2.772486
1844.000000;2.812533
1843.000000;2.931917
1842.000000;3.065194
1841.000000;3.169143
1840.000000;3.199714
1839.000000;3.075195
1838.000000;2.977655
1837.000000;3.013267
1836.000000;3.075379
1835.000000;3.014700
1834.000000;2.957061
1833.000000;2.955092
1832.000000;2.940053
1831.000000;2.894929
1830.000000;2.891222
1829.000000;2.954244
1828.000000;3.030696
1827.000000;3.131077
1826.000000;3.265666
1825.000000;3.207261
1824.000000;2.993381
1823.000000;2.829253
1822.000000;2.735815
1821.000000;2.719201
1820.000000;2.787280
1819.000000;2.924172
1818.000000;3.133890
1817.000000;3.318927
1816.000000;3.229674
1815.000000;3.306802
1814.000000;3.435863
1813.000000;3.102984
1812.000000;2.930631
1811.000000;2.914583
1810.000000;2.895409
1809.000000;2.798267
1808.000000;2.689710
1807.000000;2.643644
1806.000000;2.655358
1805.000000;2.685189
1804.000000;2.716913
1803.000000;2.744966
1802.000000;2.776896
1801.000000;2.839979
1800.000000;3.062926
1799.000000;3.331448
1798.000000;3.076623
1797.000000;3.169585
1796.000000;3.660235
1795.000000;3.402914
1794.000000;3.121215
1793.000000;2.877583
1792.000000;2.744815
1791.000000;2.784561
1790.000000;3.102949
1789.000000;3.462022
1788.000000;3.092803
1787.000000;2.941061
1786.000000;2.923347
1785.000000;2.940002
1784.000000;2.997812
1783.000000;3.117654
1782.000000;3.402688
1781.000000;3.894515
1780.000000;4.065738
1779.000000;3.596601
1778.000000;3.353266
1777.000000;3.289718
1776.000000;3.369220
1775.000000;3.742691
1774.000000;3.419049
1773.000000;3.095338
1772.000000;2.985347
1771.000000;2.936565
1770.000000;3.186534
1769.000000;3.472981
1768.000000;2.996501
1767.000000;2.838354
1766.000000;2.830359
1765.000000;2.906363
1764.000000;3.074494
1763.000000;3.361349
1762.000000;3.419564
1761.000000;3.232406
1760.000000;3.211114
1759.000000;3.143902
1758.000000;3.105590
1757.000000;3.105798
1756.000000;3.045588
1755.000000;3.053811
1754.000000;3.222154
1753.000000;3.445638
1752.000000;3.259570
1751.000000;2.975843
1750.000000;2.790456
1749.000000;2.693835
1748.000000;2.698811
1747.000000;2.806045
1746.000000;2.917493
1745.000000;2.917927
1744.000000;2.948149
1743.000000;3.001969
1742.000000;2.974724
1741.000000;2.876878
1740.000000;2.950716
1739.000000;3.146673
1738.000000;2.914747
1737.000000;2.763922
1736.000000;2.807987
1735.000000;3.021001
1734.000000;3.082172
1733.000000;2.941019
1732.000000;3.046249
1731.000000;3.370720
1730.000000;3.741857
1729.000000;3.514938
1728.000000;3.242033
1727.000000;3.175254
1726.000000;3.254674
1725.000000;3.383211
1724.000000;3.573097
1723.000000;3.804655
1722.000000;3.379168
1721.000000;3.104468
1720.000000;2.980035
1719.000000;2.918800
1718.000000;2.872817
1717.000000;2.797137
1716.000000;2.777745
1715.000000;2.844590
1714.000000;3.164371
1713.000000;3.718593
1712.000000;3.264315
1711.000000;3.163306
1710.000000;3.167461
1709.000000;3.006298
1708.000000;2.885058
1707.000000;2.907627
1706.000000;2.974676
1705.000000;2.871067
1704.000000;2.798330
1703.000000;2.811768
1702.000000;2.815787
1701.000000;2.814258
1700.000000;2.943301
1699.000000;3.283377
1698.000000;3.298387
1697.000000;3.064352
1696.000000;2.954698
1695.000000;3.046020
1694.000000;3.181715
1693.000000;2.993532
1692.000000;2.900711
1691.000000;2.930299
1690.000000;2.969082
1689.000000;2.970674
1688.000000;2.959521
1687.000000;2.971570
1686.000000;3.027780
1685.000000;3.137157
1684.000000;3.281602
1683.000000;3.620888
1682.000000;3.279022
1681.000000;2.912294
1680.000000;2.851394
1679.000000;2.931876
1678.000000;3.139365
1677.000000;3.628621
1676.000000;3.696115
1675.000000;3.508123
1674.000000;3.357837
1673.000000;2.971944
1672.000000;2.746575
1671.000000;2.666407
1670.000000;2.697470
1669.000000;2.793021
1668.000000;2.886857
1667.000000;3.011138
1666.000000;3.246950
1665.000000;3.439146
1664.000000;3.327838
1663.000000;3.355250
1662.000000;3.510924
1661.000000;3.486248
1660.000000;3.283057
1659.000000;3.114315
1658.000000;3.071444
1657.000000;3.167854
1656.000000;3.424546
1655.000000;3.673745
1654.000000;3.435553
1653.000000;3.316780
1652.000000;3.314724
1651.000000;3.214469
1650.000000;3.112632
1649.000000;3.029581
1648.000000;2.966435
1647.000000;3.001104
1646.000000;3.184043
1645.000000;3.448311
1644.000000;3.549386
1643.000000;3.307928
1642.000000;3.066192
1641.000000;2.938796
1640.000000;2.924422
1639.000000;2.928484
1638.000000;2.911688
1637.000000;2.857766
1636.000000;3.105486
1635.000000;3.669801
1634.000000;3.094037
1633.000000;3.025248
1632.000000;3.215388
1631.000000;3.545713
1630.000000;3.537624
1629.000000;3.149068
1628.000000;2.986507
1627.000000;2.997324
1626.000000;3.259645
1625.000000;3.813842
1624.000000;5.202803
1623.000000;3.456564
1622.000000;3.029789
1621.000000;2.924142
1620.000000;2.917369
1619.000000;2.908216
1618.000000;2.960259
1617.000000;3.022699
1616.000000;2.883144
1615.000000;2.842599
1614.000000;2.999392
1613.000000;3.231326
1612.000000;3.390685
1611.000000;3.341116
1610.000000;3.256952
1609.000000;3.341602
1608.000000;3.399336
1607.000000;3.145874
1606.000000;2.959194
1605.000000;2.891546
1604.000000;2.935365
1603.000000;3.108386
1602.000000;3.090497
1601.000000;2.845298
1600.000000;2.723785
1599.000000;2.738209
1598.000000;2.935176
1597.000000;3.182272
1596.000000;3.000409
1595.000000;2.898258
1594.000000;2.985269
1593.000000;3.200750
1592.000000;3.405224
1591.000000;3.148871
1590.000000;2.907876
1589.000000;2.825398
1588.000000;2.854082
1587.000000;2.900934
1586.000000;2.895521
1585.000000;2.901494
1584.000000;2.932675
1583.000000;2.943336
1582.000000;2.944158
1581.000000;3.002510
1580.000000;3.174617
1579.000000;3.481583
1578.000000;3.467299
1577.000000;3.185490
1576.000000;3.158923
1575.000000;3.312878
1574.000000;3.242618
1573.000000;3.025153
1572.000000;2.918325
1571.000000;2.939224
1570.000000;3.147433
1569.000000;3.428245
1568.000000;3.298865
1567.000000;3.103591
1566.000000;2.968323
1565.000000;2.902539
1564.000000;2.912130
1563.000000;2.947238
1562.000000;2.989083
1561.000000;3.020184
1560.000000;3.069247
1559.000000;3.155036
1558.000000;3.145136
1557.000000;3.044982
1556.000000;2.904560
1555.000000;2.767331
1554.000000;2.720497
1553.000000;2.799785
1552.000000;2.988060
1551.000000;3.122223
1550.000000;3.070769
1549.000000;3.049733
1548.000000;3.061163
1547.000000;3.208018
1546.000000;3.412640
1545.000000;3.048133
1544.000000;2.816447
1543.000000;2.856539
1542.000000;3.135189
1541.000000;3.505424
1540.000000;3.888255
1539.000000;3.596443
1538.000000;3.295511
1537.000000;3.310000
1536.000000;3.342786
1535.000000;3.118461
1534.000000;2.755328
1533.000000;2.548212
1532.000000;2.493550
1531.000000;2.543341
1530.000000;2.668095
1529.000000;2.846210
1528.000000;3.072300
1527.000000;3.422142
1526.000000;3.639173
1525.000000;3.384271
1524.000000;3.251115
1523.000000;3.146268
1522.000000;3.075372
1521.000000;3.106993
1520.000000;3.261382
1519.000000;3.284047
1518.000000;3.308277
1517.000000;3.752300
1516.000000;3.739787
1515.000000;3.300045
1514.000000;3.065452
1513.000000;2.959271
1512.000000;2.975182
1511.000000;3.037135
1510.000000;3.015295
1509.000000;2.891294
1508.000000;2.817084
1507.000000;2.908824
1506.000000;3.234996
1505.000000;3.443027
1504.000000;3.121312
1503.000000;2.891541
1502.000000;2.784532
1501.000000;2.771771
1500.000000;2.857317
1499.000000;3.158207
1498.000000;3.532029
1497.000000;3.840695
1496.000000;3.706997
1495.000000;3.277243
1494.000000;3.660603
1493.000000;3.468271
1492.000000;3.001306
1491.000000;2.886000
1490.000000;2.822355
1489.000000;2.812919
1488.000000;2.831241
1487.000000;2.892909
1486.000000;2.999849
1485.000000;2.994152
1484.000000;2.902603
1483.000000;2.929696
1482.000000;3.028204
1481.000000;2.934135
1480.000000;2.874935
1479.000000;2.951116
1478.000000;3.109101
1477.000000;3.238028
1476.000000;3.088427
1475.000000;2.955298
1474.000000;2.966069
1473.000000;3.072201
1472.000000;3.125842
1471.000000;3.119665
1470.000000;3.167286
1469.000000;3.239253
1468.000000;3.402024
1467.000000;3.597437
1466.000000;3.528824
1465.000000;3.325395
1464.000000;3.226161
1463.000000;3.200592
1462.000000;3.366474
1461.000000;3.857750
1460.000000;3.491459
1459.000000;3.272018
1458.000000;3.343958
1457.000000;3.669307
1456.000000;3.744067
1455.000000;3.307443
1454.000000;3.252789
1453.000000;3.328245
1452.000000;3.138953
1451.000000;2.940102
1450.000000;2.848717
1449.000000;2.822804
1448.000000;2.846242
1447.000000;2.934149
1446.000000;3.239355
1445.000000;3.414521
1444.000000;3.051243
1443.000000;3.011866
1442.000000;3.247853
1441.000000;3.276587
1440.000000;3.051905
1439.000000;2.994951
1438.000000;2.943190
1437.000000;2.818903
1436.000000;2.765972
1435.000000;2.835760
1434.000000;2.903133
1433.000000;2.891223
1432.000000;2.937697
1431.000000;3.121337
1430.000000;3.279966
1429.000000;3.226014
1428.000000;3.376594
1427.000000;3.553697
1426.000000;3.268577
1425.000000;3.158942
1424.000000;3.194837
1423.000000;3.107940
1422.000000;2.961240
1421.000000;2.913364
1420.000000;3.237921
1419.000000;3.795680
1418.000000;3.139865
1417.000000;3.213076
1416.000000;3.285415
1415.000000;3.057301
1414.000000;2.951605
1413.000000;2.910845
1412.000000;2.905610
1411.000000;2.914965
1410.000000;2.960489
1409.000000;3.042118
1408.000000;3.168051
1407.000000;3.334922
1406.000000;3.406369
1405.000000;3.080707
1404.000000;2.855240
1403.000000;2.796200
1402.000000;2.743902
1401.000000;2.649009
1400.000000;2.621393
1399.000000;2.720871
1398.000000;2.905443
1397.000000;2.989540
1396.000000;3.283556
1395.000000;3.736313
1394.000000;3.056467
1393.000000;2.992037
1392.000000;3.052114
1391.000000;3.087397
1390.000000;3.259345
1389.000000;3.202840
1388.000000;3.016502
1387.000000;3.013986
1386.000000;3.153870
1385.000000;3.335025
1384.000000;3.537742
1383.000000;3.773579
1382.000000;3.564219
1381.000000;3.281230
1380.000000;3.145449
1379.000000;3.079138
1378.000000;3.117570
1377.000000;3.291820
1376.000000;3.301034
1375.000000;3.093507
1374.000000;3.034872
1373.000000;3.128929
1372.000000;3.209229
1371.000000;3.171822
1370.000000;3.088337
1369.000000;2.957225
1368.000000;2.850906
1367.000000;2.832646
1366.000000;2.879655
1365.000000;2.920762
1364.000000;2.923863
1363.000000;2.936488
1362.000000;2.997874
1361.000000;3.066356
1360.000000;3.140335
1359.000000;3.278594
1358.000000;3.292148
1357.000000;3.203189
1356.000000;3.156934
1355.000000;3.059637
1354.000000;2.996947
1353.000000;3.055636
1352.000000;3.328197
1351.000000;4.000220
1350.000000;3.556589
1349.000000;3.321713
1348.000000;3.319993
1347.000000;3.283091
1346.000000;3.158235
1345.000000;3.048075
1344.000000;3.038857
1343.000000;3.185229
1342.000000;3.472773
1341.000000;3.468013
1340.000000;3.347213
1339.000000;3.240280
1338.000000;3.194457
1337.000000;3.224300
1336.000000;3.124210
1335.000000;3.036120
1334.000000;3.070316
1333.000000;3.131874
1332.000000;3.109980
1331.000000;3.190443
1330.000000;3.664038
1329.000000;3.396702
1328.000000;3.090206
1327.000000;3.053099
1326.000000;2.996262
1325.000000;2.953359
1324.000000;2.980474
1323.000000;2.939908
1322.000000;2.772288
1321.000000;2.665798
1320.000000;2.653901
1319.000000;2.709063
1318.000000;2.825071
1317.000000;3.006353
1316.000000;3.253173
1315.000000;3.600988
1314.000000;4.181058
1313.000000;3.825541
1312.000000;3.306033
1311.000000;3.027845
1310.000000;2.901615
1309.000000;2.906625
1308.000000;3.044863
1307.000000;3.313820
1306.000000;3.271850
1305.000000;3.007939
1304.000000;2.871410
1303.000000;2.832654
1302.000000;2.899889
1301.000000;3.070605
1300.000000;3.415455
1299.000000;3.491449
1298.000000;3.111847
1297.000000;2.911169
1296.000000;2.840284
1295.000000;2.837912
1294.000000;2.851778
1293.000000;2.857065
1292.000000;2.888515
1291.000000;2.974174
1290.000000;3.057333
1289.000000;3.081493
1288.000000;3.170870
1287.000000;3.552115
1286.000000;3.486159
1285.000000;3.049538
1284.000000;2.981106
1283.000000;3.047442
1282.000000;3.141243
1281.000000;3.074752
1280.000000;2.889883
1279.000000;2.796736
1278.000000;2.856185
1277.000000;3.074718
1276.000000;3.306802
1275.000000;3.329015
1274.000000;3.249410
1273.000000;3.131718
1272.000000;2.972468
1271.000000;2.820133
1270.000000;2.746441
1269.000000;2.790478
1268.000000;2.972527
1267.000000;3.096631
1266.000000;3.056973
1265.000000;3.184966
1264.000000;3.384339
1263.000000;3.178293
1262.000000;2.947421
1261.000000;2.820508
1260.000000;2.833156
1259.000000;2.975447
1258.000000;2.992490
1257.000000;2.847615
1256.000000;2.835067
1255.000000;2.969666
1254.000000;3.425817
1253.000000;3.399269
1252.000000;2.930408
1251.000000;2.802140
1250.000000;2.776378
1249.000000;2.857039
1248.000000;3.064077
1247.000000;3.309865
1246.000000;3.104511
1245.000000;2.888223
1244.000000;2.768596
1243.000000;2.702965
1242.000000;2.723311
1241.000000;2.795949
1240.000000;2.821505
1239.000000;2.766675
1238.000000;2.727100
1237.000000;2.810304
1236.000000;3.059648
1235.000000;3.063317
1234.000000;2.873312
1233.000000;2.817528
1232.000000;2.835763
1231.000000;2.917069
1230.000000;3.135953
1229.000000;3.293605
1228.000000;3.077018
1227.000000;3.034748
1226.000000;3.153964
1225.000000;3.394517
1224.000000;3.932216
1223.000000;3.618012
1222.000000;3.248537
1221.000000;3.152009
1220.000000;2.965838
1219.000000;2.789991
1218.000000;2.726640
1217.000000;2.767169
1216.000000;2.862170
1215.000000;2.962047
1214.000000;3.090014
1213.000000;3.361734
1212.000000;4.030351
1211.000000;3.205210
1210.000000;2.927123
1209.000000;2.822524
1208.000000;2.846994
1207.000000;3.061227
1206.000000;3.474504
1205.000000;3.315925
1204.000000;3.268123
1203.000000;3.388391
1202.000000;3.414275
1201.000000;3.292734
1200.000000;3.205738
