Criado como novo conjunto de dados;"e0108.spp","-4264543.9 Secs"
cm-1;Abs
10000.000000;1.061153
9999.000000;1.060065
9998.000000;1.058980
9997.000000;1.057897
9996.000000;1.056817
9995.000000;1.055739
9994.000000;1.054665
9993.000000;1.053592
9992.000000;1.052525
9991.000000;1.051459
9990.000000;1.050838
9989.000000;1.050924
9988.000000;1.051325
9987.000000;1.051577
9986.000000;1.051827
9985.000000;1.052574
9984.000000;1.053845
9983.000000;1.054940
9982.000000;1.055073
9981.000000;1.054200
9980.000000;1.053039
9979.000000;1.052242
9978.000000;1.051767
9977.000000;1.051268
9976.000000;1.050867
9975.000000;1.050999
9974.000000;1.051487
9973.000000;1.051374
9972.000000;1.050021
9971.000000;1.047944
9970.000000;1.046112
9969.000000;1.044806
9968.000000;1.043694
9967.000000;1.042735
9966.000000;1.042353
9965.000000;1.042737
9964.000000;1.043561
9963.000000;1.044442
9962.000000;1.045194
9961.000000;1.045567
9960.000000;1.045266
9959.000000;1.044406
9958.000000;1.043481
9957.000000;1.042648
9956.000000;1.041450
9955.000000;1.039563
9954.000000;1.037509
9953.000000;1.036251
9952.000000;1.036247
9951.000000;1.037091
9950.000000;1.037958
9949.000000;1.038273
9948.000000;1.038103
9947.000000;1.037999
9946.000000;1.038371
9945.000000;1.039019
9944.000000;1.039439
9943.000000;1.039480
9942.000000;1.039354
9941.000000;1.039023
9940.000000;1.038044
9939.000000;1.036253
9938.000000;1.034270
9937.000000;1.032996
9936.000000;1.032709
9935.000000;1.032884
9934.000000;1.032772
9933.000000;1.032013
9932.000000;1.030895
9931.000000;1.030221
9930.000000;1.030733
9929.000000;1.032393
9928.000000;1.034273
9927.000000;1.035269
9926.000000;1.034892
9925.000000;1.033327
9924.000000;1.031067
9923.000000;1.028703
9922.000000;1.026838
9921.000000;1.025812
9920.000000;1.025515
9919.000000;1.025692
9918.000000;1.026371
9917.000000;1.027694
9916.000000;1.029351
9915.000000;1.030539
9914.000000;1.030675
9913.000000;1.029972
9912.000000;1.029148
9911.000000;1.028644
9910.000000;1.028215
9909.000000;1.027258
9908.000000;1.025490
9907.000000;1.023302
9906.000000;1.021465
9905.000000;1.020571
9904.000000;1.020788
9903.000000;1.021913
9902.000000;1.023361
9901.000000;1.024126
9900.000000;1.023241
9899.000000;1.020718
9898.000000;1.017922
9897.000000;1.016586
9896.000000;1.017300
9895.000000;1.019109
9894.000000;1.020579
9893.000000;1.021086
9892.000000;1.020995
9891.000000;1.020848
9890.000000;1.020736
9889.000000;1.020440
9888.000000;1.019887
9887.000000;1.019254
9886.000000;1.018721
9885.000000;1.018260
9884.000000;1.017698
9883.000000;1.016916
9882.000000;1.015935
9881.000000;1.014898
9880.000000;1.014052
9879.000000;1.013673
9878.000000;1.013808
9877.000000;1.014081
9876.000000;1.013924
9875.000000;1.013222
9874.000000;1.012615
9873.000000;1.012905
9872.000000;1.014066
9871.000000;1.014999
9870.000000;1.014512
9869.000000;1.012519
9868.000000;1.010085
9867.000000;1.008341
9866.000000;1.007640
9865.000000;1.007708
9864.000000;1.008227
9863.000000;1.008942
9862.000000;1.009424
9861.000000;1.009191
9860.000000;1.008149
9859.000000;1.006679
9858.000000;1.005270
9857.000000;1.004257
9856.000000;1.003847
9855.000000;1.004090
9854.000000;1.004745
9853.000000;1.005479
9852.000000;1.006339
9851.000000;1.007717
9850.000000;1.009663
9849.000000;1.011496
9848.000000;1.012294
9847.000000;1.011604
9846.000000;1.009585
9845.000000;1.006801
9844.000000;1.004179
9843.000000;1.002713
9842.000000;1.002574
9841.000000;1.002693
9840.000000;1.001822
9839.000000;1.000020
9838.000000;0.998595
9837.000000;0.998571
9836.000000;0.999731
9835.000000;1.001208
9834.000000;1.002414
9833.000000;1.003040
9832.000000;1.002738
9831.000000;1.001426
9830.000000;0.999751
9829.000000;0.998699
9828.000000;0.998592
9827.000000;0.998792
9826.000000;0.998474
9825.000000;0.997453
9824.000000;0.996152
9823.000000;0.995022
9822.000000;0.994215
9821.000000;0.993729
9820.000000;0.993613
9819.000000;0.993852
9818.000000;0.994213
9817.000000;0.994450
9816.000000;0.994675
9815.000000;0.995234
9814.000000;0.996120
9813.000000;0.996759
9812.000000;0.996599
9811.000000;0.995707
9810.000000;0.994541
9809.000000;0.993343
9808.000000;0.992186
9807.000000;0.991447
9806.000000;0.991585
9805.000000;0.992375
9804.000000;0.992911
9803.000000;0.992683
9802.000000;0.992224
9801.000000;0.992313
9800.000000;0.992922
9799.000000;0.993329
9798.000000;0.992985
9797.000000;0.991930
9796.000000;0.990530
9795.000000;0.989186
9794.000000;0.988247
9793.000000;0.987823
9792.000000;0.987638
9791.000000;0.987319
9790.000000;0.986884
9789.000000;0.986787
9788.000000;0.987423
9787.000000;0.988650
9786.000000;0.989760
9785.000000;0.989895
9784.000000;0.988672
9783.000000;0.986541
9782.000000;0.984503
9781.000000;0.983337
9780.000000;0.983087
9779.000000;0.983242
9778.000000;0.983265
9777.000000;0.982969
9776.000000;0.982592
9775.000000;0.982584
9774.000000;0.983107
9773.000000;0.983650
9772.000000;0.983396
9771.000000;0.982175
9770.000000;0.980761
9769.000000;0.979942
9768.000000;0.979621
9767.000000;0.979146
9766.000000;0.978330
9765.000000;0.977711
9764.000000;0.977905
9763.000000;0.979027
9762.000000;0.980636
9761.000000;0.981818
9760.000000;0.981554
9759.000000;0.979641
9758.000000;0.977259
9757.000000;0.976043
9756.000000;0.976455
9755.000000;0.977419
9754.000000;0.977671
9753.000000;0.977045
9752.000000;0.976250
9751.000000;0.975832
9750.000000;0.975695
9749.000000;0.975321
9748.000000;0.974244
9747.000000;0.972599
9746.000000;0.971336
9745.000000;0.971442
9744.000000;0.972694
9743.000000;0.973704
9742.000000;0.973618
9741.000000;0.973252
9740.000000;0.973856
9739.000000;0.975202
9738.000000;0.975795
9737.000000;0.974855
9736.000000;0.973184
9735.000000;0.971924
9734.000000;0.971346
9733.000000;0.971220
9732.000000;0.971564
9731.000000;0.972396
9730.000000;0.973202
9729.000000;0.973294
9728.000000;0.972524
9727.000000;0.971174
9726.000000;0.969370
9725.000000;0.967223
9724.000000;0.965415
9723.000000;0.964899
9722.000000;0.965771
9721.000000;0.966911
9720.000000;0.967106
9719.000000;0.966268
9718.000000;0.965233
9717.000000;0.964601
9716.000000;0.964182
9715.000000;0.963538
9714.000000;0.962699
9713.000000;0.962159
9712.000000;0.962350
9711.000000;0.963259
9710.000000;0.964518
9709.000000;0.965680
9708.000000;0.966351
9707.000000;0.966214
9706.000000;0.965136
9705.000000;0.963348
9704.000000;0.961455
9703.000000;0.960145
9702.000000;0.959798
9701.000000;0.960305
9700.000000;0.961156
9699.000000;0.961699
9698.000000;0.961480
9697.000000;0.960526
9696.000000;0.959343
9695.000000;0.958529
9694.000000;0.958310
9693.000000;0.958447
9692.000000;0.958593
9691.000000;0.958644
9690.000000;0.958712
9689.000000;0.958790
9688.000000;0.958608
9687.000000;0.957930
9686.000000;0.957016
9685.000000;0.956533
9684.000000;0.956828
9683.000000;0.957354
9682.000000;0.957125
9681.000000;0.955816
9680.000000;0.954170
9679.000000;0.953152
9678.000000;0.952970
9677.000000;0.953102
9676.000000;0.953029
9675.000000;0.952640
9674.000000;0.952052
9673.000000;0.951424
9672.000000;0.951010
9671.000000;0.951065
9670.000000;0.951551
9669.000000;0.952116
9668.000000;0.952489
9667.000000;0.952712
9666.000000;0.952933
9665.000000;0.953143
9664.000000;0.953183
9663.000000;0.952837
9662.000000;0.951865
9661.000000;0.950196
9660.000000;0.948220
9659.000000;0.946648
9658.000000;0.945894
9657.000000;0.945757
9656.000000;0.945810
9655.000000;0.945865
9654.000000;0.945881
9653.000000;0.945659
9652.000000;0.944991
9651.000000;0.944057
9650.000000;0.943378
9649.000000;0.943318
9648.000000;0.943745
9647.000000;0.944151
9646.000000;0.944030
9645.000000;0.943284
9644.000000;0.942413
9643.000000;0.942166
9642.000000;0.942798
9641.000000;0.943729
9640.000000;0.944120
9639.000000;0.943712
9638.000000;0.942925
9637.000000;0.942289
9636.000000;0.942076
9635.000000;0.942363
9634.000000;0.943031
9633.000000;0.943651
9632.000000;0.943702
9631.000000;0.943033
9630.000000;0.941900
9629.000000;0.940567
9628.000000;0.939221
9627.000000;0.938315
9626.000000;0.938452
9625.000000;0.939561
9624.000000;0.940522
9623.000000;0.940163
9622.000000;0.938636
9621.000000;0.937358
9620.000000;0.937477
9619.000000;0.938708
9618.000000;0.939843
9617.000000;0.940108
9616.000000;0.939718
9615.000000;0.939138
9614.000000;0.938268
9613.000000;0.936666
9612.000000;0.934483
9611.000000;0.932734
9610.000000;0.932462
9609.000000;0.933730
9608.000000;0.935603
9607.000000;0.937033
9606.000000;0.937641
9605.000000;0.937663
9604.000000;0.937401
9603.000000;0.936842
9602.000000;0.935759
9601.000000;0.934155
9600.000000;0.932608
9599.000000;0.931953
9598.000000;0.932445
9597.000000;0.933344
9596.000000;0.933598
9595.000000;0.932880
9594.000000;0.931678
9593.000000;0.930482
9592.000000;0.929382
9591.000000;0.928473
9590.000000;0.928098
9589.000000;0.928349
9588.000000;0.928705
9587.000000;0.928567
9586.000000;0.927971
9585.000000;0.927412
9584.000000;0.927152
9583.000000;0.927090
9582.000000;0.927184
9581.000000;0.927526
9580.000000;0.927974
9579.000000;0.928112
9578.000000;0.927767
9577.000000;0.927283
9576.000000;0.927095
9575.000000;0.927252
9574.000000;0.927502
9573.000000;0.927631
9572.000000;0.927516
9571.000000;0.926955
9570.000000;0.925725
9569.000000;0.923890
9568.000000;0.921927
9567.000000;0.920451
9566.000000;0.919821
9565.000000;0.920064
9564.000000;0.921073
9563.000000;0.922653
9562.000000;0.924295
9561.000000;0.925135
9560.000000;0.924530
9559.000000;0.922755
9558.000000;0.920878
9557.000000;0.919798
9556.000000;0.919571
9555.000000;0.919730
9554.000000;0.919906
9553.000000;0.919923
9552.000000;0.919628
9551.000000;0.919090
9550.000000;0.918808
9549.000000;0.919241
9548.000000;0.920126
9547.000000;0.920680
9546.000000;0.920504
9545.000000;0.919892
9544.000000;0.919137
9543.000000;0.918065
9542.000000;0.916559
9541.000000;0.915158
9540.000000;0.914682
9539.000000;0.915357
9538.000000;0.916577
9537.000000;0.917485
9536.000000;0.917635
9535.000000;0.917200
9534.000000;0.916730
9533.000000;0.916667
9532.000000;0.916865
9531.000000;0.916638
9530.000000;0.915467
9529.000000;0.913666
9528.000000;0.912204
9527.000000;0.911872
9526.000000;0.912721
9525.000000;0.914144
9524.000000;0.915261
9523.000000;0.915324
9522.000000;0.914109
9521.000000;0.912132
9520.000000;0.910366
9519.000000;0.909575
9518.000000;0.909818
9517.000000;0.910510
9516.000000;0.910956
9515.000000;0.910892
9514.000000;0.910558
9513.000000;0.910264
9512.000000;0.909977
9511.000000;0.909495
9510.000000;0.909015
9509.000000;0.909150
9508.000000;0.910133
9507.000000;0.911212
9506.000000;0.911275
9505.000000;0.910054
9504.000000;0.908380
9503.000000;0.907193
9502.000000;0.906676
9501.000000;0.906438
9500.000000;0.906190
9499.000000;0.905988
9498.000000;0.905963
9497.000000;0.906094
9496.000000;0.906194
9495.000000;0.906018
9494.000000;0.905442
9493.000000;0.904652
9492.000000;0.904119
9491.000000;0.904251
9490.000000;0.905007
9489.000000;0.905868
9488.000000;0.906194
9487.000000;0.905739
9486.000000;0.904922
9485.000000;0.904538
9484.000000;0.905034
9483.000000;0.906025
9482.000000;0.906645
9481.000000;0.906353
9480.000000;0.905241
9479.000000;0.903646
9478.000000;0.901813
9477.000000;0.900041
9476.000000;0.898814
9475.000000;0.898471
9474.000000;0.898853
9473.000000;0.899454
9472.000000;0.899820
9471.000000;0.899694
9470.000000;0.899023
9469.000000;0.898118
9468.000000;0.897626
9467.000000;0.897992
9466.000000;0.898972
9465.000000;0.899854
9464.000000;0.900110
9463.000000;0.899680
9462.000000;0.898761
9461.000000;0.897636
9460.000000;0.896716
9459.000000;0.896399
9458.000000;0.896681
9457.000000;0.897088
9456.000000;0.897182
9455.000000;0.897077
9454.000000;0.897305
9453.000000;0.898177
9452.000000;0.899328
9451.000000;0.899946
9450.000000;0.899493
9449.000000;0.898223
9448.000000;0.896961
9447.000000;0.896386
9446.000000;0.896570
9445.000000;0.897143
9444.000000;0.897665
9443.000000;0.897706
9442.000000;0.896855
9441.000000;0.895052
9440.000000;0.892904
9439.000000;0.891366
9438.000000;0.890990
9437.000000;0.891602
9436.000000;0.892648
9435.000000;0.893599
9434.000000;0.894011
9433.000000;0.893592
9432.000000;0.892552
9431.000000;0.891689
9430.000000;0.891768
9429.000000;0.892744
9428.000000;0.893752
9427.000000;0.893930
9426.000000;0.893208
9425.000000;0.892229
9424.000000;0.891523
9423.000000;0.890910
9422.000000;0.889833
9421.000000;0.888239
9420.000000;0.886872
9419.000000;0.886506
9418.000000;0.887042
9417.000000;0.887672
9416.000000;0.887857
9415.000000;0.887785
9414.000000;0.887762
9413.000000;0.887641
9412.000000;0.887171
9411.000000;0.886636
9410.000000;0.886653
9409.000000;0.887348
9408.000000;0.888120
9407.000000;0.888348
9406.000000;0.888068
9405.000000;0.887759
9404.000000;0.887643
9403.000000;0.887462
9402.000000;0.886923
9401.000000;0.886152
9400.000000;0.885605
9399.000000;0.885587
9398.000000;0.885920
9397.000000;0.886066
9396.000000;0.885546
9395.000000;0.884347
9394.000000;0.882999
9393.000000;0.882262
9392.000000;0.882522
9391.000000;0.883354
9390.000000;0.883798
9389.000000;0.883253
9388.000000;0.882053
9387.000000;0.881043
9386.000000;0.880713
9385.000000;0.880950
9384.000000;0.881480
9383.000000;0.882110
9382.000000;0.882482
9381.000000;0.882060
9380.000000;0.880762
9379.000000;0.879365
9378.000000;0.878871
9377.000000;0.879497
9376.000000;0.880584
9375.000000;0.881439
9374.000000;0.881917
9373.000000;0.882135
9372.000000;0.882030
9371.000000;0.881551
9370.000000;0.881051
9369.000000;0.881068
9368.000000;0.881662
9367.000000;0.882213
9366.000000;0.881965
9365.000000;0.880692
9364.000000;0.878767
9363.000000;0.876768
9362.000000;0.875204
9361.000000;0.874508
9360.000000;0.874985
9359.000000;0.876581
9358.000000;0.878754
9357.000000;0.880677
9356.000000;0.881659
9355.000000;0.881435
9354.000000;0.880220
9353.000000;0.878567
9352.000000;0.877066
9351.000000;0.876018
9350.000000;0.875321
9349.000000;0.874642
9348.000000;0.873702
9347.000000;0.872523
9346.000000;0.871512
9345.000000;0.871250
9344.000000;0.871938
9343.000000;0.873002
9342.000000;0.873507
9341.000000;0.873120
9340.000000;0.872493
9339.000000;0.872482
9338.000000;0.873169
9337.000000;0.873906
9336.000000;0.874148
9335.000000;0.873882
9334.000000;0.873323
9333.000000;0.872655
9332.000000;0.872120
9331.000000;0.871961
9330.000000;0.872087
9329.000000;0.872107
9328.000000;0.871905
9327.000000;0.871878
9326.000000;0.872346
9325.000000;0.873007
9324.000000;0.873267
9323.000000;0.872951
9322.000000;0.872381
9321.000000;0.871841
9320.000000;0.871302
9319.000000;0.870682
9318.000000;0.870087
9317.000000;0.869691
9316.000000;0.869523
9315.000000;0.869409
9314.000000;0.869067
9313.000000;0.868340
9312.000000;0.867439
9311.000000;0.866875
9310.000000;0.867010
9309.000000;0.867710
9308.000000;0.868526
9307.000000;0.869138
9306.000000;0.869519
9305.000000;0.869771
9304.000000;0.870012
9303.000000;0.870348
9302.000000;0.870720
9301.000000;0.870823
9300.000000;0.870400
9299.000000;0.869618
9298.000000;0.868978
9297.000000;0.868791
9296.000000;0.868937
9295.000000;0.869120
9294.000000;0.869138
9293.000000;0.868859
9292.000000;0.868205
9291.000000;0.867327
9290.000000;0.866643
9289.000000;0.866477
9288.000000;0.866691
9287.000000;0.866794
9286.000000;0.866426
9285.000000;0.865664
9284.000000;0.864877
9283.000000;0.864386
9282.000000;0.864244
9281.000000;0.864245
9280.000000;0.864093
9279.000000;0.863624
9278.000000;0.862986
9277.000000;0.862613
9276.000000;0.862919
9275.000000;0.863880
9274.000000;0.864955
9273.000000;0.865528
9272.000000;0.865405
9271.000000;0.864814
9270.000000;0.863995
9269.000000;0.863030
9268.000000;0.862076
9267.000000;0.861436
9266.000000;0.861219
9265.000000;0.861153
9264.000000;0.860968
9263.000000;0.860835
9262.000000;0.861142
9261.000000;0.861915
9260.000000;0.862709
9259.000000;0.863037
9258.000000;0.862679
9257.000000;0.861638
9256.000000;0.860112
9255.000000;0.858553
9254.000000;0.857483
9253.000000;0.857112
9252.000000;0.857262
9251.000000;0.857688
9250.000000;0.858251
9249.000000;0.858707
9248.000000;0.858646
9247.000000;0.857904
9246.000000;0.856876
9245.000000;0.856192
9244.000000;0.856118
9243.000000;0.856409
9242.000000;0.856710
9241.000000;0.856943
9240.000000;0.857304
9239.000000;0.857937
9238.000000;0.858629
9237.000000;0.858865
9236.000000;0.858335
9235.000000;0.857412
9234.000000;0.856956
9233.000000;0.857468
9232.000000;0.858532
9231.000000;0.859233
9230.000000;0.859088
9229.000000;0.858389
9228.000000;0.857684
9227.000000;0.857180
9226.000000;0.856742
9225.000000;0.856248
9224.000000;0.855770
9223.000000;0.855442
9222.000000;0.855282
9221.000000;0.855145
9220.000000;0.854814
9219.000000;0.854187
9218.000000;0.853451
9217.000000;0.852995
9216.000000;0.853037
9215.000000;0.853343
9214.000000;0.853462
9213.000000;0.853239
9212.000000;0.852940
9211.000000;0.852814
9210.000000;0.852751
9209.000000;0.852532
9208.000000;0.852246
9207.000000;0.852221
9206.000000;0.852570
9205.000000;0.853035
9204.000000;0.853285
9203.000000;0.853162
9202.000000;0.852668
9201.000000;0.851961
9200.000000;0.851421
9199.000000;0.851462
9198.000000;0.852093
9197.000000;0.852845
9196.000000;0.853222
9195.000000;0.853117
9194.000000;0.852687
9193.000000;0.852033
9192.000000;0.851195
9191.000000;0.850295
9190.000000;0.849493
9189.000000;0.848896
9188.000000;0.848644
9187.000000;0.848851
9186.000000;0.849304
9185.000000;0.849460
9184.000000;0.849057
9183.000000;0.848551
9182.000000;0.848576
9181.000000;0.849055
9180.000000;0.849259
9179.000000;0.848765
9178.000000;0.847959
9177.000000;0.847484
9176.000000;0.847555
9175.000000;0.847995
9174.000000;0.848649
9173.000000;0.849419
9172.000000;0.850023
9171.000000;0.850003
9170.000000;0.849081
9169.000000;0.847519
9168.000000;0.846091
9167.000000;0.845575
9166.000000;0.846125
9165.000000;0.847155
9164.000000;0.847910
9163.000000;0.848082
9162.000000;0.847793
9161.000000;0.847167
9160.000000;0.846304
9159.000000;0.845604
9158.000000;0.845641
9157.000000;0.846501
9156.000000;0.847507
9155.000000;0.847853
9154.000000;0.847405
9153.000000;0.846713
9152.000000;0.846331
9151.000000;0.846319
9150.000000;0.846342
9149.000000;0.846086
9148.000000;0.845595
9147.000000;0.845225
9146.000000;0.845219
9145.000000;0.845409
9144.000000;0.845471
9143.000000;0.845379
9142.000000;0.845320
9141.000000;0.845214
9140.000000;0.844763
9139.000000;0.844084
9138.000000;0.843831
9137.000000;0.844367
9136.000000;0.845155
9135.000000;0.845361
9134.000000;0.844851
9133.000000;0.844194
9132.000000;0.843827
9131.000000;0.843671
9130.000000;0.843527
9129.000000;0.843383
9128.000000;0.843218
9127.000000;0.842858
9126.000000;0.842255
9125.000000;0.841673
9124.000000;0.841409
9123.000000;0.841447
9122.000000;0.841521
9121.000000;0.841423
9120.000000;0.841113
9119.000000;0.840601
9118.000000;0.839892
9117.000000;0.839093
9116.000000;0.838498
9115.000000;0.838458
9114.000000;0.839058
9113.000000;0.839949
9112.000000;0.840631
9111.000000;0.840967
9110.000000;0.841256
9109.000000;0.841672
9108.000000;0.841852
9107.000000;0.841285
9106.000000;0.840037
9105.000000;0.838767
9104.000000;0.838038
9103.000000;0.837864
9102.000000;0.837983
9101.000000;0.838283
9100.000000;0.838795
9099.000000;0.839451
9098.000000;0.840051
9097.000000;0.840431
9096.000000;0.840544
9095.000000;0.840451
9094.000000;0.840306
9093.000000;0.840271
9092.000000;0.840354
9091.000000;0.840364
9090.000000;0.840121
9089.000000;0.839630
9088.000000;0.839030
9087.000000;0.838457
9086.000000;0.838061
9085.000000;0.838034
9084.000000;0.838401
9083.000000;0.838797
9082.000000;0.838684
9081.000000;0.837914
9080.000000;0.836993
9079.000000;0.836626
9078.000000;0.837005
9077.000000;0.837622
9076.000000;0.837785
9075.000000;0.837274
9074.000000;0.836468
9073.000000;0.835905
9072.000000;0.835803
9071.000000;0.836034
9070.000000;0.836422
9069.000000;0.836909
9068.000000;0.837430
9067.000000;0.837803
9066.000000;0.837866
9065.000000;0.837675
9064.000000;0.837412
9063.000000;0.837144
9062.000000;0.836792
9061.000000;0.836352
9060.000000;0.835996
9059.000000;0.835862
9058.000000;0.835862
9057.000000;0.835786
9056.000000;0.835504
9055.000000;0.834994
9054.000000;0.834288
9053.000000;0.833579
9052.000000;0.833314
9051.000000;0.833866
9050.000000;0.834987
9049.000000;0.835796
9048.000000;0.835582
9047.000000;0.834561
9046.000000;0.833665
9045.000000;0.833570
9044.000000;0.834097
9043.000000;0.834559
9042.000000;0.834525
9041.000000;0.834114
9040.000000;0.833661
9039.000000;0.833312
9038.000000;0.833033
9037.000000;0.832851
9036.000000;0.832860
9035.000000;0.832993
9034.000000;0.832987
9033.000000;0.832745
9032.000000;0.832539
9031.000000;0.832675
9030.000000;0.832992
9029.000000;0.832974
9028.000000;0.832399
9027.000000;0.831609
9026.000000;0.830984
9025.000000;0.830439
9024.000000;0.829736
9023.000000;0.829096
9022.000000;0.829116
9021.000000;0.830023
9020.000000;0.831311
9019.000000;0.832235
9018.000000;0.832488
9017.000000;0.832282
9016.000000;0.831968
9015.000000;0.831762
9014.000000;0.831734
9013.000000;0.831874
9012.000000;0.832090
9011.000000;0.832202
9010.000000;0.832012
9009.000000;0.831476
9008.000000;0.830871
9007.000000;0.830698
9006.000000;0.831295
9005.000000;0.832498
9004.000000;0.833747
9003.000000;0.834479
9002.000000;0.834396
9001.000000;0.833463
9000.000000;0.831917
8999.000000;0.830291
8998.000000;0.829206
8997.000000;0.829005
8996.000000;0.829574
8995.000000;0.830467
8994.000000;0.831113
8993.000000;0.831067
8992.000000;0.830373
8991.000000;0.829680
8990.000000;0.829669
8989.000000;0.830279
8988.000000;0.830729
8987.000000;0.830426
8986.000000;0.829576
8985.000000;0.828762
8984.000000;0.828251
8983.000000;0.827962
8982.000000;0.827829
8981.000000;0.827859
8980.000000;0.827944
8979.000000;0.827956
8978.000000;0.827932
8977.000000;0.827928
8976.000000;0.827809
8975.000000;0.827505
8974.000000;0.827371
8973.000000;0.827901
8972.000000;0.829041
8971.000000;0.830123
8970.000000;0.830563
8969.000000;0.830369
8968.000000;0.829881
8967.000000;0.829341
8966.000000;0.828886
8965.000000;0.828717
8964.000000;0.828972
8963.000000;0.829477
8962.000000;0.829805
8961.000000;0.829612
8960.000000;0.828900
8959.000000;0.828024
8958.000000;0.827486
8957.000000;0.827604
8956.000000;0.828225
8955.000000;0.828761
8954.000000;0.828605
8953.000000;0.827613
8952.000000;0.826278
8951.000000;0.825433
8950.000000;0.825632
8949.000000;0.826639
8948.000000;0.827585
8947.000000;0.827801
8946.000000;0.827449
8945.000000;0.827174
8944.000000;0.827212
8943.000000;0.827181
8942.000000;0.826758
8941.000000;0.826211
8940.000000;0.826021
8939.000000;0.826225
8938.000000;0.826429
8937.000000;0.826394
8936.000000;0.826307
8935.000000;0.826483
8934.000000;0.826977
8933.000000;0.827511
8932.000000;0.827675
8931.000000;0.827237
8930.000000;0.826374
8929.000000;0.825586
8928.000000;0.825252
8927.000000;0.825312
8926.000000;0.825468
8925.000000;0.825629
8924.000000;0.825992
8923.000000;0.826687
8922.000000;0.827508
8921.000000;0.828040
8920.000000;0.827987
8919.000000;0.827423
8918.000000;0.826833
8917.000000;0.826825
8916.000000;0.827586
8915.000000;0.828562
8914.000000;0.828860
8913.000000;0.828072
8912.000000;0.826611
8911.000000;0.825193
8910.000000;0.824210
8909.000000;0.823661
8908.000000;0.823448
8907.000000;0.823493
8906.000000;0.823654
8905.000000;0.823763
8904.000000;0.823793
8903.000000;0.823876
8902.000000;0.824138
8901.000000;0.824578
8900.000000;0.825058
8899.000000;0.825398
8898.000000;0.825546
8897.000000;0.825708
8896.000000;0.826173
8895.000000;0.826864
8894.000000;0.827185
8893.000000;0.826576
8892.000000;0.825209
8891.000000;0.823942
8890.000000;0.823517
8889.000000;0.823955
8888.000000;0.824723
8887.000000;0.825307
8886.000000;0.825566
8885.000000;0.825673
8884.000000;0.825844
8883.000000;0.826065
8882.000000;0.826097
8881.000000;0.825800
8880.000000;0.825367
8879.000000;0.825044
8878.000000;0.824715
8877.000000;0.824091
8876.000000;0.823357
8875.000000;0.823213
8874.000000;0.824058
8873.000000;0.825410
8872.000000;0.826448
8871.000000;0.826907
8870.000000;0.827099
8869.000000;0.827233
8868.000000;0.827156
8867.000000;0.826758
8866.000000;0.826214
8865.000000;0.825756
8864.000000;0.825460
8863.000000;0.825321
8862.000000;0.825276
8861.000000;0.825123
8860.000000;0.824731
8859.000000;0.824396
8858.000000;0.824646
8857.000000;0.825518
8856.000000;0.826311
8855.000000;0.826335
8854.000000;0.825701
8853.000000;0.825096
8852.000000;0.824901
8851.000000;0.824854
8850.000000;0.824568
8849.000000;0.824104
8848.000000;0.823867
8847.000000;0.824063
8846.000000;0.824447
8845.000000;0.824648
8844.000000;0.824658
8843.000000;0.824845
8842.000000;0.825439
8841.000000;0.826182
8840.000000;0.826653
8839.000000;0.826803
8838.000000;0.826889
8837.000000;0.826920
8836.000000;0.826570
8835.000000;0.825742
8834.000000;0.824881
8833.000000;0.824491
8832.000000;0.824558
8831.000000;0.824739
8830.000000;0.824896
8829.000000;0.825161
8828.000000;0.825580
8827.000000;0.826017
8826.000000;0.826388
8825.000000;0.826725
8824.000000;0.826978
8823.000000;0.826972
8822.000000;0.826625
8821.000000;0.826063
8820.000000;0.825474
8819.000000;0.824974
8818.000000;0.824628
8817.000000;0.824504
8816.000000;0.824644
8815.000000;0.825057
8814.000000;0.825718
8813.000000;0.826500
8812.000000;0.827172
8811.000000;0.827591
8810.000000;0.827853
8809.000000;0.828169
8808.000000;0.828592
8807.000000;0.829003
8806.000000;0.829285
8805.000000;0.829408
8804.000000;0.829386
8803.000000;0.829299
8802.000000;0.829321
8801.000000;0.829547
8800.000000;0.829840
8799.000000;0.830001
8798.000000;0.830055
8797.000000;0.830220
8796.000000;0.830578
8795.000000;0.830984
8794.000000;0.831283
8793.000000;0.831430
8792.000000;0.831371
8791.000000;0.831009
8790.000000;0.830379
8789.000000;0.829692
8788.000000;0.829141
8787.000000;0.828807
8786.000000;0.828800
8785.000000;0.829281
8784.000000;0.830239
8783.000000;0.831372
8782.000000;0.832341
8781.000000;0.833028
8780.000000;0.833494
8779.000000;0.833789
8778.000000;0.833907
8777.000000;0.833805
8776.000000;0.833404
8775.000000;0.832693
8774.000000;0.831914
8773.000000;0.831498
8772.000000;0.831670
8771.000000;0.832207
8770.000000;0.832706
8769.000000;0.832965
8768.000000;0.833015
8767.000000;0.832938
8766.000000;0.832851
8765.000000;0.832964
8764.000000;0.833397
8763.000000;0.833963
8762.000000;0.834345
8761.000000;0.834467
8760.000000;0.834525
8759.000000;0.834661
8758.000000;0.834818
8757.000000;0.834956
8756.000000;0.835195
8755.000000;0.835619
8754.000000;0.836084
8753.000000;0.836371
8752.000000;0.836467
8751.000000;0.836602
8750.000000;0.836978
8749.000000;0.837555
8748.000000;0.838097
8747.000000;0.838407
8746.000000;0.838487
8745.000000;0.838460
8744.000000;0.838374
8743.000000;0.838157
8742.000000;0.837808
8741.000000;0.837532
8740.000000;0.837546
8739.000000;0.837804
8738.000000;0.838052
8737.000000;0.838173
8736.000000;0.838286
8735.000000;0.838516
8734.000000;0.838836
8733.000000;0.839250
8732.000000;0.839883
8731.000000;0.840716
8730.000000;0.841377
8729.000000;0.841455
8728.000000;0.840992
8727.000000;0.840456
8726.000000;0.840245
8725.000000;0.840407
8724.000000;0.840834
8723.000000;0.841471
8722.000000;0.842219
8721.000000;0.842823
8720.000000;0.843038
8719.000000;0.842865
8718.000000;0.842552
8717.000000;0.842457
8716.000000;0.842944
8715.000000;0.844163
8714.000000;0.845762
8713.000000;0.846924
8712.000000;0.846974
8711.000000;0.845987
8710.000000;0.844650
8709.000000;0.843585
8708.000000;0.842954
8707.000000;0.842699
8706.000000;0.842851
8705.000000;0.843448
8704.000000;0.844325
8703.000000;0.845198
8702.000000;0.845903
8701.000000;0.846421
8700.000000;0.846774
8699.000000;0.847039
8698.000000;0.847413
8697.000000;0.848033
8696.000000;0.848681
8695.000000;0.848862
8694.000000;0.848326
8693.000000;0.847397
8692.000000;0.846682
8691.000000;0.846511
8690.000000;0.846760
8689.000000;0.847195
8688.000000;0.847774
8687.000000;0.848517
8686.000000;0.849197
8685.000000;0.849365
8684.000000;0.848785
8683.000000;0.847771
8682.000000;0.847005
8681.000000;0.846988
8680.000000;0.847663
8679.000000;0.848538
8678.000000;0.849135
8677.000000;0.849321
8676.000000;0.849275
8675.000000;0.849218
8674.000000;0.849202
8673.000000;0.849150
8672.000000;0.849020
8671.000000;0.848891
8670.000000;0.848912
8669.000000;0.849191
8668.000000;0.849685
8667.000000;0.850141
8666.000000;0.850213
8665.000000;0.849796
8664.000000;0.849234
8663.000000;0.849048
8662.000000;0.849397
8661.000000;0.849964
8660.000000;0.850460
8659.000000;0.851012
8658.000000;0.851830
8657.000000;0.852655
8656.000000;0.852935
8655.000000;0.852583
8654.000000;0.852176
8653.000000;0.852214
8652.000000;0.852463
8651.000000;0.852310
8650.000000;0.851626
8649.000000;0.850943
8648.000000;0.850776
8647.000000;0.851083
8646.000000;0.851479
8645.000000;0.851786
8644.000000;0.852107
8643.000000;0.852483
8642.000000;0.852711
8641.000000;0.852610
8640.000000;0.852337
8639.000000;0.852241
8638.000000;0.852424
8637.000000;0.852586
8636.000000;0.852383
8635.000000;0.851893
8634.000000;0.851585
8633.000000;0.851853
8632.000000;0.852662
8631.000000;0.853646
8630.000000;0.854454
8629.000000;0.854919
8628.000000;0.854979
8627.000000;0.854611
8626.000000;0.853930
8625.000000;0.853262
8624.000000;0.852983
8623.000000;0.853182
8622.000000;0.853556
8621.000000;0.853741
8620.000000;0.853761
8619.000000;0.854001
8618.000000;0.854674
8617.000000;0.855442
8616.000000;0.855727
8615.000000;0.855334
8614.000000;0.854654
8613.000000;0.854261
8612.000000;0.854448
8611.000000;0.855084
8610.000000;0.855726
8609.000000;0.855908
8608.000000;0.855519
8607.000000;0.854940
8606.000000;0.854661
8605.000000;0.854723
8604.000000;0.854711
8603.000000;0.854341
8602.000000;0.853826
8601.000000;0.853560
8600.000000;0.853685
8599.000000;0.854088
8598.000000;0.854613
8597.000000;0.855035
8596.000000;0.854999
8595.000000;0.854315
8594.000000;0.853311
8593.000000;0.852653
8592.000000;0.852755
8591.000000;0.853482
8590.000000;0.854403
8589.000000;0.855188
8588.000000;0.855744
8587.000000;0.856138
8586.000000;0.856471
8585.000000;0.856756
8584.000000;0.856853
8583.000000;0.856581
8582.000000;0.855944
8581.000000;0.855181
8580.000000;0.854589
8579.000000;0.854332
8578.000000;0.854421
8577.000000;0.854766
8576.000000;0.855204
8575.000000;0.855534
8574.000000;0.855613
8573.000000;0.855438
8572.000000;0.855146
8571.000000;0.854928
8570.000000;0.854911
8569.000000;0.855055
8568.000000;0.855169
8567.000000;0.855080
8566.000000;0.854825
8565.000000;0.854638
8564.000000;0.854740
8563.000000;0.855145
8562.000000;0.855630
8561.000000;0.855883
8560.000000;0.855763
8559.000000;0.855445
8558.000000;0.855277
8557.000000;0.855446
8556.000000;0.855786
8555.000000;0.855978
8554.000000;0.855891
8553.000000;0.855682
8552.000000;0.855621
8551.000000;0.855876
8550.000000;0.856410
8549.000000;0.856952
8548.000000;0.857107
8547.000000;0.856639
8546.000000;0.855726
8545.000000;0.854871
8544.000000;0.854512
8543.000000;0.854696
8542.000000;0.855127
8541.000000;0.855459
8540.000000;0.855573
8539.000000;0.855613
8538.000000;0.855793
8537.000000;0.856190
8536.000000;0.856709
8535.000000;0.857206
8534.000000;0.857575
8533.000000;0.857725
8532.000000;0.857596
8531.000000;0.857235
8530.000000;0.856769
8529.000000;0.856226
8528.000000;0.855532
8527.000000;0.854761
8526.000000;0.854261
8525.000000;0.854348
8524.000000;0.854942
8523.000000;0.855669
8522.000000;0.856256
8521.000000;0.856672
8520.000000;0.856940
8519.000000;0.857062
8518.000000;0.857147
8517.000000;0.857350
8516.000000;0.857589
8515.000000;0.857512
8514.000000;0.856847
8513.000000;0.855696
8512.000000;0.854452
8511.000000;0.853575
8510.000000;0.853451
8509.000000;0.854203
8508.000000;0.855451
8507.000000;0.856484
8506.000000;0.856897
8505.000000;0.856922
8504.000000;0.856961
8503.000000;0.856998
8502.000000;0.856750
8501.000000;0.856233
8500.000000;0.855806
8499.000000;0.855700
8498.000000;0.855841
8497.000000;0.856172
8496.000000;0.856762
8495.000000;0.857451
8494.000000;0.857736
8493.000000;0.857329
8492.000000;0.856598
8491.000000;0.856140
8490.000000;0.856048
8489.000000;0.855919
8488.000000;0.855538
8487.000000;0.855208
8486.000000;0.855323
8485.000000;0.855868
8484.000000;0.856494
8483.000000;0.856921
8482.000000;0.857096
8481.000000;0.857059
8480.000000;0.856833
8479.000000;0.856432
8478.000000;0.855940
8477.000000;0.855533
8476.000000;0.855434
8475.000000;0.855743
8474.000000;0.856298
8473.000000;0.856785
8472.000000;0.857021
8471.000000;0.857067
8470.000000;0.857046
8469.000000;0.856966
8468.000000;0.856800
8467.000000;0.856619
8466.000000;0.856532
8465.000000;0.856552
8464.000000;0.856619
8463.000000;0.856704
8462.000000;0.856792
8461.000000;0.856819
8460.000000;0.856736
8459.000000;0.856626
8458.000000;0.856644
8457.000000;0.856832
8456.000000;0.857069
8455.000000;0.857237
8454.000000;0.857375
8453.000000;0.857633
8452.000000;0.858078
8451.000000;0.858561
8450.000000;0.858823
8449.000000;0.858766
8448.000000;0.858564
8447.000000;0.858383
8446.000000;0.858087
8445.000000;0.857401
8444.000000;0.856405
8443.000000;0.855606
8442.000000;0.855425
8441.000000;0.855791
8440.000000;0.856373
8439.000000;0.856984
8438.000000;0.857544
8437.000000;0.857846
8436.000000;0.857694
8435.000000;0.857215
8434.000000;0.856764
8433.000000;0.856503
8432.000000;0.856320
8431.000000;0.856127
8430.000000;0.856024
8429.000000;0.856124
8428.000000;0.856410
8427.000000;0.856799
8426.000000;0.857187
8425.000000;0.857454
8424.000000;0.857618
8423.000000;0.857905
8422.000000;0.858437
8421.000000;0.858875
8420.000000;0.858738
8419.000000;0.858083
8418.000000;0.857542
8417.000000;0.857548
8416.000000;0.857860
8415.000000;0.858011
8414.000000;0.857931
8413.000000;0.857861
8412.000000;0.857888
8411.000000;0.857893
8410.000000;0.857869
8409.000000;0.858021
8408.000000;0.858479
8407.000000;0.859086
8406.000000;0.859495
8405.000000;0.859464
8404.000000;0.859098
8403.000000;0.858782
8402.000000;0.858794
8401.000000;0.859014
8400.000000;0.859156
8399.000000;0.859205
8398.000000;0.859367
8397.000000;0.859607
8396.000000;0.859603
8395.000000;0.859263
8394.000000;0.858936
8393.000000;0.858906
8392.000000;0.859027
8391.000000;0.859102
8390.000000;0.859315
8389.000000;0.859880
8388.000000;0.860483
8387.000000;0.860550
8386.000000;0.860007
8385.000000;0.859403
8384.000000;0.859234
8383.000000;0.859488
8382.000000;0.859866
8381.000000;0.860154
8380.000000;0.860275
8379.000000;0.860206
8378.000000;0.860010
8377.000000;0.859850
8376.000000;0.859878
8375.000000;0.860137
8374.000000;0.860531
8373.000000;0.860820
8372.000000;0.860740
8371.000000;0.860284
8370.000000;0.859808
8369.000000;0.859704
8368.000000;0.859991
8367.000000;0.860349
8366.000000;0.860493
8365.000000;0.860397
8364.000000;0.860240
8363.000000;0.860295
8362.000000;0.860742
8361.000000;0.861404
8360.000000;0.861771
8359.000000;0.861528
8358.000000;0.860983
8357.000000;0.860729
8356.000000;0.860936
8355.000000;0.861239
8354.000000;0.861276
8353.000000;0.861026
8352.000000;0.860629
8351.000000;0.860232
8350.000000;0.860103
8349.000000;0.860525
8348.000000;0.861400
8347.000000;0.862154
8346.000000;0.862267
8345.000000;0.861750
8344.000000;0.861004
8343.000000;0.860383
8342.000000;0.860062
8341.000000;0.860129
8340.000000;0.860560
8339.000000;0.861152
8338.000000;0.861646
8337.000000;0.861929
8336.000000;0.861994
8335.000000;0.861788
8334.000000;0.861211
8333.000000;0.860297
8332.000000;0.859323
8331.000000;0.858705
8330.000000;0.858755
8329.000000;0.859460
8328.000000;0.860465
8327.000000;0.861334
8326.000000;0.861867
8325.000000;0.862124
8324.000000;0.862199
8323.000000;0.862096
8322.000000;0.861848
8321.000000;0.861607
8320.000000;0.861525
8319.000000;0.861597
8318.000000;0.861703
8317.000000;0.861750
8316.000000;0.861720
8315.000000;0.861615
8314.000000;0.861425
8313.000000;0.861153
8312.000000;0.860883
8311.000000;0.860788
8310.000000;0.860993
8309.000000;0.861375
8308.000000;0.861588
8307.000000;0.861403
8306.000000;0.860976
8305.000000;0.860674
8304.000000;0.860692
8303.000000;0.860974
8302.000000;0.861413
8301.000000;0.861913
8300.000000;0.862262
8299.000000;0.862205
8298.000000;0.861749
8297.000000;0.861262
8296.000000;0.861137
8295.000000;0.861443
8294.000000;0.861917
8293.000000;0.862224
8292.000000;0.862190
8291.000000;0.861916
8290.000000;0.861711
8289.000000;0.861820
8288.000000;0.862157
8287.000000;0.862419
8286.000000;0.862475
8285.000000;0.862498
8284.000000;0.862655
8283.000000;0.862827
8282.000000;0.862757
8281.000000;0.862396
8280.000000;0.861964
8279.000000;0.861718
8278.000000;0.861748
8277.000000;0.861972
8276.000000;0.862242
8275.000000;0.862479
8274.000000;0.862720
8273.000000;0.863009
8272.000000;0.863255
8271.000000;0.863287
8270.000000;0.863068
8269.000000;0.862762
8268.000000;0.862536
8267.000000;0.862418
8266.000000;0.862371
8265.000000;0.862404
8264.000000;0.862511
8263.000000;0.862600
8262.000000;0.862591
8261.000000;0.862544
8260.000000;0.862604
8259.000000;0.862823
8258.000000;0.863092
8257.000000;0.863239
8256.000000;0.863175
8255.000000;0.862966
8254.000000;0.862751
8253.000000;0.862589
8252.000000;0.862434
8251.000000;0.862318
8250.000000;0.862428
8249.000000;0.862876
8248.000000;0.863410
8247.000000;0.863567
8246.000000;0.863183
8245.000000;0.862589
8244.000000;0.862261
8243.000000;0.862376
8242.000000;0.862774
8241.000000;0.863207
8240.000000;0.863536
8239.000000;0.863777
8238.000000;0.864056
8237.000000;0.864440
8236.000000;0.864762
8235.000000;0.864713
8234.000000;0.864175
8233.000000;0.863386
8232.000000;0.862718
8231.000000;0.862394
8230.000000;0.862474
8229.000000;0.862948
8228.000000;0.863685
8227.000000;0.864384
8226.000000;0.864727
8225.000000;0.864597
8224.000000;0.864080
8223.000000;0.863356
8222.000000;0.862686
8221.000000;0.862417
8220.000000;0.862807
8219.000000;0.863766
8218.000000;0.864842
8217.000000;0.865506
8216.000000;0.865484
8215.000000;0.864919
8214.000000;0.864273
8213.000000;0.863994
8212.000000;0.864178
8211.000000;0.864518
8210.000000;0.864624
8209.000000;0.864377
8208.000000;0.863975
8207.000000;0.863726
8206.000000;0.863821
8205.000000;0.864241
8204.000000;0.864779
8203.000000;0.865198
8202.000000;0.865437
8201.000000;0.865626
8200.000000;0.865881
8199.000000;0.866134
8198.000000;0.866217
8197.000000;0.866051
8196.000000;0.865702
8195.000000;0.865330
8194.000000;0.865125
8193.000000;0.865197
8192.000000;0.865428
8191.000000;0.865526
8190.000000;0.865329
8189.000000;0.864991
8188.000000;0.864781
8187.000000;0.864758
8186.000000;0.864759
8185.000000;0.864683
8184.000000;0.864633
8183.000000;0.864751
8182.000000;0.865024
8181.000000;0.865285
8180.000000;0.865381
8179.000000;0.865323
8178.000000;0.865273
8177.000000;0.865339
8176.000000;0.865375
8175.000000;0.865108
8174.000000;0.864536
8173.000000;0.864073
8172.000000;0.864131
8171.000000;0.864633
8170.000000;0.865119
8169.000000;0.865293
8168.000000;0.865279
8167.000000;0.865287
8166.000000;0.865287
8165.000000;0.865151
8164.000000;0.864979
8163.000000;0.865054
8162.000000;0.865495
8161.000000;0.866117
8160.000000;0.866652
8159.000000;0.867009
8158.000000;0.867241
8157.000000;0.867381
8156.000000;0.867438
8155.000000;0.867501
8154.000000;0.867708
8153.000000;0.868050
8152.000000;0.868344
8151.000000;0.868476
8150.000000;0.868559
8149.000000;0.868708
8148.000000;0.868736
8147.000000;0.868295
8146.000000;0.867363
8145.000000;0.866403
8144.000000;0.865934
8143.000000;0.866087
8142.000000;0.866619
8141.000000;0.867219
8140.000000;0.867655
8139.000000;0.867794
8138.000000;0.867682
8137.000000;0.867557
8136.000000;0.867618
8135.000000;0.867791
8134.000000;0.867868
8133.000000;0.867794
8132.000000;0.867656
8131.000000;0.867450
8130.000000;0.867122
8129.000000;0.866819
8128.000000;0.866847
8127.000000;0.867285
8126.000000;0.867850
8125.000000;0.868269
8124.000000;0.868572
8123.000000;0.868857
8122.000000;0.868971
8121.000000;0.868680
8120.000000;0.868102
8119.000000;0.867681
8118.000000;0.867722
8117.000000;0.868092
8116.000000;0.868429
8115.000000;0.868480
8114.000000;0.868243
8113.000000;0.867915
8112.000000;0.867745
8111.000000;0.867834
8110.000000;0.868018
8109.000000;0.868057
8108.000000;0.867967
8107.000000;0.868024
8106.000000;0.868360
8105.000000;0.868751
8104.000000;0.868916
8103.000000;0.868917
8102.000000;0.869066
8101.000000;0.869468
8100.000000;0.869859
8099.000000;0.869920
8098.000000;0.869621
8097.000000;0.869182
8096.000000;0.868827
8095.000000;0.868656
8094.000000;0.868678
8093.000000;0.868871
8092.000000;0.869209
8091.000000;0.869642
8090.000000;0.870050
8089.000000;0.870242
8088.000000;0.870089
8087.000000;0.869684
8086.000000;0.869275
8085.000000;0.869024
8084.000000;0.868886
8083.000000;0.868771
8082.000000;0.868710
8081.000000;0.868795
8080.000000;0.869002
8079.000000;0.869202
8078.000000;0.869330
8077.000000;0.869432
8076.000000;0.869551
8075.000000;0.869636
8074.000000;0.869599
8073.000000;0.869430
8072.000000;0.869243
8071.000000;0.869225
8070.000000;0.869512
8069.000000;0.870049
8068.000000;0.870568
8067.000000;0.870778
8066.000000;0.870628
8065.000000;0.870362
8064.000000;0.870288
8063.000000;0.870503
8062.000000;0.870845
8061.000000;0.871085
8060.000000;0.871138
8059.000000;0.871088
8058.000000;0.871034
8057.000000;0.870976
8056.000000;0.870862
8055.000000;0.870696
8054.000000;0.870532
8053.000000;0.870390
8052.000000;0.870285
8051.000000;0.870331
8050.000000;0.870670
8049.000000;0.871229
8048.000000;0.871654
8047.000000;0.871629
8046.000000;0.871210
8045.000000;0.870742
8044.000000;0.870503
8043.000000;0.870554
8042.000000;0.870857
8041.000000;0.871355
8040.000000;0.871925
8039.000000;0.872398
8038.000000;0.872714
8037.000000;0.872956
8036.000000;0.873159
8035.000000;0.873200
8034.000000;0.872952
8033.000000;0.872502
8032.000000;0.872103
8031.000000;0.871916
8030.000000;0.871860
8029.000000;0.871725
8028.000000;0.871405
8027.000000;0.871014
8026.000000;0.870781
8025.000000;0.870858
8024.000000;0.871213
8023.000000;0.871694
8022.000000;0.872153
8021.000000;0.872497
8020.000000;0.872667
8019.000000;0.872659
8018.000000;0.872556
8017.000000;0.872500
8016.000000;0.872610
8015.000000;0.872877
8014.000000;0.873119
8013.000000;0.873054
8012.000000;0.872558
8011.000000;0.871904
8010.000000;0.871610
8009.000000;0.871943
8008.000000;0.872622
8007.000000;0.873162
8006.000000;0.873424
8005.000000;0.873688
8004.000000;0.874186
8003.000000;0.874753
8002.000000;0.874970
8001.000000;0.874531
8000.000000;0.873459
7999.000000;0.872124
7998.000000;0.871104
7997.000000;0.870837
7996.000000;0.871284
7995.000000;0.871993
7994.000000;0.872579
7993.000000;0.873050
7992.000000;0.873599
7991.000000;0.874227
7990.000000;0.874717
7989.000000;0.874905
7988.000000;0.874835
7987.000000;0.874626
7986.000000;0.874322
7985.000000;0.873900
7984.000000;0.873378
7983.000000;0.872906
7982.000000;0.872729
7981.000000;0.873025
7980.000000;0.873708
7979.000000;0.874423
7978.000000;0.874816
7977.000000;0.874807
7976.000000;0.874603
7975.000000;0.874479
7974.000000;0.874554
7973.000000;0.874731
7972.000000;0.874809
7971.000000;0.874702
7970.000000;0.874571
7969.000000;0.874658
7968.000000;0.874986
7967.000000;0.875304
7966.000000;0.875391
7965.000000;0.875315
7964.000000;0.875301
7963.000000;0.875422
7962.000000;0.875563
7961.000000;0.875613
7960.000000;0.875560
7959.000000;0.875397
7958.000000;0.875104
7957.000000;0.874758
7956.000000;0.874544
7955.000000;0.874589
7954.000000;0.874838
7953.000000;0.875132
7952.000000;0.875368
7951.000000;0.875524
7950.000000;0.875606
7949.000000;0.875621
7948.000000;0.875596
7947.000000;0.875592
7946.000000;0.875669
7945.000000;0.875855
7944.000000;0.876126
7943.000000;0.876405
7942.000000;0.876597
7941.000000;0.876647
7940.000000;0.876590
7939.000000;0.876529
7938.000000;0.876564
7937.000000;0.876709
7936.000000;0.876889
7935.000000;0.877027
7934.000000;0.877118
7933.000000;0.877187
7932.000000;0.877189
7931.000000;0.877053
7930.000000;0.876815
7929.000000;0.876643
7928.000000;0.876664
7927.000000;0.876825
7926.000000;0.876999
7925.000000;0.877164
7924.000000;0.877373
7923.000000;0.877596
7922.000000;0.877714
7921.000000;0.877697
7920.000000;0.877678
7919.000000;0.877784
7918.000000;0.877969
7917.000000;0.878095
7916.000000;0.878138
7915.000000;0.878188
7914.000000;0.878274
7913.000000;0.878269
7912.000000;0.878062
7911.000000;0.877771
7910.000000;0.877672
7909.000000;0.877905
7908.000000;0.878308
7907.000000;0.878609
7906.000000;0.878714
7905.000000;0.878727
7904.000000;0.878717
7903.000000;0.878622
7902.000000;0.878428
7901.000000;0.878297
7900.000000;0.878380
7899.000000;0.878590
7898.000000;0.878681
7897.000000;0.878569
7896.000000;0.878429
7895.000000;0.878455
7894.000000;0.878637
7893.000000;0.878838
7892.000000;0.879000
7891.000000;0.879166
7890.000000;0.879367
7889.000000;0.879573
7888.000000;0.879752
7887.000000;0.879922
7886.000000;0.880104
7885.000000;0.880284
7884.000000;0.880414
7883.000000;0.880446
7882.000000;0.880374
7881.000000;0.880254
7880.000000;0.880167
7879.000000;0.880137
7878.000000;0.880119
7877.000000;0.880096
7876.000000;0.880138
7875.000000;0.880312
7874.000000;0.880555
7873.000000;0.880735
7872.000000;0.880830
7871.000000;0.880955
7870.000000;0.881202
7869.000000;0.881538
7868.000000;0.881889
7867.000000;0.882208
7866.000000;0.882415
7865.000000;0.882401
7864.000000;0.882203
7863.000000;0.882076
7862.000000;0.882220
7861.000000;0.882477
7860.000000;0.882467
7859.000000;0.882062
7858.000000;0.881557
7857.000000;0.881329
7856.000000;0.881462
7855.000000;0.881764
7854.000000;0.882027
7853.000000;0.882165
7852.000000;0.882196
7851.000000;0.882216
7850.000000;0.882342
7849.000000;0.882592
7848.000000;0.882860
7847.000000;0.883061
7846.000000;0.883225
7845.000000;0.883378
7844.000000;0.883442
7843.000000;0.883379
7842.000000;0.883375
7841.000000;0.883665
7840.000000;0.884220
7839.000000;0.884736
7838.000000;0.884971
7837.000000;0.884919
7836.000000;0.884646
7835.000000;0.884165
7834.000000;0.883560
7833.000000;0.883085
7832.000000;0.882973
7831.000000;0.883213
7830.000000;0.883591
7829.000000;0.883924
7828.000000;0.884139
7827.000000;0.884216
7826.000000;0.884185
7825.000000;0.884176
7824.000000;0.884336
7823.000000;0.884652
7822.000000;0.884944
7821.000000;0.885079
7820.000000;0.885150
7819.000000;0.885360
7818.000000;0.885741
7817.000000;0.886049
7816.000000;0.886002
7815.000000;0.885641
7814.000000;0.885392
7813.000000;0.885682
7812.000000;0.886483
7811.000000;0.887302
7810.000000;0.887655
7809.000000;0.887488
7808.000000;0.887112
7807.000000;0.886812
7806.000000;0.886652
7805.000000;0.886592
7804.000000;0.886641
7803.000000;0.886833
7802.000000;0.887123
7801.000000;0.887414
7800.000000;0.887641
7799.000000;0.887799
7798.000000;0.887917
7797.000000;0.888037
7796.000000;0.888194
7795.000000;0.888356
7794.000000;0.888411
7793.000000;0.888277
7792.000000;0.888047
7791.000000;0.887929
7790.000000;0.888036
7789.000000;0.888271
7788.000000;0.888456
7787.000000;0.888515
7786.000000;0.888481
7785.000000;0.888410
7784.000000;0.888353
7783.000000;0.888386
7782.000000;0.888550
7781.000000;0.888771
7780.000000;0.888945
7779.000000;0.889084
7778.000000;0.889291
7777.000000;0.889573
7776.000000;0.889819
7775.000000;0.889985
7774.000000;0.890173
7773.000000;0.890456
7772.000000;0.890765
7771.000000;0.891018
7770.000000;0.891255
7769.000000;0.891493
7768.000000;0.891593
7767.000000;0.891442
7766.000000;0.891215
7765.000000;0.891248
7764.000000;0.891644
7763.000000;0.892166
7762.000000;0.892554
7761.000000;0.892761
7760.000000;0.892851
7759.000000;0.892846
7758.000000;0.892763
7757.000000;0.892667
7756.000000;0.892584
7755.000000;0.892440
7754.000000;0.892208
7753.000000;0.892026
7752.000000;0.892059
7751.000000;0.892298
7750.000000;0.892598
7749.000000;0.892877
7748.000000;0.893172
7747.000000;0.893486
7746.000000;0.893704
7745.000000;0.893698
7744.000000;0.893499
7743.000000;0.893318
7742.000000;0.893411
7741.000000;0.893879
7740.000000;0.894577
7739.000000;0.895214
7738.000000;0.895563
7737.000000;0.895585
7736.000000;0.895395
7735.000000;0.895177
7734.000000;0.895124
7733.000000;0.895360
7732.000000;0.895852
7731.000000;0.896441
7730.000000;0.896992
7729.000000;0.897456
7728.000000;0.897786
7727.000000;0.897884
7726.000000;0.897724
7725.000000;0.897470
7724.000000;0.897347
7723.000000;0.897418
7722.000000;0.897562
7721.000000;0.897668
7720.000000;0.897745
7719.000000;0.897832
7718.000000;0.897876
7717.000000;0.897789
7716.000000;0.897589
7715.000000;0.897418
7714.000000;0.897412
7713.000000;0.897577
7712.000000;0.897816
7711.000000;0.898072
7710.000000;0.898394
7709.000000;0.898834
7708.000000;0.899305
7707.000000;0.899613
7706.000000;0.899658
7705.000000;0.899546
7704.000000;0.899475
7703.000000;0.899536
7702.000000;0.899668
7701.000000;0.899777
7700.000000;0.899842
7699.000000;0.899946
7698.000000;0.900223
7697.000000;0.900758
7696.000000;0.901474
7695.000000;0.902135
7694.000000;0.902497
7693.000000;0.902488
7692.000000;0.902241
7691.000000;0.901976
7690.000000;0.901861
7689.000000;0.901952
7688.000000;0.902192
7687.000000;0.902474
7686.000000;0.902723
7685.000000;0.902948
7684.000000;0.903193
7683.000000;0.903453
7682.000000;0.903661
7681.000000;0.903754
7680.000000;0.903756
7679.000000;0.903784
7678.000000;0.903989
7677.000000;0.904410
7676.000000;0.904885
7675.000000;0.905142
7674.000000;0.905051
7673.000000;0.904784
7672.000000;0.904677
7671.000000;0.904934
7670.000000;0.905474
7669.000000;0.906038
7668.000000;0.906384
7667.000000;0.906413
7666.000000;0.906203
7665.000000;0.906000
7664.000000;0.906070
7663.000000;0.906491
7662.000000;0.907064
7661.000000;0.907487
7660.000000;0.907647
7659.000000;0.907687
7658.000000;0.907797
7657.000000;0.907992
7656.000000;0.908152
7655.000000;0.908217
7654.000000;0.908264
7653.000000;0.908384
7652.000000;0.908580
7651.000000;0.908809
7650.000000;0.909061
7649.000000;0.909334
7648.000000;0.909580
7647.000000;0.909746
7646.000000;0.909854
7645.000000;0.909971
7644.000000;0.910115
7643.000000;0.910233
7642.000000;0.910309
7641.000000;0.910441
7640.000000;0.910768
7639.000000;0.911326
7638.000000;0.911969
7637.000000;0.912457
7636.000000;0.912641
7635.000000;0.912625
7634.000000;0.912689
7633.000000;0.913019
7632.000000;0.913518
7631.000000;0.913944
7630.000000;0.914208
7629.000000;0.914458
7628.000000;0.914842
7627.000000;0.915306
7626.000000;0.915674
7625.000000;0.915876
7624.000000;0.916004
7623.000000;0.916157
7622.000000;0.916303
7621.000000;0.916344
7620.000000;0.916289
7619.000000;0.916313
7618.000000;0.916590
7617.000000;0.917073
7616.000000;0.917509
7615.000000;0.917698
7614.000000;0.917700
7613.000000;0.917724
7612.000000;0.917891
7611.000000;0.918184
7610.000000;0.918571
7609.000000;0.919034
7608.000000;0.919479
7607.000000;0.919758
7606.000000;0.919854
7605.000000;0.919937
7604.000000;0.920170
7603.000000;0.920539
7602.000000;0.920934
7601.000000;0.921306
7600.000000;0.921658
7599.000000;0.921968
7598.000000;0.922234
7597.000000;0.922537
7596.000000;0.922958
7595.000000;0.923435
7594.000000;0.923819
7593.000000;0.924058
7592.000000;0.924223
7591.000000;0.924369
7590.000000;0.924459
7589.000000;0.924483
7588.000000;0.924565
7587.000000;0.924864
7586.000000;0.925407
7585.000000;0.926058
7584.000000;0.926649
7583.000000;0.927094
7582.000000;0.927395
7581.000000;0.927553
7580.000000;0.927541
7579.000000;0.927387
7578.000000;0.927256
7577.000000;0.927395
7576.000000;0.927932
7575.000000;0.928756
7574.000000;0.929592
7573.000000;0.930201
7572.000000;0.930494
7571.000000;0.930523
7570.000000;0.930435
7569.000000;0.930421
7568.000000;0.930655
7567.000000;0.931189
7566.000000;0.931904
7565.000000;0.932555
7564.000000;0.932909
7563.000000;0.932912
7562.000000;0.932754
7561.000000;0.932735
7560.000000;0.933028
7559.000000;0.933545
7558.000000;0.934043
7557.000000;0.934338
7556.000000;0.934431
7555.000000;0.934491
7554.000000;0.934723
7553.000000;0.935206
7552.000000;0.935804
7551.000000;0.936270
7550.000000;0.936504
7549.000000;0.936667
7548.000000;0.936997
7547.000000;0.937542
7546.000000;0.938156
7545.000000;0.938701
7544.000000;0.939152
7543.000000;0.939500
7542.000000;0.939693
7541.000000;0.939762
7540.000000;0.939924
7539.000000;0.940422
7538.000000;0.941252
7537.000000;0.942128
7536.000000;0.942738
7535.000000;0.942995
7534.000000;0.943034
7533.000000;0.943042
7532.000000;0.943142
7531.000000;0.943394
7530.000000;0.943794
7529.000000;0.944250
7528.000000;0.944631
7527.000000;0.944914
7526.000000;0.945230
7525.000000;0.945699
7524.000000;0.946252
7523.000000;0.946685
7522.000000;0.946893
7521.000000;0.946990
7520.000000;0.947164
7519.000000;0.947506
7518.000000;0.947998
7517.000000;0.948595
7516.000000;0.949219
7515.000000;0.949740
7514.000000;0.950043
7513.000000;0.950150
7512.000000;0.950202
7511.000000;0.950325
7510.000000;0.950548
7509.000000;0.950854
7508.000000;0.951251
7507.000000;0.951759
7506.000000;0.952363
7505.000000;0.953008
7504.000000;0.953631
7503.000000;0.954180
7502.000000;0.954604
7501.000000;0.954854
7500.000000;0.954919
7499.000000;0.954894
7498.000000;0.954997
7497.000000;0.955443
7496.000000;0.956260
7495.000000;0.957228
7494.000000;0.958061
7493.000000;0.958638
7492.000000;0.959024
7491.000000;0.959340
7490.000000;0.959620
7489.000000;0.959863
7488.000000;0.960125
7487.000000;0.960475
7486.000000;0.960892
7485.000000;0.961264
7484.000000;0.961529
7483.000000;0.961775
7482.000000;0.962158
7481.000000;0.962716
7480.000000;0.963321
7479.000000;0.963836
7478.000000;0.964279
7477.000000;0.964768
7476.000000;0.965336
7475.000000;0.965872
7474.000000;0.966251
7473.000000;0.966475
7472.000000;0.966634
7471.000000;0.966801
7470.000000;0.967005
7469.000000;0.967274
7468.000000;0.967630
7467.000000;0.968043
7466.000000;0.968465
7465.000000;0.968916
7464.000000;0.969493
7463.000000;0.970257
7462.000000;0.971112
7461.000000;0.971854
7460.000000;0.972345
7459.000000;0.972638
7458.000000;0.972889
7457.000000;0.973157
7456.000000;0.973336
7455.000000;0.973318
7454.000000;0.973193
7453.000000;0.973197
7452.000000;0.973477
7451.000000;0.973960
7450.000000;0.974489
7449.000000;0.974992
7448.000000;0.975472
7447.000000;0.975904
7446.000000;0.976274
7445.000000;0.976679
7444.000000;0.977285
7443.000000;0.978120
7442.000000;0.978974
7441.000000;0.979566
7440.000000;0.979799
7439.000000;0.979815
7438.000000;0.979827
7437.000000;0.979922
7436.000000;0.980036
7435.000000;0.980095
7434.000000;0.980149
7433.000000;0.980359
7432.000000;0.980849
7431.000000;0.981567
7430.000000;0.982309
7429.000000;0.982854
7428.000000;0.983122
7427.000000;0.983220
7426.000000;0.983352
7425.000000;0.983658
7424.000000;0.984112
7423.000000;0.984556
7422.000000;0.984858
7421.000000;0.985038
7420.000000;0.985243
7419.000000;0.985629
7418.000000;0.986233
7417.000000;0.986934
7416.000000;0.987521
7415.000000;0.987860
7414.000000;0.988015
7413.000000;0.988183
7412.000000;0.988502
7411.000000;0.988948
7410.000000;0.989440
7409.000000;0.989954
7408.000000;0.990491
7407.000000;0.991010
7406.000000;0.991477
7405.000000;0.991928
7404.000000;0.992408
7403.000000;0.992862
7402.000000;0.993185
7401.000000;0.993403
7400.000000;0.993671
7399.000000;0.994072
7398.000000;0.994486
7397.000000;0.994755
7396.000000;0.994929
7395.000000;0.995246
7394.000000;0.995846
7393.000000;0.996587
7392.000000;0.997220
7391.000000;0.997666
7390.000000;0.998022
7389.000000;0.998343
7388.000000;0.998536
7387.000000;0.998537
7386.000000;0.998476
7385.000000;0.998579
7384.000000;0.998924
7383.000000;0.999400
7382.000000;0.999898
7381.000000;1.000418
7380.000000;1.000943
7379.000000;1.001311
7378.000000;1.001376
7377.000000;1.001257
7376.000000;1.001281
7375.000000;1.001683
7374.000000;1.002406
7373.000000;1.003194
7372.000000;1.003793
7371.000000;1.004109
7370.000000;1.004272
7369.000000;1.004561
7368.000000;1.005144
7367.000000;1.005897
7366.000000;1.006555
7365.000000;1.007025
7364.000000;1.007445
7363.000000;1.007953
7362.000000;1.008530
7361.000000;1.009108
7360.000000;1.009669
7359.000000;1.010131
7358.000000;1.010331
7357.000000;1.010267
7356.000000;1.010213
7355.000000;1.010447
7354.000000;1.010931
7353.000000;1.011390
7352.000000;1.011654
7351.000000;1.011801
7350.000000;1.012015
7349.000000;1.012399
7348.000000;1.012925
7347.000000;1.013462
7346.000000;1.013863
7345.000000;1.014079
7344.000000;1.014201
7343.000000;1.014350
7342.000000;1.014588
7341.000000;1.014956
7340.000000;1.015499
7339.000000;1.016174
7338.000000;1.016812
7337.000000;1.017290
7336.000000;1.017724
7335.000000;1.018357
7334.000000;1.019287
7333.000000;1.020372
7332.000000;1.021327
7331.000000;1.021871
7330.000000;1.021922
7329.000000;1.021756
7328.000000;1.021842
7327.000000;1.022395
7326.000000;1.023161
7325.000000;1.023757
7324.000000;1.024126
7323.000000;1.024546
7322.000000;1.025278
7321.000000;1.026319
7320.000000;1.027444
7319.000000;1.028354
7318.000000;1.028852
7317.000000;1.028977
7316.000000;1.029006
7315.000000;1.029211
7314.000000;1.029605
7313.000000;1.030037
7312.000000;1.030475
7311.000000;1.030987
7310.000000;1.031484
7309.000000;1.031756
7308.000000;1.031852
7307.000000;1.032186
7306.000000;1.033116
7305.000000;1.034486
7304.000000;1.035761
7303.000000;1.036572
7302.000000;1.037041
7301.000000;1.037596
7300.000000;1.038574
7299.000000;1.039937
7298.000000;1.041253
7297.000000;1.042011
7296.000000;1.042101
7295.000000;1.041990
7294.000000;1.042344
7293.000000;1.043438
7292.000000;1.044967
7291.000000;1.046388
7290.000000;1.047381
7289.000000;1.048001
7288.000000;1.048517
7287.000000;1.049171
7286.000000;1.050023
7285.000000;1.050993
7284.000000;1.052009
7283.000000;1.053087
7282.000000;1.054262
7281.000000;1.055476
7280.000000;1.056591
7279.000000;1.057521
7278.000000;1.058285
7277.000000;1.058962
7276.000000;1.059648
7275.000000;1.060470
7274.000000;1.061527
7273.000000;1.062806
7272.000000;1.064180
7271.000000;1.065521
7270.000000;1.066787
7269.000000;1.068009
7268.000000;1.069235
7267.000000;1.070506
7266.000000;1.071820
7265.000000;1.073122
7264.000000;1.074381
7263.000000;1.075688
7262.000000;1.077172
7261.000000;1.078784
7260.000000;1.080259
7259.000000;1.081379
7258.000000;1.082219
7257.000000;1.083065
7256.000000;1.084168
7255.000000;1.085615
7254.000000;1.087372
7253.000000;1.089335
7252.000000;1.091343
7251.000000;1.093240
7250.000000;1.094938
7249.000000;1.096436
7248.000000;1.097810
7247.000000;1.099135
7246.000000;1.100392
7245.000000;1.101502
7244.000000;1.102532
7243.000000;1.103807
7242.000000;1.105673
7241.000000;1.108082
7240.000000;1.110541
7239.000000;1.112634
7238.000000;1.114463
7237.000000;1.116442
7236.000000;1.118741
7235.000000;1.121086
7234.000000;1.123113
7233.000000;1.124789
7232.000000;1.126451
7231.000000;1.128476
7230.000000;1.130943
7229.000000;1.133637
7228.000000;1.136396
7227.000000;1.139285
7226.000000;1.142408
7225.000000;1.145638
7224.000000;1.148604
7223.000000;1.150996
7222.000000;1.152858
7221.000000;1.154557
7220.000000;1.156463
7219.000000;1.158729
7218.000000;1.161322
7217.000000;1.164127
7216.000000;1.167037
7215.000000;1.170059
7214.000000;1.173305
7213.000000;1.176760
7212.000000;1.180121
7211.000000;1.183074
7210.000000;1.185720
7209.000000;1.188510
7208.000000;1.191694
7207.000000;1.195018
7206.000000;1.198095
7205.000000;1.200916
7204.000000;1.203823
7203.000000;1.207023
7202.000000;1.210352
7201.000000;1.213595
7200.000000;1.216839
7199.000000;1.220365
7198.000000;1.224242
7197.000000;1.228162
7196.000000;1.231771
7195.000000;1.235094
7194.000000;1.238506
7193.000000;1.242268
7192.000000;1.246279
7191.000000;1.250365
7190.000000;1.254589
7189.000000;1.259084
7188.000000;1.263727
7187.000000;1.268233
7186.000000;1.272497
7185.000000;1.276591
7184.000000;1.280499
7183.000000;1.284166
7182.000000;1.287824
7181.000000;1.291933
7180.000000;1.296622
7179.000000;1.301427
7178.000000;1.305792
7177.000000;1.309681
7176.000000;1.313544
7175.000000;1.317807
7174.000000;1.322546
7173.000000;1.327532
7172.000000;1.332457
7171.000000;1.337154
7170.000000;1.341681
7169.000000;1.346154
7168.000000;1.350556
7167.000000;1.354850
7166.000000;1.359234
7165.000000;1.363968
7164.000000;1.368995
7163.000000;1.374017
7162.000000;1.378980
7161.000000;1.384143
7160.000000;1.389547
7159.000000;1.394773
7158.000000;1.399469
7157.000000;1.403881
7156.000000;1.408551
7155.000000;1.413667
7154.000000;1.419002
7153.000000;1.424316
7152.000000;1.429532
7151.000000;1.434624
7150.000000;1.439594
7149.000000;1.444503
7148.000000;1.449350
7147.000000;1.454024
7146.000000;1.458534
7145.000000;1.463126
7144.000000;1.468008
7143.000000;1.473110
7142.000000;1.478366
7141.000000;1.483998
7140.000000;1.490115
7139.000000;1.496145
7138.000000;1.501247
7137.000000;1.505380
7136.000000;1.509477
7135.000000;1.514431
7134.000000;1.520228
7133.000000;1.526127
7132.000000;1.531359
7131.000000;1.535637
7130.000000;1.539367
7129.000000;1.543472
7128.000000;1.548716
7127.000000;1.555008
7126.000000;1.561530
7125.000000;1.567550
7124.000000;1.572821
7123.000000;1.577285
7122.000000;1.580984
7121.000000;1.584454
7120.000000;1.588634
7119.000000;1.593963
7118.000000;1.599896
7117.000000;1.605590
7116.000000;1.610773
7115.000000;1.615602
7114.000000;1.620099
7113.000000;1.624231
7112.000000;1.628252
7111.000000;1.632448
7110.000000;1.636693
7109.000000;1.640705
7108.000000;1.644648
7107.000000;1.649030
7106.000000;1.654025
7105.000000;1.659310
7104.000000;1.664623
7103.000000;1.670087
7102.000000;1.675790
7101.000000;1.681322
7100.000000;1.685941
7099.000000;1.689199
7098.000000;1.691427
7097.000000;1.693695
7096.000000;1.697148
7095.000000;1.702084
7094.000000;1.707628
7093.000000;1.712500
7092.000000;1.716133
7091.000000;1.718942
7090.000000;1.721735
7089.000000;1.725168
7088.000000;1.729528
7087.000000;1.734531
7086.000000;1.739283
7085.000000;1.742927
7084.000000;1.745508
7083.000000;1.747869
7082.000000;1.750612
7081.000000;1.753566
7080.000000;1.756427
7079.000000;1.759528
7078.000000;1.763543
7077.000000;1.768493
7076.000000;1.773423
7075.000000;1.777199
7074.000000;1.779596
7073.000000;1.781507
7072.000000;1.784113
7071.000000;1.787874
7070.000000;1.792261
7069.000000;1.796402
7068.000000;1.799954
7067.000000;1.803320
7066.000000;1.806946
7065.000000;1.810538
7064.000000;1.813215
7063.000000;1.814566
7062.000000;1.815348
7061.000000;1.816800
7060.000000;1.819347
7059.000000;1.822317
7058.000000;1.824940
7057.000000;1.827205
7056.000000;1.829486
7055.000000;1.831786
7054.000000;1.833916
7053.000000;1.836123
7052.000000;1.838841
7051.000000;1.841794
7050.000000;1.844013
7049.000000;1.844979
7048.000000;1.845363
7047.000000;1.846368
7046.000000;1.848641
7045.000000;1.851959
7044.000000;1.855622
7043.000000;1.858856
7042.000000;1.861150
7041.000000;1.862546
7040.000000;1.863488
7039.000000;1.864301
7038.000000;1.865064
7037.000000;1.866055
7036.000000;1.867839
7035.000000;1.870616
7034.000000;1.873814
7033.000000;1.876692
7032.000000;1.879073
7031.000000;1.881125
7030.000000;1.882757
7029.000000;1.883689
7028.000000;1.883959
7027.000000;1.883925
7026.000000;1.883866
7025.000000;1.884000
7024.000000;1.884783
7023.000000;1.886628
7022.000000;1.889291
7021.000000;1.891992
7020.000000;1.894185
7019.000000;1.895896
7018.000000;1.897361
7017.000000;1.898782
7016.000000;1.900495
7015.000000;1.902814
7014.000000;1.905422
7013.000000;1.907326
7012.000000;1.907897
7011.000000;1.907686
7010.000000;1.907732
7009.000000;1.908266
7008.000000;1.908578
7007.000000;1.908262
7006.000000;1.908057
7005.000000;1.909122
7004.000000;1.911769
7003.000000;1.915320
7002.000000;1.918849
7001.000000;1.921537
7000.000000;1.922462
6999.000000;1.920908
6998.000000;1.917510
6997.000000;1.914590
6996.000000;1.914527
6995.000000;1.917725
6994.000000;1.922347
6993.000000;1.926011
6992.000000;1.927668
6991.000000;1.927890
6990.000000;1.927872
6989.000000;1.928491
6988.000000;1.929870
6987.000000;1.931347
6986.000000;1.932026
6985.000000;1.931661
6984.000000;1.930783
6983.000000;1.929894
6982.000000;1.929032
6981.000000;1.928400
6980.000000;1.928900
6979.000000;1.931311
6978.000000;1.934962
6977.000000;1.937857
6976.000000;1.938466
6975.000000;1.937165
6974.000000;1.935641
6973.000000;1.935132
6972.000000;1.935513
6971.000000;1.935825
6970.000000;1.935427
6969.000000;1.934651
6968.000000;1.934489
6967.000000;1.935665
6966.000000;1.937932
6965.000000;1.940336
6964.000000;1.942213
6963.000000;1.943708
6962.000000;1.945147
6961.000000;1.946176
6960.000000;1.945991
6959.000000;1.944478
6958.000000;1.942653
6957.000000;1.941655
6956.000000;1.941626
6955.000000;1.941955
6954.000000;1.942335
6953.000000;1.942982
6952.000000;1.943810
6951.000000;1.944114
6950.000000;1.943518
6949.000000;1.942738
6948.000000;1.942825
6947.000000;1.943882
6946.000000;1.944981
6945.000000;1.945268
6944.000000;1.944849
6943.000000;1.944486
6942.000000;1.944661
6941.000000;1.945157
6940.000000;1.945359
6939.000000;1.944874
6938.000000;1.943957
6937.000000;1.943201
6936.000000;1.942738
6935.000000;1.942025
6934.000000;1.940710
6933.000000;1.939404
6932.000000;1.939060
6931.000000;1.939767
6930.000000;1.940634
6929.000000;1.940876
6928.000000;1.940576
6927.000000;1.940310
6926.000000;1.940406
6925.000000;1.940726
6924.000000;1.940926
6923.000000;1.940783
6922.000000;1.940431
6921.000000;1.940260
6920.000000;1.940422
6919.000000;1.940589
6918.000000;1.940495
6917.000000;1.940505
6916.000000;1.941164
6915.000000;1.942251
6914.000000;1.942889
6913.000000;1.942643
6912.000000;1.941876
6911.000000;1.940930
6910.000000;1.939688
6909.000000;1.938293
6908.000000;1.937590
6907.000000;1.938242
6906.000000;1.939765
6905.000000;1.941033
6904.000000;1.941551
6903.000000;1.941701
6902.000000;1.941825
6901.000000;1.941582
6900.000000;1.940385
6899.000000;1.938191
6898.000000;1.935708
6897.000000;1.933920
6896.000000;1.933421
6895.000000;1.934013
6894.000000;1.934831
6893.000000;1.934928
6892.000000;1.933972
6891.000000;1.932579
6890.000000;1.931944
6889.000000;1.932810
6888.000000;1.934524
6887.000000;1.935383
6886.000000;1.934436
6885.000000;1.932700
6884.000000;1.931944
6883.000000;1.932469
6882.000000;1.932945
6881.000000;1.932471
6880.000000;1.931773
6879.000000;1.931832
6878.000000;1.932273
6877.000000;1.932004
6876.000000;1.930931
6875.000000;1.930041
6874.000000;1.929986
6873.000000;1.930431
6872.000000;1.930756
6871.000000;1.930698
6870.000000;1.930273
6869.000000;1.929668
6868.000000;1.929344
6867.000000;1.929688
6866.000000;1.930331
6865.000000;1.930382
6864.000000;1.929633
6863.000000;1.928972
6862.000000;1.929232
6861.000000;1.930028
6860.000000;1.930166
6859.000000;1.928992
6858.000000;1.926984
6857.000000;1.925018
6856.000000;1.923462
6855.000000;1.922107
6854.000000;1.920758
6853.000000;1.919635
6852.000000;1.919161
6851.000000;1.919474
6850.000000;1.920233
6849.000000;1.920864
6848.000000;1.920869
6847.000000;1.920005
6846.000000;1.918392
6845.000000;1.916557
6844.000000;1.915125
6843.000000;1.914222
6842.000000;1.913271
6841.000000;1.911699
6840.000000;1.909748
6839.000000;1.908310
6838.000000;1.907933
6837.000000;1.908280
6836.000000;1.908556
6835.000000;1.908248
6834.000000;1.907375
6833.000000;1.906294
6832.000000;1.905436
6831.000000;1.905055
6830.000000;1.904966
6829.000000;1.904542
6828.000000;1.903144
6827.000000;1.900634
6826.000000;1.897481
6825.000000;1.894477
6824.000000;1.892372
6823.000000;1.891585
6822.000000;1.891958
6821.000000;1.892687
6820.000000;1.892713
6819.000000;1.891469
6818.000000;1.889337
6817.000000;1.887293
6816.000000;1.885988
6815.000000;1.885206
6814.000000;1.884263
6813.000000;1.882799
6812.000000;1.880999
6811.000000;1.879148
6810.000000;1.877273
6809.000000;1.875281
6808.000000;1.873239
6807.000000;1.871385
6806.000000;1.869869
6805.000000;1.868598
6804.000000;1.867341
6803.000000;1.865982
6802.000000;1.864649
6801.000000;1.863489
6800.000000;1.862321
6799.000000;1.860707
6798.000000;1.858512
6797.000000;1.856231
6796.000000;1.854458
6795.000000;1.853079
6794.000000;1.851358
6793.000000;1.848906
6792.000000;1.846241
6791.000000;1.844214
6790.000000;1.843087
6789.000000;1.842325
6788.000000;1.841113
6787.000000;1.839008
6786.000000;1.836257
6785.000000;1.833599
6784.000000;1.831647
6783.000000;1.830340
6782.000000;1.829044
6781.000000;1.827162
6780.000000;1.824532
6779.000000;1.821335
6778.000000;1.818052
6777.000000;1.815571
6776.000000;1.814757
6775.000000;1.815490
6774.000000;1.816411
6773.000000;1.816060
6772.000000;1.814213
6771.000000;1.811829
6770.000000;1.809837
6769.000000;1.808334
6768.000000;1.806786
6767.000000;1.804613
6766.000000;1.801624
6765.000000;1.798260
6764.000000;1.795387
6763.000000;1.793521
6762.000000;1.792249
6761.000000;1.790670
6760.000000;1.788427
6759.000000;1.785988
6758.000000;1.783876
6757.000000;1.781981
6756.000000;1.779820
6755.000000;1.777252
6754.000000;1.774649
6753.000000;1.772361
6752.000000;1.770229
6751.000000;1.767777
6750.000000;1.764899
6749.000000;1.762195
6748.000000;1.760392
6747.000000;1.759477
6746.000000;1.758667
6745.000000;1.757343
6744.000000;1.755707
6743.000000;1.754258
6742.000000;1.752902
6741.000000;1.751000
6740.000000;1.748222
6739.000000;1.744966
6738.000000;1.741922
6737.000000;1.739545
6736.000000;1.737909
6735.000000;1.736748
6734.000000;1.735556
6733.000000;1.733932
6732.000000;1.731914
6731.000000;1.729831
6730.000000;1.727862
6729.000000;1.725914
6728.000000;1.723860
6727.000000;1.721622
6726.000000;1.719072
6725.000000;1.716180
6724.000000;1.713266
6723.000000;1.710814
6722.000000;1.708947
6721.000000;1.707340
6720.000000;1.705696
6719.000000;1.703967
6718.000000;1.702099
6717.000000;1.699979
6716.000000;1.697766
6715.000000;1.695847
6714.000000;1.694254
6713.000000;1.692499
6712.000000;1.690255
6711.000000;1.687855
6710.000000;1.685799
6709.000000;1.684086
6708.000000;1.682416
6707.000000;1.680766
6706.000000;1.679310
6705.000000;1.677900
6704.000000;1.676154
6703.000000;1.674003
6702.000000;1.671715
6701.000000;1.669367
6700.000000;1.666720
6699.000000;1.663736
6698.000000;1.660885
6697.000000;1.658718
6696.000000;1.657325
6695.000000;1.656256
6694.000000;1.654897
6693.000000;1.652865
6692.000000;1.650230
6691.000000;1.647448
6690.000000;1.644960
6689.000000;1.642837
6688.000000;1.640905
6687.000000;1.639116
6686.000000;1.637580
6685.000000;1.636253
6684.000000;1.634901
6683.000000;1.633473
6682.000000;1.632209
6681.000000;1.631198
6680.000000;1.630067
6679.000000;1.628375
6678.000000;1.626177
6677.000000;1.623931
6676.000000;1.621906
6675.000000;1.619949
6674.000000;1.617867
6673.000000;1.615811
6672.000000;1.614143
6671.000000;1.612990
6670.000000;1.612011
6669.000000;1.610649
6668.000000;1.608616
6667.000000;1.606126
6666.000000;1.603647
6665.000000;1.601485
6664.000000;1.599641
6663.000000;1.597977
6662.000000;1.596378
6661.000000;1.594753
6660.000000;1.593025
6659.000000;1.591202
6658.000000;1.589365
6657.000000;1.587551
6656.000000;1.585708
6655.000000;1.583815
6654.000000;1.581934
6653.000000;1.580094
6652.000000;1.578250
6651.000000;1.576420
6650.000000;1.574747
6649.000000;1.573295
6648.000000;1.571893
6647.000000;1.570324
6646.000000;1.568610
6645.000000;1.566932
6644.000000;1.565323
6643.000000;1.563630
6642.000000;1.561808
6641.000000;1.560092
6640.000000;1.558720
6639.000000;1.557578
6638.000000;1.556240
6637.000000;1.554390
6636.000000;1.552160
6635.000000;1.549978
6634.000000;1.548110
6633.000000;1.546435
6632.000000;1.544724
6631.000000;1.543026
6630.000000;1.541602
6629.000000;1.540467
6628.000000;1.539216
6627.000000;1.537472
6626.000000;1.535365
6625.000000;1.533375
6624.000000;1.531771
6623.000000;1.530398
6622.000000;1.528955
6621.000000;1.527276
6620.000000;1.525314
6619.000000;1.523093
6618.000000;1.520820
6617.000000;1.518860
6616.000000;1.517444
6615.000000;1.516441
6614.000000;1.515519
6613.000000;1.514450
6612.000000;1.513160
6611.000000;1.511603
6610.000000;1.509767
6609.000000;1.507800
6608.000000;1.505971
6607.000000;1.504403
6606.000000;1.502942
6605.000000;1.501369
6604.000000;1.499691
6603.000000;1.498159
6602.000000;1.497001
6601.000000;1.496177
6600.000000;1.495404
6599.000000;1.494405
6598.000000;1.493109
6597.000000;1.491614
6596.000000;1.490006
6595.000000;1.488281
6594.000000;1.486447
6593.000000;1.484647
6592.000000;1.483106
6591.000000;1.481937
6590.000000;1.481025
6589.000000;1.480124
6588.000000;1.479028
6587.000000;1.477641
6586.000000;1.475945
6585.000000;1.474000
6584.000000;1.472003
6583.000000;1.470252
6582.000000;1.468928
6581.000000;1.467909
6580.000000;1.466884
6579.000000;1.465667
6578.000000;1.464329
6577.000000;1.463001
6576.000000;1.461646
6575.000000;1.460139
6574.000000;1.458500
6573.000000;1.456918
6572.000000;1.455554
6571.000000;1.454403
6570.000000;1.453355
6569.000000;1.452276
6568.000000;1.451020
6567.000000;1.449491
6566.000000;1.447783
6565.000000;1.446170
6564.000000;1.444861
6563.000000;1.443794
6562.000000;1.442718
6561.000000;1.441475
6560.000000;1.440127
6559.000000;1.438854
6558.000000;1.437791
6557.000000;1.436931
6556.000000;1.436114
6555.000000;1.435104
6554.000000;1.433763
6553.000000;1.432182
6552.000000;1.430602
6551.000000;1.429215
6550.000000;1.428044
6549.000000;1.426988
6548.000000;1.425915
6547.000000;1.424700
6546.000000;1.423271
6545.000000;1.421670
6544.000000;1.420051
6543.000000;1.418600
6542.000000;1.417433
6541.000000;1.416539
6540.000000;1.415774
6539.000000;1.414932
6538.000000;1.413888
6537.000000;1.412690
6536.000000;1.411471
6535.000000;1.410269
6534.000000;1.409008
6533.000000;1.407674
6532.000000;1.406385
6531.000000;1.405220
6530.000000;1.404038
6529.000000;1.402617
6528.000000;1.400964
6527.000000;1.399390
6526.000000;1.398238
6525.000000;1.397584
6524.000000;1.397189
6523.000000;1.396702
6522.000000;1.395884
6521.000000;1.394747
6520.000000;1.393515
6519.000000;1.392403
6518.000000;1.391424
6517.000000;1.390415
6516.000000;1.389253
6515.000000;1.387964
6514.000000;1.386620
6513.000000;1.385259
6512.000000;1.383956
6511.000000;1.382873
6510.000000;1.382121
6509.000000;1.381623
6508.000000;1.381179
6507.000000;1.380631
6506.000000;1.379858
6505.000000;1.378740
6504.000000;1.377272
6503.000000;1.375699
6502.000000;1.374337
6501.000000;1.373241
6500.000000;1.372157
6499.000000;1.370879
6498.000000;1.369514
6497.000000;1.368348
6496.000000;1.367545
6495.000000;1.367033
6494.000000;1.366588
6493.000000;1.365946
6492.000000;1.364932
6491.000000;1.363602
6490.000000;1.362205
6489.000000;1.360948
6488.000000;1.359840
6487.000000;1.358832
6486.000000;1.357987
6485.000000;1.357373
6484.000000;1.356854
6483.000000;1.356150
6482.000000;1.355140
6481.000000;1.353983
6480.000000;1.352902
6479.000000;1.351945
6478.000000;1.350999
6477.000000;1.349975
6476.000000;1.348902
6475.000000;1.347870
6474.000000;1.346927
6473.000000;1.346036
6472.000000;1.345125
6471.000000;1.344167
6470.000000;1.343203
6469.000000;1.342282
6468.000000;1.341426
6467.000000;1.340658
6466.000000;1.340004
6465.000000;1.339412
6464.000000;1.338728
6463.000000;1.337831
6462.000000;1.336759
6461.000000;1.335637
6460.000000;1.334546
6459.000000;1.333533
6458.000000;1.332690
6457.000000;1.332075
6456.000000;1.331549
6455.000000;1.330849
6454.000000;1.329882
6453.000000;1.328829
6452.000000;1.327915
6451.000000;1.327156
6450.000000;1.326418
6449.000000;1.325624
6448.000000;1.324793
6447.000000;1.323924
6446.000000;1.322968
6445.000000;1.321940
6444.000000;1.320958
6443.000000;1.320092
6442.000000;1.319236
6441.000000;1.318201
6440.000000;1.316949
6439.000000;1.315702
6438.000000;1.314756
6437.000000;1.314210
6436.000000;1.313892
6435.000000;1.313550
6434.000000;1.313066
6433.000000;1.312471
6432.000000;1.311823
6431.000000;1.311138
6430.000000;1.310404
6429.000000;1.309615
6428.000000;1.308805
6427.000000;1.308086
6426.000000;1.307569
6425.000000;1.307202
6424.000000;1.306751
6423.000000;1.306036
6422.000000;1.305139
6421.000000;1.304263
6420.000000;1.303423
6419.000000;1.302468
6418.000000;1.301405
6417.000000;1.300486
6416.000000;1.299890
6415.000000;1.299452
6414.000000;1.298853
6413.000000;1.297987
6412.000000;1.297021
6411.000000;1.296139
6410.000000;1.295380
6409.000000;1.294691
6408.000000;1.294029
6407.000000;1.293358
6406.000000;1.292646
6405.000000;1.291912
6404.000000;1.291219
6403.000000;1.290587
6402.000000;1.289952
6401.000000;1.289230
6400.000000;1.288420
6399.000000;1.287616
6398.000000;1.286933
6397.000000;1.286396
6396.000000;1.285901
6395.000000;1.285298
6394.000000;1.284537
6393.000000;1.283721
6392.000000;1.282970
6391.000000;1.282301
6390.000000;1.281650
6389.000000;1.280990
6388.000000;1.280350
6387.000000;1.279719
6386.000000;1.279030
6385.000000;1.278284
6384.000000;1.277603
6383.000000;1.277104
6382.000000;1.276715
6381.000000;1.276207
6380.000000;1.275434
6379.000000;1.274522
6378.000000;1.273767
6377.000000;1.273323
6376.000000;1.273038
6375.000000;1.272612
6374.000000;1.271920
6373.000000;1.271138
6372.000000;1.270530
6371.000000;1.270145
6370.000000;1.269779
6369.000000;1.269230
6368.000000;1.268513
6367.000000;1.267788
6366.000000;1.267113
6365.000000;1.266386
6364.000000;1.265541
6363.000000;1.264703
6362.000000;1.264071
6361.000000;1.263682
6360.000000;1.263376
6359.000000;1.262986
6358.000000;1.262467
6357.000000;1.261856
6356.000000;1.261185
6355.000000;1.260506
6354.000000;1.259875
6353.000000;1.259269
6352.000000;1.258572
6351.000000;1.257747
6350.000000;1.256937
6349.000000;1.256315
6348.000000;1.255881
6347.000000;1.255505
6346.000000;1.255134
6345.000000;1.254809
6344.000000;1.254500
6343.000000;1.254061
6342.000000;1.253414
6341.000000;1.252667
6340.000000;1.251980
6339.000000;1.251411
6338.000000;1.250913
6337.000000;1.250430
6336.000000;1.249923
6335.000000;1.249371
6334.000000;1.248808
6333.000000;1.248322
6332.000000;1.247959
6331.000000;1.247660
6330.000000;1.247319
6329.000000;1.246867
6328.000000;1.246287
6327.000000;1.245607
6326.000000;1.244926
6325.000000;1.244375
6324.000000;1.243993
6323.000000;1.243671
6322.000000;1.243287
6321.000000;1.242840
6320.000000;1.242425
6319.000000;1.242101
6318.000000;1.241828
6317.000000;1.241522
6316.000000;1.241104
6315.000000;1.240552
6314.000000;1.239925
6313.000000;1.239309
6312.000000;1.238711
6311.000000;1.238052
6310.000000;1.237324
6309.000000;1.236679
6308.000000;1.236282
6307.000000;1.236097
6306.000000;1.235929
6305.000000;1.235636
6304.000000;1.235217
6303.000000;1.234706
6302.000000;1.234092
6301.000000;1.233407
6300.000000;1.232768
6299.000000;1.232264
6298.000000;1.231844
6297.000000;1.231412
6296.000000;1.230985
6295.000000;1.230668
6294.000000;1.230474
6293.000000;1.230249
6292.000000;1.229836
6291.000000;1.229264
6290.000000;1.228703
6289.000000;1.228259
6288.000000;1.227877
6287.000000;1.227462
6286.000000;1.227034
6285.000000;1.226680
6284.000000;1.226416
6283.000000;1.226146
6282.000000;1.225787
6281.000000;1.225355
6280.000000;1.224898
6279.000000;1.224425
6278.000000;1.223923
6277.000000;1.223407
6276.000000;1.222915
6275.000000;1.222455
6274.000000;1.222004
6273.000000;1.221545
6272.000000;1.221099
6271.000000;1.220734
6270.000000;1.220539
6269.000000;1.220514
6268.000000;1.220489
6267.000000;1.220227
6266.000000;1.219671
6265.000000;1.219030
6264.000000;1.218553
6263.000000;1.218259
6262.000000;1.217974
6261.000000;1.217586
6260.000000;1.217162
6259.000000;1.216807
6258.000000;1.216528
6257.000000;1.216282
6256.000000;1.216066
6255.000000;1.215877
6254.000000;1.215643
6253.000000;1.215273
6252.000000;1.214771
6251.000000;1.214243
6250.000000;1.213794
6249.000000;1.213466
6248.000000;1.213242
6247.000000;1.213076
6246.000000;1.212896
6245.000000;1.212643
6244.000000;1.212333
6243.000000;1.212027
6242.000000;1.211730
6241.000000;1.211365
6240.000000;1.210874
6239.000000;1.210331
6238.000000;1.209888
6237.000000;1.209608
6236.000000;1.209401
6235.000000;1.209127
6234.000000;1.208715
6233.000000;1.208191
6232.000000;1.207642
6231.000000;1.207178
6230.000000;1.206878
6229.000000;1.206715
6228.000000;1.206569
6227.000000;1.206362
6226.000000;1.206131
6225.000000;1.205951
6224.000000;1.205803
6223.000000;1.205596
6222.000000;1.205285
6221.000000;1.204902
6220.000000;1.204495
6219.000000;1.204094
6218.000000;1.203751
6217.000000;1.203522
6216.000000;1.203397
6215.000000;1.203291
6214.000000;1.203140
6213.000000;1.202952
6212.000000;1.202745
6211.000000;1.202497
6210.000000;1.202191
6209.000000;1.201859
6208.000000;1.201562
6207.000000;1.201334
6206.000000;1.201153
6205.000000;1.200944
6204.000000;1.200598
6203.000000;1.200081
6202.000000;1.199521
6201.000000;1.199113
6200.000000;1.198912
6199.000000;1.198790
6198.000000;1.198616
6197.000000;1.198393
6196.000000;1.198151
6195.000000;1.197838
6194.000000;1.197408
6193.000000;1.196972
6192.000000;1.196703
6191.000000;1.196620
6190.000000;1.196565
6189.000000;1.196407
6188.000000;1.196160
6187.000000;1.195890
6186.000000;1.195613
6185.000000;1.195318
6184.000000;1.195025
6183.000000;1.194766
6182.000000;1.194543
6181.000000;1.194336
6180.000000;1.194136
6179.000000;1.193950
6178.000000;1.193782
6177.000000;1.193635
6176.000000;1.193499
6175.000000;1.193349
6174.000000;1.193177
6173.000000;1.193022
6172.000000;1.192918
6171.000000;1.192824
6170.000000;1.192651
6169.000000;1.192363
6168.000000;1.192021
6167.000000;1.191714
6166.000000;1.191474
6165.000000;1.191276
6164.000000;1.191081
6163.000000;1.190861
6162.000000;1.190610
6161.000000;1.190361
6160.000000;1.190164
6159.000000;1.190049
6158.000000;1.190009
6157.000000;1.189996
6156.000000;1.189923
6155.000000;1.189699
6154.000000;1.189304
6153.000000;1.188836
6152.000000;1.188433
6151.000000;1.188148
6150.000000;1.187936
6149.000000;1.187766
6148.000000;1.187670
6147.000000;1.187669
6146.000000;1.187712
6145.000000;1.187705
6144.000000;1.187599
6143.000000;1.187383
6142.000000;1.187067
6141.000000;1.186691
6140.000000;1.186345
6139.000000;1.186135
6138.000000;1.186109
6137.000000;1.186216
6136.000000;1.186325
6135.000000;1.186285
6134.000000;1.186021
6133.000000;1.185603
6132.000000;1.185206
6131.000000;1.184956
6130.000000;1.184845
6129.000000;1.184794
6128.000000;1.184760
6127.000000;1.184756
6126.000000;1.184774
6125.000000;1.184764
6124.000000;1.184682
6123.000000;1.184528
6122.000000;1.184328
6121.000000;1.184103
6120.000000;1.183865
6119.000000;1.183626
6118.000000;1.183387
6117.000000;1.183125
6116.000000;1.182810
6115.000000;1.182445
6114.000000;1.182078
6113.000000;1.181773
6112.000000;1.181565
6111.000000;1.181441
6110.000000;1.181387
6109.000000;1.181421
6108.000000;1.181550
6107.000000;1.181700
6106.000000;1.181736
6105.000000;1.181588
6104.000000;1.181320
6103.000000;1.181049
6102.000000;1.180821
6101.000000;1.180604
6100.000000;1.180369
6099.000000;1.180133
6098.000000;1.179917
6097.000000;1.179726
6096.000000;1.179578
6095.000000;1.179520
6094.000000;1.179561
6093.000000;1.179617
6092.000000;1.179575
6091.000000;1.179412
6090.000000;1.179233
6089.000000;1.179150
6088.000000;1.179147
6087.000000;1.179081
6086.000000;1.178847
6085.000000;1.178514
6084.000000;1.178280
6083.000000;1.178263
6082.000000;1.178377
6081.000000;1.178436
6080.000000;1.178350
6079.000000;1.178187
6078.000000;1.178038
6077.000000;1.177910
6076.000000;1.177769
6075.000000;1.177624
6074.000000;1.177520
6073.000000;1.177465
6072.000000;1.177418
6071.000000;1.177349
6070.000000;1.177272
6069.000000;1.177207
6068.000000;1.177162
6067.000000;1.177133
6066.000000;1.177111
6065.000000;1.177070
6064.000000;1.176989
6063.000000;1.176897
6062.000000;1.176845
6061.000000;1.176828
6060.000000;1.176779
6059.000000;1.176657
6058.000000;1.176513
6057.000000;1.176413
6056.000000;1.176346
6055.000000;1.176242
6054.000000;1.176080
6053.000000;1.175911
6052.000000;1.175786
6051.000000;1.175710
6050.000000;1.175676
6049.000000;1.175700
6048.000000;1.175776
6047.000000;1.175839
6046.000000;1.175809
6045.000000;1.175666
6044.000000;1.175462
6043.000000;1.175262
6042.000000;1.175101
6041.000000;1.174990
6040.000000;1.174941
6039.000000;1.174950
6038.000000;1.174987
6037.000000;1.175019
6036.000000;1.175059
6035.000000;1.175150
6034.000000;1.175298
6033.000000;1.175430
6032.000000;1.175457
6031.000000;1.175381
6030.000000;1.175318
6029.000000;1.175392
6028.000000;1.175612
6027.000000;1.175870
6026.000000;1.176036
6025.000000;1.176048
6024.000000;1.175927
6023.000000;1.175746
6022.000000;1.175591
6021.000000;1.175504
6020.000000;1.175447
6019.000000;1.175345
6018.000000;1.175175
6017.000000;1.175003
6016.000000;1.174923
6015.000000;1.174955
6014.000000;1.175035
6013.000000;1.175082
6012.000000;1.175073
6011.000000;1.175050
6010.000000;1.175074
6009.000000;1.175163
6008.000000;1.175278
6007.000000;1.175369
6006.000000;1.175444
6005.000000;1.175570
6004.000000;1.175792
6003.000000;1.176058
6002.000000;1.176257
6001.000000;1.176330
6000.000000;1.176320
5999.000000;1.176294
5998.000000;1.176258
5997.000000;1.176168
5996.000000;1.176025
5995.000000;1.175903
5994.000000;1.175893
5993.000000;1.176019
5992.000000;1.176240
5991.000000;1.176494
5990.000000;1.176722
5989.000000;1.176878
5988.000000;1.176945
5987.000000;1.176959
5986.000000;1.176977
5985.000000;1.177025
5984.000000;1.177090
5983.000000;1.177167
5982.000000;1.177273
5981.000000;1.177407
5980.000000;1.177541
5979.000000;1.177670
5978.000000;1.177851
5977.000000;1.178123
5976.000000;1.178426
5975.000000;1.178639
5974.000000;1.178721
5973.000000;1.178770
5972.000000;1.178912
5971.000000;1.179170
5970.000000;1.179451
5969.000000;1.179655
5968.000000;1.179771
5967.000000;1.179854
5966.000000;1.179951
5965.000000;1.180064
5964.000000;1.180191
5963.000000;1.180375
5962.000000;1.180666
5961.000000;1.181044
5960.000000;1.181408
5959.000000;1.181675
5958.000000;1.181858
5957.000000;1.182010
5956.000000;1.182146
5955.000000;1.182254
5954.000000;1.182370
5953.000000;1.182574
5952.000000;1.182888
5951.000000;1.183229
5950.000000;1.183503
5949.000000;1.183699
5948.000000;1.183897
5947.000000;1.184191
5946.000000;1.184615
5945.000000;1.185115
5944.000000;1.185573
5943.000000;1.185890
5942.000000;1.186063
5941.000000;1.186169
5940.000000;1.186284
5939.000000;1.186432
5938.000000;1.186643
5937.000000;1.186972
5936.000000;1.187435
5935.000000;1.187934
5934.000000;1.188316
5933.000000;1.188508
5932.000000;1.188562
5931.000000;1.188594
5930.000000;1.188691
5929.000000;1.188875
5928.000000;1.189110
5927.000000;1.189334
5926.000000;1.189505
5925.000000;1.189639
5924.000000;1.189782
5923.000000;1.189965
5922.000000;1.190181
5921.000000;1.190413
5920.000000;1.190664
5919.000000;1.190939
5918.000000;1.191216
5917.000000;1.191441
5916.000000;1.191585
5915.000000;1.191668
5914.000000;1.191736
5913.000000;1.191798
5912.000000;1.191806
5911.000000;1.191727
5910.000000;1.191614
5909.000000;1.191582
5908.000000;1.191696
5907.000000;1.191912
5906.000000;1.192131
5905.000000;1.192286
5904.000000;1.192375
5903.000000;1.192423
5902.000000;1.192457
5901.000000;1.192512
5900.000000;1.192607
5899.000000;1.192715
5898.000000;1.192783
5897.000000;1.192803
5896.000000;1.192863
5895.000000;1.193078
5894.000000;1.193456
5893.000000;1.193850
5892.000000;1.194073
5891.000000;1.194065
5890.000000;1.193934
5889.000000;1.193833
5888.000000;1.193837
5887.000000;1.193932
5886.000000;1.194080
5885.000000;1.194234
5884.000000;1.194333
5883.000000;1.194341
5882.000000;1.194312
5881.000000;1.194357
5880.000000;1.194520
5879.000000;1.194731
5878.000000;1.194891
5877.000000;1.194995
5876.000000;1.195119
5875.000000;1.195316
5874.000000;1.195547
5873.000000;1.195728
5872.000000;1.195823
5871.000000;1.195901
5870.000000;1.196083
5869.000000;1.196430
5868.000000;1.196867
5867.000000;1.197261
5866.000000;1.197549
5865.000000;1.197784
5864.000000;1.198060
5863.000000;1.198428
5862.000000;1.198871
5861.000000;1.199320
5860.000000;1.199673
5859.000000;1.199855
5858.000000;1.199904
5857.000000;1.199963
5856.000000;1.200146
5855.000000;1.200438
5854.000000;1.200755
5853.000000;1.201064
5852.000000;1.201415
5851.000000;1.201874
5850.000000;1.202464
5849.000000;1.203143
5848.000000;1.203814
5847.000000;1.204363
5846.000000;1.204733
5845.000000;1.204967
5844.000000;1.205159
5843.000000;1.205376
5842.000000;1.205642
5841.000000;1.205983
5840.000000;1.206428
5839.000000;1.206966
5838.000000;1.207528
5837.000000;1.208043
5836.000000;1.208493
5835.000000;1.208922
5834.000000;1.209385
5833.000000;1.209885
5832.000000;1.210358
5831.000000;1.210743
5830.000000;1.211054
5829.000000;1.211372
5828.000000;1.211738
5827.000000;1.212132
5826.000000;1.212541
5825.000000;1.213004
5824.000000;1.213537
5823.000000;1.214072
5822.000000;1.214548
5821.000000;1.215022
5820.000000;1.215601
5819.000000;1.216280
5818.000000;1.216938
5817.000000;1.217498
5816.000000;1.217989
5815.000000;1.218450
5814.000000;1.218850
5813.000000;1.219173
5812.000000;1.219491
5811.000000;1.219882
5810.000000;1.220328
5809.000000;1.220760
5808.000000;1.221190
5807.000000;1.221702
5806.000000;1.222336
5805.000000;1.223026
5804.000000;1.223672
5803.000000;1.224236
5802.000000;1.224755
5801.000000;1.225276
5800.000000;1.225814
5799.000000;1.226352
5798.000000;1.226896
5797.000000;1.227499
5796.000000;1.228198
5795.000000;1.228929
5794.000000;1.229539
5793.000000;1.229938
5792.000000;1.230212
5791.000000;1.230538
5790.000000;1.231015
5789.000000;1.231608
5788.000000;1.232239
5787.000000;1.232859
5786.000000;1.233440
5785.000000;1.233958
5784.000000;1.234423
5783.000000;1.234894
5782.000000;1.235432
5781.000000;1.236044
5780.000000;1.236684
5779.000000;1.237302
5778.000000;1.237874
5777.000000;1.238414
5776.000000;1.238938
5775.000000;1.239439
5774.000000;1.239886
5773.000000;1.240279
5772.000000;1.240687
5771.000000;1.241183
5770.000000;1.241754
5769.000000;1.242316
5768.000000;1.242839
5767.000000;1.243403
5766.000000;1.244101
5765.000000;1.244893
5764.000000;1.245623
5763.000000;1.246182
5762.000000;1.246610
5761.000000;1.247025
5760.000000;1.247488
5759.000000;1.247980
5758.000000;1.248477
5757.000000;1.249016
5756.000000;1.249642
5755.000000;1.250331
5754.000000;1.251007
5753.000000;1.251628
5752.000000;1.252230
5751.000000;1.252871
5750.000000;1.253555
5749.000000;1.254248
5748.000000;1.254935
5747.000000;1.255608
5746.000000;1.256220
5745.000000;1.256709
5744.000000;1.257102
5743.000000;1.257535
5742.000000;1.258136
5741.000000;1.258887
5740.000000;1.259638
5739.000000;1.260262
5738.000000;1.260770
5737.000000;1.261277
5736.000000;1.261876
5735.000000;1.262547
5734.000000;1.263166
5733.000000;1.263613
5732.000000;1.263882
5731.000000;1.264083
5730.000000;1.264361
5729.000000;1.264792
5728.000000;1.265350
5727.000000;1.265954
5726.000000;1.266549
5725.000000;1.267158
5724.000000;1.267869
5723.000000;1.268727
5722.000000;1.269633
5721.000000;1.270393
5720.000000;1.270912
5719.000000;1.271323
5718.000000;1.271860
5717.000000;1.272609
5716.000000;1.273444
5715.000000;1.274191
5714.000000;1.274805
5713.000000;1.275364
5712.000000;1.275949
5711.000000;1.276589
5710.000000;1.277280
5709.000000;1.278002
5708.000000;1.278705
5707.000000;1.279344
5706.000000;1.279925
5705.000000;1.280519
5704.000000;1.281191
5703.000000;1.281925
5702.000000;1.282638
5701.000000;1.283264
5700.000000;1.283813
5699.000000;1.284354
5698.000000;1.284916
5697.000000;1.285453
5696.000000;1.285922
5695.000000;1.286378
5694.000000;1.286939
5693.000000;1.287648
5692.000000;1.288432
5691.000000;1.289201
5690.000000;1.289965
5689.000000;1.290786
5688.000000;1.291649
5687.000000;1.292433
5686.000000;1.293050
5685.000000;1.293544
5684.000000;1.294047
5683.000000;1.294650
5682.000000;1.295331
5681.000000;1.296009
5680.000000;1.296624
5679.000000;1.297195
5678.000000;1.297795
5677.000000;1.298477
5676.000000;1.299225
5675.000000;1.299952
5674.000000;1.300567
5673.000000;1.301043
5672.000000;1.301448
5671.000000;1.301902
5670.000000;1.302503
5669.000000;1.303248
5668.000000;1.304055
5667.000000;1.304847
5666.000000;1.305619
5665.000000;1.306396
5664.000000;1.307131
5663.000000;1.307711
5662.000000;1.308074
5661.000000;1.308310
5660.000000;1.308599
5659.000000;1.309061
5658.000000;1.309671
5657.000000;1.310330
5656.000000;1.310972
5655.000000;1.311583
5654.000000;1.312137
5653.000000;1.312567
5652.000000;1.312850
5651.000000;1.313079
5650.000000;1.313408
5649.000000;1.313894
5648.000000;1.314457
5647.000000;1.315013
5646.000000;1.315602
5645.000000;1.316309
5644.000000;1.317080
5643.000000;1.317724
5642.000000;1.318132
5641.000000;1.318418
5640.000000;1.318793
5639.000000;1.319344
5638.000000;1.319992
5637.000000;1.320627
5636.000000;1.321199
5635.000000;1.321701
5634.000000;1.322145
5633.000000;1.322581
5632.000000;1.323089
5631.000000;1.323706
5630.000000;1.324393
5629.000000;1.325075
5628.000000;1.325690
5627.000000;1.326197
5626.000000;1.326597
5625.000000;1.326953
5624.000000;1.327359
5623.000000;1.327822
5622.000000;1.328247
5621.000000;1.328572
5620.000000;1.328868
5619.000000;1.329233
5618.000000;1.329630
5617.000000;1.329918
5616.000000;1.330076
5615.000000;1.330278
5614.000000;1.330713
5613.000000;1.331369
5612.000000;1.332041
5611.000000;1.332527
5610.000000;1.332770
5609.000000;1.332857
5608.000000;1.332939
5607.000000;1.333158
5606.000000;1.333570
5605.000000;1.334116
5604.000000;1.334658
5603.000000;1.335073
5602.000000;1.335347
5601.000000;1.335578
5600.000000;1.335886
5599.000000;1.336292
5598.000000;1.336691
5597.000000;1.336952
5596.000000;1.337038
5595.000000;1.337030
5594.000000;1.337051
5593.000000;1.337215
5592.000000;1.337587
5591.000000;1.338120
5590.000000;1.338618
5589.000000;1.338872
5588.000000;1.338875
5587.000000;1.338838
5586.000000;1.338926
5585.000000;1.339065
5584.000000;1.339086
5583.000000;1.339002
5582.000000;1.339023
5581.000000;1.339293
5580.000000;1.339737
5579.000000;1.340167
5578.000000;1.340459
5577.000000;1.340598
5576.000000;1.340646
5575.000000;1.340695
5574.000000;1.340799
5573.000000;1.340900
5572.000000;1.340894
5571.000000;1.340795
5570.000000;1.340759
5569.000000;1.340901
5568.000000;1.341159
5567.000000;1.341409
5566.000000;1.341629
5565.000000;1.341877
5564.000000;1.342137
5563.000000;1.342306
5562.000000;1.342317
5561.000000;1.342201
5560.000000;1.342013
5559.000000;1.341781
5558.000000;1.341541
5557.000000;1.341363
5556.000000;1.341300
5555.000000;1.341338
5554.000000;1.341429
5553.000000;1.341526
5552.000000;1.341602
5551.000000;1.341667
5550.000000;1.341766
5549.000000;1.341926
5548.000000;1.342082
5547.000000;1.342126
5546.000000;1.342042
5545.000000;1.341948
5544.000000;1.341967
5543.000000;1.342083
5542.000000;1.342191
5541.000000;1.342259
5540.000000;1.342368
5539.000000;1.342603
5538.000000;1.342944
5537.000000;1.343272
5536.000000;1.343466
5535.000000;1.343488
5534.000000;1.343412
5533.000000;1.343382
5532.000000;1.343500
5531.000000;1.343722
5530.000000;1.343879
5529.000000;1.343843
5528.000000;1.343676
5527.000000;1.343577
5526.000000;1.343667
5525.000000;1.343860
5524.000000;1.343975
5523.000000;1.343933
5522.000000;1.343802
5521.000000;1.343672
5520.000000;1.343569
5519.000000;1.343511
5518.000000;1.343549
5517.000000;1.343680
5516.000000;1.343786
5515.000000;1.343760
5514.000000;1.343665
5513.000000;1.343690
5512.000000;1.343913
5511.000000;1.344203
5510.000000;1.344375
5509.000000;1.344393
5508.000000;1.344366
5507.000000;1.344401
5506.000000;1.344516
5505.000000;1.344679
5504.000000;1.344867
5503.000000;1.345043
5502.000000;1.345157
5501.000000;1.345192
5500.000000;1.345201
5499.000000;1.345282
5498.000000;1.345478
5497.000000;1.345685
5496.000000;1.345747
5495.000000;1.345641
5494.000000;1.345549
5493.000000;1.345672
5492.000000;1.345978
5491.000000;1.346229
5490.000000;1.346317
5489.000000;1.346435
5488.000000;1.346817
5487.000000;1.347398
5486.000000;1.347863
5485.000000;1.348016
5484.000000;1.347959
5483.000000;1.347904
5482.000000;1.347962
5481.000000;1.348177
5480.000000;1.348569
5479.000000;1.349040
5478.000000;1.349372
5477.000000;1.349460
5476.000000;1.349517
5475.000000;1.349887
5474.000000;1.350598
5473.000000;1.351319
5472.000000;1.351809
5471.000000;1.352199
5470.000000;1.352709
5469.000000;1.353283
5468.000000;1.353667
5467.000000;1.353768
5466.000000;1.353771
5465.000000;1.353878
5464.000000;1.354108
5463.000000;1.354388
5462.000000;1.354735
5461.000000;1.355249
5460.000000;1.355928
5459.000000;1.356620
5458.000000;1.357202
5457.000000;1.357734
5456.000000;1.358370
5455.000000;1.359174
5454.000000;1.360023
5453.000000;1.360718
5452.000000;1.361202
5451.000000;1.361639
5450.000000;1.362210
5449.000000;1.362867
5448.000000;1.363386
5447.000000;1.363736
5446.000000;1.364211
5445.000000;1.365040
5444.000000;1.366058
5443.000000;1.366968
5442.000000;1.367802
5441.000000;1.368866
5440.000000;1.370190
5439.000000;1.371346
5438.000000;1.371959
5437.000000;1.372225
5436.000000;1.372717
5435.000000;1.373791
5434.000000;1.375237
5433.000000;1.376498
5432.000000;1.377260
5431.000000;1.377786
5430.000000;1.378593
5429.000000;1.379885
5428.000000;1.381403
5427.000000;1.382815
5426.000000;1.384122
5425.000000;1.385600
5424.000000;1.387381
5423.000000;1.389253
5422.000000;1.390879
5421.000000;1.392145
5420.000000;1.393258
5419.000000;1.394525
5418.000000;1.396039
5417.000000;1.397611
5416.000000;1.399035
5415.000000;1.400362
5414.000000;1.401794
5413.000000;1.403353
5412.000000;1.404877
5411.000000;1.406416
5410.000000;1.408326
5409.000000;1.410790
5408.000000;1.413489
5407.000000;1.416013
5406.000000;1.418395
5405.000000;1.420936
5404.000000;1.423656
5403.000000;1.426208
5402.000000;1.428337
5401.000000;1.430143
5400.000000;1.431935
5399.000000;1.433990
5398.000000;1.436416
5397.000000;1.439154
5396.000000;1.442061
5395.000000;1.445088
5394.000000;1.448375
5393.000000;1.451998
5392.000000;1.455729
5391.000000;1.459245
5390.000000;1.462508
5389.000000;1.465757
5388.000000;1.469172
5387.000000;1.472767
5386.000000;1.476540
5385.000000;1.480493
5384.000000;1.484517
5383.000000;1.488493
5382.000000;1.492507
5381.000000;1.496708
5380.000000;1.501059
5379.000000;1.505427
5378.000000;1.509863
5377.000000;1.514582
5376.000000;1.519627
5375.000000;1.524792
5374.000000;1.529963
5373.000000;1.535297
5372.000000;1.540949
5371.000000;1.546846
5370.000000;1.552848
5369.000000;1.558946
5368.000000;1.565155
5367.000000;1.571427
5366.000000;1.577802
5365.000000;1.584475
5364.000000;1.591567
5363.000000;1.598987
5362.000000;1.606591
5361.000000;1.614355
5360.000000;1.622316
5359.000000;1.630434
5358.000000;1.638637
5357.000000;1.646938
5356.000000;1.655396
5355.000000;1.664035
5354.000000;1.672846
5353.000000;1.681805
5352.000000;1.690902
5351.000000;1.700259
5350.000000;1.710160
5349.000000;1.720697
5348.000000;1.731507
5347.000000;1.742196
5346.000000;1.752939
5345.000000;1.764330
5344.000000;1.776586
5343.000000;1.789205
5342.000000;1.801613
5341.000000;1.813876
5340.000000;1.826501
5339.000000;1.839813
5338.000000;1.853772
5337.000000;1.868086
5336.000000;1.882364
5335.000000;1.896489
5334.000000;1.910942
5333.000000;1.926432
5332.000000;1.943074
5331.000000;1.960282
5330.000000;1.977599
5329.000000;1.995308
5328.000000;2.013965
5327.000000;2.033481
5326.000000;2.053026
5325.000000;2.071888
5324.000000;2.090239
5323.000000;2.108984
5322.000000;2.128947
5321.000000;2.150112
5320.000000;2.171582
5319.000000;2.192403
5318.000000;2.212438
5317.000000;2.232367
5316.000000;2.253078
5315.000000;2.275377
5314.000000;2.299922
5313.000000;2.326642
5312.000000;2.354050
5311.000000;2.379912
5310.000000;2.403124
5309.000000;2.424483
5308.000000;2.445342
5307.000000;2.466189
5306.000000;2.486904
5305.000000;2.507810
5304.000000;2.529762
5303.000000;2.553196
5302.000000;2.577289
5301.000000;2.600222
5300.000000;2.620748
5299.000000;2.639625
5298.000000;2.658917
5297.000000;2.679877
5296.000000;2.702154
5295.000000;2.724860
5294.000000;2.747100
5293.000000;2.767101
5292.000000;2.782570
5291.000000;2.793299
5290.000000;2.802401
5289.000000;2.813487
5288.000000;2.827316
5287.000000;2.842149
5286.000000;2.855751
5285.000000;2.865730
5284.000000;2.870450
5283.000000;2.872150
5282.000000;2.876886
5281.000000;2.888457
5280.000000;2.903456
5279.000000;2.914756
5278.000000;2.919663
5277.000000;2.921741
5276.000000;2.925134
5275.000000;2.930393
5274.000000;2.935928
5273.000000;2.940482
5272.000000;2.942850
5271.000000;2.941595
5270.000000;2.937055
5269.000000;2.931977
5268.000000;2.928845
5267.000000;2.927847
5266.000000;2.927669
5265.000000;2.927300
5264.000000;2.927346
5263.000000;2.930059
5262.000000;2.937423
5261.000000;2.948506
5260.000000;2.959058
5259.000000;2.964628
5258.000000;2.964125
5257.000000;2.959670
5256.000000;2.954195
5255.000000;2.950363
5254.000000;2.949953
5253.000000;2.953289
5252.000000;2.959196
5251.000000;2.965582
5250.000000;2.970817
5249.000000;2.973479
5248.000000;2.971810
5247.000000;2.965632
5246.000000;2.957335
5245.000000;2.950041
5244.000000;2.945987
5243.000000;2.946390
5242.000000;2.950804
5241.000000;2.956276
5240.000000;2.959566
5239.000000;2.961064
5238.000000;2.963802
5237.000000;2.968148
5236.000000;2.970621
5235.000000;2.969112
5234.000000;2.966378
5233.000000;2.965912
5232.000000;2.966904
5231.000000;2.966010
5230.000000;2.962655
5229.000000;2.959796
5228.000000;2.960196
5227.000000;2.964134
5226.000000;2.969551
5225.000000;2.972663
5224.000000;2.970086
5223.000000;2.962476
5222.000000;2.954911
5221.000000;2.951993
5220.000000;2.953411
5219.000000;2.955692
5218.000000;2.957284
5217.000000;2.959008
5216.000000;2.960510
5215.000000;2.960426
5214.000000;2.959950
5213.000000;2.962266
5212.000000;2.967696
5211.000000;2.972188
5210.000000;2.972079
5209.000000;2.968722
5208.000000;2.966078
5207.000000;2.965794
5206.000000;2.966882
5205.000000;2.968111
5204.000000;2.968836
5203.000000;2.968323
5202.000000;2.965917
5201.000000;2.962524
5200.000000;2.961077
5199.000000;2.964279
5198.000000;2.971421
5197.000000;2.977703
5196.000000;2.977948
5195.000000;2.971788
5194.000000;2.963719
5193.000000;2.957869
5192.000000;2.954371
5191.000000;2.950744
5190.000000;2.945608
5189.000000;2.940551
5188.000000;2.938736
5187.000000;2.941952
5186.000000;2.948462
5185.000000;2.953864
5184.000000;2.955585
5183.000000;2.956423
5182.000000;2.961047
5181.000000;2.968793
5180.000000;2.972673
5179.000000;2.967518
5178.000000;2.957226
5177.000000;2.950857
5176.000000;2.953943
5175.000000;2.965237
5174.000000;2.979092
5173.000000;2.989328
5172.000000;2.992375
5171.000000;2.989067
5170.000000;2.983530
5169.000000;2.979251
5168.000000;2.976605
5167.000000;2.974239
5166.000000;2.971462
5165.000000;2.968592
5164.000000;2.966023
5163.000000;2.964124
5162.000000;2.963479
5161.000000;2.963901
5160.000000;2.963926
5159.000000;2.962994
5158.000000;2.962842
5157.000000;2.964883
5156.000000;2.967586
5155.000000;2.968062
5154.000000;2.965620
5153.000000;2.962315
5152.000000;2.960384
5151.000000;2.960518
5150.000000;2.962214
5149.000000;2.964346
5148.000000;2.965579
5147.000000;2.965404
5146.000000;2.964563
5145.000000;2.964042
5144.000000;2.963800
5143.000000;2.963244
5142.000000;2.962840
5141.000000;2.963987
5140.000000;2.967628
5139.000000;2.973634
5138.000000;2.980664
5137.000000;2.985710
5136.000000;2.985223
5135.000000;2.978178
5134.000000;2.967524
5133.000000;2.958113
5132.000000;2.953519
5131.000000;2.954509
5130.000000;2.958791
5129.000000;2.961842
5128.000000;2.960557
5127.000000;2.956846
5126.000000;2.955601
5125.000000;2.959097
5124.000000;2.964693
5123.000000;2.968873
5122.000000;2.972415
5121.000000;2.978604
5120.000000;2.987229
5119.000000;2.993916
5118.000000;2.995562
5117.000000;2.993134
5116.000000;2.988412
5115.000000;2.981655
5114.000000;2.973497
5113.000000;2.966281
5112.000000;2.962255
5111.000000;2.961908
5110.000000;2.964403
5109.000000;2.968072
5108.000000;2.970385
5107.000000;2.969553
5106.000000;2.966882
5105.000000;2.965576
5104.000000;2.966451
5103.000000;2.966661
5102.000000;2.963886
5101.000000;2.960062
5100.000000;2.958851
5099.000000;2.960750
5098.000000;2.962821
5097.000000;2.963061
5096.000000;2.963213
5095.000000;2.966248
5094.000000;2.972158
5093.000000;2.977238
5092.000000;2.977213
5091.000000;2.970780
5090.000000;2.960258
5089.000000;2.949558
5088.000000;2.942198
5087.000000;2.940356
5086.000000;2.943908
5085.000000;2.950067
5084.000000;2.955178
5083.000000;2.957276
5082.000000;2.956776
5081.000000;2.955061
5080.000000;2.953047
5079.000000;2.951518
5078.000000;2.951673
5077.000000;2.953970
5076.000000;2.956956
5075.000000;2.958533
5074.000000;2.958642
5073.000000;2.959350
5072.000000;2.961333
5071.000000;2.961823
5070.000000;2.957389
5069.000000;2.948218
5068.000000;2.938826
5067.000000;2.934143
5066.000000;2.934975
5065.000000;2.937465
5064.000000;2.937339
5063.000000;2.934661
5062.000000;2.933209
5061.000000;2.935431
5060.000000;2.939612
5059.000000;2.942339
5058.000000;2.942563
5057.000000;2.942144
5056.000000;2.943304
5055.000000;2.946527
5054.000000;2.949986
5053.000000;2.950547
5052.000000;2.946677
5051.000000;2.940853
5050.000000;2.937510
5049.000000;2.937917
5048.000000;2.938361
5047.000000;2.934673
5046.000000;2.927943
5045.000000;2.923421
5044.000000;2.924142
5043.000000;2.927342
5042.000000;2.927345
5041.000000;2.922109
5040.000000;2.916174
5039.000000;2.916373
5038.000000;2.924596
5037.000000;2.934617
5036.000000;2.937387
5035.000000;2.930758
5034.000000;2.921043
5033.000000;2.914493
5032.000000;2.911682
5031.000000;2.910393
5030.000000;2.910032
5029.000000;2.911025
5028.000000;2.911929
5027.000000;2.910797
5026.000000;2.908795
5025.000000;2.908543
5024.000000;2.909357
5023.000000;2.907724
5022.000000;2.902370
5021.000000;2.895565
5020.000000;2.889348
5019.000000;2.883942
5018.000000;2.880065
5017.000000;2.879420
5016.000000;2.882003
5015.000000;2.885266
5014.000000;2.886929
5013.000000;2.887183
5012.000000;2.887313
5011.000000;2.887487
5010.000000;2.887165
5009.000000;2.886459
5008.000000;2.885410
5007.000000;2.883144
5006.000000;2.879450
5005.000000;2.876006
5004.000000;2.874473
5003.000000;2.874610
5002.000000;2.875656
5001.000000;2.878117
5000.000000;2.882107
4999.000000;2.884998
4998.000000;2.883104
4997.000000;2.876039
4996.000000;2.867663
4995.000000;2.861895
4994.000000;2.859143
4993.000000;2.857397
4992.000000;2.855422
4991.000000;2.853656
4990.000000;2.851873
4989.000000;2.847569
4988.000000;2.838861
4987.000000;2.828520
4986.000000;2.822622
4985.000000;2.824580
4984.000000;2.831641
4983.000000;2.837891
4982.000000;2.840156
4981.000000;2.839311
4980.000000;2.836166
4979.000000;2.829552
4978.000000;2.819643
4977.000000;2.809907
4976.000000;2.803777
4975.000000;2.801303
4974.000000;2.800265
4973.000000;2.799329
4972.000000;2.798825
4971.000000;2.799261
4970.000000;2.800709
4969.000000;2.803351
4968.000000;2.806998
4967.000000;2.810079
4966.000000;2.810282
4965.000000;2.806273
4964.000000;2.798794
4963.000000;2.789971
4962.000000;2.781748
4961.000000;2.775385
4960.000000;2.771660
4959.000000;2.770651
4958.000000;2.771059
4957.000000;2.770311
4956.000000;2.766176
4955.000000;2.758724
4954.000000;2.750629
4953.000000;2.744967
4952.000000;2.742410
4951.000000;2.740937
4950.000000;2.738527
4949.000000;2.735513
4948.000000;2.733749
4947.000000;2.733984
4946.000000;2.734529
4945.000000;2.732363
4944.000000;2.725683
4943.000000;2.715755
4942.000000;2.706231
4941.000000;2.700286
4940.000000;2.698130
4939.000000;2.697277
4938.000000;2.695193
4937.000000;2.691368
4936.000000;2.686804
4935.000000;2.682420
4934.000000;2.678749
4933.000000;2.676413
4932.000000;2.675503
4931.000000;2.674645
4930.000000;2.671874
4929.000000;2.666704
4928.000000;2.660580
4927.000000;2.655327
4926.000000;2.652036
4925.000000;2.651345
4924.000000;2.653467
4923.000000;2.657143
4922.000000;2.659545
4921.000000;2.658704
4920.000000;2.655689
4919.000000;2.652984
4918.000000;2.650824
4917.000000;2.646576
4916.000000;2.638335
4915.000000;2.627923
4914.000000;2.619193
4913.000000;2.614279
4912.000000;2.612474
4911.000000;2.611939
4910.000000;2.611234
4909.000000;2.609308
4908.000000;2.605590
4907.000000;2.600978
4906.000000;2.597763
4905.000000;2.597325
4904.000000;2.598121
4903.000000;2.596897
4902.000000;2.592121
4901.000000;2.585503
4900.000000;2.579806
4899.000000;2.576112
4898.000000;2.573660
4897.000000;2.571463
4896.000000;2.569224
4895.000000;2.566744
4894.000000;2.563276
4893.000000;2.558207
4892.000000;2.552280
4891.000000;2.547340
4890.000000;2.544505
4889.000000;2.542875
4888.000000;2.540490
4887.000000;2.536638
4886.000000;2.532647
4885.000000;2.530048
4884.000000;2.528654
4883.000000;2.526941
4882.000000;2.523814
4881.000000;2.519468
4880.000000;2.514753
4879.000000;2.510350
4878.000000;2.506696
4877.000000;2.504051
4876.000000;2.502238
4875.000000;2.500541
4874.000000;2.498208
4873.000000;2.495090
4872.000000;2.491712
4871.000000;2.488668
4870.000000;2.485893
4869.000000;2.482591
4868.000000;2.478183
4867.000000;2.473347
4866.000000;2.469634
4865.000000;2.467667
4864.000000;2.466204
4863.000000;2.463682
4862.000000;2.460356
4861.000000;2.457824
4860.000000;2.456505
4859.000000;2.454684
4858.000000;2.450474
4857.000000;2.444011
4856.000000;2.437170
4855.000000;2.431807
4854.000000;2.428780
4853.000000;2.427896
4852.000000;2.427884
4851.000000;2.426648
4850.000000;2.422581
4849.000000;2.415980
4848.000000;2.408769
4847.000000;2.402847
4846.000000;2.399085
4845.000000;2.397504
4844.000000;2.397564
4843.000000;2.398123
4842.000000;2.397762
4841.000000;2.395718
4840.000000;2.392347
4839.000000;2.388527
4838.000000;2.384807
4837.000000;2.381182
4836.000000;2.377440
4835.000000;2.373553
4834.000000;2.369792
4833.000000;2.366601
4832.000000;2.364239
4831.000000;2.362369
4830.000000;2.360264
4829.000000;2.357596
4828.000000;2.354670
4827.000000;2.351762
4826.000000;2.348675
4825.000000;2.345303
4824.000000;2.342252
4823.000000;2.340291
4822.000000;2.339235
4821.000000;2.337872
4820.000000;2.335063
4819.000000;2.330651
4818.000000;2.325389
4817.000000;2.320453
4816.000000;2.317027
4815.000000;2.315627
4814.000000;2.315380
4813.000000;2.314341
4812.000000;2.311151
4811.000000;2.306306
4810.000000;2.301439
4809.000000;2.297592
4808.000000;2.294629
4807.000000;2.292049
4806.000000;2.289679
4805.000000;2.287409
4804.000000;2.284842
4803.000000;2.281743
4802.000000;2.278520
4801.000000;2.275795
4800.000000;2.273593
4799.000000;2.271263
4798.000000;2.268311
4797.000000;2.264948
4796.000000;2.261735
4795.000000;2.258885
4794.000000;2.256112
4793.000000;2.253157
4792.000000;2.250175
4791.000000;2.247530
4790.000000;2.245247
4789.000000;2.242836
4788.000000;2.239715
4787.000000;2.235789
4786.000000;2.231522
4785.000000;2.227473
4784.000000;2.223911
4783.000000;2.220861
4782.000000;2.218330
4781.000000;2.216294
4780.000000;2.214505
4779.000000;2.212524
4778.000000;2.210030
4777.000000;2.207104
4776.000000;2.204174
4775.000000;2.201643
4774.000000;2.199504
4773.000000;2.197326
4772.000000;2.194584
4771.000000;2.191017
4770.000000;2.186771
4769.000000;2.182377
4768.000000;2.178624
4767.000000;2.176180
4766.000000;2.175010
4765.000000;2.174174
4764.000000;2.172476
4763.000000;2.169517
4762.000000;2.165983
4761.000000;2.162829
4760.000000;2.160329
4759.000000;2.157993
4758.000000;2.155248
4757.000000;2.152097
4756.000000;2.149101
4755.000000;2.146733
4754.000000;2.144752
4753.000000;2.142395
4752.000000;2.139339
4751.000000;2.136280
4750.000000;2.134118
4749.000000;2.132652
4748.000000;2.130699
4747.000000;2.127671
4746.000000;2.124359
4745.000000;2.121717
4744.000000;2.119488
4743.000000;2.116723
4742.000000;2.113242
4741.000000;2.109757
4740.000000;2.106723
4739.000000;2.103946
4738.000000;2.101299
4737.000000;2.098972
4736.000000;2.096745
4735.000000;2.093835
4734.000000;2.089946
4733.000000;2.085968
4732.000000;2.083146
4731.000000;2.081872
4730.000000;2.081543
4729.000000;2.081204
4728.000000;2.080055
4727.000000;2.077812
4726.000000;2.075010
4725.000000;2.072599
4724.000000;2.070830
4723.000000;2.068888
4722.000000;2.066027
4721.000000;2.062681
4720.000000;2.059846
4719.000000;2.057710
4718.000000;2.055580
4717.000000;2.053034
4716.000000;2.050424
4715.000000;2.048161
4714.000000;2.046165
4713.000000;2.044233
4712.000000;2.042419
4711.000000;2.040820
4710.000000;2.039315
4709.000000;2.037753
4708.000000;2.036117
4707.000000;2.034366
4706.000000;2.032368
4705.000000;2.030111
4704.000000;2.027762
4703.000000;2.025455
4702.000000;2.023268
4701.000000;2.021382
4700.000000;2.019901
4699.000000;2.018477
4698.000000;2.016526
4697.000000;2.013971
4696.000000;2.011367
4695.000000;2.009173
4694.000000;2.007322
4693.000000;2.005628
4692.000000;2.004075
4691.000000;2.002451
4690.000000;2.000250
4689.000000;1.997371
4688.000000;1.994531
4687.000000;1.992442
4686.000000;1.990867
4685.000000;1.989009
4684.000000;1.986682
4683.000000;1.984485
4682.000000;1.982847
4681.000000;1.981467
4680.000000;1.979834
4679.000000;1.977864
4678.000000;1.975812
4677.000000;1.973842
4676.000000;1.971952
4675.000000;1.970131
4674.000000;1.968409
4673.000000;1.966824
4672.000000;1.965393
4671.000000;1.964029
4670.000000;1.962528
4669.000000;1.960815
4668.000000;1.959228
4667.000000;1.958309
4666.000000;1.958182
4665.000000;1.958225
4664.000000;1.957490
4663.000000;1.955440
4662.000000;1.952313
4661.000000;1.948864
4660.000000;1.945850
4659.000000;1.943624
4658.000000;1.942092
4657.000000;1.940992
4656.000000;1.940145
4655.000000;1.939405
4654.000000;1.938523
4653.000000;1.937277
4652.000000;1.935679
4651.000000;1.933884
4650.000000;1.931930
4649.000000;1.929764
4648.000000;1.927510
4647.000000;1.925419
4646.000000;1.923504
4645.000000;1.921515
4644.000000;1.919435
4643.000000;1.917740
4642.000000;1.916903
4641.000000;1.916793
4640.000000;1.916781
4639.000000;1.916366
4638.000000;1.915453
4637.000000;1.914068
4636.000000;1.912127
4635.000000;1.909618
4634.000000;1.906832
4633.000000;1.904247
4632.000000;1.902222
4631.000000;1.900811
4630.000000;1.899807
4629.000000;1.898878
4628.000000;1.897760
4627.000000;1.896458
4626.000000;1.895236
4625.000000;1.894311
4624.000000;1.893546
4623.000000;1.892566
4622.000000;1.891205
4621.000000;1.889728
4620.000000;1.888521
4619.000000;1.887635
4618.000000;1.886762
4617.000000;1.885606
4616.000000;1.884172
4615.000000;1.882651
4614.000000;1.881195
4613.000000;1.879844
4612.000000;1.878583
4611.000000;1.877390
4610.000000;1.876306
4609.000000;1.875470
4608.000000;1.874953
4607.000000;1.874477
4606.000000;1.873511
4605.000000;1.871802
4604.000000;1.869729
4603.000000;1.867942
4602.000000;1.866742
4601.000000;1.865953
4600.000000;1.865292
4599.000000;1.864604
4598.000000;1.863797
4597.000000;1.862831
4596.000000;1.861862
4595.000000;1.861152
4594.000000;1.860731
4593.000000;1.860345
4592.000000;1.859826
4591.000000;1.859313
4590.000000;1.858920
4589.000000;1.858377
4588.000000;1.857259
4587.000000;1.855550
4586.000000;1.853776
4585.000000;1.852555
4584.000000;1.852098
4583.000000;1.852077
4582.000000;1.851845
4581.000000;1.850847
4580.000000;1.849012
4579.000000;1.846847
4578.000000;1.845111
4577.000000;1.844273
4576.000000;1.844220
4575.000000;1.844361
4574.000000;1.844014
4573.000000;1.842850
4572.000000;1.841121
4571.000000;1.839465
4570.000000;1.838375
4569.000000;1.837832
4568.000000;1.837463
4567.000000;1.836983
4566.000000;1.836391
4565.000000;1.835778
4564.000000;1.835132
4563.000000;1.834413
4562.000000;1.833672
4561.000000;1.833006
4560.000000;1.832446
4559.000000;1.831973
4558.000000;1.831594
4557.000000;1.831307
4556.000000;1.830972
4555.000000;1.830324
4554.000000;1.829227
4553.000000;1.827902
4552.000000;1.826822
4551.000000;1.826309
4550.000000;1.826197
4549.000000;1.825950
4548.000000;1.825199
4547.000000;1.824156
4546.000000;1.823405
4545.000000;1.823280
4544.000000;1.823511
4543.000000;1.823538
4542.000000;1.823081
4541.000000;1.822291
4540.000000;1.821408
4539.000000;1.820494
4538.000000;1.819558
4537.000000;1.818800
4536.000000;1.818507
4535.000000;1.818701
4534.000000;1.819011
4533.000000;1.818942
4532.000000;1.818261
4531.000000;1.817161
4530.000000;1.816129
4529.000000;1.815618
4528.000000;1.815679
4527.000000;1.815880
4526.000000;1.815677
4525.000000;1.814993
4524.000000;1.814369
4523.000000;1.814445
4522.000000;1.815315
4521.000000;1.816400
4520.000000;1.816898
4519.000000;1.816353
4518.000000;1.814929
4517.000000;1.813272
4516.000000;1.812081
4515.000000;1.811654
4514.000000;1.811788
4513.000000;1.812094
4512.000000;1.812343
4511.000000;1.812466
4510.000000;1.812370
4509.000000;1.811959
4508.000000;1.811315
4507.000000;1.810680
4506.000000;1.810232
4505.000000;1.809984
4504.000000;1.809895
4503.000000;1.809932
4502.000000;1.809997
4501.000000;1.809935
4500.000000;1.809671
4499.000000;1.809307
4498.000000;1.809061
4497.000000;1.809154
4496.000000;1.809669
4495.000000;1.810382
4494.000000;1.810786
4493.000000;1.810526
4492.000000;1.809859
4491.000000;1.809492
4490.000000;1.809876
4489.000000;1.810785
4488.000000;1.811599
4487.000000;1.811839
4486.000000;1.811421
4485.000000;1.810645
4484.000000;1.810058
4483.000000;1.810071
4482.000000;1.810518
4481.000000;1.810763
4480.000000;1.810448
4479.000000;1.809962
4478.000000;1.809962
4477.000000;1.810614
4476.000000;1.811524
4475.000000;1.812226
4474.000000;1.812461
4473.000000;1.812132
4472.000000;1.811419
4471.000000;1.810985
4470.000000;1.811627
4469.000000;1.813454
4468.000000;1.815628
4467.000000;1.817154
4466.000000;1.817806
4465.000000;1.818102
4464.000000;1.818551
4463.000000;1.819222
4462.000000;1.819968
4461.000000;1.820753
4460.000000;1.821621
4459.000000;1.822497
4458.000000;1.823209
4457.000000;1.823719
4456.000000;1.824216
4455.000000;1.824870
4454.000000;1.825591
4453.000000;1.826190
4452.000000;1.826782
4451.000000;1.827826
4450.000000;1.829560
4449.000000;1.831525
4448.000000;1.832944
4447.000000;1.833545
4446.000000;1.833821
4445.000000;1.834453
4444.000000;1.835679
4443.000000;1.837239
4442.000000;1.838707
4441.000000;1.839873
4440.000000;1.841002
4439.000000;1.842753
4438.000000;1.845542
4437.000000;1.848849
4436.000000;1.851524
4435.000000;1.853101
4434.000000;1.854472
4433.000000;1.856730
4432.000000;1.859597
4431.000000;1.861589
4430.000000;1.861867
4429.000000;1.861369
4428.000000;1.861759
4427.000000;1.863741
4426.000000;1.866773
4425.000000;1.870013
4424.000000;1.873021
4423.000000;1.875618
4422.000000;1.877615
4421.000000;1.878930
4420.000000;1.879784
4419.000000;1.880612
4418.000000;1.881863
4417.000000;1.883853
4416.000000;1.886601
4415.000000;1.889757
4414.000000;1.892836
4413.000000;1.895543
4412.000000;1.897771
4411.000000;1.899450
4410.000000;1.900679
4409.000000;1.901940
4408.000000;1.903774
4407.000000;1.906160
4406.000000;1.908497
4405.000000;1.910390
4404.000000;1.912127
4403.000000;1.914133
4402.000000;1.916314
4401.000000;1.918406
4400.000000;1.920759
4399.000000;1.924232
4398.000000;1.929167
4397.000000;1.934773
4396.000000;1.939628
4395.000000;1.942662
4394.000000;1.943811
4393.000000;1.944088
4392.000000;1.944987
4391.000000;1.947364
4390.000000;1.950697
4389.000000;1.953718
4388.000000;1.955937
4387.000000;1.958170
4386.000000;1.961346
4385.000000;1.965289
4384.000000;1.968980
4383.000000;1.971620
4382.000000;1.973102
4381.000000;1.973799
4380.000000;1.974419
4379.000000;1.975787
4378.000000;1.978236
4377.000000;1.981287
4376.000000;1.984408
4375.000000;1.987848
4374.000000;1.992013
4373.000000;1.996142
4372.000000;1.998593
4371.000000;1.998783
4370.000000;1.998077
4369.000000;1.998295
4368.000000;2.000024
4367.000000;2.002667
4366.000000;2.005459
4365.000000;2.007911
4364.000000;2.009657
4363.000000;2.010765
4362.000000;2.012047
4361.000000;2.014315
4360.000000;2.017365
4359.000000;2.020272
4358.000000;2.022651
4357.000000;2.024947
4356.000000;2.027470
4355.000000;2.029972
4354.000000;2.032386
4353.000000;2.035192
4352.000000;2.038558
4351.000000;2.041580
4350.000000;2.043028
4349.000000;2.042930
4348.000000;2.042791
4347.000000;2.044081
4346.000000;2.046958
4345.000000;2.050344
4344.000000;2.053002
4343.000000;2.054624
4342.000000;2.055938
4341.000000;2.057757
4340.000000;2.060013
4339.000000;2.061992
4338.000000;2.063435
4337.000000;2.064987
4336.000000;2.067391
4335.000000;2.070635
4334.000000;2.074057
4333.000000;2.076818
4332.000000;2.078136
4331.000000;2.077696
4330.000000;2.076318
4329.000000;2.075912
4328.000000;2.078158
4327.000000;2.082891
4326.000000;2.087982
4325.000000;2.091102
4324.000000;2.091433
4323.000000;2.089867
4322.000000;2.088208
4321.000000;2.088148
4320.000000;2.090269
4319.000000;2.093705
4318.000000;2.097042
4317.000000;2.099602
4316.000000;2.101675
4315.000000;2.103603
4314.000000;2.105204
4313.000000;2.106255
4312.000000;2.107109
4311.000000;2.108542
4310.000000;2.111102
4309.000000;2.114732
4308.000000;2.118525
4307.000000;2.120766
4306.000000;2.120389
4305.000000;2.118699
4304.000000;2.118496
4303.000000;2.121116
4302.000000;2.125129
4301.000000;2.128401
4300.000000;2.130651
4299.000000;2.133046
4298.000000;2.136133
4297.000000;2.139484
4296.000000;2.142883
4295.000000;2.146601
4294.000000;2.150473
4293.000000;2.153913
4292.000000;2.157077
4291.000000;2.160727
4290.000000;2.164642
4289.000000;2.167340
4288.000000;2.167828
4287.000000;2.166843
4286.000000;2.165917
4285.000000;2.166135
4284.000000;2.168219
4283.000000;2.172852
4282.000000;2.179715
4281.000000;2.186167
4280.000000;2.188794
4279.000000;2.187231
4278.000000;2.184818
4277.000000;2.185248
4276.000000;2.189505
4275.000000;2.195696
4274.000000;2.201351
4273.000000;2.205703
4272.000000;2.209601
4271.000000;2.213635
4270.000000;2.217553
4269.000000;2.222067
4268.000000;2.229680
4267.000000;2.241667
4266.000000;2.254200
4265.000000;2.259717
4264.000000;2.254744
4263.000000;2.244848
4262.000000;2.238902
4261.000000;2.240526
4260.000000;2.246575
4259.000000;2.252379
4258.000000;2.256747
4257.000000;2.261075
4256.000000;2.265523
4255.000000;2.268564
4254.000000;2.269503
4253.000000;2.270057
4252.000000;2.273307
4251.000000;2.280508
4250.000000;2.289518
4249.000000;2.296502
4248.000000;2.299081
4247.000000;2.298415
4246.000000;2.298365
4245.000000;2.302347
4244.000000;2.310428
4243.000000;2.318663
4242.000000;2.322119
4241.000000;2.319171
4240.000000;2.312896
4239.000000;2.308248
4238.000000;2.308651
4237.000000;2.314926
4236.000000;2.325644
4235.000000;2.337021
4234.000000;2.344725
4233.000000;2.348182
4232.000000;2.350574
4231.000000;2.355834
4230.000000;2.366247
4229.000000;2.380093
4228.000000;2.391871
4227.000000;2.395552
4226.000000;2.389285
4225.000000;2.378243
4224.000000;2.370988
4223.000000;2.371828
4222.000000;2.377736
4221.000000;2.383631
4220.000000;2.389073
4219.000000;2.397244
4218.000000;2.408545
4217.000000;2.419050
4216.000000;2.426489
4215.000000;2.433081
4214.000000;2.439366
4213.000000;2.441166
4212.000000;2.437558
4211.000000;2.436471
4210.000000;2.445739
4209.000000;2.460910
4208.000000;2.467468
4207.000000;2.457442
4206.000000;2.438454
4205.000000;2.424308
4204.000000;2.424136
4203.000000;2.439921
4202.000000;2.466376
4201.000000;2.491032
4200.000000;2.502601
4199.000000;2.502501
4198.000000;2.499566
4197.000000;2.496937
4196.000000;2.491224
4195.000000;2.481593
4194.000000;2.472475
4193.000000;2.468330
4192.000000;2.472563
4191.000000;2.488251
4190.000000;2.515293
4189.000000;2.548125
4188.000000;2.574103
4187.000000;2.579004
4186.000000;2.563965
4185.000000;2.545557
4184.000000;2.535397
4183.000000;2.531536
4182.000000;2.528266
4181.000000;2.527322
4180.000000;2.534633
4179.000000;2.548686
4178.000000;2.559304
4177.000000;2.560500
4176.000000;2.558394
4175.000000;2.561850
4174.000000;2.572037
4173.000000;2.584367
4172.000000;2.596496
4171.000000;2.610632
4170.000000;2.628066
4169.000000;2.643613
4168.000000;2.644915
4167.000000;2.619628
4166.000000;2.567687
4165.000000;2.508798
4164.000000;2.472921
4163.000000;2.475894
4162.000000;2.506766
4161.000000;2.540581
4160.000000;2.566324
4159.000000;2.592721
4158.000000;2.628587
4157.000000;2.662865
4156.000000;2.675226
4155.000000;2.665098
4154.000000;2.649990
4153.000000;2.645225
4152.000000;2.651054
4151.000000;2.656363
4150.000000;2.651149
4149.000000;2.633997
4148.000000;2.610040
4147.000000;2.586393
4146.000000;2.569012
4145.000000;2.558163
4144.000000;2.548925
4143.000000;2.541640
4142.000000;2.545400
4141.000000;2.566483
4140.000000;2.596343
4139.000000;2.611441
4138.000000;2.596855
4137.000000;2.571544
4136.000000;2.562424
4135.000000;2.568596
4134.000000;2.568211
4133.000000;2.541630
4132.000000;2.489721
4131.000000;2.442258
4130.000000;2.426935
4129.000000;2.448231
4128.000000;2.491047
4127.000000;2.528095
4126.000000;2.543034
4125.000000;2.551497
4124.000000;2.577682
4123.000000;2.625154
4122.000000;2.688345
4121.000000;2.766064
4120.000000;2.814029
4119.000000;2.786435
4118.000000;2.726894
4117.000000;2.675386
4116.000000;2.642965
4115.000000;2.621903
4114.000000;2.597390
4113.000000;2.567501
4112.000000;2.544663
4111.000000;2.532944
4110.000000;2.526496
4109.000000;2.524201
4108.000000;2.530953
4107.000000;2.557544
4106.000000;2.608633
4105.000000;2.660433
4104.000000;2.669537
4103.000000;2.641917
4102.000000;2.621854
4101.000000;2.614384
4100.000000;2.590246
4099.000000;2.535401
4098.000000;2.479961
4097.000000;2.462587
4096.000000;2.494045
4095.000000;2.547096
4094.000000;2.565370
4093.000000;2.523119
4092.000000;2.466430
4091.000000;2.449267
4090.000000;2.483590
4089.000000;2.535061
4088.000000;2.544861
4087.000000;2.506101
4086.000000;2.460138
4085.000000;2.439754
4084.000000;2.465660
4083.000000;2.543059
4082.000000;2.639629
4081.000000;2.670871
4080.000000;2.602311
4079.000000;2.524000
4078.000000;2.498284
4077.000000;2.504738
4076.000000;2.509179
4075.000000;2.526906
4074.000000;2.585251
4073.000000;2.664899
4072.000000;2.697643
4071.000000;2.661305
4070.000000;2.610868
4069.000000;2.603602
4068.000000;2.647711
4067.000000;2.689620
4066.000000;2.663566
4065.000000;2.576400
4064.000000;2.494100
4063.000000;2.463258
4062.000000;2.493555
4061.000000;2.561431
4060.000000;2.593940
4059.000000;2.545490
4058.000000;2.471179
4057.000000;2.409897
4056.000000;2.385817
4055.000000;2.429757
4054.000000;2.559160
4053.000000;2.706644
4052.000000;2.708196
4051.000000;2.608513
4050.000000;2.533258
4049.000000;2.522205
4048.000000;2.556901
4047.000000;2.588596
4046.000000;2.586055
4045.000000;2.551742
4044.000000;2.506881
4043.000000;2.468659
4042.000000;2.450455
4041.000000;2.470473
4040.000000;2.517414
4039.000000;2.521977
4038.000000;2.472333
4037.000000;2.430557
4036.000000;2.420734
4035.000000;2.422463
4034.000000;2.404135
4033.000000;2.380343
4032.000000;2.377845
4031.000000;2.391122
4030.000000;2.416442
4029.000000;2.468645
4028.000000;2.550546
4027.000000;2.635239
4026.000000;2.682190
4025.000000;2.682990
4024.000000;2.671863
4023.000000;2.681006
4022.000000;2.711330
4021.000000;2.751264
4020.000000;2.815327
4019.000000;2.852363
4018.000000;2.763140
4017.000000;2.661483
4016.000000;2.635274
4015.000000;2.653794
4014.000000;2.647327
4013.000000;2.631645
4012.000000;2.674005
4011.000000;2.794504
4010.000000;2.889659
4009.000000;2.963334
4008.000000;3.185622
4007.000000;2.933477
4006.000000;2.692670
4005.000000;2.624796
4004.000000;2.627421
4003.000000;2.630582
4002.000000;2.602338
4001.000000;2.563823
4000.000000;2.548166
3999.000000;2.523907
3998.000000;2.452867
3997.000000;2.417089
3996.000000;2.471542
3995.000000;2.615454
3994.000000;2.835708
3993.000000;2.885899
3992.000000;2.802236
3991.000000;2.859777
3990.000000;2.985472
3989.000000;2.906685
3988.000000;2.799600
3987.000000;2.774928
3986.000000;2.725175
3985.000000;2.638239
3984.000000;2.592470
3983.000000;2.611959
3982.000000;2.643602
3981.000000;2.630087
3980.000000;2.641550
3979.000000;2.732638
3978.000000;2.855845
3977.000000;2.933630
3976.000000;2.961020
3975.000000;2.966372
3974.000000;2.967939
3973.000000;2.953835
3972.000000;2.915955
3971.000000;2.855017
3970.000000;2.772231
3969.000000;2.640972
3968.000000;2.491332
3967.000000;2.403088
3966.000000;2.396875
3965.000000;2.437060
3964.000000;2.458234
3963.000000;2.446298
3962.000000;2.454492
3961.000000;2.512569
3960.000000;2.597466
3959.000000;2.668594
3958.000000;2.725509
3957.000000;2.794241
3956.000000;2.862018
3955.000000;2.875125
3954.000000;2.844312
3953.000000;2.871481
3952.000000;2.970183
3951.000000;2.912723
3950.000000;2.834701
3949.000000;2.857198
3948.000000;2.815471
3947.000000;2.778038
3946.000000;2.817328
3945.000000;2.867040
3944.000000;2.855327
3943.000000;2.842934
3942.000000;2.904045
3941.000000;2.893889
3940.000000;2.789037
3939.000000;2.721041
3938.000000;2.709328
3937.000000;2.745312
3936.000000;2.784778
3935.000000;2.797051
3934.000000;2.789110
3933.000000;2.757967
3932.000000;2.739885
3931.000000;2.768330
3930.000000;2.813971
3929.000000;2.841148
3928.000000;2.839609
3927.000000;2.786938
3926.000000;2.685200
3925.000000;2.642530
3924.000000;2.769151
3923.000000;3.015466
3922.000000;3.007160
3921.000000;2.965556
3920.000000;3.100995
3919.000000;2.979679
3918.000000;2.721455
3917.000000;2.672991
3916.000000;2.768457
3915.000000;2.989485
3914.000000;3.353309
3913.000000;3.275767
3912.000000;2.929802
3911.000000;2.779379
3910.000000;2.783874
3909.000000;3.005557
3908.000000;3.326038
3907.000000;3.019245
3906.000000;2.860918
3905.000000;2.957613
3904.000000;3.328726
3903.000000;4.544384
3902.000000;3.874386
3901.000000;3.240836
3900.000000;3.062725
3899.000000;3.125963
3898.000000;3.085549
3897.000000;2.952978
3896.000000;2.977134
3895.000000;3.082268
3894.000000;3.092720
3893.000000;2.913817
3892.000000;2.735506
3891.000000;2.655670
3890.000000;2.685265
3889.000000;2.795122
3888.000000;2.841816
3887.000000;2.775216
3886.000000;2.739840
3885.000000;2.757609
3884.000000;2.735511
3883.000000;2.686657
3882.000000;2.650930
3881.000000;2.702644
3880.000000;2.884773
3879.000000;3.010209
3878.000000;3.114871
3877.000000;3.316846
3876.000000;3.231277
3875.000000;2.920589
3874.000000;2.792570
3873.000000;2.728624
3872.000000;2.789166
3871.000000;3.187961
3870.000000;3.363916
3869.000000;3.569775
3868.000000;3.677955
3867.000000;3.693546
3866.000000;3.212597
3865.000000;3.134180
3864.000000;3.448338
3863.000000;3.555042
3862.000000;3.128443
3861.000000;2.956165
3860.000000;2.819281
3859.000000;2.760445
3858.000000;2.809089
3857.000000;2.968188
3856.000000;3.218114
3855.000000;3.457546
3854.000000;3.499905
3853.000000;3.347941
3852.000000;3.266124
3851.000000;3.268158
3850.000000;3.388606
3849.000000;3.242077
3848.000000;2.941528
3847.000000;2.831015
3846.000000;2.873051
3845.000000;3.113240
3844.000000;3.391170
3843.000000;3.102810
3842.000000;2.997310
3841.000000;3.071780
3840.000000;3.126257
3839.000000;3.009843
3838.000000;2.941210
3837.000000;2.984543
3836.000000;3.049386
3835.000000;3.068677
3834.000000;2.983813
3833.000000;2.876799
3832.000000;2.848255
3831.000000;2.905239
3830.000000;3.000714
3829.000000;3.034535
3828.000000;2.957656
3827.000000;2.860054
3826.000000;2.810492
3825.000000;2.802991
3824.000000;2.828337
3823.000000;2.898211
3822.000000;3.078646
3821.000000;3.185120
3820.000000;2.939978
3819.000000;2.821327
3818.000000;2.868881
3817.000000;3.031040
3816.000000;3.208728
3815.000000;3.463198
3814.000000;3.542214
3813.000000;3.129007
3812.000000;2.970579
3811.000000;3.039660
3810.000000;3.068601
3809.000000;2.880610
3808.000000;2.793620
3807.000000;2.924920
3806.000000;3.428488
3805.000000;3.209426
3804.000000;2.903454
3803.000000;3.006603
3802.000000;3.218369
3801.000000;3.183516
3800.000000;3.078455
3799.000000;3.226876
3798.000000;3.640481
3797.000000;3.256298
3796.000000;3.036727
3795.000000;3.138454
3794.000000;3.520027
3793.000000;3.331596
3792.000000;2.989426
3791.000000;2.788353
3790.000000;2.683662
3789.000000;2.680026
3788.000000;2.741764
3787.000000;2.738479
3786.000000;2.692957
3785.000000;2.607765
3784.000000;2.539263
3783.000000;2.588026
3782.000000;2.614467
3781.000000;2.617540
3780.000000;2.642776
3779.000000;2.758464
3778.000000;2.994983
3777.000000;3.641928
3776.000000;3.419539
3775.000000;3.058498
3774.000000;3.309917
3773.000000;3.379198
3772.000000;2.880739
3771.000000;2.595805
3770.000000;2.478088
3769.000000;2.463306
3768.000000;2.718297
3767.000000;3.351217
3766.000000;3.070758
3765.000000;3.061693
3764.000000;3.074571
3763.000000;3.246465
3762.000000;3.267237
3761.000000;3.105110
3760.000000;3.048616
3759.000000;3.097631
3758.000000;3.152148
3757.000000;3.142415
3756.000000;3.052242
3755.000000;2.942559
3754.000000;2.850755
3753.000000;2.819513
3752.000000;2.859644
3751.000000;2.965862
3750.000000;3.349706
3749.000000;3.527525
3748.000000;3.089922
3747.000000;2.981522
3746.000000;3.004741
3745.000000;2.996574
3744.000000;2.994976
3743.000000;3.024375
3742.000000;3.167388
3741.000000;3.564013
3740.000000;3.230125
3739.000000;2.870939
3738.000000;2.721863
3737.000000;2.687216
3736.000000;2.772474
3735.000000;2.915208
3734.000000;2.941370
3733.000000;2.937119
3732.000000;3.153829
3731.000000;3.659713
3730.000000;3.455284
3729.000000;3.259844
3728.000000;3.611650
3727.000000;3.175698
3726.000000;2.834268
3725.000000;2.855273
3724.000000;2.940819
3723.000000;3.018675
3722.000000;3.079846
3721.000000;3.396803
3720.000000;3.383007
3719.000000;2.913657
3718.000000;2.757610
3717.000000;2.789797
3716.000000;2.940155
3715.000000;3.012817
3714.000000;3.161252
3713.000000;3.184665
3712.000000;2.684719
3711.000000;2.450234
3710.000000;2.492804
3709.000000;2.837329
3708.000000;3.012321
3707.000000;2.849674
3706.000000;3.015289
3705.000000;3.459059
3704.000000;3.535442
3703.000000;2.980137
3702.000000;2.786945
3701.000000;2.699770
3700.000000;2.737390
3699.000000;2.885393
3698.000000;3.286451
3697.000000;3.900125
3696.000000;3.384052
3695.000000;3.543873
3694.000000;3.342124
3693.000000;2.927954
3692.000000;2.769529
3691.000000;2.736905
3690.000000;2.789974
3689.000000;2.924216
3688.000000;3.120956
3687.000000;3.488473
3686.000000;3.765328
3685.000000;3.339635
3684.000000;3.276295
3683.000000;3.249591
3682.000000;3.014084
3681.000000;2.841937
3680.000000;2.883448
3679.000000;3.295479
3678.000000;3.229288
3677.000000;2.936020
3676.000000;3.279068
3675.000000;3.696945
3674.000000;3.113074
3673.000000;2.982717
3672.000000;2.892202
3671.000000;2.827909
3670.000000;2.745429
3669.000000;2.692362
3668.000000;2.722300
3667.000000;2.893347
3666.000000;3.540407
3665.000000;3.382583
3664.000000;2.984061
3663.000000;2.947676
3662.000000;3.099755
3661.000000;3.357309
3660.000000;3.208466
3659.000000;3.111894
3658.000000;3.168087
3657.000000;3.415730
3656.000000;3.632168
3655.000000;3.359318
3654.000000;3.209021
3653.000000;3.136550
3652.000000;3.127202
3651.000000;3.143211
3650.000000;3.126625
3649.000000;3.064470
3648.000000;2.954582
3647.000000;2.916092
3646.000000;2.973973
3645.000000;3.146744
3644.000000;3.306582
3643.000000;3.380847
3642.000000;4.016998
3641.000000;3.498064
3640.000000;3.026905
3639.000000;2.972001
3638.000000;2.950574
3637.000000;2.999320
3636.000000;3.136739
3635.000000;3.120335
3634.000000;3.096084
3633.000000;3.014576
3632.000000;2.916344
3631.000000;2.828361
3630.000000;2.693670
3629.000000;2.548261
3628.000000;2.524325
3627.000000;2.692262
3626.000000;2.935616
3625.000000;2.890303
3624.000000;2.748752
3623.000000;2.737947
3622.000000;2.871872
3621.000000;3.173822
3620.000000;3.255038
3619.000000;3.162557
3618.000000;3.103286
3617.000000;2.952719
3616.000000;2.923745
3615.000000;2.948269
3614.000000;2.963513
3613.000000;3.059034
3612.000000;3.199044
3611.000000;3.148943
3610.000000;3.032958
3609.000000;2.984367
3608.000000;3.016230
3607.000000;3.150152
3606.000000;3.157513
3605.000000;2.954619
3604.000000;2.773675
3603.000000;2.659211
3602.000000;2.604682
3601.000000;2.579594
3600.000000;2.565367
3599.000000;2.579620
3598.000000;2.643992
3597.000000;2.771580
3596.000000;2.881637
3595.000000;2.920126
3594.000000;2.992751
3593.000000;3.115305
3592.000000;3.226009
3591.000000;3.310435
3590.000000;3.279094
3589.000000;3.169910
3588.000000;3.417599
3587.000000;3.687890
3586.000000;3.349545
3585.000000;3.328212
3584.000000;3.338478
3583.000000;3.261071
3582.000000;3.197320
3581.000000;3.253943
3580.000000;3.253498
3579.000000;3.035654
3578.000000;2.879282
3577.000000;2.850045
3576.000000;2.972642
3575.000000;3.016864
3574.000000;2.833012
3573.000000;2.783306
3572.000000;2.883135
3571.000000;3.170606
3570.000000;3.532139
3569.000000;3.304448
3568.000000;3.215763
3567.000000;3.319778
3566.000000;3.496700
3565.000000;3.618117
3564.000000;3.611971
3563.000000;3.640539
3562.000000;3.571203
3561.000000;3.274983
3560.000000;3.094607
3559.000000;3.042800
3558.000000;3.029524
3557.000000;3.047417
3556.000000;3.110130
3555.000000;3.217826
3554.000000;3.382075
3553.000000;3.594208
3552.000000;3.573763
3551.000000;3.338889
3550.000000;3.076090
3549.000000;2.851401
3548.000000;2.720861
3547.000000;2.711974
3546.000000;2.823585
3545.000000;3.022600
3544.000000;3.228652
3543.000000;3.340823
3542.000000;3.297057
3541.000000;3.146276
3540.000000;3.071628
3539.000000;3.092533
3538.000000;3.056392
3537.000000;3.051365
3536.000000;3.380179
3535.000000;3.677687
3534.000000;3.215589
3533.000000;3.019187
3532.000000;2.943888
3531.000000;2.904039
3530.000000;3.054661
3529.000000;3.274937
3528.000000;2.989498
3527.000000;2.887391
3526.000000;2.951089
3525.000000;2.936930
3524.000000;2.889846
3523.000000;2.928045
3522.000000;3.072183
3521.000000;3.443544
3520.000000;4.179885
3519.000000;3.346652
3518.000000;3.014033
3517.000000;2.861896
3516.000000;2.867104
3515.000000;3.072637
3514.000000;3.615675
3513.000000;3.617116
3512.000000;3.294586
3511.000000;3.512072
3510.000000;3.323406
3509.000000;3.050062
3508.000000;2.988840
3507.000000;2.999923
3506.000000;3.037578
3505.000000;3.059096
3504.000000;3.051582
3503.000000;3.027358
3502.000000;3.014448
3501.000000;2.988509
3500.000000;2.944374
3499.000000;2.892632
3498.000000;2.838907
3497.000000;2.802303
3496.000000;2.758337
3495.000000;2.705927
3494.000000;2.702586
3493.000000;2.790657
3492.000000;2.971419
3491.000000;3.320237
3490.000000;3.660131
3489.000000;3.345440
3488.000000;3.186327
3487.000000;3.090168
3486.000000;2.988117
3485.000000;2.935007
3484.000000;2.876225
3483.000000;2.820507
3482.000000;2.822348
3481.000000;2.946430
3480.000000;3.197092
3479.000000;3.571794
3478.000000;3.974444
3477.000000;3.368464
3476.000000;3.044427
3475.000000;2.944014
3474.000000;2.928094
3473.000000;2.947257
3472.000000;2.945183
3471.000000;2.920724
3470.000000;2.906696
3469.000000;2.961443
3468.000000;3.095030
3467.000000;3.157316
3466.000000;3.138611
3465.000000;3.131912
3464.000000;3.036625
3463.000000;2.953991
3462.000000;2.957514
3461.000000;3.040295
3460.000000;3.110103
3459.000000;3.168379
3458.000000;3.605176
3457.000000;3.617083
3456.000000;3.189327
3455.000000;3.082179
3454.000000;2.935218
3453.000000;2.855157
3452.000000;2.905906
3451.000000;2.985513
3450.000000;2.927007
3449.000000;2.769804
3448.000000;2.640305
3447.000000;2.596531
3446.000000;2.676215
3445.000000;2.909985
3444.000000;3.076628
3443.000000;2.964218
3442.000000;2.961151
3441.000000;3.197732
3440.000000;3.557287
3439.000000;3.288860
3438.000000;3.096780
3437.000000;3.097248
3436.000000;3.171747
3435.000000;3.078774
3434.000000;2.904624
3433.000000;2.855492
3432.000000;2.896490
3431.000000;3.012828
3430.000000;3.200733
3429.000000;3.334651
3428.000000;3.123907
3427.000000;2.874645
3426.000000;2.754781
3425.000000;2.730926
3424.000000;2.775313
3423.000000;2.888104
3422.000000;3.114963
3421.000000;3.334471
3420.000000;3.248874
3419.000000;3.121305
3418.000000;3.025808
3417.000000;3.056212
3416.000000;3.308304
3415.000000;3.491979
3414.000000;3.373246
3413.000000;3.145971
3412.000000;2.941064
3411.000000;2.809314
3410.000000;2.684941
3409.000000;2.608708
3408.000000;2.628120
3407.000000;2.733431
3406.000000;2.888130
3405.000000;3.079837
3404.000000;3.211731
3403.000000;3.116728
3402.000000;3.165767
3401.000000;3.588035
3400.000000;3.667158
3399.000000;3.503630
3398.000000;3.308147
3397.000000;2.991271
3396.000000;2.848679
3395.000000;2.850618
3394.000000;2.969857
3393.000000;3.079359
3392.000000;2.997253
3391.000000;2.892049
3390.000000;2.846576
3389.000000;2.869826
3388.000000;3.000525
3387.000000;3.182533
3386.000000;3.200686
3385.000000;3.305905
3384.000000;3.426382
3383.000000;3.160498
3382.000000;2.984362
3381.000000;2.891037
3380.000000;2.849720
3379.000000;2.881019
3378.000000;2.970351
3377.000000;3.048640
3376.000000;3.028898
3375.000000;2.970355
3374.000000;2.914965
3373.000000;2.892440
3372.000000;2.843312
3371.000000;2.817985
3370.000000;2.871925
3369.000000;3.096783
3368.000000;3.919536
3367.000000;3.233249
3366.000000;2.956033
3365.000000;2.916365
3364.000000;3.114245
3363.000000;4.147089
3362.000000;3.168928
3361.000000;2.988993
3360.000000;3.164468
3359.000000;3.457525
3358.000000;3.363305
3357.000000;3.192512
3356.000000;3.561964
3355.000000;3.653790
3354.000000;3.076282
3353.000000;2.848502
3352.000000;2.729491
3351.000000;2.703161
3350.000000;2.801529
3349.000000;3.215327
3348.000000;3.248014
3347.000000;2.848532
3346.000000;2.798990
3345.000000;2.909304
3344.000000;3.262567
3343.000000;3.784254
3342.000000;3.533321
3341.000000;3.324569
3340.000000;3.477753
3339.000000;3.727679
3338.000000;3.269448
3337.000000;3.092072
3336.000000;3.209318
3335.000000;3.561019
3334.000000;3.182610
3333.000000;2.866951
3332.000000;2.758107
3331.000000;2.774540
3330.000000;2.917492
3329.000000;3.363738
3328.000000;4.111216
3327.000000;3.447289
3326.000000;3.427405
3325.000000;3.414569
3324.000000;3.426922
3323.000000;3.346726
3322.000000;3.142498
3321.000000;3.095788
3320.000000;3.087367
3319.000000;3.011607
3318.000000;2.952557
3317.000000;3.102253
3316.000000;3.332518
3315.000000;3.027940
3314.000000;2.806847
3313.000000;2.768388
3312.000000;2.803306
3311.000000;2.989272
3310.000000;3.563345
3309.000000;3.222421
3308.000000;2.903206
3307.000000;2.835512
3306.000000;2.835894
3305.000000;2.871541
3304.000000;2.899549
3303.000000;2.928487
3302.000000;2.973172
3301.000000;3.074708
3300.000000;3.210747
3299.000000;3.168871
3298.000000;3.026717
3297.000000;3.012201
3296.000000;3.149348
3295.000000;3.376972
3294.000000;3.580388
3293.000000;3.559686
3292.000000;3.242890
3291.000000;3.005083
3290.000000;2.879861
3289.000000;2.804904
3288.000000;2.767422
3287.000000;2.767013
3286.000000;2.815479
3285.000000;2.897314
3284.000000;3.013471
3283.000000;3.113402
3282.000000;3.283887
3281.000000;3.718380
3280.000000;3.262688
3279.000000;2.956179
3278.000000;2.891857
3277.000000;2.967448
3276.000000;3.301764
3275.000000;3.989309
3274.000000;3.564107
3273.000000;3.124543
3272.000000;2.841379
3271.000000;2.747089
3270.000000;2.825285
3269.000000;3.075682
3268.000000;3.503000
3267.000000;3.685369
3266.000000;3.387445
3265.000000;3.177876
3264.000000;3.198957
3263.000000;3.303780
3262.000000;2.961535
3261.000000;2.745857
3260.000000;2.717487
3259.000000;2.893315
3258.000000;3.597393
3257.000000;3.285232
3256.000000;3.038792
3255.000000;3.057408
3254.000000;3.127336
3253.000000;3.358439
3252.000000;3.460769
3251.000000;3.227165
3250.000000;3.027590
3249.000000;2.921229
3248.000000;2.946050
3247.000000;3.078962
3246.000000;3.048242
3245.000000;2.948857
3244.000000;3.028444
3243.000000;3.211415
3242.000000;3.285672
3241.000000;3.264138
3240.000000;3.242813
3239.000000;3.441863
3238.000000;3.761470
3237.000000;3.339160
3236.000000;3.152468
3235.000000;3.149792
3234.000000;3.182520
3233.000000;3.223073
3232.000000;3.230483
3231.000000;3.190524
3230.000000;3.053325
3229.000000;2.950547
3228.000000;2.961931
3227.000000;3.106118
3226.000000;3.272517
3225.000000;3.110693
3224.000000;2.971800
3223.000000;3.008392
3222.000000;3.092441
3221.000000;3.063503
3220.000000;2.990082
3219.000000;2.970012
3218.000000;3.005224
3217.000000;3.069295
3216.000000;3.546927
3215.000000;3.532124
3214.000000;2.938657
3213.000000;2.794729
3212.000000;2.788984
3211.000000;2.898168
3210.000000;3.084999
3209.000000;3.157178
3208.000000;3.109961
3207.000000;3.066028
3206.000000;3.168710
3205.000000;3.523995
3204.000000;3.177259
3203.000000;2.943776
3202.000000;2.996618
3201.000000;3.356302
3200.000000;3.428716
3199.000000;3.058207
3198.000000;2.922546
3197.000000;2.802843
3196.000000;2.700166
3195.000000;2.674747
3194.000000;2.764390
3193.000000;3.070693
3192.000000;3.171169
3191.000000;2.881828
3190.000000;2.848273
3189.000000;3.017538
3188.000000;3.213284
3187.000000;3.053533
3186.000000;2.961087
3185.000000;3.037220
3184.000000;3.068727
3183.000000;3.110967
3182.000000;3.223882
3181.000000;2.976506
3180.000000;2.802085
3179.000000;2.854972
3178.000000;3.133095
3177.000000;3.428458
3176.000000;3.463043
3175.000000;3.739774
3174.000000;3.520639
3173.000000;3.183655
3172.000000;2.996141
3171.000000;2.935098
3170.000000;3.069956
3169.000000;3.543864
3168.000000;3.686236
3167.000000;3.725042
3166.000000;4.038943
3165.000000;3.357829
3164.000000;3.141842
3163.000000;2.997255
3162.000000;2.939850
3161.000000;2.948672
3160.000000;2.960809
3159.000000;2.944437
3158.000000;2.920268
3157.000000;2.897888
3156.000000;2.882810
3155.000000;2.925411
3154.000000;3.154424
3153.000000;3.446100
3152.000000;3.107454
3151.000000;3.001551
3150.000000;3.096313
3149.000000;3.099396
3148.000000;3.067425
3147.000000;3.226057
3146.000000;3.282479
3145.000000;2.989537
3144.000000;2.890476
3143.000000;2.952243
3142.000000;3.289561
3141.000000;3.488597
3140.000000;2.927352
3139.000000;2.711812
3138.000000;2.607013
3137.000000;2.582078
3136.000000;2.638153
3135.000000;2.780616
3134.000000;3.094118
3133.000000;3.477499
3132.000000;3.069685
3131.000000;2.805394
3130.000000;2.735173
3129.000000;2.797735
3128.000000;3.062149
3127.000000;3.577347
3126.000000;3.398298
3125.000000;3.090620
3124.000000;3.016213
3123.000000;3.136643
3122.000000;3.232710
3121.000000;3.081339
3120.000000;3.004285
3119.000000;3.132464
3118.000000;3.599862
3117.000000;3.392908
3116.000000;3.048047
3115.000000;2.922556
3114.000000;2.896040
3113.000000;2.967475
3112.000000;2.989767
3111.000000;2.864372
3110.000000;2.780731
3109.000000;2.765644
3108.000000;2.782758
3107.000000;2.830886
3106.000000;2.925950
3105.000000;3.048690
3104.000000;3.031101
3103.000000;2.917495
3102.000000;2.903189
3101.000000;3.054630
3100.000000;3.157246
3099.000000;3.007183
3098.000000;2.963834
3097.000000;3.074654
3096.000000;3.405229
3095.000000;3.726035
3094.000000;3.119148
3093.000000;2.911242
3092.000000;2.900254
3091.000000;3.072617
3090.000000;3.280941
3089.000000;3.135918
3088.000000;3.063149
3087.000000;3.113345
3086.000000;3.294025
3085.000000;3.751226
3084.000000;3.731366
3083.000000;3.292803
3082.000000;3.070196
3081.000000;2.881163
3080.000000;2.797276
3079.000000;2.842130
3078.000000;3.001496
3077.000000;3.130011
3076.000000;3.032754
3075.000000;2.870700
3074.000000;2.789611
3073.000000;2.810020
3072.000000;2.939341
3071.000000;3.185773
3070.000000;3.102929
3069.000000;2.906579
3068.000000;2.845589
3067.000000;2.869651
3066.000000;2.943368
3065.000000;3.150336
3064.000000;3.491851
3063.000000;3.137013
3062.000000;3.020724
3061.000000;3.102556
3060.000000;3.207994
3059.000000;3.465834
3058.000000;3.454082
3057.000000;2.920247
3056.000000;2.722788
3055.000000;2.664561
3054.000000;2.700656
3053.000000;2.767020
3052.000000;2.818055
3051.000000;2.869872
3050.000000;2.954689
3049.000000;3.044976
3048.000000;3.066581
3047.000000;3.033895
3046.000000;2.966676
3045.000000;2.851841
3044.000000;2.761263
3043.000000;2.791294
3042.000000;3.056639
3041.000000;3.420898
3040.000000;2.899273
3039.000000;2.713543
3038.000000;2.685698
3037.000000;2.777892
3036.000000;3.020947
3035.000000;3.466773
3034.000000;3.257101
3033.000000;2.951823
3032.000000;2.890730
3031.000000;2.933967
3030.000000;3.002021
3029.000000;3.065951
3028.000000;3.164109
3027.000000;3.511641
3026.000000;3.894374
3025.000000;3.417751
3024.000000;3.164828
3023.000000;2.993626
3022.000000;2.913361
3021.000000;2.937593
3020.000000;3.056580
3019.000000;3.253053
3018.000000;3.493935
3017.000000;3.675581
3016.000000;3.534798
3015.000000;3.269830
3014.000000;3.052005
3013.000000;2.903691
3012.000000;2.849016
3011.000000;2.931785
3010.000000;3.146807
3009.000000;3.045609
3008.000000;2.842477
3007.000000;2.788230
3006.000000;2.811949
3005.000000;2.944643
3004.000000;3.150558
3003.000000;2.933072
3002.000000;2.722400
3001.000000;2.687217
3000.000000;2.742901
2999.000000;2.861524
2998.000000;2.988700
2997.000000;2.999561
2996.000000;2.961294
2995.000000;3.016715
2994.000000;3.106364
2993.000000;3.092608
2992.000000;3.003195
2991.000000;2.970419
2990.000000;3.095553
2989.000000;3.859556
2988.000000;3.475051
2987.000000;3.383142
2986.000000;3.634130
2985.000000;3.591356
2984.000000;3.664239
2983.000000;3.881284
2982.000000;3.655268
2981.000000;3.359249
2980.000000;3.230299
2979.000000;3.424169
2978.000000;3.692153
2977.000000;3.155662
2976.000000;2.987225
2975.000000;2.990827
2974.000000;3.178636
2973.000000;3.654658
2972.000000;3.514482
2971.000000;3.199112
2970.000000;3.114323
2969.000000;2.993309
2968.000000;2.888227
2967.000000;2.878784
2966.000000;3.018636
2965.000000;3.222525
2964.000000;3.115812
2963.000000;3.076367
2962.000000;3.177155
2961.000000;3.179034
2960.000000;3.128284
2959.000000;3.141007
2958.000000;3.254690
2957.000000;3.506035
2956.000000;3.805018
2955.000000;3.554999
2954.000000;3.378757
2953.000000;3.322176
2952.000000;3.049870
2951.000000;2.886065
2950.000000;2.937907
2949.000000;3.135142
2948.000000;3.088645
2947.000000;2.974611
2946.000000;2.994857
2945.000000;3.095328
2944.000000;3.318852
2943.000000;3.909512
2942.000000;3.597936
2941.000000;3.189228
2940.000000;3.001041
2939.000000;2.870325
2938.000000;2.819027
2937.000000;2.834682
2936.000000;2.836752
2935.000000;2.809485
2934.000000;2.838982
2933.000000;2.952053
2932.000000;3.125874
2931.000000;3.166387
2930.000000;3.005718
2929.000000;2.931395
2928.000000;3.076945
2927.000000;3.528380
2926.000000;3.103520
2925.000000;2.849701
2924.000000;2.801306
2923.000000;2.875570
2922.000000;3.003752
2921.000000;3.173510
2920.000000;3.186841
2919.000000;2.945417
2918.000000;2.849758
2917.000000;2.923874
2916.000000;3.215845
2915.000000;3.667661
2914.000000;3.185097
2913.000000;2.893853
2912.000000;2.759444
2911.000000;2.679026
2910.000000;2.639132
2909.000000;2.613884
2908.000000;2.598388
2907.000000;2.613977
2906.000000;2.671459
2905.000000;2.750019
2904.000000;2.815506
2903.000000;2.868527
2902.000000;2.976686
2901.000000;3.280829
2900.000000;3.181518
2899.000000;2.786129
2898.000000;2.680020
2897.000000;2.715114
2896.000000;2.840508
2895.000000;3.017263
2894.000000;3.107392
2893.000000;2.946682
2892.000000;2.923302
2891.000000;3.062690
2890.000000;3.728883
2889.000000;3.648562
2888.000000;3.091965
2887.000000;2.940050
2886.000000;2.895110
2885.000000;2.901730
2884.000000;2.862586
2883.000000;2.830646
2882.000000;2.823126
2881.000000;2.788240
2880.000000;2.762979
2879.000000;2.839299
2878.000000;3.101710
2877.000000;3.425854
2876.000000;3.094715
2875.000000;2.995525
2874.000000;3.027354
2873.000000;3.177090
2872.000000;3.365530
2871.000000;3.422826
2870.000000;3.266046
2869.000000;3.100984
2868.000000;3.034519
2867.000000;3.015426
2866.000000;3.016510
2865.000000;3.099205
2864.000000;3.366277
2863.000000;3.919126
2862.000000;3.745669
2861.000000;3.258847
2860.000000;3.101583
2859.000000;3.188037
2858.000000;3.407934
2857.000000;3.306390
2856.000000;3.205394
2855.000000;3.232069
2854.000000;3.591270
2853.000000;3.381892
2852.000000;2.923762
2851.000000;2.751601
2850.000000;2.719916
2849.000000;2.763695
2848.000000;2.806093
2847.000000;2.829008
2846.000000;2.887590
2845.000000;2.963232
2844.000000;2.952448
2843.000000;2.870994
2842.000000;2.801341
2841.000000;2.808151
2840.000000;2.901236
2839.000000;3.001837
2838.000000;3.093514
2837.000000;3.306075
2836.000000;3.167388
2835.000000;2.974845
2834.000000;3.007800
2833.000000;3.149933
2832.000000;3.257724
2831.000000;3.499304
2830.000000;3.376920
2829.000000;3.061568
2828.000000;2.908977
2827.000000;2.855937
2826.000000;2.917479
2825.000000;3.117687
2824.000000;3.220380
2823.000000;3.105482
2822.000000;3.074835
2821.000000;3.269423
2820.000000;3.946654
2819.000000;3.137187
2818.000000;3.017732
2817.000000;3.122157
2816.000000;3.550523
2815.000000;3.750035
2814.000000;3.410706
2813.000000;3.244322
2812.000000;3.000253
2811.000000;2.809325
2810.000000;2.720362
2809.000000;2.779846
2808.000000;2.985068
2807.000000;3.537192
2806.000000;3.215837
2805.000000;2.875753
2804.000000;2.772585
2803.000000;2.763549
2802.000000;2.826160
2801.000000;2.903411
2800.000000;2.956602
2799.000000;2.967856
2798.000000;2.929628
2797.000000;2.871481
2796.000000;2.844813
2795.000000;2.872009
2794.000000;2.958318
2793.000000;3.095561
2792.000000;3.204301
2791.000000;3.163906
2790.000000;3.039166
2789.000000;2.939025
2788.000000;2.907941
2787.000000;2.949690
2786.000000;3.068442
2785.000000;3.263342
2784.000000;3.666581
2783.000000;3.731220
2782.000000;3.405677
2781.000000;3.311326
2780.000000;3.224027
2779.000000;3.059653
2778.000000;2.928415
2777.000000;2.930542
2776.000000;3.111066
2775.000000;3.642434
2774.000000;4.196494
2773.000000;3.739491
2772.000000;3.227037
2771.000000;3.091105
2770.000000;3.248892
2769.000000;3.468028
2768.000000;3.012406
2767.000000;2.929756
2766.000000;3.076309
2765.000000;3.248910
2764.000000;3.074740
2763.000000;3.046133
2762.000000;3.169444
2761.000000;3.386812
2760.000000;3.356618
2759.000000;3.141483
2758.000000;3.017203
2757.000000;3.029000
2756.000000;3.289776
2755.000000;3.786523
2754.000000;3.461416
2753.000000;3.340815
2752.000000;3.471421
2751.000000;3.550708
2750.000000;3.763576
2749.000000;3.731820
2748.000000;3.315919
2747.000000;3.198224
2746.000000;3.289637
2745.000000;3.497279
2744.000000;3.279940
2743.000000;2.974501
2742.000000;2.842047
2741.000000;2.855302
2740.000000;2.958965
2739.000000;2.986478
2738.000000;2.912230
2737.000000;2.879402
2736.000000;2.897409
2735.000000;2.916473
2734.000000;2.880100
2733.000000;2.826441
2732.000000;2.822901
2731.000000;2.906391
2730.000000;3.047086
2729.000000;3.092681
2728.000000;3.104283
2727.000000;3.322433
2726.000000;3.598043
2725.000000;3.251608
2724.000000;3.029200
2723.000000;2.866095
2722.000000;2.734790
2721.000000;2.696402
2720.000000;2.740577
2719.000000;2.817733
2718.000000;2.898559
2717.000000;3.045858
2716.000000;3.390602
2715.000000;4.004418
2714.000000;3.984814
2713.000000;3.650859
2712.000000;3.286996
2711.000000;3.044633
2710.000000;2.841207
2709.000000;2.775521
2708.000000;2.853147
2707.000000;3.049819
2706.000000;3.317893
2705.000000;3.349724
2704.000000;3.148018
2703.000000;3.062988
2702.000000;3.095601
2701.000000;3.216793
2700.000000;3.366836
2699.000000;3.363733
2698.000000;3.195732
2697.000000;3.128300
2696.000000;3.194024
2695.000000;3.256071
2694.000000;3.348444
2693.000000;3.705225
2692.000000;3.386185
2691.000000;3.318759
2690.000000;3.310119
2689.000000;3.054154
2688.000000;3.002328
2687.000000;3.197673
2686.000000;3.384275
2685.000000;3.234561
2684.000000;3.271395
2683.000000;3.573269
2682.000000;4.057345
2681.000000;3.337475
2680.000000;3.057448
2679.000000;2.927932
2678.000000;2.906612
2677.000000;2.957488
2676.000000;2.936394
2675.000000;2.773197
2674.000000;2.650182
2673.000000;2.647904
2672.000000;2.770584
2671.000000;2.973341
2670.000000;3.096168
2669.000000;3.072620
2668.000000;3.042054
2667.000000;3.038970
2666.000000;3.055041
2665.000000;3.156629
2664.000000;3.547484
2663.000000;3.370340
2662.000000;3.017441
2661.000000;2.920578
2660.000000;2.929455
2659.000000;2.934274
2658.000000;2.890773
2657.000000;2.851192
2656.000000;2.841481
2655.000000;2.845693
2654.000000;2.852602
2653.000000;2.851513
2652.000000;2.804431
2651.000000;2.727280
2650.000000;2.698395
2649.000000;2.779818
2648.000000;2.976281
2647.000000;3.175598
2646.000000;3.337171
2645.000000;3.089522
2644.000000;2.886569
2643.000000;2.859646
2642.000000;2.855989
2641.000000;2.848171
2640.000000;2.872100
2639.000000;2.884624
2638.000000;2.952820
2637.000000;3.216997
2636.000000;3.363109
2635.000000;3.416744
2634.000000;3.628428
2633.000000;3.207281
2632.000000;3.262119
2631.000000;3.714392
2630.000000;3.149141
2629.000000;2.904232
2628.000000;2.897196
2627.000000;3.290073
2626.000000;3.766604
2625.000000;3.105341
2624.000000;3.032174
2623.000000;3.003475
2622.000000;3.022240
2621.000000;3.074860
2620.000000;3.129514
2619.000000;3.055300
2618.000000;2.882393
2617.000000;2.760848
2616.000000;2.742541
2615.000000;2.835674
2614.000000;3.042848
2613.000000;3.345247
2612.000000;3.392745
2611.000000;3.323749
2610.000000;3.357047
2609.000000;3.340010
2608.000000;3.258283
2607.000000;3.171304
2606.000000;3.071709
2605.000000;3.010298
2604.000000;3.049872
2603.000000;3.194817
2602.000000;3.338526
2601.000000;3.416241
2600.000000;3.475067
2599.000000;3.447128
2598.000000;3.389978
2597.000000;3.409777
2596.000000;3.537130
2595.000000;3.559353
2594.000000;3.359116
2593.000000;3.200504
2592.000000;3.174580
2591.000000;3.384902
2590.000000;3.621833
2589.000000;3.419362
2588.000000;3.459330
2587.000000;3.644207
2586.000000;3.600727
2585.000000;3.921669
2584.000000;3.753370
2583.000000;3.667453
2582.000000;4.125315
2581.000000;3.881292
2580.000000;3.214946
2579.000000;2.851442
2578.000000;2.695048
2577.000000;2.695656
2576.000000;2.834342
2575.000000;3.177215
2574.000000;3.738935
2573.000000;3.411665
2572.000000;3.173754
2571.000000;3.078613
2570.000000;3.077847
2569.000000;3.149852
2568.000000;3.399402
2567.000000;3.599247
2566.000000;3.144115
2565.000000;2.943422
2564.000000;2.948117
2563.000000;2.941720
2562.000000;2.808427
2561.000000;2.706950
2560.000000;2.721739
2559.000000;2.873398
2558.000000;3.160931
2557.000000;3.483766
2556.000000;3.352661
2555.000000;3.048349
2554.000000;3.019360
2553.000000;3.347823
2552.000000;3.414577
2551.000000;2.973400
2550.000000;2.876242
2549.000000;2.902061
2548.000000;3.054841
2547.000000;3.238265
2546.000000;3.123565
2545.000000;3.000658
2544.000000;2.998352
2543.000000;3.050232
2542.000000;3.065433
2541.000000;3.040416
2540.000000;3.069591
2539.000000;3.234042
2538.000000;3.567985
2537.000000;3.196131
2536.000000;2.892114
2535.000000;2.807873
2534.000000;2.905247
2533.000000;3.337999
2532.000000;3.158272
2531.000000;2.999894
2530.000000;3.146912
2529.000000;3.289929
2528.000000;3.390026
2527.000000;3.397587
2526.000000;3.209787
2525.000000;3.187375
2524.000000;3.261023
2523.000000;3.295984
2522.000000;3.306403
2521.000000;3.456465
2520.000000;3.594608
2519.000000;3.487083
2518.000000;3.278069
2517.000000;3.043544
2516.000000;2.929690
2515.000000;2.914724
2514.000000;2.974599
2513.000000;3.104679
2512.000000;3.105773
2511.000000;2.950469
2510.000000;2.864588
2509.000000;2.862113
2508.000000;2.899747
2507.000000;2.967236
2506.000000;3.084031
2505.000000;3.272800
2504.000000;3.404457
2503.000000;3.277251
2502.000000;3.176354
2501.000000;3.139765
2500.000000;3.096130
2499.000000;3.118441
2498.000000;3.244105
2497.000000;3.290979
2496.000000;3.206773
2495.000000;3.164770
2494.000000;3.435496
2493.000000;3.782904
2492.000000;3.242366
2491.000000;3.281734
2490.000000;3.596110
2489.000000;3.290244
2488.000000;3.142322
2487.000000;3.355568
2486.000000;3.197098
2485.000000;2.936629
2484.000000;2.923787
2483.000000;3.040241
2482.000000;3.007370
2481.000000;2.868553
2480.000000;2.820507
2479.000000;2.914556
2478.000000;2.959049
2477.000000;2.761802
2476.000000;2.691219
2475.000000;2.798194
2474.000000;3.033548
2473.000000;3.161514
2472.000000;3.052396
2471.000000;3.001044
2470.000000;3.164946
2469.000000;3.608976
2468.000000;3.397106
2467.000000;3.280797
2466.000000;3.469307
2465.000000;4.038021
2464.000000;3.929439
2463.000000;3.268906
2462.000000;3.097918
2461.000000;3.060373
2460.000000;3.048335
2459.000000;3.024184
2458.000000;2.991265
2457.000000;2.977230
2456.000000;2.997653
2455.000000;3.075276
2454.000000;3.369775
2453.000000;3.352656
2452.000000;2.943260
2451.000000;2.777147
2450.000000;2.795732
2449.000000;2.955076
2448.000000;2.957961
2447.000000;2.811345
2446.000000;2.781519
2445.000000;2.849842
2444.000000;2.964160
2443.000000;2.973514
2442.000000;2.857236
2441.000000;2.796533
2440.000000;2.840174
2439.000000;2.959757
2438.000000;3.018464
2437.000000;2.939691
2436.000000;2.887542
2435.000000;3.023900
2434.000000;3.158329
2433.000000;2.961291
2432.000000;2.886191
2431.000000;2.986457
2430.000000;3.145255
2429.000000;3.192189
2428.000000;3.029185
2427.000000;2.904035
2426.000000;2.884009
2425.000000;2.915393
2424.000000;2.952436
2423.000000;2.993882
2422.000000;3.089239
2421.000000;3.228816
2420.000000;3.331913
2419.000000;3.303296
2418.000000;3.252318
2417.000000;3.298949
2416.000000;3.024447
2415.000000;2.777043
2414.000000;2.748844
2413.000000;2.934206
2412.000000;3.165883
2411.000000;2.977231
2410.000000;2.784611
2409.000000;2.697187
2408.000000;2.710155
2407.000000;2.822157
2406.000000;2.932788
2405.000000;2.881134
2404.000000;2.759991
2403.000000;2.727816
2402.000000;2.830437
2401.000000;3.147165
2400.000000;3.324712
2399.000000;3.068726
2398.000000;3.037058
2397.000000;3.206996
2396.000000;3.376956
2395.000000;3.518798
2394.000000;3.577081
2393.000000;3.564229
2392.000000;3.604314
2391.000000;3.404145
2390.000000;3.304256
2389.000000;3.370790
2388.000000;3.310690
2387.000000;3.093773
2386.000000;2.983285
2385.000000;3.027979
2384.000000;3.377812
2383.000000;3.544717
2382.000000;3.173674
2381.000000;3.115637
2380.000000;3.199525
2379.000000;3.383718
2378.000000;3.859208
2377.000000;4.060626
2376.000000;3.576480
2375.000000;3.359445
2374.000000;3.251867
2373.000000;3.221250
2372.000000;3.287616
2371.000000;3.417166
2370.000000;3.452700
2369.000000;3.339292
2368.000000;3.265964
2367.000000;3.285927
2366.000000;3.378994
2365.000000;3.473706
2364.000000;3.527672
2363.000000;3.575687
2362.000000;3.641824
2361.000000;3.698033
2360.000000;3.648838
2359.000000;3.526091
2358.000000;3.437799
2357.000000;3.397523
2356.000000;3.392426
2355.000000;3.392390
2354.000000;3.407981
2353.000000;3.448448
2352.000000;3.386732
2351.000000;3.327989
2350.000000;3.370232
2349.000000;3.396909
2348.000000;3.393803
2347.000000;3.380048
2346.000000;3.496775
2345.000000;3.618709
2344.000000;3.258825
2343.000000;3.048661
2342.000000;3.042664
2341.000000;3.198980
2340.000000;3.560849
2339.000000;3.768020
2338.000000;3.558471
2337.000000;3.483567
2336.000000;3.606431
2335.000000;3.667062
2334.000000;3.469549
2333.000000;3.383398
2332.000000;3.401606
2331.000000;3.451912
2330.000000;3.506621
2329.000000;3.529320
2328.000000;3.532627
2327.000000;3.533016
2326.000000;3.562751
2325.000000;3.631809
2324.000000;3.721552
2323.000000;3.742932
2322.000000;3.772317
2321.000000;3.868965
2320.000000;3.821123
2319.000000;3.756811
2318.000000;3.783333
2317.000000;3.736925
2316.000000;3.594693
2315.000000;3.493632
2314.000000;3.477892
2313.000000;3.563825
2312.000000;3.825717
2311.000000;3.966033
2310.000000;3.778833
2309.000000;3.832161
2308.000000;4.125788
2307.000000;4.032112
2306.000000;3.766029
2305.000000;3.712059
2304.000000;3.754436
2303.000000;3.811057
2302.000000;3.825416
2301.000000;3.665476
2300.000000;3.462055
2299.000000;3.343744
2298.000000;3.308875
2297.000000;3.325367
2296.000000;3.276246
2295.000000;3.126065
2294.000000;3.035425
2293.000000;3.074852
2292.000000;3.288566
2291.000000;3.549505
2290.000000;3.472277
2289.000000;3.441112
2288.000000;3.525520
2287.000000;3.476357
2286.000000;3.314837
2285.000000;3.222556
2284.000000;3.289744
2283.000000;3.531845
2282.000000;3.583921
2281.000000;3.467299
2280.000000;3.487589
2279.000000;3.502728
2278.000000;3.364533
2277.000000;3.182579
2276.000000;3.086601
2275.000000;3.103147
2274.000000;3.508576
2273.000000;3.812111
2272.000000;3.352803
2271.000000;3.530324
2270.000000;3.627541
2269.000000;3.283933
2268.000000;3.017056
2267.000000;2.820792
2266.000000;2.715480
2265.000000;2.668522
2264.000000;2.667666
2263.000000;2.726453
2262.000000;2.870958
2261.000000;3.111395
2260.000000;3.399890
2259.000000;3.479111
2258.000000;3.364776
2257.000000;3.310969
2256.000000;3.267341
2255.000000;3.236373
2254.000000;3.328152
2253.000000;3.785110
2252.000000;5.240728
2251.000000;3.674957
2250.000000;3.336024
2249.000000;3.188345
2248.000000;3.239942
2247.000000;3.376532
2246.000000;3.375049
2245.000000;3.184746
2244.000000;3.208622
2243.000000;3.881052
2242.000000;3.639907
2241.000000;3.605140
2240.000000;3.697333
2239.000000;3.382765
2238.000000;3.132698
2237.000000;2.794597
2236.000000;2.635569
2235.000000;2.597155
2234.000000;2.608909
2233.000000;2.675891
2232.000000;2.760199
2231.000000;2.755310
2230.000000;2.744762
2229.000000;2.848135
2228.000000;3.164925
2227.000000;3.562541
2226.000000;3.332723
2225.000000;3.291937
2224.000000;3.203875
2223.000000;3.021118
2222.000000;2.975781
2221.000000;3.034564
2220.000000;3.147411
2219.000000;3.221302
2218.000000;3.252327
2217.000000;3.344920
2216.000000;3.513440
2215.000000;3.612118
2214.000000;3.387363
2213.000000;3.156842
2212.000000;3.061856
2211.000000;2.972011
2210.000000;2.854902
2209.000000;2.779101
2208.000000;2.775297
2207.000000;2.817624
2206.000000;2.864802
2205.000000;2.910590
2204.000000;3.047967
2203.000000;3.169005
2202.000000;3.020628
2201.000000;2.959859
2200.000000;3.131752
2199.000000;3.370637
2198.000000;3.231818
2197.000000;3.056112
2196.000000;2.945239
2195.000000;2.907604
2194.000000;2.972374
2193.000000;3.072323
2192.000000;3.124440
2191.000000;3.108825
2190.000000;3.074804
2189.000000;2.990056
2188.000000;2.894753
2187.000000;2.865092
2186.000000;2.898545
2185.000000;2.979780
2184.000000;3.148316
2183.000000;3.551625
2182.000000;3.911713
2181.000000;3.377310
2180.000000;3.068147
2179.000000;2.914589
2178.000000;2.889005
2177.000000;2.939248
2176.000000;2.954001
2175.000000;2.949122
2174.000000;2.974672
2173.000000;3.025140
2172.000000;3.076387
2171.000000;3.027447
2170.000000;2.968496
2169.000000;3.275627
2168.000000;3.587336
2167.000000;3.042687
2166.000000;2.858021
2165.000000;2.809932
2164.000000;2.832448
2163.000000;2.806441
2162.000000;2.756973
2161.000000;2.813980
2160.000000;3.041418
2159.000000;3.410236
2158.000000;3.357862
2157.000000;3.218022
2156.000000;3.336912
2155.000000;3.809957
2154.000000;3.412027
2153.000000;3.159665
2152.000000;3.166054
2151.000000;3.325504
2150.000000;3.773189
2149.000000;3.410307
2148.000000;3.085623
2147.000000;3.059526
2146.000000;3.215450
2145.000000;3.222315
2144.000000;3.082237
2143.000000;3.405602
2142.000000;3.885445
2141.000000;3.253661
2140.000000;3.625114
2139.000000;3.755254
2138.000000;3.246986
2137.000000;3.609783
2136.000000;3.266680
2135.000000;2.862201
2134.000000;2.752050
2133.000000;2.754204
2132.000000;2.859948
2131.000000;3.075418
2130.000000;3.322833
2129.000000;3.339677
2128.000000;3.338110
2127.000000;3.261170
2126.000000;3.174615
2125.000000;3.140736
2124.000000;3.103829
2123.000000;3.083808
2122.000000;3.279585
2121.000000;3.754679
2120.000000;3.160772
2119.000000;2.808493
2118.000000;2.687310
2117.000000;2.715847
2116.000000;2.900823
2115.000000;3.399057
2114.000000;3.605704
2113.000000;3.065898
2112.000000;2.890276
2111.000000;2.816159
2110.000000;2.866810
2109.000000;2.970673
2108.000000;2.921973
2107.000000;2.864416
2106.000000;2.933258
2105.000000;3.047355
2104.000000;3.048453
2103.000000;3.040193
2102.000000;3.143867
2101.000000;3.254288
2100.000000;3.410339
2099.000000;3.930999
2098.000000;3.582541
2097.000000;3.298488
2096.000000;3.269788
2095.000000;3.233867
2094.000000;3.148625
2093.000000;2.993110
2092.000000;2.872036
2091.000000;2.837965
2090.000000;2.912755
2089.000000;3.054920
2088.000000;3.339178
2087.000000;3.692608
2086.000000;3.214806
2085.000000;2.960679
2084.000000;2.958104
2083.000000;3.101210
2082.000000;3.122046
2081.000000;2.931169
2080.000000;2.855198
2079.000000;2.940240
2078.000000;3.190028
2077.000000;3.473704
2076.000000;3.296054
2075.000000;3.021516
2074.000000;2.881776
2073.000000;2.855348
2072.000000;2.894272
2071.000000;2.937434
2070.000000;2.914497
2069.000000;2.893202
2068.000000;2.885673
2067.000000;3.127769
2066.000000;3.593118
2065.000000;3.057727
2064.000000;2.938403
2063.000000;3.377801
2062.000000;3.400868
2061.000000;2.913481
2060.000000;2.892483
2059.000000;3.057998
2058.000000;3.587744
2057.000000;3.772812
2056.000000;3.239478
2055.000000;3.245618
2054.000000;3.252149
2053.000000;3.238064
2052.000000;3.163717
2051.000000;3.153838
2050.000000;3.348822
2049.000000;3.257194
2048.000000;2.995933
2047.000000;3.021091
2046.000000;3.403749
2045.000000;3.548289
2044.000000;3.356019
2043.000000;3.376495
2042.000000;3.255637
2041.000000;3.401931
2040.000000;3.465610
2039.000000;3.044151
2038.000000;2.926816
2037.000000;3.017548
2036.000000;3.258831
2035.000000;3.330179
2034.000000;3.210271
2033.000000;3.280160
2032.000000;3.442385
2031.000000;3.418076
2030.000000;3.100825
2029.000000;2.879343
2028.000000;2.782560
2027.000000;2.763774
2026.000000;2.811282
2025.000000;2.944672
2024.000000;3.333824
2023.000000;3.594633
2022.000000;3.152541
2021.000000;2.992137
2020.000000;2.955987
2019.000000;3.011502
2018.000000;3.289681
2017.000000;3.369783
2016.000000;3.089908
2015.000000;3.081853
2014.000000;3.248877
2013.000000;3.410597
2012.000000;3.489219
2011.000000;3.406189
2010.000000;3.152170
2009.000000;2.904015
2008.000000;2.767444
2007.000000;2.694254
2006.000000;2.637503
2005.000000;2.607831
2004.000000;2.634963
2003.000000;2.732296
2002.000000;2.907097
2001.000000;3.138687
2000.000000;3.330020
1999.000000;3.359668
1998.000000;3.278229
1997.000000;3.171234
1996.000000;3.163485
1995.000000;3.234651
1994.000000;3.464090
1993.000000;3.820633
1992.000000;3.266080
1991.000000;2.997283
1990.000000;2.981349
1989.000000;3.117695
1988.000000;3.347955
1987.000000;3.609387
1986.000000;3.369092
1985.000000;3.092518
1984.000000;3.179255
1983.000000;3.321557
1982.000000;3.112339
1981.000000;3.050297
1980.000000;3.273632
1979.000000;3.311125
1978.000000;3.060664
1977.000000;3.025562
1976.000000;3.144641
1975.000000;3.238666
1974.000000;3.119525
1973.000000;2.952610
1972.000000;2.829854
1971.000000;2.759022
1970.000000;2.766590
1969.000000;2.844498
1968.000000;2.966938
1967.000000;3.051931
1966.000000;3.080217
1965.000000;3.127465
1964.000000;3.254003
1963.000000;3.318185
1962.000000;3.092758
1961.000000;2.905089
1960.000000;2.857217
1959.000000;2.935323
1958.000000;3.156636
1957.000000;3.347548
1956.000000;3.223218
1955.000000;3.170494
1954.000000;3.207361
1953.000000;3.074312
1952.000000;2.976176
1951.000000;3.043069
1950.000000;2.977971
1949.000000;2.779846
1948.000000;2.675984
1947.000000;2.650495
1946.000000;2.687977
1945.000000;2.787195
1944.000000;2.945794
1943.000000;3.128196
1942.000000;3.293332
1941.000000;3.382516
1940.000000;3.313376
1939.000000;3.515838
1938.000000;3.457670
1937.000000;2.955881
1936.000000;2.824784
1935.000000;2.875141
1934.000000;3.189750
1933.000000;4.011361
1932.000000;3.285471
1931.000000;3.321754
1930.000000;3.553352
1929.000000;3.337524
1928.000000;3.422759
1927.000000;3.213041
1926.000000;2.965193
1925.000000;3.013286
1924.000000;3.167605
1923.000000;3.064031
1922.000000;2.907179
1921.000000;2.877120
1920.000000;2.949850
1919.000000;3.030671
1918.000000;3.009264
1917.000000;2.918350
1916.000000;2.866685
1915.000000;2.906609
1914.000000;3.083604
1913.000000;3.357734
1912.000000;3.400286
1911.000000;3.413865
1910.000000;3.610710
1909.000000;3.966933
1908.000000;3.498804
1907.000000;2.999002
1906.000000;2.769224
1905.000000;2.684826
1904.000000;2.679623
1903.000000;2.690248
1902.000000;2.709191
1901.000000;2.785586
1900.000000;2.926990
1899.000000;3.217090
1898.000000;3.696680
1897.000000;3.347428
1896.000000;3.094262
1895.000000;3.049386
1894.000000;3.008580
1893.000000;2.923958
1892.000000;2.874248
1891.000000;2.921388
1890.000000;3.133045
1889.000000;3.533674
1888.000000;3.328353
1887.000000;3.094878
1886.000000;3.269340
1885.000000;3.460224
1884.000000;2.950608
1883.000000;2.764093
1882.000000;2.740406
1881.000000;2.775278
1880.000000;2.880973
1879.000000;3.002404
1878.000000;2.997096
1877.000000;2.908055
1876.000000;2.902436
1875.000000;2.921816
1874.000000;2.863548
1873.000000;2.811253
1872.000000;2.837132
1871.000000;2.912855
1870.000000;3.009302
1869.000000;3.131534
1868.000000;3.255782
1867.000000;3.121154
1866.000000;2.926442
1865.000000;2.853526
1864.000000;2.919292
1863.000000;3.085314
1862.000000;2.999939
1861.000000;2.875552
1860.000000;2.941680
1859.000000;3.292754
1858.000000;3.364868
1857.000000;2.945336
1856.000000;2.802996
1855.000000;2.814994
1854.000000;2.904575
1853.000000;2.995640
1852.000000;3.012766
1851.000000;2.986972
1850.000000;3.027144
1849.000000;3.155324
1848.000000;3.373885
1847.000000;3.716977
1846.000000;3.479818
1845.000000;3.252330
1844.000000;3.363278
1843.000000;3.555380
1842.000000;3.353543
1841.000000;3.278690
1840.000000;3.488088
1839.000000;3.666032
1838.000000;3.486037
1837.000000;3.488753
1836.000000;3.900304
1835.000000;4.263753
1834.000000;4.240494
1833.000000;3.578317
1832.000000;3.282358
1831.000000;3.234184
1830.000000;3.222541
1829.000000;3.175378
1828.000000;3.161554
1827.000000;3.206454
1826.000000;3.282083
1825.000000;3.308866
1824.000000;3.276654
1823.000000;3.273878
1822.000000;3.149585
1821.000000;2.998253
1820.000000;2.974444
1819.000000;3.079430
1818.000000;3.309564
1817.000000;3.705153
1816.000000;3.859351
1815.000000;3.522772
1814.000000;3.398211
1813.000000;3.444994
1812.000000;3.561841
1811.000000;3.504515
1810.000000;3.269773
1809.000000;3.069285
1808.000000;2.956415
1807.000000;2.932859
1806.000000;3.083808
1805.000000;3.375933
1804.000000;3.141286
1803.000000;3.000704
1802.000000;3.080800
1801.000000;3.183888
1800.000000;3.086723
1799.000000;2.991332
1798.000000;2.990510
1797.000000;3.038332
1796.000000;3.051232
1795.000000;2.954502
1794.000000;2.846481
1793.000000;2.818956
1792.000000;2.893519
1791.000000;3.037859
1790.000000;3.206637
1789.000000;3.287859
1788.000000;3.242930
1787.000000;3.442738
1786.000000;3.529854
1785.000000;3.110696
1784.000000;2.932753
1783.000000;2.932588
1782.000000;3.071103
1781.000000;3.331356
1780.000000;3.240548
1779.000000;2.936094
1778.000000;2.745458
1777.000000;2.690320
1776.000000;2.774631
1775.000000;3.084040
1774.000000;3.616591
1773.000000;3.283056
1772.000000;3.218310
1771.000000;3.279438
1770.000000;3.105103
1769.000000;2.956169
1768.000000;2.942670
1767.000000;3.020221
1766.000000;2.997541
1765.000000;2.886343
1764.000000;2.857707
1763.000000;2.925296
1762.000000;3.120406
1761.000000;3.327491
1760.000000;3.289949
1759.000000;3.306504
1758.000000;3.401320
1757.000000;3.416964
1756.000000;3.344784
1755.000000;3.281134
1754.000000;3.376591
1753.000000;3.510597
1752.000000;3.471297
1751.000000;3.344829
1750.000000;3.061430
1749.000000;2.851293
1748.000000;2.791807
1747.000000;2.870734
1746.000000;3.119769
1745.000000;3.363983
1744.000000;3.141015
1743.000000;3.027825
1742.000000;3.066581
1741.000000;3.284824
1740.000000;3.738053
1739.000000;3.527537
1738.000000;3.142192
1737.000000;2.997807
1736.000000;2.973565
1735.000000;3.003897
1734.000000;3.043382
1733.000000;3.112452
1732.000000;3.204549
1731.000000;3.208054
1730.000000;3.130318
1729.000000;3.062030
1728.000000;3.065880
1727.000000;3.136579
1726.000000;3.185557
1725.000000;3.212873
1724.000000;3.275334
1723.000000;3.304315
1722.000000;3.212967
1721.000000;3.086456
1720.000000;2.995327
1719.000000;2.926392
1718.000000;2.870899
1717.000000;2.879234
1716.000000;2.938591
1715.000000;2.869314
1714.000000;2.860454
1713.000000;2.967130
1712.000000;3.079692
1711.000000;3.147012
1710.000000;3.323437
1709.000000;3.625602
1708.000000;3.423074
1707.000000;3.389652
1706.000000;3.623631
1705.000000;3.445356
1704.000000;3.278155
1703.000000;3.404821
1702.000000;3.422614
1701.000000;3.269575
1700.000000;3.213957
1699.000000;3.234669
1698.000000;3.329011
1697.000000;3.456575
1696.000000;3.455566
1695.000000;3.236187
1694.000000;3.022229
1693.000000;2.962181
1692.000000;3.015864
1691.000000;3.085913
1690.000000;3.107696
1689.000000;3.090138
1688.000000;3.105288
1687.000000;3.175282
1686.000000;3.221756
1685.000000;3.204969
1684.000000;3.154834
1683.000000;3.100338
1682.000000;3.119870
1681.000000;3.198742
1680.000000;3.227047
1679.000000;3.190725
1678.000000;3.224941
1677.000000;3.274148
1676.000000;3.262177
1675.000000;3.209145
1674.000000;3.083194
1673.000000;2.970254
1672.000000;2.944845
1671.000000;2.992731
1670.000000;3.073494
1669.000000;3.145165
1668.000000;3.209336
1667.000000;3.283769
1666.000000;3.308235
1665.000000;3.386518
1664.000000;3.576978
1663.000000;3.353284
1662.000000;3.066059
1661.000000;2.926717
1660.000000;2.871223
1659.000000;2.863199
1658.000000;2.878320
1657.000000;2.883265
1656.000000;2.874022
1655.000000;2.905123
1654.000000;2.968816
1653.000000;3.009748
1652.000000;3.011874
1651.000000;3.110305
1650.000000;3.191996
1649.000000;3.209497
1648.000000;3.271334
1647.000000;3.278964
1646.000000;3.243314
1645.000000;3.446698
1644.000000;3.489045
1643.000000;3.110690
1642.000000;3.020718
1641.000000;3.106203
1640.000000;3.325210
1639.000000;3.431638
1638.000000;3.421103
1637.000000;3.753348
1636.000000;3.860497
1635.000000;3.274190
1634.000000;3.115559
1633.000000;3.059726
1632.000000;3.044215
1631.000000;3.055169
1630.000000;3.131224
1629.000000;3.227904
1628.000000;3.255054
1627.000000;3.289589
1626.000000;3.305538
1625.000000;3.335134
1624.000000;3.647182
1623.000000;3.993907
1622.000000;3.602103
1621.000000;3.529178
1620.000000;3.593416
1619.000000;3.401156
1618.000000;3.228344
1617.000000;3.172830
1616.000000;3.200573
1615.000000;3.272459
1614.000000;3.597765
1613.000000;4.168977
1612.000000;3.708726
1611.000000;3.502062
1610.000000;3.093708
1609.000000;2.885921
1608.000000;2.852004
1607.000000;3.033098
1606.000000;3.392757
1605.000000;3.424442
1604.000000;3.492718
1603.000000;3.352240
1602.000000;3.182243
1601.000000;3.192273
1600.000000;3.218892
1599.000000;3.317458
1598.000000;3.432120
1597.000000;3.774462
1596.000000;3.897223
1595.000000;3.667508
1594.000000;3.628625
1593.000000;3.242322
1592.000000;2.988058
1591.000000;2.869305
1590.000000;2.833304
1589.000000;2.845029
1588.000000;2.855665
1587.000000;2.842974
1586.000000;2.842240
1585.000000;2.903102
1584.000000;2.974020
1583.000000;2.954312
1582.000000;2.961189
1581.000000;3.056799
1580.000000;3.150071
1579.000000;3.131527
1578.000000;3.087660
1577.000000;3.117043
1576.000000;3.320679
1575.000000;3.234339
1574.000000;2.898486
1573.000000;2.785484
1572.000000;2.772976
1571.000000;2.808647
1570.000000;2.887082
1569.000000;3.048793
1568.000000;3.389740
1567.000000;3.926590
1566.000000;3.677696
1565.000000;3.348677
1564.000000;3.095110
1563.000000;2.954692
1562.000000;2.939945
1561.000000;3.018927
1560.000000;3.175117
1559.000000;3.341354
1558.000000;3.223323
1557.000000;3.059394
1556.000000;3.016159
1555.000000;3.019458
1554.000000;3.065908
1553.000000;3.217570
1552.000000;3.476064
1551.000000;3.497924
1550.000000;3.304145
1549.000000;3.116195
1548.000000;3.030832
1547.000000;3.070741
1546.000000;3.186818
1545.000000;3.321551
1544.000000;3.322359
1543.000000;3.255561
1542.000000;3.268570
1541.000000;3.262469
1540.000000;3.129356
1539.000000;2.907827
1538.000000;2.745291
1537.000000;2.719866
1536.000000;2.840741
1535.000000;3.061635
1534.000000;3.308155
1533.000000;3.538123
1532.000000;3.744238
1531.000000;3.809194
1530.000000;3.474258
1529.000000;3.047217
1528.000000;2.851521
1527.000000;2.811347
1526.000000;2.854938
1525.000000;2.924957
1524.000000;3.067949
1523.000000;3.381990
1522.000000;3.423055
1521.000000;3.122029
1520.000000;3.038285
1519.000000;3.111385
1518.000000;3.208777
1517.000000;3.183213
1516.000000;3.066632
1515.000000;2.963742
1514.000000;2.962060
1513.000000;3.055935
1512.000000;3.182767
1511.000000;3.221074
1510.000000;3.197628
1509.000000;3.247143
1508.000000;3.302509
1507.000000;3.083194
1506.000000;2.857827
1505.000000;2.845578
1504.000000;3.014241
1503.000000;3.334591
1502.000000;3.546945
1501.000000;3.283543
1500.000000;3.075087
1499.000000;2.978459
1498.000000;2.918049
1497.000000;2.871964
1496.000000;2.833931
1495.000000;2.845664
1494.000000;3.010585
1493.000000;3.461134
1492.000000;3.752346
1491.000000;3.451789
1490.000000;3.204991
1489.000000;3.063242
1488.000000;3.110814
1487.000000;3.291155
1486.000000;3.516009
1485.000000;3.460125
1484.000000;3.149778
1483.000000;2.946650
1482.000000;2.810950
1481.000000;2.748787
1480.000000;2.785382
1479.000000;2.936250
1478.000000;3.193620
1477.000000;3.432356
1476.000000;3.500539
1475.000000;3.726264
1474.000000;3.691947
1473.000000;3.261020
1472.000000;3.081600
1471.000000;2.960342
1470.000000;2.916080
1469.000000;2.970107
1468.000000;3.103571
1467.000000;3.094151
1466.000000;2.931018
1465.000000;2.815544
1464.000000;2.776576
1463.000000;2.852215
1462.000000;3.069186
1461.000000;3.709506
1460.000000;3.532248
1459.000000;3.323479
1458.000000;3.376108
1457.000000;3.350284
1456.000000;3.134110
1455.000000;2.932635
1454.000000;2.840589
1453.000000;2.858002
1452.000000;2.982351
1451.000000;3.106866
1450.000000;2.955771
1449.000000;2.868597
1448.000000;2.899824
1447.000000;2.959241
1446.000000;2.934669
1445.000000;2.909002
1444.000000;3.002829
1443.000000;3.233944
1442.000000;3.203598
1441.000000;3.004706
1440.000000;2.959294
1439.000000;3.009445
1438.000000;3.166893
1437.000000;3.527178
1436.000000;3.353778
1435.000000;3.087815
1434.000000;3.065376
1433.000000;3.084177
1432.000000;3.058558
1431.000000;3.076887
1430.000000;3.221505
1429.000000;3.563998
1428.000000;3.635275
1427.000000;3.473896
1426.000000;3.496454
1425.000000;3.313793
1424.000000;3.122615
1423.000000;3.049821
1422.000000;2.969210
1421.000000;2.878225
1420.000000;2.838032
1419.000000;2.831432
1418.000000;2.847379
1417.000000;2.894485
1416.000000;2.924021
1415.000000;2.879563
1414.000000;2.810829
1413.000000;2.750774
1412.000000;2.744892
1411.000000;2.831975
1410.000000;3.167294
1409.000000;3.191154
1408.000000;2.916846
1407.000000;2.836133
1406.000000;2.810580
1405.000000;2.825194
1404.000000;2.884655
1403.000000;2.942876
1402.000000;2.900545
1401.000000;2.868953
1400.000000;2.912047
1399.000000;3.007274
1398.000000;3.118920
1397.000000;3.244196
1396.000000;3.597911
1395.000000;3.523196
1394.000000;3.029751
1393.000000;2.920604
1392.000000;2.913922
1391.000000;2.871886
1390.000000;2.780576
1389.000000;2.773859
1388.000000;2.884322
1387.000000;3.242473
1386.000000;3.408813
1385.000000;3.025635
1384.000000;2.897291
1383.000000;2.878474
1382.000000;2.900847
1381.000000;2.857173
1380.000000;2.778406
1379.000000;2.691965
1378.000000;2.626493
1377.000000;2.642203
1376.000000;2.777709
1375.000000;3.061364
1374.000000;3.334618
1373.000000;3.171637
1372.000000;3.226428
1371.000000;3.411207
1370.000000;2.887142
1369.000000;2.688579
1368.000000;2.651457
1367.000000;2.721843
1366.000000;2.822309
1365.000000;2.895289
1364.000000;3.025271
1363.000000;3.177980
1362.000000;2.965160
1361.000000;2.757786
1360.000000;2.670067
1359.000000;2.655824
1358.000000;2.726095
1357.000000;2.931249
1356.000000;3.209128
1355.000000;3.147070
1354.000000;3.106560
1353.000000;3.308847
1352.000000;3.373694
1351.000000;3.218043
1350.000000;3.103949
1349.000000;2.981893
1348.000000;2.943133
1347.000000;3.028756
1346.000000;3.193954
1345.000000;3.370308
1344.000000;3.498750
1343.000000;3.146780
1342.000000;2.923295
1341.000000;2.829007
1340.000000;2.815741
1339.000000;2.904058
1338.000000;3.137395
1337.000000;3.259682
1336.000000;3.185312
1335.000000;3.177511
1334.000000;3.107412
1333.000000;3.057328
1332.000000;3.042784
1331.000000;3.068805
1330.000000;3.131913
1329.000000;3.697805
1328.000000;3.555275
1327.000000;3.110869
1326.000000;3.090409
1325.000000;3.298446
1324.000000;3.966059
1323.000000;3.726682
1322.000000;3.455750
1321.000000;3.327315
1320.000000;3.370687
1319.000000;3.306702
1318.000000;3.077891
1317.000000;2.980960
1316.000000;3.052590
1315.000000;3.395105
1314.000000;3.552467
1313.000000;3.057661
1312.000000;2.972562
1311.000000;3.017051
1310.000000;2.941810
1309.000000;2.827124
1308.000000;2.890689
1307.000000;3.155033
1306.000000;3.262838
1305.000000;3.138204
1304.000000;3.246491
1303.000000;3.269104
1302.000000;3.129821
1301.000000;3.078937
1300.000000;3.111841
1299.000000;3.345803
1298.000000;3.582856
1297.000000;3.104532
1296.000000;2.892954
1295.000000;2.824827
1294.000000;2.799661
1293.000000;2.809187
1292.000000;2.844099
1291.000000;2.891281
1290.000000;2.984064
1289.000000;3.283176
1288.000000;3.547775
1287.000000;3.088137
1286.000000;3.221037
1285.000000;3.373609
1284.000000;2.933299
1283.000000;2.841538
1282.000000;2.922458
1281.000000;3.192530
1280.000000;3.628608
1279.000000;3.458883
1278.000000;3.251720
1277.000000;3.241309
1276.000000;3.255783
1275.000000;3.288489
1274.000000;3.548575
1273.000000;3.772824
1272.000000;3.296624
1271.000000;3.107283
1270.000000;3.076602
1269.000000;3.075179
1268.000000;3.008972
1267.000000;2.870040
1266.000000;2.773435
1265.000000;2.808627
1264.000000;3.097734
1263.000000;3.503319
1262.000000;2.984262
1261.000000;2.899287
1260.000000;2.926466
1259.000000;2.954848
1258.000000;2.921632
1257.000000;2.931740
1256.000000;3.003527
1255.000000;3.080679
1254.000000;3.145310
1253.000000;3.264623
1252.000000;3.497664
1251.000000;3.395912
1250.000000;3.249788
1249.000000;3.350843
1248.000000;3.376008
1247.000000;3.350952
1246.000000;3.587990
1245.000000;3.632827
1244.000000;3.347873
1243.000000;3.255186
1242.000000;3.439482
1241.000000;3.249705
1240.000000;2.906123
1239.000000;2.757253
1238.000000;2.752668
1237.000000;2.865306
1236.000000;3.017291
1235.000000;3.086444
1234.000000;2.998753
1233.000000;2.866502
1232.000000;2.874710
1231.000000;3.037271
1230.000000;3.222682
1229.000000;3.135508
1228.000000;2.939448
1227.000000;2.835807
1226.000000;2.816376
1225.000000;2.838919
1224.000000;2.903224
1223.000000;3.035672
1222.000000;3.226458
1221.000000;3.314778
1220.000000;3.211809
1219.000000;3.141954
1218.000000;3.192601
1217.000000;3.114247
1216.000000;2.950443
1215.000000;2.903566
1214.000000;2.972169
1213.000000;3.089002
1212.000000;3.022149
1211.000000;2.844759
1210.000000;2.749635
1209.000000;2.755472
1208.000000;2.852278
1207.000000;3.011301
1206.000000;3.156628
1205.000000;3.245105
1204.000000;3.326719
1203.000000;3.517686
1202.000000;3.555081
1201.000000;3.221897
1200.000000;3.031933
