Criado como novo conjunto de dados;"e0108.spp","-4260763.5 Secs"
cm-1;Abs
10000.000000;1.043584
9999.000000;1.044118
9998.000000;1.043282
9997.000000;1.041998
9996.000000;1.041494
9995.000000;1.041991
9994.000000;1.043265
9993.000000;1.044554
9992.000000;1.045188
9991.000000;1.044679
9990.000000;1.043121
9989.000000;1.041054
9988.000000;1.039117
9987.000000;1.037615
9986.000000;1.036438
9985.000000;1.035408
9984.000000;1.034702
9983.000000;1.034779
9982.000000;1.035780
9981.000000;1.037138
9980.000000;1.037997
9979.000000;1.038011
9978.000000;1.037524
9977.000000;1.037018
9976.000000;1.036693
9975.000000;1.036629
9974.000000;1.036922
9973.000000;1.037316
9972.000000;1.036989
9971.000000;1.035192
9970.000000;1.032189
9969.000000;1.029235
9968.000000;1.027534
9967.000000;1.027408
9966.000000;1.028402
9965.000000;1.029838
9964.000000;1.031134
9963.000000;1.031865
9962.000000;1.031840
9961.000000;1.031161
9960.000000;1.030131
9959.000000;1.029112
9958.000000;1.028428
9957.000000;1.028194
9956.000000;1.028125
9955.000000;1.027708
9954.000000;1.026756
9953.000000;1.025667
9952.000000;1.024954
9951.000000;1.024697
9950.000000;1.024657
9949.000000;1.024743
9948.000000;1.025106
9947.000000;1.025791
9946.000000;1.026562
9945.000000;1.027135
9944.000000;1.027338
9943.000000;1.027065
9942.000000;1.026358
9941.000000;1.025540
9940.000000;1.024931
9939.000000;1.024420
9938.000000;1.023700
9937.000000;1.023016
9936.000000;1.023190
9935.000000;1.024552
9934.000000;1.026206
9933.000000;1.026753
9932.000000;1.025644
9931.000000;1.023560
9930.000000;1.021588
9929.000000;1.020382
9928.000000;1.020028
9927.000000;1.020271
9926.000000;1.020646
9925.000000;1.020609
9924.000000;1.019753
9923.000000;1.018034
9922.000000;1.015885
9921.000000;1.014143
9920.000000;1.013628
9919.000000;1.014503
9918.000000;1.016095
9917.000000;1.017464
9916.000000;1.018140
9915.000000;1.018236
9914.000000;1.018039
9913.000000;1.017749
9912.000000;1.017474
9911.000000;1.017136
9910.000000;1.016427
9909.000000;1.015199
9908.000000;1.013860
9907.000000;1.012965
9906.000000;1.012473
9905.000000;1.011842
9904.000000;1.010912
9903.000000;1.010215
9902.000000;1.010213
9901.000000;1.010635
9900.000000;1.010862
9899.000000;1.010633
9898.000000;1.010028
9897.000000;1.009059
9896.000000;1.007792
9895.000000;1.006730
9894.000000;1.006558
9893.000000;1.007318
9892.000000;1.008165
9891.000000;1.008157
9890.000000;1.007194
9889.000000;1.005968
9888.000000;1.005193
9887.000000;1.005080
9886.000000;1.005385
9885.000000;1.005626
9884.000000;1.005317
9883.000000;1.004303
9882.000000;1.003062
9881.000000;1.002441
9880.000000;1.002826
9879.000000;1.003636
9878.000000;1.003853
9877.000000;1.003069
9876.000000;1.001758
9875.000000;1.000538
9874.000000;0.999524
9873.000000;0.998534
9872.000000;0.997611
9871.000000;0.997018
9870.000000;0.996874
9869.000000;0.997024
9868.000000;0.997202
9867.000000;0.997197
9866.000000;0.996981
9865.000000;0.996832
9864.000000;0.997128
9863.000000;0.997822
9862.000000;0.998290
9861.000000;0.997952
9860.000000;0.996888
9859.000000;0.995658
9858.000000;0.994739
9857.000000;0.994436
9856.000000;0.995007
9855.000000;0.996324
9854.000000;0.997570
9853.000000;0.997896
9852.000000;0.997398
9851.000000;0.996847
9850.000000;0.996437
9849.000000;0.995503
9848.000000;0.993734
9847.000000;0.991998
9846.000000;0.991347
9845.000000;0.991642
9844.000000;0.991717
9843.000000;0.990808
9842.000000;0.989336
9841.000000;0.988284
9840.000000;0.988249
9839.000000;0.989207
9838.000000;0.990779
9837.000000;0.992470
9836.000000;0.993719
9835.000000;0.993999
9834.000000;0.993048
9833.000000;0.991061
9832.000000;0.988621
9831.000000;0.986337
9830.000000;0.984578
9829.000000;0.983542
9828.000000;0.983323
9827.000000;0.983680
9826.000000;0.983986
9825.000000;0.983811
9824.000000;0.983497
9823.000000;0.983742
9822.000000;0.984600
9821.000000;0.985322
9820.000000;0.985250
9819.000000;0.984421
9818.000000;0.983185
9817.000000;0.981792
9816.000000;0.980628
9815.000000;0.980254
9814.000000;0.980742
9813.000000;0.981384
9812.000000;0.981507
9811.000000;0.981258
9810.000000;0.981123
9809.000000;0.981054
9808.000000;0.980675
9807.000000;0.980125
9806.000000;0.979968
9805.000000;0.980265
9804.000000;0.980375
9803.000000;0.979785
9802.000000;0.978706
9801.000000;0.977680
9800.000000;0.977029
9799.000000;0.976807
9798.000000;0.976922
9797.000000;0.977114
9796.000000;0.977072
9795.000000;0.976683
9794.000000;0.976020
9793.000000;0.975166
9792.000000;0.974328
9791.000000;0.974004
9790.000000;0.974544
9789.000000;0.975493
9788.000000;0.975843
9787.000000;0.975144
9786.000000;0.973914
9785.000000;0.972772
9784.000000;0.971709
9783.000000;0.970557
9782.000000;0.969705
9781.000000;0.969766
9780.000000;0.970672
9779.000000;0.971636
9778.000000;0.972053
9777.000000;0.972084
9776.000000;0.972247
9775.000000;0.972713
9774.000000;0.973103
9773.000000;0.972864
9772.000000;0.971814
9771.000000;0.970387
9770.000000;0.969285
9769.000000;0.968750
9768.000000;0.968283
9767.000000;0.967278
9766.000000;0.965858
9765.000000;0.964769
9764.000000;0.964408
9763.000000;0.964294
9762.000000;0.963710
9761.000000;0.962666
9760.000000;0.961903
9759.000000;0.961993
9758.000000;0.962679
9757.000000;0.963158
9756.000000;0.962866
9755.000000;0.961930
9754.000000;0.960935
9753.000000;0.960416
9752.000000;0.960494
9751.000000;0.960837
9750.000000;0.961018
9749.000000;0.960960
9748.000000;0.961007
9747.000000;0.961456
9746.000000;0.962086
9745.000000;0.962295
9744.000000;0.961739
9743.000000;0.960732
9742.000000;0.959978
9741.000000;0.959956
9740.000000;0.960535
9739.000000;0.961046
9738.000000;0.960822
9737.000000;0.959886
9736.000000;0.959132
9735.000000;0.959578
9734.000000;0.961291
9733.000000;0.963137
9732.000000;0.963723
9731.000000;0.962553
9730.000000;0.960268
9729.000000;0.958015
9728.000000;0.956644
9727.000000;0.956240
9726.000000;0.956128
9725.000000;0.955519
9724.000000;0.954382
9723.000000;0.953472
9722.000000;0.953288
9721.000000;0.953307
9720.000000;0.952638
9719.000000;0.951257
9718.000000;0.950048
9717.000000;0.949628
9716.000000;0.949640
9715.000000;0.949446
9714.000000;0.949106
9713.000000;0.949237
9712.000000;0.950114
9711.000000;0.951303
9710.000000;0.952128
9709.000000;0.952249
9708.000000;0.951811
9707.000000;0.951248
9706.000000;0.950937
9705.000000;0.950874
9704.000000;0.950608
9703.000000;0.949603
9702.000000;0.947795
9701.000000;0.945805
9700.000000;0.944498
9699.000000;0.944302
9698.000000;0.944861
9697.000000;0.945403
9696.000000;0.945496
9695.000000;0.945442
9694.000000;0.945836
9693.000000;0.946789
9692.000000;0.947697
9691.000000;0.947795
9690.000000;0.946870
9689.000000;0.945447
9688.000000;0.944323
9687.000000;0.943929
9686.000000;0.944081
9685.000000;0.944283
9684.000000;0.944224
9683.000000;0.943970
9682.000000;0.943703
9681.000000;0.943416
9680.000000;0.942951
9679.000000;0.942279
9678.000000;0.941617
9677.000000;0.941249
9676.000000;0.941245
9675.000000;0.941353
9674.000000;0.941199
9673.000000;0.940663
9672.000000;0.940040
9671.000000;0.939718
9670.000000;0.939694
9669.000000;0.939582
9668.000000;0.939147
9667.000000;0.938603
9666.000000;0.938261
9665.000000;0.938092
9664.000000;0.937822
9663.000000;0.937318
9662.000000;0.936685
9661.000000;0.936167
9660.000000;0.936112
9659.000000;0.936725
9658.000000;0.937562
9657.000000;0.937590
9656.000000;0.936256
9655.000000;0.934349
9654.000000;0.933267
9653.000000;0.933466
9652.000000;0.934134
9651.000000;0.934311
9650.000000;0.933790
9649.000000;0.932871
9648.000000;0.931878
9647.000000;0.931185
9646.000000;0.931150
9645.000000;0.931626
9644.000000;0.931964
9643.000000;0.931914
9642.000000;0.932068
9641.000000;0.932949
9640.000000;0.934021
9639.000000;0.934212
9638.000000;0.933222
9637.000000;0.931745
9636.000000;0.930530
9635.000000;0.929821
9634.000000;0.929626
9633.000000;0.929860
9632.000000;0.930073
9631.000000;0.929634
9630.000000;0.928510
9629.000000;0.927477
9628.000000;0.927275
9627.000000;0.927840
9626.000000;0.928556
9625.000000;0.928949
9624.000000;0.928818
9623.000000;0.927988
9622.000000;0.926391
9621.000000;0.924455
9620.000000;0.923079
9619.000000;0.923024
9618.000000;0.924295
9617.000000;0.926113
9616.000000;0.927451
9615.000000;0.927693
9614.000000;0.926923
9613.000000;0.925636
9612.000000;0.924248
9611.000000;0.922924
9610.000000;0.921772
9609.000000;0.920955
9608.000000;0.920576
9607.000000;0.920611
9606.000000;0.920972
9605.000000;0.921461
9604.000000;0.921654
9603.000000;0.921102
9602.000000;0.919858
9601.000000;0.918653
9600.000000;0.918338
9599.000000;0.919165
9598.000000;0.920656
9597.000000;0.922067
9596.000000;0.922860
9595.000000;0.922868
9594.000000;0.922317
9593.000000;0.921746
9592.000000;0.921642
9591.000000;0.921919
9590.000000;0.921816
9589.000000;0.920528
9588.000000;0.918082
9587.000000;0.915512
9586.000000;0.914045
9585.000000;0.914060
9584.000000;0.914880
9583.000000;0.915565
9582.000000;0.915813
9581.000000;0.915976
9580.000000;0.916364
9579.000000;0.916840
9578.000000;0.917084
9577.000000;0.916943
9576.000000;0.916395
9575.000000;0.915431
9574.000000;0.914171
9573.000000;0.912976
9572.000000;0.912234
9571.000000;0.912062
9570.000000;0.912283
9569.000000;0.912573
9568.000000;0.912536
9567.000000;0.911900
9566.000000;0.910876
9565.000000;0.910184
9564.000000;0.910408
9563.000000;0.911345
9562.000000;0.912249
9561.000000;0.912646
9560.000000;0.912611
9559.000000;0.912221
9558.000000;0.911238
9557.000000;0.909604
9556.000000;0.907946
9555.000000;0.907093
9554.000000;0.907137
9553.000000;0.907276
9552.000000;0.906747
9551.000000;0.905704
9550.000000;0.905019
9549.000000;0.905323
9548.000000;0.906415
9547.000000;0.907616
9546.000000;0.908497
9545.000000;0.909082
9544.000000;0.909427
9543.000000;0.909275
9542.000000;0.908330
9541.000000;0.906740
9540.000000;0.905109
9539.000000;0.904051
9538.000000;0.903839
9537.000000;0.904360
9536.000000;0.905157
9535.000000;0.905591
9534.000000;0.905284
9533.000000;0.904483
9532.000000;0.903739
9531.000000;0.903158
9530.000000;0.902297
9529.000000;0.900911
9528.000000;0.899504
9527.000000;0.898832
9526.000000;0.899082
9525.000000;0.899851
9524.000000;0.900715
9523.000000;0.901403
9522.000000;0.901579
9521.000000;0.900988
9520.000000;0.899965
9519.000000;0.899309
9518.000000;0.899372
9517.000000;0.899574
9516.000000;0.899136
9515.000000;0.898066
9514.000000;0.897075
9513.000000;0.896663
9512.000000;0.896672
9511.000000;0.896757
9510.000000;0.896933
9509.000000;0.897472
9508.000000;0.898391
9507.000000;0.899224
9506.000000;0.899347
9505.000000;0.898558
9504.000000;0.897352
9503.000000;0.896543
9502.000000;0.896503
9501.000000;0.896826
9500.000000;0.896868
9499.000000;0.896491
9498.000000;0.896032
9497.000000;0.895609
9496.000000;0.894889
9495.000000;0.893724
9494.000000;0.892654
9493.000000;0.892357
9492.000000;0.892732
9491.000000;0.892919
9490.000000;0.892338
9489.000000;0.891408
9488.000000;0.891039
9487.000000;0.891592
9486.000000;0.892571
9485.000000;0.893275
9484.000000;0.893510
9483.000000;0.893542
9482.000000;0.893506
9481.000000;0.893121
9480.000000;0.892138
9479.000000;0.890885
9478.000000;0.890064
9477.000000;0.889881
9476.000000;0.889665
9475.000000;0.888651
9474.000000;0.887025
9473.000000;0.885785
9472.000000;0.885555
9471.000000;0.885944
9470.000000;0.886201
9469.000000;0.886079
9468.000000;0.885773
9467.000000;0.885373
9466.000000;0.884887
9465.000000;0.884670
9464.000000;0.885250
9463.000000;0.886592
9462.000000;0.887922
9461.000000;0.888450
9460.000000;0.888036
9459.000000;0.887045
9458.000000;0.885874
9457.000000;0.884842
9456.000000;0.884282
9455.000000;0.884367
9454.000000;0.884897
9453.000000;0.885471
9452.000000;0.885805
9451.000000;0.885790
9450.000000;0.885430
9449.000000;0.884924
9448.000000;0.884657
9447.000000;0.884866
9446.000000;0.885348
9445.000000;0.885689
9444.000000;0.885739
9443.000000;0.885632
9442.000000;0.885394
9441.000000;0.884821
9440.000000;0.883768
9439.000000;0.882393
9438.000000;0.881071
9437.000000;0.880163
9436.000000;0.879825
9435.000000;0.879881
9434.000000;0.879888
9433.000000;0.879472
9432.000000;0.878649
9431.000000;0.877801
9430.000000;0.877344
9429.000000;0.877471
9428.000000;0.878082
9427.000000;0.878839
9426.000000;0.879377
9425.000000;0.879576
9424.000000;0.879554
9423.000000;0.879340
9422.000000;0.878760
9421.000000;0.877834
9420.000000;0.877030
9419.000000;0.876804
9418.000000;0.877014
9417.000000;0.877171
9416.000000;0.877202
9415.000000;0.877490
9414.000000;0.878114
9413.000000;0.878513
9412.000000;0.878135
9411.000000;0.877092
9410.000000;0.875918
9409.000000;0.874925
9408.000000;0.874081
9407.000000;0.873335
9406.000000;0.872789
9405.000000;0.872609
9404.000000;0.872914
9403.000000;0.873659
9402.000000;0.874500
9401.000000;0.874936
9400.000000;0.874769
9399.000000;0.874343
9398.000000;0.874125
9397.000000;0.874139
9396.000000;0.874020
9395.000000;0.873515
9394.000000;0.872743
9393.000000;0.871988
9392.000000;0.871446
9391.000000;0.871175
9390.000000;0.871095
9389.000000;0.870961
9388.000000;0.870472
9387.000000;0.869551
9386.000000;0.868539
9385.000000;0.868074
9384.000000;0.868663
9383.000000;0.870193
9382.000000;0.871795
9381.000000;0.872373
9380.000000;0.871492
9379.000000;0.869754
9378.000000;0.868247
9377.000000;0.867668
9376.000000;0.867963
9375.000000;0.868554
9374.000000;0.868841
9373.000000;0.868663
9372.000000;0.868422
9371.000000;0.868623
9370.000000;0.869243
9369.000000;0.869720
9368.000000;0.869685
9367.000000;0.869411
9366.000000;0.869317
9365.000000;0.869281
9364.000000;0.868800
9363.000000;0.867709
9362.000000;0.866370
9361.000000;0.865199
9360.000000;0.864392
9359.000000;0.864123
9358.000000;0.864577
9357.000000;0.865599
9356.000000;0.866577
9355.000000;0.866902
9354.000000;0.866445
9353.000000;0.865495
9352.000000;0.864414
9351.000000;0.863485
9350.000000;0.862870
9349.000000;0.862498
9348.000000;0.862096
9347.000000;0.861517
9346.000000;0.860966
9345.000000;0.860722
9344.000000;0.860725
9343.000000;0.860663
9342.000000;0.860470
9341.000000;0.860515
9340.000000;0.861193
9339.000000;0.862402
9338.000000;0.863523
9337.000000;0.863938
9336.000000;0.863526
9335.000000;0.862698
9334.000000;0.862027
9333.000000;0.861834
9332.000000;0.861992
9331.000000;0.862010
9330.000000;0.861402
9329.000000;0.860135
9328.000000;0.858768
9327.000000;0.857995
9326.000000;0.857995
9325.000000;0.858370
9324.000000;0.858741
9323.000000;0.859139
9322.000000;0.859626
9321.000000;0.859839
9320.000000;0.859303
9319.000000;0.858122
9318.000000;0.856976
9317.000000;0.856379
9316.000000;0.856273
9315.000000;0.856414
9314.000000;0.856749
9313.000000;0.857172
9312.000000;0.857280
9311.000000;0.856757
9310.000000;0.855861
9309.000000;0.855177
9308.000000;0.854908
9307.000000;0.854732
9306.000000;0.854392
9305.000000;0.854133
9304.000000;0.854395
9303.000000;0.855253
9302.000000;0.856306
9301.000000;0.857021
9300.000000;0.857080
9299.000000;0.856507
9298.000000;0.855623
9297.000000;0.854889
9296.000000;0.854639
9295.000000;0.854854
9294.000000;0.855217
9293.000000;0.855366
9292.000000;0.855084
9291.000000;0.854355
9290.000000;0.853402
9289.000000;0.852662
9288.000000;0.852544
9287.000000;0.853050
9286.000000;0.853712
9285.000000;0.854014
9284.000000;0.853863
9283.000000;0.853554
9282.000000;0.853326
9281.000000;0.853130
9280.000000;0.852788
9279.000000;0.852215
9278.000000;0.851475
9277.000000;0.850774
9276.000000;0.850446
9275.000000;0.850716
9274.000000;0.851396
9273.000000;0.851969
9272.000000;0.852051
9271.000000;0.851603
9270.000000;0.850693
9269.000000;0.849371
9268.000000;0.847986
9267.000000;0.847250
9266.000000;0.847578
9265.000000;0.848495
9264.000000;0.849083
9263.000000;0.849010
9262.000000;0.848727
9261.000000;0.848716
9260.000000;0.848982
9259.000000;0.849345
9258.000000;0.849724
9257.000000;0.849882
9256.000000;0.849326
9255.000000;0.847879
9254.000000;0.846155
9253.000000;0.845085
9252.000000;0.845027
9251.000000;0.845563
9250.000000;0.846031
9249.000000;0.846014
9248.000000;0.845406
9247.000000;0.844358
9246.000000;0.843262
9245.000000;0.842602
9244.000000;0.842676
9243.000000;0.843467
9242.000000;0.844748
9241.000000;0.846162
9240.000000;0.847275
9239.000000;0.847779
9238.000000;0.847741
9237.000000;0.847523
9236.000000;0.847364
9235.000000;0.847145
9234.000000;0.846630
9233.000000;0.845790
9232.000000;0.844818
9231.000000;0.843919
9230.000000;0.843220
9229.000000;0.842824
9228.000000;0.842740
9227.000000;0.842732
9226.000000;0.842417
9225.000000;0.841682
9224.000000;0.840960
9223.000000;0.840887
9222.000000;0.841616
9221.000000;0.842567
9220.000000;0.842962
9219.000000;0.842568
9218.000000;0.841838
9217.000000;0.841367
9216.000000;0.841366
9215.000000;0.841640
9214.000000;0.841935
9213.000000;0.842194
9212.000000;0.842495
9211.000000;0.842827
9210.000000;0.843013
9209.000000;0.842911
9208.000000;0.842678
9207.000000;0.842645
9206.000000;0.842861
9205.000000;0.842880
9204.000000;0.842200
9203.000000;0.840862
9202.000000;0.839445
9201.000000;0.838488
9200.000000;0.838080
9199.000000;0.837999
9198.000000;0.838013
9197.000000;0.837974
9196.000000;0.837838
9195.000000;0.837758
9194.000000;0.837991
9193.000000;0.838584
9192.000000;0.839208
9191.000000;0.839430
9190.000000;0.839104
9189.000000;0.838442
9188.000000;0.837784
9187.000000;0.837358
9186.000000;0.837185
9185.000000;0.837131
9184.000000;0.837083
9183.000000;0.837078
9182.000000;0.837173
9181.000000;0.837216
9180.000000;0.836964
9179.000000;0.836460
9178.000000;0.836070
9177.000000;0.835999
9176.000000;0.835976
9175.000000;0.835638
9174.000000;0.835042
9173.000000;0.834557
9172.000000;0.834344
9171.000000;0.834198
9170.000000;0.833911
9169.000000;0.833586
9168.000000;0.833562
9167.000000;0.834133
9166.000000;0.835313
9165.000000;0.836731
9164.000000;0.837787
9163.000000;0.838030
9162.000000;0.837470
9161.000000;0.836468
9160.000000;0.835426
9159.000000;0.834643
9158.000000;0.834329
9157.000000;0.834504
9156.000000;0.834891
9155.000000;0.835099
9154.000000;0.834974
9153.000000;0.834658
9152.000000;0.834331
9151.000000;0.834058
9150.000000;0.833897
9149.000000;0.833920
9148.000000;0.834043
9147.000000;0.834025
9146.000000;0.833765
9145.000000;0.833495
9144.000000;0.833519
9143.000000;0.833772
9142.000000;0.833790
9141.000000;0.833192
9140.000000;0.832133
9139.000000;0.831190
9138.000000;0.830798
9137.000000;0.830869
9136.000000;0.831067
9135.000000;0.831345
9134.000000;0.831936
9133.000000;0.832763
9132.000000;0.833188
9131.000000;0.832690
9130.000000;0.831570
9129.000000;0.830621
9128.000000;0.830149
9127.000000;0.829759
9126.000000;0.829145
9125.000000;0.828661
9124.000000;0.828803
9123.000000;0.829388
9122.000000;0.829643
9121.000000;0.829096
9120.000000;0.828108
9119.000000;0.827459
9118.000000;0.827559
9117.000000;0.828106
9116.000000;0.828439
9115.000000;0.828193
9114.000000;0.827635
9113.000000;0.827358
9112.000000;0.827665
9111.000000;0.828342
9110.000000;0.828975
9109.000000;0.829323
9108.000000;0.829333
9107.000000;0.828991
9106.000000;0.828360
9105.000000;0.827639
9104.000000;0.827003
9103.000000;0.826459
9102.000000;0.826018
9101.000000;0.825874
9100.000000;0.826196
9099.000000;0.826800
9098.000000;0.827273
9097.000000;0.827451
9096.000000;0.827550
9095.000000;0.827801
9094.000000;0.828175
9093.000000;0.828530
9092.000000;0.828773
9091.000000;0.828780
9090.000000;0.828419
9089.000000;0.827861
9088.000000;0.827617
9087.000000;0.827967
9086.000000;0.828500
9085.000000;0.828536
9084.000000;0.827920
9083.000000;0.827057
9082.000000;0.826201
9081.000000;0.825166
9080.000000;0.823869
9079.000000;0.822807
9078.000000;0.822631
9077.000000;0.823392
9076.000000;0.824452
9075.000000;0.825111
9074.000000;0.825140
9073.000000;0.824751
9072.000000;0.824260
9071.000000;0.823827
9070.000000;0.823413
9069.000000;0.822946
9068.000000;0.822523
9067.000000;0.822399
9066.000000;0.822708
9065.000000;0.823252
9064.000000;0.823644
9063.000000;0.823604
9062.000000;0.823060
9061.000000;0.822121
9060.000000;0.821132
9059.000000;0.820605
9058.000000;0.820836
9057.000000;0.821601
9056.000000;0.822444
9055.000000;0.823208
9054.000000;0.823984
9053.000000;0.824604
9052.000000;0.824627
9051.000000;0.824001
9050.000000;0.823330
9049.000000;0.823141
9048.000000;0.823153
9047.000000;0.822680
9046.000000;0.821644
9045.000000;0.820785
9044.000000;0.820784
9043.000000;0.821527
9042.000000;0.822335
9041.000000;0.822699
9040.000000;0.822599
9039.000000;0.822238
9038.000000;0.821704
9037.000000;0.820970
9036.000000;0.820147
9035.000000;0.819603
9034.000000;0.819667
9033.000000;0.820196
9032.000000;0.820587
9031.000000;0.820390
9030.000000;0.819855
9029.000000;0.819668
9028.000000;0.820126
9027.000000;0.820759
9026.000000;0.820801
9025.000000;0.819914
9024.000000;0.818440
9023.000000;0.817130
9022.000000;0.816695
9021.000000;0.817410
9020.000000;0.818861
9019.000000;0.820140
9018.000000;0.820524
9017.000000;0.820060
9016.000000;0.819422
9015.000000;0.819140
9014.000000;0.819090
9013.000000;0.818807
9012.000000;0.818149
9011.000000;0.817504
9010.000000;0.817323
9009.000000;0.817633
9008.000000;0.818110
9007.000000;0.818516
9006.000000;0.818903
9005.000000;0.819387
9004.000000;0.819912
9003.000000;0.820304
9002.000000;0.820440
9001.000000;0.820261
9000.000000;0.819734
8999.000000;0.818926
8998.000000;0.818130
8997.000000;0.817752
8996.000000;0.817964
8995.000000;0.818493
8994.000000;0.818795
8993.000000;0.818484
8992.000000;0.817640
8991.000000;0.816739
8990.000000;0.816240
8989.000000;0.816206
8988.000000;0.816353
8987.000000;0.816399
8986.000000;0.816261
8985.000000;0.815947
8984.000000;0.815455
8983.000000;0.814913
8982.000000;0.814638
8981.000000;0.814876
8980.000000;0.815516
8979.000000;0.816222
8978.000000;0.816792
8977.000000;0.817213
8976.000000;0.817448
8975.000000;0.817417
8974.000000;0.817258
8973.000000;0.817357
8972.000000;0.817909
8971.000000;0.818582
8970.000000;0.818804
8969.000000;0.818390
8968.000000;0.817735
8967.000000;0.817394
8966.000000;0.817595
8965.000000;0.818160
8964.000000;0.818747
8963.000000;0.819078
8962.000000;0.819024
8961.000000;0.818647
8960.000000;0.818153
8959.000000;0.817725
8958.000000;0.817369
8957.000000;0.816978
8956.000000;0.816515
8955.000000;0.816026
8954.000000;0.815473
8953.000000;0.814766
8952.000000;0.814076
8951.000000;0.813897
8950.000000;0.814525
8949.000000;0.815539
8948.000000;0.816085
8947.000000;0.815728
8946.000000;0.814804
8945.000000;0.813931
8944.000000;0.813442
8943.000000;0.813375
8942.000000;0.813693
8941.000000;0.814290
8940.000000;0.814949
8939.000000;0.815494
8938.000000;0.815882
8937.000000;0.816053
8936.000000;0.815894
8935.000000;0.815537
8934.000000;0.815430
8933.000000;0.815810
8932.000000;0.816251
8931.000000;0.816077
8930.000000;0.815156
8929.000000;0.813995
8928.000000;0.813095
8927.000000;0.812575
8926.000000;0.812420
8925.000000;0.812688
8924.000000;0.813288
8923.000000;0.813842
8922.000000;0.814006
8921.000000;0.813836
8920.000000;0.813677
8919.000000;0.813789
8918.000000;0.814159
8917.000000;0.814545
8916.000000;0.814633
8915.000000;0.814292
8914.000000;0.813751
8913.000000;0.813417
8912.000000;0.813433
8911.000000;0.813522
8910.000000;0.813328
8909.000000;0.812824
8908.000000;0.812297
8907.000000;0.812070
8906.000000;0.812257
8905.000000;0.812670
8904.000000;0.812894
8903.000000;0.812610
8902.000000;0.811973
8901.000000;0.811534
8900.000000;0.811668
8899.000000;0.812199
8898.000000;0.812678
8897.000000;0.812925
8896.000000;0.813116
8895.000000;0.813413
8894.000000;0.813717
8893.000000;0.813811
8892.000000;0.813632
8891.000000;0.813347
8890.000000;0.813176
8889.000000;0.813165
8888.000000;0.813138
8887.000000;0.812906
8886.000000;0.812544
8885.000000;0.812377
8884.000000;0.812658
8883.000000;0.813296
8882.000000;0.813918
8881.000000;0.814153
8880.000000;0.813889
8879.000000;0.813349
8878.000000;0.812961
8877.000000;0.813037
8876.000000;0.813535
8875.000000;0.814168
8874.000000;0.814720
8873.000000;0.815158
8872.000000;0.815451
8871.000000;0.815487
8870.000000;0.815219
8869.000000;0.814715
8868.000000;0.814013
8867.000000;0.813113
8866.000000;0.812209
8865.000000;0.811721
8864.000000;0.811886
8863.000000;0.812454
8862.000000;0.812965
8861.000000;0.813242
8860.000000;0.813450
8859.000000;0.813753
8858.000000;0.814107
8857.000000;0.814376
8856.000000;0.814465
8855.000000;0.814330
8854.000000;0.814009
8853.000000;0.813686
8852.000000;0.813572
8851.000000;0.813671
8850.000000;0.813739
8849.000000;0.813539
8848.000000;0.813098
8847.000000;0.812695
8846.000000;0.812621
8845.000000;0.812960
8844.000000;0.813582
8843.000000;0.814332
8842.000000;0.815164
8841.000000;0.816025
8840.000000;0.816648
8839.000000;0.816629
8838.000000;0.815824
8837.000000;0.814587
8836.000000;0.813492
8835.000000;0.812901
8834.000000;0.812817
8833.000000;0.813032
8832.000000;0.813306
8831.000000;0.813483
8830.000000;0.813559
8829.000000;0.813619
8828.000000;0.813664
8827.000000;0.813614
8826.000000;0.813565
8825.000000;0.813872
8824.000000;0.814777
8823.000000;0.816021
8822.000000;0.817008
8821.000000;0.817347
8820.000000;0.817076
8819.000000;0.816425
8818.000000;0.815558
8817.000000;0.814587
8816.000000;0.813656
8815.000000;0.812926
8814.000000;0.812586
8813.000000;0.812831
8812.000000;0.813659
8811.000000;0.814704
8810.000000;0.815449
8809.000000;0.815695
8808.000000;0.815685
8807.000000;0.815732
8806.000000;0.815890
8805.000000;0.816043
8804.000000;0.816139
8803.000000;0.816202
8802.000000;0.816231
8801.000000;0.816199
8800.000000;0.816101
8799.000000;0.815919
8798.000000;0.815664
8797.000000;0.815528
8796.000000;0.815874
8795.000000;0.816878
8794.000000;0.818195
8793.000000;0.819137
8792.000000;0.819256
8791.000000;0.818690
8790.000000;0.817948
8789.000000;0.817429
8788.000000;0.817200
8787.000000;0.817148
8786.000000;0.817241
8785.000000;0.817585
8784.000000;0.818229
8783.000000;0.818996
8782.000000;0.819602
8781.000000;0.819930
8780.000000;0.820146
8779.000000;0.820511
8778.000000;0.821112
8777.000000;0.821771
8776.000000;0.822157
8775.000000;0.821989
8774.000000;0.821258
8773.000000;0.820358
8772.000000;0.819872
8771.000000;0.820090
8770.000000;0.820725
8769.000000;0.821228
8768.000000;0.821353
8767.000000;0.821290
8766.000000;0.821260
8765.000000;0.821227
8764.000000;0.821124
8763.000000;0.821154
8762.000000;0.821586
8761.000000;0.822295
8760.000000;0.822765
8759.000000;0.822679
8758.000000;0.822290
8757.000000;0.822108
8756.000000;0.822351
8755.000000;0.822863
8754.000000;0.823432
8753.000000;0.823973
8752.000000;0.824444
8751.000000;0.824802
8750.000000;0.825087
8749.000000;0.825381
8748.000000;0.825650
8747.000000;0.825802
8746.000000;0.825923
8745.000000;0.826262
8744.000000;0.826864
8743.000000;0.827382
8742.000000;0.827424
8741.000000;0.826975
8740.000000;0.826330
8739.000000;0.825700
8738.000000;0.825120
8737.000000;0.824705
8736.000000;0.824728
8735.000000;0.825364
8734.000000;0.826445
8733.000000;0.827561
8732.000000;0.828332
8731.000000;0.828594
8730.000000;0.828413
8729.000000;0.828014
8728.000000;0.827667
8727.000000;0.827587
8726.000000;0.827876
8725.000000;0.828490
8724.000000;0.829225
8723.000000;0.829822
8722.000000;0.830178
8721.000000;0.830413
8720.000000;0.830650
8719.000000;0.830797
8718.000000;0.830664
8717.000000;0.830276
8716.000000;0.829937
8715.000000;0.829926
8714.000000;0.830247
8713.000000;0.830681
8712.000000;0.831025
8711.000000;0.831211
8710.000000;0.831282
8709.000000;0.831295
8708.000000;0.831264
8707.000000;0.831180
8706.000000;0.831097
8705.000000;0.831162
8704.000000;0.831476
8703.000000;0.831985
8702.000000;0.832563
8701.000000;0.833147
8700.000000;0.833672
8699.000000;0.833938
8698.000000;0.833771
8697.000000;0.833341
8696.000000;0.833123
8695.000000;0.833410
8694.000000;0.833968
8693.000000;0.834298
8692.000000;0.834166
8691.000000;0.833792
8690.000000;0.833581
8689.000000;0.833783
8688.000000;0.834340
8687.000000;0.834934
8686.000000;0.835170
8685.000000;0.834846
8684.000000;0.834150
8683.000000;0.833595
8682.000000;0.833727
8681.000000;0.834758
8680.000000;0.836357
8679.000000;0.837779
8678.000000;0.838348
8677.000000;0.837948
8676.000000;0.837099
8675.000000;0.836515
8674.000000;0.836585
8673.000000;0.837175
8672.000000;0.837789
8671.000000;0.837924
8670.000000;0.837451
8669.000000;0.836784
8668.000000;0.836577
8667.000000;0.837100
8666.000000;0.837963
8665.000000;0.838534
8664.000000;0.838600
8663.000000;0.838495
8662.000000;0.838571
8661.000000;0.838738
8660.000000;0.838602
8659.000000;0.838009
8658.000000;0.837327
8657.000000;0.837127
8656.000000;0.837605
8655.000000;0.838395
8654.000000;0.838982
8653.000000;0.839223
8652.000000;0.839349
8651.000000;0.839503
8650.000000;0.839513
8649.000000;0.839236
8648.000000;0.838904
8647.000000;0.838894
8646.000000;0.839208
8645.000000;0.839436
8644.000000;0.839276
8643.000000;0.838907
8642.000000;0.838727
8641.000000;0.838870
8640.000000;0.839118
8639.000000;0.839235
8638.000000;0.839261
8637.000000;0.839419
8636.000000;0.839807
8635.000000;0.840272
8634.000000;0.840601
8633.000000;0.840771
8632.000000;0.840920
8631.000000;0.841083
8630.000000;0.841112
8629.000000;0.840914
8628.000000;0.840688
8627.000000;0.840756
8626.000000;0.841191
8625.000000;0.841704
8624.000000;0.841919
8623.000000;0.841696
8622.000000;0.841209
8621.000000;0.840820
8620.000000;0.840860
8619.000000;0.841418
8618.000000;0.842261
8617.000000;0.843027
8616.000000;0.843502
8615.000000;0.843703
8614.000000;0.843709
8613.000000;0.843542
8612.000000;0.843211
8611.000000;0.842789
8610.000000;0.842382
8609.000000;0.842089
8608.000000;0.841989
8607.000000;0.842088
8606.000000;0.842279
8605.000000;0.842442
8604.000000;0.842596
8603.000000;0.842817
8602.000000;0.843016
8601.000000;0.842973
8600.000000;0.842675
8599.000000;0.842448
8598.000000;0.842578
8597.000000;0.842922
8596.000000;0.843047
8595.000000;0.842719
8594.000000;0.842108
8593.000000;0.841558
8592.000000;0.841306
8591.000000;0.841426
8590.000000;0.841871
8589.000000;0.842478
8588.000000;0.842979
8587.000000;0.843099
8586.000000;0.842703
8585.000000;0.841923
8584.000000;0.841136
8583.000000;0.840733
8582.000000;0.840841
8581.000000;0.841285
8580.000000;0.841851
8579.000000;0.842497
8578.000000;0.843229
8577.000000;0.843873
8576.000000;0.844177
8575.000000;0.844084
8574.000000;0.843767
8573.000000;0.843380
8572.000000;0.842965
8571.000000;0.842614
8570.000000;0.842505
8569.000000;0.842676
8568.000000;0.842895
8567.000000;0.842889
8566.000000;0.842644
8565.000000;0.842401
8564.000000;0.842390
8563.000000;0.842644
8562.000000;0.843031
8561.000000;0.843369
8560.000000;0.843565
8559.000000;0.843676
8558.000000;0.843816
8557.000000;0.843952
8556.000000;0.843856
8555.000000;0.843335
8554.000000;0.842509
8553.000000;0.841785
8552.000000;0.841531
8551.000000;0.841808
8550.000000;0.842363
8549.000000;0.842819
8548.000000;0.842870
8547.000000;0.842431
8546.000000;0.841718
8545.000000;0.841172
8544.000000;0.841190
8543.000000;0.841821
8542.000000;0.842719
8541.000000;0.843461
8540.000000;0.843916
8539.000000;0.844216
8538.000000;0.844404
8537.000000;0.844295
8536.000000;0.843829
8535.000000;0.843395
8534.000000;0.843514
8533.000000;0.844195
8532.000000;0.844818
8531.000000;0.844739
8530.000000;0.843888
8529.000000;0.842716
8528.000000;0.841733
8527.000000;0.841232
8526.000000;0.841279
8525.000000;0.841734
8524.000000;0.842342
8523.000000;0.842939
8522.000000;0.843543
8521.000000;0.844124
8520.000000;0.844424
8519.000000;0.844218
8518.000000;0.843696
8517.000000;0.843319
8516.000000;0.843247
8515.000000;0.843187
8514.000000;0.842912
8513.000000;0.842692
8512.000000;0.842956
8511.000000;0.843647
8510.000000;0.844189
8509.000000;0.844126
8508.000000;0.843627
8507.000000;0.843258
8506.000000;0.843384
8505.000000;0.843870
8504.000000;0.844305
8503.000000;0.844408
8502.000000;0.844228
8501.000000;0.844023
8500.000000;0.843993
8499.000000;0.844119
8498.000000;0.844249
8497.000000;0.844303
8496.000000;0.844343
8495.000000;0.844465
8494.000000;0.844663
8493.000000;0.844836
8492.000000;0.844894
8491.000000;0.844803
8490.000000;0.844538
8489.000000;0.844082
8488.000000;0.843543
8487.000000;0.843216
8486.000000;0.843415
8485.000000;0.844158
8484.000000;0.845074
8483.000000;0.845681
8482.000000;0.845741
8481.000000;0.845328
8480.000000;0.844637
8479.000000;0.843859
8478.000000;0.843241
8477.000000;0.843065
8476.000000;0.843415
8475.000000;0.843995
8474.000000;0.844332
8473.000000;0.844178
8472.000000;0.843693
8471.000000;0.843269
8470.000000;0.843284
8469.000000;0.843935
8468.000000;0.845073
8467.000000;0.846143
8466.000000;0.846506
8465.000000;0.846026
8464.000000;0.845251
8463.000000;0.844830
8462.000000;0.844845
8461.000000;0.844895
8460.000000;0.844732
8459.000000;0.844506
8458.000000;0.844384
8457.000000;0.844262
8456.000000;0.844027
8455.000000;0.843834
8454.000000;0.843905
8453.000000;0.844221
8452.000000;0.844659
8451.000000;0.845263
8450.000000;0.846054
8449.000000;0.846646
8448.000000;0.846492
8447.000000;0.845601
8446.000000;0.844679
8445.000000;0.844380
8444.000000;0.844629
8443.000000;0.844884
8442.000000;0.844846
8441.000000;0.844662
8440.000000;0.844529
8439.000000;0.844423
8438.000000;0.844280
8437.000000;0.844228
8436.000000;0.844520
8435.000000;0.845288
8434.000000;0.846379
8433.000000;0.847392
8432.000000;0.847890
8431.000000;0.847728
8430.000000;0.847214
8429.000000;0.846849
8428.000000;0.846839
8427.000000;0.846910
8426.000000;0.846644
8425.000000;0.845957
8424.000000;0.845206
8423.000000;0.844838
8422.000000;0.844996
8421.000000;0.845443
8420.000000;0.845830
8419.000000;0.845997
8418.000000;0.846039
8417.000000;0.846120
8416.000000;0.846302
8415.000000;0.846529
8414.000000;0.846732
8413.000000;0.846880
8412.000000;0.846970
8411.000000;0.847020
8410.000000;0.847058
8409.000000;0.847071
8408.000000;0.846980
8407.000000;0.846740
8406.000000;0.846456
8405.000000;0.846340
8404.000000;0.846496
8403.000000;0.846804
8402.000000;0.847054
8401.000000;0.847146
8400.000000;0.847104
8399.000000;0.846934
8398.000000;0.846585
8397.000000;0.846114
8396.000000;0.845783
8395.000000;0.845870
8394.000000;0.846369
8393.000000;0.847000
8392.000000;0.847533
8391.000000;0.847989
8390.000000;0.848452
8389.000000;0.848818
8388.000000;0.848910
8387.000000;0.848767
8386.000000;0.848622
8385.000000;0.848580
8384.000000;0.848512
8383.000000;0.848332
8382.000000;0.848189
8381.000000;0.848241
8380.000000;0.848368
8379.000000;0.848304
8378.000000;0.848014
8377.000000;0.847755
8376.000000;0.847719
8375.000000;0.847774
8374.000000;0.847608
8373.000000;0.847084
8372.000000;0.846392
8371.000000;0.845907
8370.000000;0.845907
8369.000000;0.846387
8368.000000;0.847066
8367.000000;0.847612
8366.000000;0.847865
8365.000000;0.847859
8364.000000;0.847714
8363.000000;0.847551
8362.000000;0.847508
8361.000000;0.847708
8360.000000;0.848130
8359.000000;0.848560
8358.000000;0.848741
8357.000000;0.848602
8356.000000;0.848289
8355.000000;0.847987
8354.000000;0.847747
8353.000000;0.847508
8352.000000;0.847222
8351.000000;0.846936
8350.000000;0.846758
8349.000000;0.846793
8348.000000;0.847083
8347.000000;0.847553
8346.000000;0.848011
8345.000000;0.848283
8344.000000;0.848346
8343.000000;0.848306
8342.000000;0.848204
8341.000000;0.847943
8340.000000;0.847498
8339.000000;0.847133
8338.000000;0.847239
8337.000000;0.847899
8336.000000;0.848711
8335.000000;0.849129
8334.000000;0.848969
8333.000000;0.848511
8332.000000;0.848138
8331.000000;0.847960
8330.000000;0.847826
8329.000000;0.847607
8328.000000;0.847388
8327.000000;0.847376
8326.000000;0.847703
8325.000000;0.848336
8324.000000;0.849138
8323.000000;0.849925
8322.000000;0.850488
8321.000000;0.850697
8320.000000;0.850625
8319.000000;0.850454
8318.000000;0.850200
8317.000000;0.849669
8316.000000;0.848841
8315.000000;0.848154
8314.000000;0.848176
8313.000000;0.848974
8312.000000;0.850009
8311.000000;0.850688
8310.000000;0.850838
8309.000000;0.850624
8308.000000;0.850218
8307.000000;0.849732
8306.000000;0.849333
8305.000000;0.849201
8304.000000;0.849356
8303.000000;0.849630
8302.000000;0.849829
8301.000000;0.849882
8300.000000;0.849867
8299.000000;0.849909
8298.000000;0.849996
8297.000000;0.849921
8296.000000;0.849486
8295.000000;0.848802
8294.000000;0.848238
8293.000000;0.848034
8292.000000;0.848123
8291.000000;0.848390
8290.000000;0.848913
8289.000000;0.849753
8288.000000;0.850660
8287.000000;0.851241
8286.000000;0.851377
8285.000000;0.851264
8284.000000;0.851042
8283.000000;0.850634
8282.000000;0.850024
8281.000000;0.849488
8280.000000;0.849349
8279.000000;0.849584
8278.000000;0.849818
8277.000000;0.849710
8276.000000;0.849281
8275.000000;0.848807
8274.000000;0.848482
8273.000000;0.848272
8272.000000;0.848122
8271.000000;0.848177
8270.000000;0.848654
8269.000000;0.849478
8268.000000;0.850224
8267.000000;0.850501
8266.000000;0.850296
8265.000000;0.849880
8264.000000;0.849491
8263.000000;0.849239
8262.000000;0.849201
8261.000000;0.849403
8260.000000;0.849739
8259.000000;0.850045
8258.000000;0.850267
8257.000000;0.850433
8256.000000;0.850511
8255.000000;0.850430
8254.000000;0.850234
8253.000000;0.850066
8252.000000;0.849972
8251.000000;0.849848
8250.000000;0.849637
8249.000000;0.849442
8248.000000;0.849396
8247.000000;0.849496
8246.000000;0.849643
8245.000000;0.849780
8244.000000;0.849947
8243.000000;0.850238
8242.000000;0.850703
8241.000000;0.851257
8240.000000;0.851675
8239.000000;0.851758
8238.000000;0.851508
8237.000000;0.851092
8236.000000;0.850647
8235.000000;0.850221
8234.000000;0.849890
8233.000000;0.849804
8232.000000;0.850048
8231.000000;0.850521
8230.000000;0.851017
8229.000000;0.851393
8228.000000;0.851625
8227.000000;0.851737
8226.000000;0.851702
8225.000000;0.851428
8224.000000;0.850877
8223.000000;0.850252
8222.000000;0.849966
8221.000000;0.850314
8220.000000;0.851174
8219.000000;0.852116
8218.000000;0.852763
8217.000000;0.852957
8216.000000;0.852670
8215.000000;0.851979
8214.000000;0.851190
8213.000000;0.850748
8212.000000;0.850869
8211.000000;0.851361
8210.000000;0.851894
8209.000000;0.852350
8208.000000;0.852781
8207.000000;0.853155
8206.000000;0.853326
8205.000000;0.853289
8204.000000;0.853259
8203.000000;0.853436
8202.000000;0.853750
8201.000000;0.853908
8200.000000;0.853701
8199.000000;0.853206
8198.000000;0.852682
8197.000000;0.852317
8196.000000;0.852128
8195.000000;0.852095
8194.000000;0.852276
8193.000000;0.852689
8192.000000;0.853144
8191.000000;0.853351
8190.000000;0.853216
8189.000000;0.852925
8188.000000;0.852690
8187.000000;0.852516
8186.000000;0.852305
8185.000000;0.852112
8184.000000;0.852150
8183.000000;0.852538
8182.000000;0.853101
8181.000000;0.853493
8180.000000;0.853522
8179.000000;0.853336
8178.000000;0.853238
8177.000000;0.853329
8176.000000;0.853397
8175.000000;0.853208
8174.000000;0.852832
8173.000000;0.852578
8172.000000;0.852651
8171.000000;0.852958
8170.000000;0.853243
8169.000000;0.853320
8168.000000;0.853166
8167.000000;0.852927
8166.000000;0.852836
8165.000000;0.853013
8164.000000;0.853319
8163.000000;0.853485
8162.000000;0.853442
8161.000000;0.853388
8160.000000;0.853506
8159.000000;0.853724
8158.000000;0.853853
8157.000000;0.853843
8156.000000;0.853802
8155.000000;0.853838
8154.000000;0.853991
8153.000000;0.854277
8152.000000;0.854687
8151.000000;0.855115
8150.000000;0.855378
8149.000000;0.855329
8148.000000;0.854963
8147.000000;0.854427
8146.000000;0.853914
8145.000000;0.853517
8144.000000;0.853194
8143.000000;0.852921
8142.000000;0.852847
8141.000000;0.853154
8140.000000;0.853773
8139.000000;0.854388
8138.000000;0.854773
8137.000000;0.854983
8136.000000;0.855145
8135.000000;0.855214
8134.000000;0.855096
8133.000000;0.854878
8132.000000;0.854745
8131.000000;0.854702
8130.000000;0.854573
8129.000000;0.854280
8128.000000;0.853982
8127.000000;0.853891
8126.000000;0.854040
8125.000000;0.854272
8124.000000;0.854394
8123.000000;0.854317
8122.000000;0.854116
8121.000000;0.853965
8120.000000;0.854002
8119.000000;0.854239
8118.000000;0.854589
8117.000000;0.854938
8116.000000;0.855181
8115.000000;0.855278
8114.000000;0.855324
8113.000000;0.855494
8112.000000;0.855809
8111.000000;0.856057
8110.000000;0.856055
8109.000000;0.855930
8108.000000;0.855974
8107.000000;0.856260
8106.000000;0.856549
8105.000000;0.856607
8104.000000;0.856454
8103.000000;0.856246
8102.000000;0.856078
8101.000000;0.855973
8100.000000;0.855960
8099.000000;0.856040
8098.000000;0.856132
8097.000000;0.856144
8096.000000;0.856099
8095.000000;0.856096
8094.000000;0.856190
8093.000000;0.856340
8092.000000;0.856488
8091.000000;0.856623
8090.000000;0.856771
8089.000000;0.856926
8088.000000;0.857013
8087.000000;0.856952
8086.000000;0.856803
8085.000000;0.856818
8084.000000;0.857221
8083.000000;0.857868
8082.000000;0.858262
8081.000000;0.858033
8080.000000;0.857398
8079.000000;0.856974
8078.000000;0.857125
8077.000000;0.857598
8076.000000;0.857881
8075.000000;0.857788
8074.000000;0.857581
8073.000000;0.857536
8072.000000;0.857586
8071.000000;0.857483
8070.000000;0.857198
8069.000000;0.856982
8068.000000;0.857043
8067.000000;0.857307
8066.000000;0.857583
8065.000000;0.857841
8064.000000;0.858189
8063.000000;0.858606
8062.000000;0.858851
8061.000000;0.858710
8060.000000;0.858256
8059.000000;0.857793
8058.000000;0.857567
8057.000000;0.857580
8056.000000;0.857651
8055.000000;0.857603
8054.000000;0.857403
8053.000000;0.857188
8052.000000;0.857147
8051.000000;0.857371
8050.000000;0.857764
8049.000000;0.858130
8048.000000;0.858356
8047.000000;0.858496
8046.000000;0.858678
8045.000000;0.858945
8044.000000;0.859218
8043.000000;0.859394
8042.000000;0.859424
8041.000000;0.859307
8040.000000;0.859070
8039.000000;0.858813
8038.000000;0.858701
8037.000000;0.858814
8036.000000;0.859015
8035.000000;0.859069
8034.000000;0.858911
8033.000000;0.858721
8032.000000;0.858689
8031.000000;0.858791
8030.000000;0.858879
8029.000000;0.858906
8028.000000;0.858947
8027.000000;0.859013
8026.000000;0.858982
8025.000000;0.858764
8024.000000;0.858440
8023.000000;0.858183
8022.000000;0.858094
8021.000000;0.858161
8020.000000;0.858329
8019.000000;0.858548
8018.000000;0.858782
8017.000000;0.859021
8016.000000;0.859278
8015.000000;0.859553
8014.000000;0.859798
8013.000000;0.859957
8012.000000;0.860046
8011.000000;0.860162
8010.000000;0.860387
8009.000000;0.860668
8008.000000;0.860817
8007.000000;0.860708
8006.000000;0.860477
8005.000000;0.860469
8004.000000;0.860854
8003.000000;0.861328
8002.000000;0.861355
8001.000000;0.860784
8000.000000;0.860103
7999.000000;0.859954
7998.000000;0.860442
7997.000000;0.861052
7996.000000;0.861241
7995.000000;0.861000
7994.000000;0.860810
7993.000000;0.861105
7992.000000;0.861832
7991.000000;0.862504
7990.000000;0.862648
7989.000000;0.862243
7988.000000;0.861707
7987.000000;0.861450
7986.000000;0.861494
7985.000000;0.861562
7984.000000;0.861467
7983.000000;0.861289
7982.000000;0.861219
7981.000000;0.861362
7980.000000;0.861724
7979.000000;0.862226
7978.000000;0.862680
7977.000000;0.862874
7976.000000;0.862816
7975.000000;0.862770
7974.000000;0.862938
7973.000000;0.863172
7972.000000;0.863163
7971.000000;0.862863
7970.000000;0.862552
7969.000000;0.862469
7968.000000;0.862541
7967.000000;0.862541
7966.000000;0.862381
7965.000000;0.862160
7964.000000;0.862013
7963.000000;0.862006
7962.000000;0.862168
7961.000000;0.862488
7960.000000;0.862864
7959.000000;0.863122
7958.000000;0.863132
7957.000000;0.862932
7956.000000;0.862714
7955.000000;0.862669
7954.000000;0.862808
7953.000000;0.862955
7952.000000;0.862935
7951.000000;0.862756
7950.000000;0.862601
7949.000000;0.862665
7948.000000;0.863006
7947.000000;0.863525
7946.000000;0.864017
7945.000000;0.864274
7944.000000;0.864189
7943.000000;0.863816
7942.000000;0.863309
7941.000000;0.862827
7940.000000;0.862539
7939.000000;0.862638
7938.000000;0.863212
7937.000000;0.864064
7936.000000;0.864784
7935.000000;0.865070
7934.000000;0.864971
7933.000000;0.864770
7932.000000;0.864702
7931.000000;0.864801
7930.000000;0.864950
7929.000000;0.865006
7928.000000;0.864897
7927.000000;0.864667
7926.000000;0.864443
7925.000000;0.864343
7924.000000;0.864417
7923.000000;0.864657
7922.000000;0.864977
7921.000000;0.865221
7920.000000;0.865267
7919.000000;0.865180
7918.000000;0.865168
7917.000000;0.865337
7916.000000;0.865550
7915.000000;0.865595
7914.000000;0.865418
7913.000000;0.865139
7912.000000;0.864889
7911.000000;0.864747
7910.000000;0.864784
7909.000000;0.865027
7908.000000;0.865374
7907.000000;0.865641
7906.000000;0.865716
7905.000000;0.865624
7904.000000;0.865457
7903.000000;0.865313
7902.000000;0.865300
7901.000000;0.865497
7900.000000;0.865895
7899.000000;0.866388
7898.000000;0.866862
7897.000000;0.867223
7896.000000;0.867372
7895.000000;0.867239
7894.000000;0.866875
7893.000000;0.866453
7892.000000;0.866142
7891.000000;0.866025
7890.000000;0.866140
7889.000000;0.866506
7888.000000;0.867055
7887.000000;0.867590
7886.000000;0.867907
7885.000000;0.867960
7884.000000;0.867857
7883.000000;0.867686
7882.000000;0.867447
7881.000000;0.867167
7880.000000;0.867020
7879.000000;0.867206
7878.000000;0.867710
7877.000000;0.868263
7876.000000;0.868591
7875.000000;0.868659
7874.000000;0.868634
7873.000000;0.868669
7872.000000;0.868783
7871.000000;0.868908
7870.000000;0.868962
7869.000000;0.868895
7868.000000;0.868748
7867.000000;0.868669
7866.000000;0.868777
7865.000000;0.869029
7864.000000;0.869301
7863.000000;0.869587
7862.000000;0.869957
7861.000000;0.870326
7860.000000;0.870443
7859.000000;0.870229
7858.000000;0.869948
7857.000000;0.869876
7856.000000;0.869926
7855.000000;0.869815
7854.000000;0.869510
7853.000000;0.869310
7852.000000;0.869459
7851.000000;0.869865
7850.000000;0.870268
7849.000000;0.870537
7848.000000;0.870730
7847.000000;0.870949
7846.000000;0.871225
7845.000000;0.871493
7844.000000;0.871642
7843.000000;0.871602
7842.000000;0.871420
7841.000000;0.871223
7840.000000;0.871130
7839.000000;0.871225
7838.000000;0.871534
7837.000000;0.871955
7836.000000;0.872250
7835.000000;0.872245
7834.000000;0.872044
7833.000000;0.871912
7832.000000;0.871945
7831.000000;0.871977
7830.000000;0.871857
7829.000000;0.871660
7828.000000;0.871552
7827.000000;0.871563
7826.000000;0.871610
7825.000000;0.871667
7824.000000;0.871796
7823.000000;0.872040
7822.000000;0.872359
7821.000000;0.872655
7820.000000;0.872831
7819.000000;0.872853
7818.000000;0.872808
7817.000000;0.872862
7816.000000;0.873103
7815.000000;0.873456
7814.000000;0.873796
7813.000000;0.874072
7812.000000;0.874289
7811.000000;0.874442
7810.000000;0.874560
7809.000000;0.874748
7808.000000;0.875071
7807.000000;0.875419
7806.000000;0.875576
7805.000000;0.875464
7804.000000;0.875212
7803.000000;0.874976
7802.000000;0.874792
7801.000000;0.874631
7800.000000;0.874541
7799.000000;0.874624
7798.000000;0.874893
7797.000000;0.875238
7796.000000;0.875534
7795.000000;0.875758
7794.000000;0.875943
7793.000000;0.876059
7792.000000;0.876021
7791.000000;0.875842
7790.000000;0.875713
7789.000000;0.875835
7788.000000;0.876193
7787.000000;0.876557
7786.000000;0.876719
7785.000000;0.876676
7784.000000;0.876546
7783.000000;0.876416
7782.000000;0.876329
7781.000000;0.876352
7780.000000;0.876538
7779.000000;0.876823
7778.000000;0.877063
7777.000000;0.877195
7776.000000;0.877322
7775.000000;0.877580
7774.000000;0.877979
7773.000000;0.878393
7772.000000;0.878705
7771.000000;0.878884
7770.000000;0.878931
7769.000000;0.878832
7768.000000;0.878612
7767.000000;0.878420
7766.000000;0.878478
7765.000000;0.878878
7764.000000;0.879440
7763.000000;0.879838
7762.000000;0.879856
7761.000000;0.879527
7760.000000;0.879046
7759.000000;0.878621
7758.000000;0.878396
7757.000000;0.878435
7756.000000;0.878709
7755.000000;0.879109
7754.000000;0.879527
7753.000000;0.879905
7752.000000;0.880214
7751.000000;0.880409
7750.000000;0.880487
7749.000000;0.880559
7748.000000;0.880800
7747.000000;0.881271
7746.000000;0.881818
7745.000000;0.882189
7744.000000;0.882286
7743.000000;0.882253
7742.000000;0.882306
7741.000000;0.882499
7740.000000;0.882693
7739.000000;0.882741
7738.000000;0.882654
7737.000000;0.882561
7736.000000;0.882544
7735.000000;0.882569
7734.000000;0.882597
7733.000000;0.882691
7732.000000;0.882988
7731.000000;0.883525
7730.000000;0.884134
7729.000000;0.884528
7728.000000;0.884559
7727.000000;0.884390
7726.000000;0.884350
7725.000000;0.884605
7724.000000;0.884986
7723.000000;0.885183
7722.000000;0.885078
7721.000000;0.884839
7720.000000;0.884728
7719.000000;0.884874
7718.000000;0.885225
7717.000000;0.885646
7716.000000;0.886009
7715.000000;0.886243
7714.000000;0.886341
7713.000000;0.886342
7712.000000;0.886296
7711.000000;0.886234
7710.000000;0.886172
7709.000000;0.886117
7708.000000;0.886093
7707.000000;0.886160
7706.000000;0.886363
7705.000000;0.886649
7704.000000;0.886859
7703.000000;0.886895
7702.000000;0.886860
7701.000000;0.886988
7700.000000;0.887416
7699.000000;0.888047
7698.000000;0.888641
7697.000000;0.889000
7696.000000;0.889083
7695.000000;0.889010
7694.000000;0.888956
7693.000000;0.889015
7692.000000;0.889149
7691.000000;0.889273
7690.000000;0.889362
7689.000000;0.889420
7688.000000;0.889407
7687.000000;0.889276
7686.000000;0.889114
7685.000000;0.889126
7684.000000;0.889441
7683.000000;0.889988
7682.000000;0.890570
7681.000000;0.891034
7680.000000;0.891345
7679.000000;0.891564
7678.000000;0.891786
7677.000000;0.892027
7676.000000;0.892160
7675.000000;0.892043
7674.000000;0.891741
7673.000000;0.891547
7672.000000;0.891705
7671.000000;0.892171
7670.000000;0.892698
7669.000000;0.893104
7668.000000;0.893367
7667.000000;0.893514
7666.000000;0.893552
7665.000000;0.893541
7664.000000;0.893634
7663.000000;0.893944
7662.000000;0.894397
7661.000000;0.894755
7660.000000;0.894849
7659.000000;0.894759
7658.000000;0.894735
7657.000000;0.894912
7656.000000;0.895160
7655.000000;0.895256
7654.000000;0.895172
7653.000000;0.895095
7652.000000;0.895166
7651.000000;0.895338
7650.000000;0.895531
7649.000000;0.895813
7648.000000;0.896305
7647.000000;0.896958
7646.000000;0.897551
7645.000000;0.897920
7644.000000;0.898105
7643.000000;0.898254
7642.000000;0.898452
7641.000000;0.898672
7640.000000;0.898849
7639.000000;0.898973
7638.000000;0.899108
7637.000000;0.899331
7636.000000;0.899634
7635.000000;0.899912
7634.000000;0.900080
7633.000000;0.900183
7632.000000;0.900357
7631.000000;0.900687
7630.000000;0.901132
7629.000000;0.901578
7628.000000;0.901941
7627.000000;0.902224
7626.000000;0.902487
7625.000000;0.902762
7624.000000;0.902976
7623.000000;0.903016
7622.000000;0.902886
7621.000000;0.902769
7620.000000;0.902871
7619.000000;0.903229
7618.000000;0.903696
7617.000000;0.904112
7616.000000;0.904411
7615.000000;0.904593
7614.000000;0.904690
7613.000000;0.904766
7612.000000;0.904916
7611.000000;0.905203
7610.000000;0.905615
7609.000000;0.906080
7608.000000;0.906503
7607.000000;0.906808
7606.000000;0.906989
7605.000000;0.907122
7604.000000;0.907279
7603.000000;0.907455
7602.000000;0.907617
7601.000000;0.907802
7600.000000;0.908097
7599.000000;0.908504
7598.000000;0.908900
7597.000000;0.909182
7596.000000;0.909382
7595.000000;0.909602
7594.000000;0.909887
7593.000000;0.910201
7592.000000;0.910500
7591.000000;0.910772
7590.000000;0.911032
7589.000000;0.911311
7588.000000;0.911631
7587.000000;0.911977
7586.000000;0.912312
7585.000000;0.912635
7584.000000;0.912983
7583.000000;0.913337
7582.000000;0.913614
7581.000000;0.913790
7580.000000;0.914000
7579.000000;0.914397
7578.000000;0.914939
7577.000000;0.915412
7576.000000;0.915684
7575.000000;0.915858
7574.000000;0.916135
7573.000000;0.916586
7572.000000;0.917117
7571.000000;0.917591
7570.000000;0.917939
7569.000000;0.918184
7568.000000;0.918401
7567.000000;0.918647
7566.000000;0.918887
7565.000000;0.919029
7564.000000;0.919046
7563.000000;0.919039
7562.000000;0.919153
7561.000000;0.919457
7560.000000;0.919942
7559.000000;0.920572
7558.000000;0.921272
7557.000000;0.921889
7556.000000;0.922275
7555.000000;0.922432
7554.000000;0.922509
7553.000000;0.922634
7552.000000;0.922802
7551.000000;0.922962
7550.000000;0.923133
7549.000000;0.923378
7548.000000;0.923697
7547.000000;0.924022
7546.000000;0.924315
7545.000000;0.924626
7544.000000;0.925028
7543.000000;0.925505
7542.000000;0.925955
7541.000000;0.926296
7540.000000;0.926574
7539.000000;0.926938
7538.000000;0.927498
7537.000000;0.928214
7536.000000;0.928967
7535.000000;0.929672
7534.000000;0.930290
7533.000000;0.930755
7532.000000;0.930988
7531.000000;0.931020
7530.000000;0.931034
7529.000000;0.931223
7528.000000;0.931613
7527.000000;0.932063
7526.000000;0.932412
7525.000000;0.932623
7524.000000;0.932817
7523.000000;0.933175
7522.000000;0.933761
7521.000000;0.934413
7520.000000;0.934870
7519.000000;0.935053
7518.000000;0.935159
7517.000000;0.935451
7516.000000;0.935999
7515.000000;0.936655
7514.000000;0.937217
7513.000000;0.937528
7512.000000;0.937527
7511.000000;0.937324
7510.000000;0.937233
7509.000000;0.937568
7508.000000;0.938332
7507.000000;0.939167
7506.000000;0.939680
7505.000000;0.939791
7504.000000;0.939753
7503.000000;0.939868
7502.000000;0.940237
7501.000000;0.940748
7500.000000;0.941268
7499.000000;0.941777
7498.000000;0.942322
7497.000000;0.942898
7496.000000;0.943440
7495.000000;0.943918
7494.000000;0.944368
7493.000000;0.944800
7492.000000;0.945161
7491.000000;0.945452
7490.000000;0.945785
7489.000000;0.946247
7488.000000;0.946760
7487.000000;0.947174
7486.000000;0.947468
7485.000000;0.947747
7484.000000;0.948079
7483.000000;0.948452
7482.000000;0.948858
7481.000000;0.949295
7480.000000;0.949688
7479.000000;0.949946
7478.000000;0.950126
7477.000000;0.950398
7476.000000;0.950806
7475.000000;0.951213
7474.000000;0.951539
7473.000000;0.951930
7472.000000;0.952552
7471.000000;0.953311
7470.000000;0.953912
7469.000000;0.954182
7468.000000;0.954246
7467.000000;0.954384
7466.000000;0.954787
7465.000000;0.955432
7464.000000;0.956133
7463.000000;0.956699
7462.000000;0.957112
7461.000000;0.957534
7460.000000;0.958133
7459.000000;0.958884
7458.000000;0.959581
7457.000000;0.959998
7456.000000;0.960051
7455.000000;0.959867
7454.000000;0.959722
7453.000000;0.959871
7452.000000;0.960361
7451.000000;0.961015
7450.000000;0.961643
7449.000000;0.962219
7448.000000;0.962823
7447.000000;0.963472
7446.000000;0.964071
7445.000000;0.964502
7444.000000;0.964722
7443.000000;0.964776
7442.000000;0.964768
7441.000000;0.964794
7440.000000;0.964871
7439.000000;0.964960
7438.000000;0.965090
7437.000000;0.965407
7436.000000;0.966036
7435.000000;0.966908
7434.000000;0.967795
7433.000000;0.968524
7432.000000;0.969076
7431.000000;0.969503
7430.000000;0.969800
7429.000000;0.969921
7428.000000;0.969890
7427.000000;0.969865
7426.000000;0.970048
7425.000000;0.970511
7424.000000;0.971129
7423.000000;0.971702
7422.000000;0.972174
7421.000000;0.972659
7420.000000;0.973269
7419.000000;0.973954
7418.000000;0.974556
7417.000000;0.974957
7416.000000;0.975148
7415.000000;0.975210
7414.000000;0.975296
7413.000000;0.975558
7412.000000;0.976024
7411.000000;0.976574
7410.000000;0.977088
7409.000000;0.977559
7408.000000;0.978001
7407.000000;0.978318
7406.000000;0.978399
7405.000000;0.978325
7404.000000;0.978336
7403.000000;0.978561
7402.000000;0.978901
7401.000000;0.979195
7400.000000;0.979439
7399.000000;0.979762
7398.000000;0.980261
7397.000000;0.980883
7396.000000;0.981469
7395.000000;0.981891
7394.000000;0.982181
7393.000000;0.982510
7392.000000;0.983012
7391.000000;0.983652
7390.000000;0.984295
7389.000000;0.984836
7388.000000;0.985203
7387.000000;0.985314
7386.000000;0.985165
7385.000000;0.984959
7384.000000;0.984981
7383.000000;0.985312
7382.000000;0.985791
7381.000000;0.986295
7380.000000;0.986869
7379.000000;0.987500
7378.000000;0.987924
7377.000000;0.987901
7376.000000;0.987616
7375.000000;0.987604
7374.000000;0.988207
7373.000000;0.989228
7372.000000;0.990177
7371.000000;0.990754
7370.000000;0.991024
7369.000000;0.991217
7368.000000;0.991499
7367.000000;0.991907
7366.000000;0.992395
7365.000000;0.992864
7364.000000;0.993201
7363.000000;0.993380
7362.000000;0.993549
7361.000000;0.993920
7360.000000;0.994529
7359.000000;0.995130
7358.000000;0.995428
7357.000000;0.995382
7356.000000;0.995231
7355.000000;0.995273
7354.000000;0.995653
7353.000000;0.996317
7352.000000;0.997039
7351.000000;0.997508
7350.000000;0.997542
7349.000000;0.997320
7348.000000;0.997264
7347.000000;0.997617
7346.000000;0.998217
7345.000000;0.998746
7344.000000;0.999074
7343.000000;0.999270
7342.000000;0.999432
7341.000000;0.999669
7340.000000;1.000138
7339.000000;1.000912
7338.000000;1.001824
7337.000000;1.002626
7336.000000;1.003261
7335.000000;1.003816
7334.000000;1.004310
7333.000000;1.004689
7332.000000;1.005005
7331.000000;1.005362
7330.000000;1.005703
7329.000000;1.005877
7328.000000;1.005980
7327.000000;1.006360
7326.000000;1.007179
7325.000000;1.008194
7324.000000;1.009098
7323.000000;1.009879
7322.000000;1.010708
7321.000000;1.011598
7320.000000;1.012367
7319.000000;1.012870
7318.000000;1.013126
7317.000000;1.013275
7316.000000;1.013513
7315.000000;1.013987
7314.000000;1.014625
7313.000000;1.015162
7312.000000;1.015461
7311.000000;1.015720
7310.000000;1.016194
7309.000000;1.016842
7308.000000;1.017427
7307.000000;1.017902
7306.000000;1.018472
7305.000000;1.019278
7304.000000;1.020234
7303.000000;1.021208
7302.000000;1.022139
7301.000000;1.022964
7300.000000;1.023611
7299.000000;1.024165
7298.000000;1.024867
7297.000000;1.025831
7296.000000;1.026903
7295.000000;1.027882
7294.000000;1.028764
7293.000000;1.029671
7292.000000;1.030645
7291.000000;1.031630
7290.000000;1.032575
7289.000000;1.033463
7288.000000;1.034299
7287.000000;1.035152
7286.000000;1.036148
7285.000000;1.037328
7284.000000;1.038554
7283.000000;1.039632
7282.000000;1.040514
7281.000000;1.041312
7280.000000;1.042144
7279.000000;1.043015
7278.000000;1.043851
7277.000000;1.044589
7276.000000;1.045266
7275.000000;1.046025
7274.000000;1.047018
7273.000000;1.048253
7272.000000;1.049570
7271.000000;1.050803
7270.000000;1.051936
7269.000000;1.053071
7268.000000;1.054293
7267.000000;1.055593
7266.000000;1.056883
7265.000000;1.058060
7264.000000;1.059101
7263.000000;1.060137
7262.000000;1.061345
7261.000000;1.062750
7260.000000;1.064203
7259.000000;1.065616
7258.000000;1.067093
7257.000000;1.068724
7256.000000;1.070357
7255.000000;1.071737
7254.000000;1.072847
7253.000000;1.073937
7252.000000;1.075225
7251.000000;1.076706
7250.000000;1.078263
7249.000000;1.079836
7248.000000;1.081408
7247.000000;1.082909
7246.000000;1.084225
7245.000000;1.085290
7244.000000;1.086206
7243.000000;1.087313
7242.000000;1.089063
7241.000000;1.091647
7240.000000;1.094715
7239.000000;1.097602
7238.000000;1.099876
7237.000000;1.101591
7236.000000;1.103070
7235.000000;1.104563
7234.000000;1.106176
7233.000000;1.107967
7232.000000;1.109999
7231.000000;1.112294
7230.000000;1.114803
7229.000000;1.117438
7228.000000;1.120084
7227.000000;1.122634
7226.000000;1.125069
7225.000000;1.127475
7224.000000;1.129929
7223.000000;1.132405
7222.000000;1.134834
7221.000000;1.137205
7220.000000;1.139551
7219.000000;1.141898
7218.000000;1.144313
7217.000000;1.146956
7216.000000;1.149944
7215.000000;1.153187
7214.000000;1.156439
7213.000000;1.159521
7212.000000;1.162439
7211.000000;1.165318
7210.000000;1.168317
7209.000000;1.171569
7208.000000;1.175064
7207.000000;1.178551
7206.000000;1.181704
7205.000000;1.184456
7204.000000;1.187112
7203.000000;1.190048
7202.000000;1.193365
7201.000000;1.196904
7200.000000;1.200481
7199.000000;1.203992
7198.000000;1.207395
7197.000000;1.210720
7196.000000;1.214102
7195.000000;1.217681
7194.000000;1.221449
7193.000000;1.225274
7192.000000;1.229062
7191.000000;1.232822
7190.000000;1.236570
7189.000000;1.240264
7188.000000;1.243884
7187.000000;1.247510
7186.000000;1.251262
7185.000000;1.255183
7184.000000;1.259234
7183.000000;1.263407
7182.000000;1.267786
7181.000000;1.272450
7180.000000;1.277326
7179.000000;1.282192
7178.000000;1.286866
7177.000000;1.291341
7176.000000;1.295735
7175.000000;1.300119
7174.000000;1.304475
7173.000000;1.308776
7172.000000;1.313035
7171.000000;1.317232
7170.000000;1.321306
7169.000000;1.325294
7168.000000;1.329445
7167.000000;1.334074
7166.000000;1.339257
7165.000000;1.344699
7164.000000;1.349943
7163.000000;1.354738
7162.000000;1.359244
7161.000000;1.363874
7160.000000;1.368886
7159.000000;1.374115
7158.000000;1.379182
7157.000000;1.383943
7156.000000;1.388619
7155.000000;1.393474
7154.000000;1.398522
7153.000000;1.403618
7152.000000;1.408702
7151.000000;1.413814
7150.000000;1.418932
7149.000000;1.423951
7148.000000;1.428817
7147.000000;1.433580
7146.000000;1.438323
7145.000000;1.443142
7144.000000;1.448143
7143.000000;1.453337
7142.000000;1.458564
7141.000000;1.463668
7140.000000;1.468724
7139.000000;1.473914
7138.000000;1.479174
7137.000000;1.484209
7136.000000;1.488956
7135.000000;1.493784
7134.000000;1.499079
7133.000000;1.504775
7132.000000;1.510451
7131.000000;1.515760
7130.000000;1.520628
7129.000000;1.525153
7128.000000;1.529516
7127.000000;1.533917
7126.000000;1.538402
7125.000000;1.542819
7124.000000;1.547094
7123.000000;1.551476
7122.000000;1.556290
7121.000000;1.561524
7120.000000;1.566866
7119.000000;1.572130
7118.000000;1.577325
7117.000000;1.582316
7116.000000;1.586765
7115.000000;1.590611
7114.000000;1.594292
7113.000000;1.598274
7112.000000;1.602601
7111.000000;1.607122
7110.000000;1.611891
7109.000000;1.617049
7108.000000;1.622401
7107.000000;1.627511
7106.000000;1.632206
7105.000000;1.636658
7104.000000;1.640939
7103.000000;1.644880
7102.000000;1.648519
7101.000000;1.652337
7100.000000;1.656787
7099.000000;1.661750
7098.000000;1.666714
7097.000000;1.671356
7096.000000;1.675725
7095.000000;1.679905
7094.000000;1.683796
7093.000000;1.687272
7092.000000;1.690404
7091.000000;1.693467
7090.000000;1.696834
7089.000000;1.700814
7088.000000;1.705441
7087.000000;1.710385
7086.000000;1.715178
7085.000000;1.719570
7084.000000;1.723544
7083.000000;1.727005
7082.000000;1.729684
7081.000000;1.731521
7080.000000;1.733049
7079.000000;1.735147
7078.000000;1.738286
7077.000000;1.742113
7076.000000;1.745820
7075.000000;1.748958
7074.000000;1.751844
7073.000000;1.755134
7072.000000;1.759098
7071.000000;1.763383
7070.000000;1.767357
7069.000000;1.770591
7068.000000;1.773095
7067.000000;1.775253
7066.000000;1.777505
7065.000000;1.779980
7064.000000;1.782483
7063.000000;1.784972
7062.000000;1.787865
7061.000000;1.791456
7060.000000;1.795100
7059.000000;1.797600
7058.000000;1.798653
7057.000000;1.799434
7056.000000;1.801330
7055.000000;1.804471
7054.000000;1.807981
7053.000000;1.811358
7052.000000;1.814908
7051.000000;1.818811
7050.000000;1.822515
7049.000000;1.825359
7048.000000;1.827320
7047.000000;1.828827
7046.000000;1.830145
7045.000000;1.831245
7044.000000;1.832079
7043.000000;1.832719
7042.000000;1.833404
7041.000000;1.834629
7040.000000;1.836957
7039.000000;1.840483
7038.000000;1.844481
7037.000000;1.847795
7036.000000;1.849762
7035.000000;1.850814
7034.000000;1.852094
7033.000000;1.854390
7032.000000;1.857316
7031.000000;1.859616
7030.000000;1.860512
7029.000000;1.860654
7028.000000;1.861379
7027.000000;1.863087
7026.000000;1.864795
7025.000000;1.865490
7024.000000;1.865497
7023.000000;1.866077
7022.000000;1.867867
7021.000000;1.870238
7020.000000;1.872186
7019.000000;1.873496
7018.000000;1.874879
7017.000000;1.877098
7016.000000;1.880084
7015.000000;1.882867
7014.000000;1.884413
7013.000000;1.884606
7012.000000;1.884353
7011.000000;1.884679
7010.000000;1.885824
7009.000000;1.887300
7008.000000;1.888747
7007.000000;1.890445
7006.000000;1.892838
7005.000000;1.895709
7004.000000;1.898046
7003.000000;1.898773
7002.000000;1.897551
7001.000000;1.894994
7000.000000;1.892348
6999.000000;1.890951
6998.000000;1.891651
6997.000000;1.894316
6996.000000;1.897857
6995.000000;1.900976
6994.000000;1.903059
6993.000000;1.904321
6992.000000;1.905257
6991.000000;1.906280
6990.000000;1.907767
6989.000000;1.909841
6988.000000;1.911901
6987.000000;1.912867
6986.000000;1.912300
6985.000000;1.910909
6984.000000;1.909544
6983.000000;1.908211
6982.000000;1.906686
6981.000000;1.905699
6980.000000;1.906528
6979.000000;1.909226
6978.000000;1.911991
6977.000000;1.912902
6976.000000;1.912015
6975.000000;1.911248
6974.000000;1.912280
6973.000000;1.914914
6972.000000;1.917356
6971.000000;1.917894
6970.000000;1.916393
6969.000000;1.914190
6968.000000;1.912593
6967.000000;1.911734
6966.000000;1.911009
6965.000000;1.910372
6964.000000;1.910642
6963.000000;1.912415
6962.000000;1.915090
6961.000000;1.917291
6960.000000;1.918106
6959.000000;1.917707
6958.000000;1.916928
6957.000000;1.916536
6956.000000;1.916810
6955.000000;1.917511
6954.000000;1.918093
6953.000000;1.918062
6952.000000;1.917283
6951.000000;1.916059
6950.000000;1.914979
6949.000000;1.914576
6948.000000;1.914898
6947.000000;1.915455
6946.000000;1.915851
6945.000000;1.916397
6944.000000;1.917713
6943.000000;1.919623
6942.000000;1.920937
6941.000000;1.920721
6940.000000;1.919521
6939.000000;1.918830
6938.000000;1.919403
6937.000000;1.920468
6936.000000;1.920614
6935.000000;1.919278
6934.000000;1.917285
6933.000000;1.916032
6932.000000;1.916210
6931.000000;1.917230
6930.000000;1.917881
6929.000000;1.917514
6928.000000;1.916434
6927.000000;1.915195
6926.000000;1.913967
6925.000000;1.912821
6924.000000;1.912192
6923.000000;1.912531
6922.000000;1.913639
6921.000000;1.914794
6920.000000;1.915558
6919.000000;1.916116
6918.000000;1.916734
6917.000000;1.917266
6916.000000;1.917389
6915.000000;1.917035
6914.000000;1.916347
6913.000000;1.915474
6912.000000;1.914632
6911.000000;1.914163
6910.000000;1.914258
6909.000000;1.914676
6908.000000;1.914906
6907.000000;1.914628
6906.000000;1.913986
6905.000000;1.913351
6904.000000;1.912902
6903.000000;1.912471
6902.000000;1.911804
6901.000000;1.910973
6900.000000;1.910495
6899.000000;1.910935
6898.000000;1.912267
6897.000000;1.913646
6896.000000;1.914013
6895.000000;1.913108
6894.000000;1.911740
6893.000000;1.910985
6892.000000;1.911243
6891.000000;1.912074
6890.000000;1.912811
6889.000000;1.913161
6888.000000;1.913173
6887.000000;1.912853
6886.000000;1.912038
6885.000000;1.910677
6884.000000;1.909051
6883.000000;1.907606
6882.000000;1.906615
6881.000000;1.906077
6880.000000;1.905857
6879.000000;1.905820
6878.000000;1.905778
6877.000000;1.905427
6876.000000;1.904495
6875.000000;1.903037
6874.000000;1.901497
6873.000000;1.900396
6872.000000;1.900008
6871.000000;1.900384
6870.000000;1.901576
6869.000000;1.903564
6868.000000;1.905885
6867.000000;1.907540
6866.000000;1.907618
6865.000000;1.906108
6864.000000;1.903981
6863.000000;1.902397
6862.000000;1.901855
6861.000000;1.902052
6860.000000;1.902353
6859.000000;1.902270
6858.000000;1.901604
6857.000000;1.900418
6856.000000;1.899041
6855.000000;1.897989
6854.000000;1.897637
6853.000000;1.897881
6852.000000;1.898240
6851.000000;1.898243
6850.000000;1.897643
6849.000000;1.896341
6848.000000;1.894403
6847.000000;1.892248
6846.000000;1.890508
6845.000000;1.889467
6844.000000;1.888830
6843.000000;1.888282
6842.000000;1.888003
6841.000000;1.888281
6840.000000;1.888854
6839.000000;1.889061
6838.000000;1.888532
6837.000000;1.887332
6836.000000;1.885537
6835.000000;1.883284
6834.000000;1.881258
6833.000000;1.880385
6832.000000;1.880697
6831.000000;1.881047
6830.000000;1.880360
6829.000000;1.878786
6828.000000;1.877238
6827.000000;1.876230
6826.000000;1.875670
6825.000000;1.875391
6824.000000;1.875243
6823.000000;1.874797
6822.000000;1.873549
6821.000000;1.871488
6820.000000;1.869113
6819.000000;1.866936
6818.000000;1.865241
6817.000000;1.864124
6816.000000;1.863383
6815.000000;1.862484
6814.000000;1.861061
6813.000000;1.859415
6812.000000;1.858066
6811.000000;1.856882
6810.000000;1.855182
6809.000000;1.852727
6808.000000;1.850137
6807.000000;1.848181
6806.000000;1.847067
6805.000000;1.846473
6804.000000;1.845879
6803.000000;1.844738
6802.000000;1.842751
6801.000000;1.840196
6800.000000;1.837672
6799.000000;1.835437
6798.000000;1.833309
6797.000000;1.831307
6796.000000;1.829953
6795.000000;1.829611
6794.000000;1.829785
6793.000000;1.829465
6792.000000;1.828113
6791.000000;1.826064
6790.000000;1.824005
6789.000000;1.822275
6788.000000;1.820661
6787.000000;1.818736
6786.000000;1.816354
6785.000000;1.813792
6784.000000;1.811356
6783.000000;1.808987
6782.000000;1.806464
6781.000000;1.803915
6780.000000;1.801762
6779.000000;1.800140
6778.000000;1.798707
6777.000000;1.797178
6776.000000;1.795719
6775.000000;1.794578
6774.000000;1.793575
6773.000000;1.792259
6772.000000;1.790424
6771.000000;1.788216
6770.000000;1.785830
6769.000000;1.783370
6768.000000;1.780988
6767.000000;1.778930
6766.000000;1.777324
6765.000000;1.775983
6764.000000;1.774438
6763.000000;1.772272
6762.000000;1.769512
6761.000000;1.766719
6760.000000;1.764551
6759.000000;1.763176
6758.000000;1.762180
6757.000000;1.761008
6756.000000;1.759382
6755.000000;1.757335
6754.000000;1.755048
6753.000000;1.752717
6752.000000;1.750433
6751.000000;1.748132
6750.000000;1.745773
6749.000000;1.743522
6748.000000;1.741544
6747.000000;1.739699
6746.000000;1.737712
6745.000000;1.735641
6744.000000;1.733799
6743.000000;1.732143
6742.000000;1.730161
6741.000000;1.727573
6740.000000;1.724813
6739.000000;1.722537
6738.000000;1.720892
6737.000000;1.719513
6736.000000;1.717989
6735.000000;1.716078
6734.000000;1.713726
6733.000000;1.711211
6732.000000;1.709066
6731.000000;1.707501
6730.000000;1.706027
6729.000000;1.703991
6728.000000;1.701392
6727.000000;1.698795
6726.000000;1.696545
6725.000000;1.694478
6724.000000;1.692404
6723.000000;1.690468
6722.000000;1.688848
6721.000000;1.687417
6720.000000;1.685871
6719.000000;1.684043
6718.000000;1.681958
6717.000000;1.679787
6716.000000;1.677842
6715.000000;1.676399
6714.000000;1.675325
6713.000000;1.673996
6712.000000;1.671809
6711.000000;1.668825
6710.000000;1.665762
6709.000000;1.663414
6708.000000;1.662023
6707.000000;1.661119
6706.000000;1.659997
6705.000000;1.658244
6704.000000;1.655975
6703.000000;1.653615
6702.000000;1.651505
6701.000000;1.649683
6700.000000;1.647928
6699.000000;1.645956
6698.000000;1.643634
6697.000000;1.641105
6696.000000;1.638688
6695.000000;1.636641
6694.000000;1.634992
6693.000000;1.633574
6692.000000;1.632135
6691.000000;1.630425
6690.000000;1.628343
6689.000000;1.626084
6688.000000;1.624025
6687.000000;1.622349
6686.000000;1.620872
6685.000000;1.619297
6684.000000;1.617527
6683.000000;1.615615
6682.000000;1.613576
6681.000000;1.611443
6680.000000;1.609400
6679.000000;1.607631
6678.000000;1.606106
6677.000000;1.604686
6676.000000;1.603383
6675.000000;1.602279
6674.000000;1.601207
6673.000000;1.599779
6672.000000;1.597788
6671.000000;1.595400
6670.000000;1.592925
6669.000000;1.590580
6668.000000;1.588512
6667.000000;1.586784
6666.000000;1.585236
6665.000000;1.583552
6664.000000;1.581606
6663.000000;1.579585
6662.000000;1.577665
6661.000000;1.575757
6660.000000;1.573711
6659.000000;1.571617
6658.000000;1.569660
6657.000000;1.567799
6656.000000;1.565850
6655.000000;1.563881
6654.000000;1.562245
6653.000000;1.561111
6652.000000;1.560136
6651.000000;1.558768
6650.000000;1.556822
6649.000000;1.554635
6648.000000;1.552650
6647.000000;1.550984
6646.000000;1.549448
6645.000000;1.547846
6644.000000;1.546137
6643.000000;1.544361
6642.000000;1.542570
6641.000000;1.540872
6640.000000;1.539400
6639.000000;1.538118
6638.000000;1.536778
6637.000000;1.535194
6636.000000;1.533485
6635.000000;1.531914
6634.000000;1.530538
6633.000000;1.529182
6632.000000;1.527714
6631.000000;1.526136
6630.000000;1.524394
6629.000000;1.522363
6628.000000;1.520137
6627.000000;1.518119
6626.000000;1.516622
6625.000000;1.515501
6624.000000;1.514334
6623.000000;1.512904
6622.000000;1.511329
6621.000000;1.509774
6620.000000;1.508230
6619.000000;1.506603
6618.000000;1.504872
6617.000000;1.503109
6616.000000;1.501403
6615.000000;1.499790
6614.000000;1.498226
6613.000000;1.496624
6612.000000;1.494965
6611.000000;1.493359
6610.000000;1.491928
6609.000000;1.490645
6608.000000;1.489362
6607.000000;1.487972
6606.000000;1.486497
6605.000000;1.485013
6604.000000;1.483566
6603.000000;1.482156
6602.000000;1.480759
6601.000000;1.479382
6600.000000;1.478121
6599.000000;1.477093
6598.000000;1.476215
6597.000000;1.475107
6596.000000;1.473386
6595.000000;1.471104
6594.000000;1.468780
6593.000000;1.466925
6592.000000;1.465619
6591.000000;1.464558
6590.000000;1.463392
6589.000000;1.461943
6588.000000;1.460194
6587.000000;1.458254
6586.000000;1.456371
6585.000000;1.454835
6584.000000;1.453767
6583.000000;1.452999
6582.000000;1.452181
6581.000000;1.451026
6580.000000;1.449479
6579.000000;1.447705
6578.000000;1.445967
6577.000000;1.444478
6576.000000;1.443282
6575.000000;1.442224
6574.000000;1.441056
6573.000000;1.439632
6572.000000;1.438044
6571.000000;1.436563
6570.000000;1.435430
6569.000000;1.434655
6568.000000;1.433964
6567.000000;1.432970
6566.000000;1.431479
6565.000000;1.429706
6564.000000;1.428133
6563.000000;1.427070
6562.000000;1.426352
6561.000000;1.425551
6560.000000;1.424437
6559.000000;1.423123
6558.000000;1.421774
6557.000000;1.420389
6556.000000;1.418940
6555.000000;1.417540
6554.000000;1.416306
6553.000000;1.415155
6552.000000;1.413929
6551.000000;1.412646
6550.000000;1.411454
6549.000000;1.410383
6548.000000;1.409344
6547.000000;1.408336
6546.000000;1.407424
6545.000000;1.406486
6544.000000;1.405246
6543.000000;1.403663
6542.000000;1.402074
6541.000000;1.400795
6540.000000;1.399734
6539.000000;1.398593
6538.000000;1.397320
6537.000000;1.396128
6536.000000;1.395129
6535.000000;1.394176
6534.000000;1.393106
6533.000000;1.391953
6532.000000;1.390844
6531.000000;1.389792
6530.000000;1.388677
6529.000000;1.387399
6528.000000;1.386002
6527.000000;1.384672
6526.000000;1.383594
6525.000000;1.382748
6524.000000;1.381875
6523.000000;1.380734
6522.000000;1.379372
6521.000000;1.378074
6520.000000;1.377032
6519.000000;1.376175
6518.000000;1.375331
6517.000000;1.374436
6516.000000;1.373514
6515.000000;1.372564
6514.000000;1.371552
6513.000000;1.370484
6512.000000;1.369394
6511.000000;1.368284
6510.000000;1.367136
6509.000000;1.365974
6508.000000;1.364848
6507.000000;1.363773
6506.000000;1.362718
6505.000000;1.361680
6504.000000;1.360703
6503.000000;1.359828
6502.000000;1.359020
6501.000000;1.358196
6500.000000;1.357307
6499.000000;1.356395
6498.000000;1.355551
6497.000000;1.354788
6496.000000;1.353985
6495.000000;1.352977
6494.000000;1.351707
6493.000000;1.350285
6492.000000;1.348903
6491.000000;1.347714
6490.000000;1.346761
6489.000000;1.345979
6488.000000;1.345251
6487.000000;1.344496
6486.000000;1.343703
6485.000000;1.342869
6484.000000;1.341934
6483.000000;1.340851
6482.000000;1.339697
6481.000000;1.338634
6480.000000;1.337726
6479.000000;1.336872
6478.000000;1.335972
6477.000000;1.335069
6476.000000;1.334249
6475.000000;1.333459
6474.000000;1.332541
6473.000000;1.331429
6472.000000;1.330237
6471.000000;1.329135
6470.000000;1.328196
6469.000000;1.327395
6468.000000;1.326678
6467.000000;1.326002
6466.000000;1.325330
6465.000000;1.324625
6464.000000;1.323859
6463.000000;1.323024
6462.000000;1.322158
6461.000000;1.321325
6460.000000;1.320535
6459.000000;1.319706
6458.000000;1.318762
6457.000000;1.317776
6456.000000;1.316922
6455.000000;1.316258
6454.000000;1.315622
6453.000000;1.314803
6452.000000;1.313771
6451.000000;1.312678
6450.000000;1.311675
6449.000000;1.310807
6448.000000;1.310054
6447.000000;1.309388
6446.000000;1.308752
6445.000000;1.308070
6444.000000;1.307317
6443.000000;1.306552
6442.000000;1.305828
6441.000000;1.305115
6440.000000;1.304336
6439.000000;1.303466
6438.000000;1.302566
6437.000000;1.301727
6436.000000;1.300992
6435.000000;1.300314
6434.000000;1.299583
6433.000000;1.298718
6432.000000;1.297767
6431.000000;1.296871
6430.000000;1.296104
6429.000000;1.295380
6428.000000;1.294567
6427.000000;1.293667
6426.000000;1.292830
6425.000000;1.292201
6424.000000;1.291780
6423.000000;1.291426
6422.000000;1.290937
6421.000000;1.290154
6420.000000;1.289085
6419.000000;1.287935
6418.000000;1.286982
6417.000000;1.286356
6416.000000;1.285968
6415.000000;1.285614
6414.000000;1.285127
6413.000000;1.284429
6412.000000;1.283547
6411.000000;1.282634
6410.000000;1.281893
6409.000000;1.281375
6408.000000;1.280885
6407.000000;1.280171
6406.000000;1.279197
6405.000000;1.278181
6404.000000;1.277348
6403.000000;1.276724
6402.000000;1.276173
6401.000000;1.275561
6400.000000;1.274855
6399.000000;1.274098
6398.000000;1.273368
6397.000000;1.272729
6396.000000;1.272196
6395.000000;1.271711
6394.000000;1.271163
6393.000000;1.270484
6392.000000;1.269721
6391.000000;1.269017
6390.000000;1.268466
6389.000000;1.267989
6388.000000;1.267380
6387.000000;1.266522
6386.000000;1.265527
6385.000000;1.264637
6384.000000;1.263993
6383.000000;1.263530
6382.000000;1.263085
6381.000000;1.262566
6380.000000;1.261993
6379.000000;1.261418
6378.000000;1.260847
6377.000000;1.260225
6376.000000;1.259512
6375.000000;1.258736
6374.000000;1.257977
6373.000000;1.257291
6372.000000;1.256672
6371.000000;1.256088
6370.000000;1.255541
6369.000000;1.255058
6368.000000;1.254639
6367.000000;1.254238
6366.000000;1.253779
6365.000000;1.253200
6364.000000;1.252501
6363.000000;1.251779
6362.000000;1.251189
6361.000000;1.250802
6360.000000;1.250499
6359.000000;1.250037
6358.000000;1.249247
6357.000000;1.248168
6356.000000;1.247027
6355.000000;1.246097
6354.000000;1.245535
6353.000000;1.245270
6352.000000;1.245045
6351.000000;1.244626
6350.000000;1.243989
6349.000000;1.243275
6348.000000;1.242602
6347.000000;1.241992
6346.000000;1.241461
6345.000000;1.241062
6344.000000;1.240792
6343.000000;1.240540
6342.000000;1.240183
6341.000000;1.239700
6340.000000;1.239134
6339.000000;1.238495
6338.000000;1.237796
6337.000000;1.237118
6336.000000;1.236567
6335.000000;1.236143
6334.000000;1.235738
6333.000000;1.235279
6332.000000;1.234803
6331.000000;1.234383
6330.000000;1.234016
6329.000000;1.233630
6328.000000;1.233165
6327.000000;1.232623
6326.000000;1.232066
6325.000000;1.231562
6324.000000;1.231131
6323.000000;1.230703
6322.000000;1.230200
6321.000000;1.229654
6320.000000;1.229193
6319.000000;1.228863
6318.000000;1.228515
6317.000000;1.227936
6316.000000;1.227100
6315.000000;1.226227
6314.000000;1.225576
6313.000000;1.225222
6312.000000;1.225035
6311.000000;1.224819
6310.000000;1.224423
6309.000000;1.223795
6308.000000;1.223003
6307.000000;1.222227
6306.000000;1.221659
6305.000000;1.221380
6304.000000;1.221309
6303.000000;1.221263
6302.000000;1.221066
6301.000000;1.220632
6300.000000;1.220021
6299.000000;1.219399
6298.000000;1.218911
6297.000000;1.218561
6296.000000;1.218239
6295.000000;1.217853
6294.000000;1.217400
6293.000000;1.216909
6292.000000;1.216383
6291.000000;1.215837
6290.000000;1.215356
6289.000000;1.215043
6288.000000;1.214891
6287.000000;1.214759
6286.000000;1.214492
6285.000000;1.214051
6284.000000;1.213510
6283.000000;1.212956
6282.000000;1.212416
6281.000000;1.211880
6280.000000;1.211376
6279.000000;1.210970
6278.000000;1.210691
6277.000000;1.210456
6276.000000;1.210124
6275.000000;1.209647
6274.000000;1.209132
6273.000000;1.208744
6272.000000;1.208555
6271.000000;1.208502
6270.000000;1.208445
6269.000000;1.208249
6268.000000;1.207838
6267.000000;1.207259
6266.000000;1.206674
6265.000000;1.206245
6264.000000;1.205983
6263.000000;1.205739
6262.000000;1.205361
6261.000000;1.204833
6260.000000;1.204260
6259.000000;1.203748
6258.000000;1.203336
6257.000000;1.203017
6256.000000;1.202754
6255.000000;1.202493
6254.000000;1.202185
6253.000000;1.201841
6252.000000;1.201533
6251.000000;1.201325
6250.000000;1.201201
6249.000000;1.201089
6248.000000;1.200935
6247.000000;1.200734
6246.000000;1.200488
6245.000000;1.200167
6244.000000;1.199745
6243.000000;1.199251
6242.000000;1.198760
6241.000000;1.198346
6240.000000;1.198046
6239.000000;1.197849
6238.000000;1.197688
6237.000000;1.197455
6236.000000;1.197081
6235.000000;1.196605
6234.000000;1.196146
6233.000000;1.195793
6232.000000;1.195546
6231.000000;1.195348
6230.000000;1.195125
6229.000000;1.194817
6228.000000;1.194406
6227.000000;1.193940
6226.000000;1.193505
6225.000000;1.193145
6224.000000;1.192852
6223.000000;1.192616
6222.000000;1.192446
6221.000000;1.192303
6220.000000;1.192092
6219.000000;1.191753
6218.000000;1.191344
6217.000000;1.190979
6216.000000;1.190734
6215.000000;1.190625
6214.000000;1.190630
6213.000000;1.190670
6212.000000;1.190605
6211.000000;1.190337
6210.000000;1.189918
6209.000000;1.189492
6208.000000;1.189136
6207.000000;1.188802
6206.000000;1.188419
6205.000000;1.187993
6204.000000;1.187585
6203.000000;1.187231
6202.000000;1.186922
6201.000000;1.186634
6200.000000;1.186369
6199.000000;1.186181
6198.000000;1.186133
6197.000000;1.186199
6196.000000;1.186219
6195.000000;1.186012
6194.000000;1.185537
6193.000000;1.184927
6192.000000;1.184359
6191.000000;1.183938
6190.000000;1.183685
6189.000000;1.183564
6188.000000;1.183496
6187.000000;1.183388
6186.000000;1.183202
6185.000000;1.182974
6184.000000;1.182760
6183.000000;1.182584
6182.000000;1.182434
6181.000000;1.182276
6180.000000;1.182051
6179.000000;1.181728
6178.000000;1.181366
6177.000000;1.181090
6176.000000;1.180947
6175.000000;1.180846
6174.000000;1.180677
6173.000000;1.180463
6172.000000;1.180322
6171.000000;1.180291
6170.000000;1.180265
6169.000000;1.180129
6168.000000;1.179893
6167.000000;1.179658
6166.000000;1.179486
6165.000000;1.179348
6164.000000;1.179173
6163.000000;1.178909
6162.000000;1.178528
6161.000000;1.178042
6160.000000;1.177536
6159.000000;1.177157
6158.000000;1.176995
6157.000000;1.176966
6156.000000;1.176877
6155.000000;1.176631
6154.000000;1.176318
6153.000000;1.176087
6152.000000;1.175973
6151.000000;1.175887
6150.000000;1.175763
6149.000000;1.175623
6148.000000;1.175509
6147.000000;1.175420
6146.000000;1.175336
6145.000000;1.175252
6144.000000;1.175165
6143.000000;1.175048
6142.000000;1.174889
6141.000000;1.174723
6140.000000;1.174589
6139.000000;1.174470
6138.000000;1.174293
6137.000000;1.174014
6136.000000;1.173668
6135.000000;1.173340
6134.000000;1.173103
6133.000000;1.172976
6132.000000;1.172915
6131.000000;1.172835
6130.000000;1.172670
6129.000000;1.172442
6128.000000;1.172281
6127.000000;1.172310
6126.000000;1.172496
6125.000000;1.172631
6124.000000;1.172523
6123.000000;1.172197
6122.000000;1.171841
6121.000000;1.171559
6120.000000;1.171263
6119.000000;1.170846
6118.000000;1.170381
6117.000000;1.170067
6116.000000;1.169991
6115.000000;1.170030
6114.000000;1.169992
6113.000000;1.169782
6112.000000;1.169443
6111.000000;1.169091
6110.000000;1.168857
6109.000000;1.168830
6108.000000;1.168990
6107.000000;1.169206
6106.000000;1.169326
6105.000000;1.169284
6104.000000;1.169131
6103.000000;1.168969
6102.000000;1.168852
6101.000000;1.168740
6100.000000;1.168556
6099.000000;1.168291
6098.000000;1.168043
6097.000000;1.167931
6096.000000;1.167980
6095.000000;1.168106
6094.000000;1.168191
6093.000000;1.168135
6092.000000;1.167889
6091.000000;1.167500
6090.000000;1.167120
6089.000000;1.166893
6088.000000;1.166811
6087.000000;1.166731
6086.000000;1.166544
6085.000000;1.166285
6084.000000;1.166057
6083.000000;1.165905
6082.000000;1.165811
6081.000000;1.165761
6080.000000;1.165752
6079.000000;1.165762
6078.000000;1.165752
6077.000000;1.165714
6076.000000;1.165692
6075.000000;1.165735
6074.000000;1.165831
6073.000000;1.165880
6072.000000;1.165763
6071.000000;1.165467
6070.000000;1.165122
6069.000000;1.164895
6068.000000;1.164826
6067.000000;1.164837
6066.000000;1.164870
6065.000000;1.164946
6064.000000;1.165072
6063.000000;1.165178
6062.000000;1.165208
6061.000000;1.165206
6060.000000;1.165250
6059.000000;1.165319
6058.000000;1.165303
6057.000000;1.165142
6056.000000;1.164884
6055.000000;1.164605
6054.000000;1.164335
6053.000000;1.164078
6052.000000;1.163865
6051.000000;1.163740
6050.000000;1.163717
6049.000000;1.163767
6048.000000;1.163836
6047.000000;1.163863
6046.000000;1.163797
6045.000000;1.163622
6044.000000;1.163381
6043.000000;1.163175
6042.000000;1.163111
6041.000000;1.163234
6040.000000;1.163480
6039.000000;1.163725
6038.000000;1.163866
6037.000000;1.163879
6036.000000;1.163790
6035.000000;1.163632
6034.000000;1.163464
6033.000000;1.163383
6032.000000;1.163457
6031.000000;1.163640
6030.000000;1.163797
6029.000000;1.163833
6028.000000;1.163767
6027.000000;1.163663
6026.000000;1.163535
6025.000000;1.163356
6024.000000;1.163166
6023.000000;1.163091
6022.000000;1.163225
6021.000000;1.163510
6020.000000;1.163774
6019.000000;1.163890
6018.000000;1.163854
6017.000000;1.163749
6016.000000;1.163644
6015.000000;1.163570
6014.000000;1.163520
6013.000000;1.163463
6012.000000;1.163368
6011.000000;1.163250
6010.000000;1.163166
6009.000000;1.163162
6008.000000;1.163226
6007.000000;1.163320
6006.000000;1.163415
6005.000000;1.163467
6004.000000;1.163417
6003.000000;1.163280
6002.000000;1.163190
6001.000000;1.163281
6000.000000;1.163523
5999.000000;1.163746
5998.000000;1.163848
5997.000000;1.163908
5996.000000;1.164064
5995.000000;1.164335
5994.000000;1.164632
5993.000000;1.164868
5992.000000;1.165025
5991.000000;1.165112
5990.000000;1.165144
5989.000000;1.165139
5988.000000;1.165127
5987.000000;1.165125
5986.000000;1.165150
5985.000000;1.165236
5984.000000;1.165402
5983.000000;1.165610
5982.000000;1.165787
5981.000000;1.165901
5980.000000;1.165997
5979.000000;1.166143
5978.000000;1.166365
5977.000000;1.166619
5976.000000;1.166832
5975.000000;1.166956
5974.000000;1.166998
5973.000000;1.167022
5972.000000;1.167121
5971.000000;1.167369
5970.000000;1.167763
5969.000000;1.168194
5968.000000;1.168514
5967.000000;1.168662
5966.000000;1.168717
5965.000000;1.168807
5964.000000;1.168958
5963.000000;1.169075
5962.000000;1.169092
5961.000000;1.169085
5960.000000;1.169222
5959.000000;1.169604
5958.000000;1.170172
5957.000000;1.170764
5956.000000;1.171242
5955.000000;1.171561
5954.000000;1.171745
5953.000000;1.171833
5952.000000;1.171850
5951.000000;1.171839
5950.000000;1.171880
5949.000000;1.172053
5948.000000;1.172382
5947.000000;1.172831
5946.000000;1.173325
5945.000000;1.173771
5944.000000;1.174082
5943.000000;1.174243
5942.000000;1.174344
5941.000000;1.174497
5940.000000;1.174720
5939.000000;1.174939
5938.000000;1.175106
5937.000000;1.175265
5936.000000;1.175480
5935.000000;1.175743
5934.000000;1.175999
5933.000000;1.176242
5932.000000;1.176520
5931.000000;1.176865
5930.000000;1.177238
5929.000000;1.177564
5928.000000;1.177787
5927.000000;1.177925
5926.000000;1.178051
5925.000000;1.178237
5924.000000;1.178486
5923.000000;1.178738
5922.000000;1.178953
5921.000000;1.179158
5920.000000;1.179411
5919.000000;1.179719
5918.000000;1.180029
5917.000000;1.180278
5916.000000;1.180434
5915.000000;1.180499
5914.000000;1.180495
5913.000000;1.180454
5912.000000;1.180397
5911.000000;1.180327
5910.000000;1.180261
5909.000000;1.180240
5908.000000;1.180320
5907.000000;1.180523
5906.000000;1.180814
5905.000000;1.181115
5904.000000;1.181346
5903.000000;1.181480
5902.000000;1.181560
5901.000000;1.181652
5900.000000;1.181770
5899.000000;1.181858
5898.000000;1.181851
5897.000000;1.181746
5896.000000;1.181623
5895.000000;1.181592
5894.000000;1.181731
5893.000000;1.182019
5892.000000;1.182335
5891.000000;1.182538
5890.000000;1.182585
5889.000000;1.182563
5888.000000;1.182584
5887.000000;1.182684
5886.000000;1.182821
5885.000000;1.182945
5884.000000;1.183032
5883.000000;1.183079
5882.000000;1.183101
5881.000000;1.183132
5880.000000;1.183203
5879.000000;1.183320
5878.000000;1.183477
5877.000000;1.183694
5876.000000;1.184006
5875.000000;1.184399
5874.000000;1.184784
5873.000000;1.185046
5872.000000;1.185140
5871.000000;1.185137
5870.000000;1.185181
5869.000000;1.185401
5868.000000;1.185819
5867.000000;1.186348
5866.000000;1.186847
5865.000000;1.187211
5864.000000;1.187429
5863.000000;1.187582
5862.000000;1.187770
5861.000000;1.188028
5860.000000;1.188304
5859.000000;1.188540
5858.000000;1.188752
5857.000000;1.189005
5856.000000;1.189317
5855.000000;1.189635
5854.000000;1.189914
5853.000000;1.190189
5852.000000;1.190538
5851.000000;1.191006
5850.000000;1.191579
5849.000000;1.192197
5848.000000;1.192772
5847.000000;1.193233
5846.000000;1.193582
5845.000000;1.193904
5844.000000;1.194275
5843.000000;1.194684
5842.000000;1.195077
5841.000000;1.195458
5840.000000;1.195901
5839.000000;1.196447
5838.000000;1.197025
5837.000000;1.197517
5836.000000;1.197891
5835.000000;1.198236
5834.000000;1.198645
5833.000000;1.199094
5832.000000;1.199469
5831.000000;1.199709
5830.000000;1.199904
5829.000000;1.200200
5828.000000;1.200661
5827.000000;1.201239
5826.000000;1.201865
5825.000000;1.202499
5824.000000;1.203086
5823.000000;1.203552
5822.000000;1.203892
5821.000000;1.204217
5820.000000;1.204655
5819.000000;1.205217
5818.000000;1.205793
5817.000000;1.206275
5816.000000;1.206652
5815.000000;1.207017
5814.000000;1.207500
5813.000000;1.208161
5812.000000;1.208915
5811.000000;1.209572
5810.000000;1.210010
5809.000000;1.210303
5808.000000;1.210648
5807.000000;1.211160
5806.000000;1.211791
5805.000000;1.212425
5804.000000;1.213014
5803.000000;1.213589
5802.000000;1.214180
5801.000000;1.214772
5800.000000;1.215308
5799.000000;1.215752
5798.000000;1.216137
5797.000000;1.216574
5796.000000;1.217162
5795.000000;1.217872
5794.000000;1.218549
5793.000000;1.219044
5792.000000;1.219349
5791.000000;1.219617
5790.000000;1.220030
5789.000000;1.220652
5788.000000;1.221379
5787.000000;1.222032
5786.000000;1.222519
5785.000000;1.222916
5784.000000;1.223376
5783.000000;1.223965
5782.000000;1.224610
5781.000000;1.225206
5780.000000;1.225724
5779.000000;1.226227
5778.000000;1.226788
5777.000000;1.227432
5776.000000;1.228117
5775.000000;1.228756
5774.000000;1.229288
5773.000000;1.229726
5772.000000;1.230148
5771.000000;1.230635
5770.000000;1.231219
5769.000000;1.231895
5768.000000;1.232621
5767.000000;1.233300
5766.000000;1.233844
5765.000000;1.234278
5764.000000;1.234761
5763.000000;1.235427
5762.000000;1.236237
5761.000000;1.237014
5760.000000;1.237622
5759.000000;1.238063
5758.000000;1.238425
5757.000000;1.238785
5756.000000;1.239183
5755.000000;1.239636
5754.000000;1.240140
5753.000000;1.240688
5752.000000;1.241292
5751.000000;1.241964
5750.000000;1.242680
5749.000000;1.243383
5748.000000;1.244037
5747.000000;1.244664
5746.000000;1.245298
5745.000000;1.245938
5744.000000;1.246543
5743.000000;1.247070
5742.000000;1.247518
5741.000000;1.247935
5740.000000;1.248408
5739.000000;1.248986
5738.000000;1.249630
5737.000000;1.250246
5736.000000;1.250775
5735.000000;1.251233
5734.000000;1.251651
5733.000000;1.252038
5732.000000;1.252427
5731.000000;1.252890
5730.000000;1.253469
5729.000000;1.254118
5728.000000;1.254753
5727.000000;1.255346
5726.000000;1.255940
5725.000000;1.256589
5724.000000;1.257323
5723.000000;1.258129
5722.000000;1.258923
5721.000000;1.259576
5720.000000;1.260041
5719.000000;1.260450
5718.000000;1.261006
5717.000000;1.261767
5716.000000;1.262588
5715.000000;1.263300
5714.000000;1.263883
5713.000000;1.264437
5712.000000;1.265045
5711.000000;1.265708
5710.000000;1.266376
5709.000000;1.267005
5708.000000;1.267602
5707.000000;1.268232
5706.000000;1.268972
5705.000000;1.269801
5704.000000;1.270596
5703.000000;1.271246
5702.000000;1.271773
5701.000000;1.272308
5700.000000;1.272933
5699.000000;1.273618
5698.000000;1.274287
5697.000000;1.274890
5696.000000;1.275426
5695.000000;1.275926
5694.000000;1.276436
5693.000000;1.276977
5692.000000;1.277523
5691.000000;1.278043
5690.000000;1.278559
5689.000000;1.279130
5688.000000;1.279768
5687.000000;1.280408
5686.000000;1.280986
5685.000000;1.281536
5684.000000;1.282171
5683.000000;1.282958
5682.000000;1.283820
5681.000000;1.284597
5680.000000;1.285185
5679.000000;1.285634
5678.000000;1.286080
5677.000000;1.286600
5676.000000;1.287174
5675.000000;1.287761
5674.000000;1.288384
5673.000000;1.289116
5672.000000;1.289990
5671.000000;1.290938
5670.000000;1.291816
5669.000000;1.292492
5668.000000;1.292941
5667.000000;1.293273
5666.000000;1.293652
5665.000000;1.294156
5664.000000;1.294747
5663.000000;1.295353
5662.000000;1.295945
5661.000000;1.296516
5660.000000;1.297059
5659.000000;1.297615
5658.000000;1.298284
5657.000000;1.299103
5656.000000;1.299922
5655.000000;1.300506
5654.000000;1.300774
5653.000000;1.300887
5652.000000;1.301075
5651.000000;1.301424
5650.000000;1.301881
5649.000000;1.302389
5648.000000;1.302955
5647.000000;1.303597
5646.000000;1.304279
5645.000000;1.304930
5644.000000;1.305501
5643.000000;1.305987
5642.000000;1.306423
5641.000000;1.306861
5640.000000;1.307346
5639.000000;1.307896
5638.000000;1.308483
5637.000000;1.309028
5636.000000;1.309470
5635.000000;1.309832
5634.000000;1.310217
5633.000000;1.310700
5632.000000;1.311244
5631.000000;1.311759
5630.000000;1.312225
5629.000000;1.312703
5628.000000;1.313224
5627.000000;1.313739
5626.000000;1.314192
5625.000000;1.314604
5624.000000;1.315040
5623.000000;1.315497
5622.000000;1.315901
5621.000000;1.316204
5620.000000;1.316445
5619.000000;1.316714
5618.000000;1.317059
5617.000000;1.317457
5616.000000;1.317850
5615.000000;1.318204
5614.000000;1.318546
5613.000000;1.318944
5612.000000;1.319448
5611.000000;1.320025
5610.000000;1.320557
5609.000000;1.320937
5608.000000;1.321179
5607.000000;1.321428
5606.000000;1.321826
5605.000000;1.322359
5604.000000;1.322864
5603.000000;1.323177
5602.000000;1.323277
5601.000000;1.323291
5600.000000;1.323364
5599.000000;1.323554
5598.000000;1.323836
5597.000000;1.324155
5596.000000;1.324495
5595.000000;1.324873
5594.000000;1.325303
5593.000000;1.325750
5592.000000;1.326130
5591.000000;1.326358
5590.000000;1.326405
5589.000000;1.326332
5588.000000;1.326255
5587.000000;1.326277
5586.000000;1.326407
5585.000000;1.326568
5584.000000;1.326695
5583.000000;1.326810
5582.000000;1.326966
5581.000000;1.327146
5580.000000;1.327270
5579.000000;1.327325
5578.000000;1.327397
5577.000000;1.327555
5576.000000;1.327762
5575.000000;1.327952
5574.000000;1.328143
5573.000000;1.328390
5572.000000;1.328653
5571.000000;1.328800
5570.000000;1.328761
5569.000000;1.328618
5568.000000;1.328530
5567.000000;1.328595
5566.000000;1.328806
5565.000000;1.329076
5564.000000;1.329301
5563.000000;1.329425
5562.000000;1.329465
5561.000000;1.329465
5560.000000;1.329418
5559.000000;1.329295
5558.000000;1.329134
5557.000000;1.329059
5556.000000;1.329162
5555.000000;1.329400
5554.000000;1.329644
5553.000000;1.329818
5552.000000;1.329951
5551.000000;1.330110
5550.000000;1.330294
5549.000000;1.330415
5548.000000;1.330389
5547.000000;1.330230
5546.000000;1.330059
5545.000000;1.330001
5544.000000;1.330084
5543.000000;1.330236
5542.000000;1.330365
5541.000000;1.330434
5540.000000;1.330472
5539.000000;1.330519
5538.000000;1.330562
5537.000000;1.330539
5536.000000;1.330447
5535.000000;1.330413
5534.000000;1.330591
5533.000000;1.330951
5532.000000;1.331258
5531.000000;1.331294
5530.000000;1.331074
5529.000000;1.330782
5528.000000;1.330555
5527.000000;1.330392
5526.000000;1.330262
5525.000000;1.330170
5524.000000;1.330137
5523.000000;1.330163
5522.000000;1.330247
5521.000000;1.330394
5520.000000;1.330597
5519.000000;1.330839
5518.000000;1.331114
5517.000000;1.331393
5516.000000;1.331590
5515.000000;1.331638
5514.000000;1.331596
5513.000000;1.331601
5512.000000;1.331695
5511.000000;1.331780
5510.000000;1.331761
5509.000000;1.331687
5508.000000;1.331681
5507.000000;1.331786
5506.000000;1.331927
5505.000000;1.332008
5504.000000;1.332002
5503.000000;1.331952
5502.000000;1.331929
5501.000000;1.331980
5500.000000;1.332101
5499.000000;1.332240
5498.000000;1.332324
5497.000000;1.332295
5496.000000;1.332153
5495.000000;1.332005
5494.000000;1.332041
5493.000000;1.332361
5492.000000;1.332822
5491.000000;1.333123
5490.000000;1.333121
5489.000000;1.332999
5488.000000;1.333068
5487.000000;1.333444
5486.000000;1.333969
5485.000000;1.334407
5484.000000;1.334644
5483.000000;1.334733
5482.000000;1.334798
5481.000000;1.334949
5480.000000;1.335249
5479.000000;1.335689
5478.000000;1.336184
5477.000000;1.336620
5476.000000;1.336962
5475.000000;1.337307
5474.000000;1.337754
5473.000000;1.338256
5472.000000;1.338652
5471.000000;1.338842
5470.000000;1.338889
5469.000000;1.338962
5468.000000;1.339198
5467.000000;1.339628
5466.000000;1.340177
5465.000000;1.340729
5464.000000;1.341203
5463.000000;1.341594
5462.000000;1.341956
5461.000000;1.342352
5460.000000;1.342829
5459.000000;1.343398
5458.000000;1.344023
5457.000000;1.344648
5456.000000;1.345243
5455.000000;1.345814
5454.000000;1.346360
5453.000000;1.346852
5452.000000;1.347264
5451.000000;1.347597
5450.000000;1.347856
5449.000000;1.348042
5448.000000;1.348218
5447.000000;1.348577
5446.000000;1.349328
5445.000000;1.350457
5444.000000;1.351657
5443.000000;1.352617
5442.000000;1.353343
5441.000000;1.354103
5440.000000;1.355061
5439.000000;1.356079
5438.000000;1.356935
5437.000000;1.357633
5436.000000;1.358379
5435.000000;1.359316
5434.000000;1.360394
5433.000000;1.361485
5432.000000;1.362546
5431.000000;1.363630
5430.000000;1.364797
5429.000000;1.366097
5428.000000;1.367564
5427.000000;1.369199
5426.000000;1.370971
5425.000000;1.372784
5424.000000;1.374465
5423.000000;1.375830
5422.000000;1.376833
5421.000000;1.377613
5420.000000;1.378394
5419.000000;1.379339
5418.000000;1.380486
5417.000000;1.381768
5416.000000;1.383115
5415.000000;1.384565
5414.000000;1.386274
5413.000000;1.388349
5412.000000;1.390685
5411.000000;1.393062
5410.000000;1.395391
5409.000000;1.397758
5408.000000;1.400221
5407.000000;1.402679
5406.000000;1.404967
5405.000000;1.407025
5404.000000;1.408928
5403.000000;1.410789
5402.000000;1.412713
5401.000000;1.414774
5400.000000;1.416971
5399.000000;1.419267
5398.000000;1.421684
5397.000000;1.424336
5396.000000;1.427288
5395.000000;1.430464
5394.000000;1.433732
5393.000000;1.437017
5392.000000;1.440326
5391.000000;1.443712
5390.000000;1.447209
5389.000000;1.450785
5388.000000;1.454365
5387.000000;1.457920
5386.000000;1.461533
5385.000000;1.465319
5384.000000;1.469265
5383.000000;1.473249
5382.000000;1.477241
5381.000000;1.481351
5380.000000;1.485672
5379.000000;1.490186
5378.000000;1.494836
5377.000000;1.499652
5376.000000;1.504711
5375.000000;1.510037
5374.000000;1.515584
5373.000000;1.521285
5372.000000;1.527065
5371.000000;1.532879
5370.000000;1.538735
5369.000000;1.544625
5368.000000;1.550475
5367.000000;1.556276
5366.000000;1.562237
5365.000000;1.568652
5364.000000;1.575577
5363.000000;1.582760
5362.000000;1.589966
5361.000000;1.597233
5360.000000;1.604753
5359.000000;1.612606
5358.000000;1.620715
5357.000000;1.628976
5356.000000;1.637312
5355.000000;1.645685
5354.000000;1.654164
5353.000000;1.662915
5352.000000;1.672050
5351.000000;1.681552
5350.000000;1.691383
5349.000000;1.701518
5348.000000;1.711910
5347.000000;1.722531
5346.000000;1.733467
5345.000000;1.744851
5344.000000;1.756694
5343.000000;1.768888
5342.000000;1.781397
5341.000000;1.794300
5340.000000;1.807626
5339.000000;1.821331
5338.000000;1.835427
5337.000000;1.849927
5336.000000;1.864647
5335.000000;1.879348
5334.000000;1.894063
5333.000000;1.909079
5332.000000;1.924594
5331.000000;1.940641
5330.000000;1.957350
5329.000000;1.974928
5328.000000;1.993280
5327.000000;2.011979
5326.000000;2.030760
5325.000000;2.049762
5324.000000;2.069156
5323.000000;2.088843
5322.000000;2.108714
5321.000000;2.128932
5320.000000;2.149663
5319.000000;2.170678
5318.000000;2.191562
5317.000000;2.212317
5316.000000;2.233548
5315.000000;2.255942
5314.000000;2.279510
5313.000000;2.303411
5312.000000;2.326754
5311.000000;2.349553
5310.000000;2.372596
5309.000000;2.396464
5308.000000;2.421276
5307.000000;2.447270
5306.000000;2.474477
5305.000000;2.501473
5304.000000;2.525946
5303.000000;2.547488
5302.000000;2.568596
5301.000000;2.591446
5300.000000;2.614824
5299.000000;2.636035
5298.000000;2.654886
5297.000000;2.673523
5296.000000;2.693105
5295.000000;2.713010
5294.000000;2.732698
5293.000000;2.751844
5292.000000;2.769168
5291.000000;2.783931
5290.000000;2.798232
5289.000000;2.814821
5288.000000;2.832965
5287.000000;2.849361
5286.000000;2.862641
5285.000000;2.873878
5284.000000;2.882845
5283.000000;2.887759
5282.000000;2.889935
5281.000000;2.894586
5280.000000;2.905306
5279.000000;2.920240
5278.000000;2.934243
5277.000000;2.943226
5276.000000;2.946353
5275.000000;2.945873
5274.000000;2.945133
5273.000000;2.945490
5272.000000;2.945244
5271.000000;2.942982
5270.000000;2.940515
5269.000000;2.940697
5268.000000;2.943791
5267.000000;2.947824
5266.000000;2.951586
5265.000000;2.954716
5264.000000;2.955748
5263.000000;2.953836
5262.000000;2.951823
5261.000000;2.953761
5260.000000;2.959733
5259.000000;2.965469
5258.000000;2.967128
5257.000000;2.964834
5256.000000;2.961700
5255.000000;2.961084
5254.000000;2.964337
5253.000000;2.969367
5252.000000;2.971748
5251.000000;2.969483
5250.000000;2.966080
5249.000000;2.966507
5248.000000;2.971213
5247.000000;2.976810
5246.000000;2.981752
5245.000000;2.986867
5244.000000;2.989845
5243.000000;2.984920
5242.000000;2.971030
5241.000000;2.955501
5240.000000;2.946685
5239.000000;2.946910
5238.000000;2.952647
5237.000000;2.958213
5236.000000;2.959168
5235.000000;2.955344
5234.000000;2.951887
5233.000000;2.954587
5232.000000;2.962872
5231.000000;2.969308
5230.000000;2.968946
5229.000000;2.966772
5228.000000;2.970591
5227.000000;2.979722
5226.000000;2.985123
5225.000000;2.981296
5224.000000;2.974069
5223.000000;2.972162
5222.000000;2.975889
5221.000000;2.977993
5220.000000;2.973406
5219.000000;2.964965
5218.000000;2.958975
5217.000000;2.958622
5216.000000;2.963126
5215.000000;2.970318
5214.000000;2.977441
5213.000000;2.980901
5212.000000;2.978593
5211.000000;2.972885
5210.000000;2.968722
5209.000000;2.968293
5208.000000;2.969521
5207.000000;2.970345
5206.000000;2.971921
5205.000000;2.975363
5204.000000;2.978009
5203.000000;2.976433
5202.000000;2.971874
5201.000000;2.968954
5200.000000;2.969399
5199.000000;2.970354
5198.000000;2.969601
5197.000000;2.968875
5196.000000;2.970027
5195.000000;2.971706
5194.000000;2.971345
5193.000000;2.968263
5192.000000;2.964135
5191.000000;2.961240
5190.000000;2.961301
5189.000000;2.965193
5188.000000;2.971581
5187.000000;2.976355
5186.000000;2.975786
5185.000000;2.970294
5184.000000;2.963969
5183.000000;2.960446
5182.000000;2.960224
5181.000000;2.962172
5180.000000;2.965775
5179.000000;2.970831
5178.000000;2.975646
5177.000000;2.976646
5176.000000;2.971277
5175.000000;2.961573
5174.000000;2.953519
5173.000000;2.952124
5172.000000;2.957193
5171.000000;2.963695
5170.000000;2.966353
5169.000000;2.964110
5168.000000;2.959989
5167.000000;2.957534
5166.000000;2.958056
5165.000000;2.960107
5164.000000;2.960692
5163.000000;2.957883
5162.000000;2.953184
5161.000000;2.950673
5160.000000;2.953232
5159.000000;2.959627
5158.000000;2.965009
5157.000000;2.964889
5156.000000;2.959512
5155.000000;2.954130
5154.000000;2.954505
5153.000000;2.961459
5152.000000;2.969255
5151.000000;2.970765
5150.000000;2.965398
5149.000000;2.959757
5148.000000;2.959436
5147.000000;2.963040
5146.000000;2.965530
5145.000000;2.965004
5144.000000;2.963502
5143.000000;2.962291
5142.000000;2.959792
5141.000000;2.954227
5140.000000;2.946349
5139.000000;2.939618
5138.000000;2.938031
5137.000000;2.943270
5136.000000;2.952598
5135.000000;2.959348
5134.000000;2.958395
5133.000000;2.951781
5132.000000;2.945696
5131.000000;2.942886
5130.000000;2.941419
5129.000000;2.940228
5128.000000;2.941793
5127.000000;2.947175
5126.000000;2.951910
5125.000000;2.950938
5124.000000;2.945868
5123.000000;2.943223
5122.000000;2.946556
5121.000000;2.953278
5120.000000;2.958935
5119.000000;2.962266
5118.000000;2.964677
5117.000000;2.966351
5116.000000;2.965363
5115.000000;2.960604
5114.000000;2.954171
5113.000000;2.950155
5112.000000;2.951230
5111.000000;2.956510
5110.000000;2.962635
5109.000000;2.966882
5108.000000;2.968742
5107.000000;2.968582
5106.000000;2.966616
5105.000000;2.964170
5104.000000;2.964022
5103.000000;2.967544
5102.000000;2.971978
5101.000000;2.972442
5100.000000;2.967532
5099.000000;2.961056
5098.000000;2.957467
5097.000000;2.957508
5096.000000;2.958231
5095.000000;2.956265
5094.000000;2.951407
5093.000000;2.946580
5092.000000;2.944483
5091.000000;2.945257
5090.000000;2.947097
5089.000000;2.948989
5088.000000;2.951993
5087.000000;2.956672
5086.000000;2.960840
5085.000000;2.961965
5084.000000;2.960483
5083.000000;2.958289
5082.000000;2.954986
5081.000000;2.948726
5080.000000;2.941666
5079.000000;2.940726
5078.000000;2.949845
5077.000000;2.964227
5076.000000;2.974553
5075.000000;2.975975
5074.000000;2.970732
5073.000000;2.963277
5072.000000;2.956445
5071.000000;2.951049
5070.000000;2.946434
5069.000000;2.941777
5068.000000;2.937949
5067.000000;2.937364
5066.000000;2.940739
5065.000000;2.944752
5064.000000;2.944595
5063.000000;2.938938
5062.000000;2.931187
5061.000000;2.926328
5060.000000;2.927750
5059.000000;2.935631
5058.000000;2.946362
5057.000000;2.954290
5056.000000;2.956029
5055.000000;2.952735
5054.000000;2.947144
5053.000000;2.940380
5052.000000;2.933180
5051.000000;2.927857
5050.000000;2.926502
5049.000000;2.928423
5048.000000;2.931281
5047.000000;2.933893
5046.000000;2.936133
5045.000000;2.937199
5044.000000;2.936385
5043.000000;2.934849
5042.000000;2.934230
5041.000000;2.934008
5040.000000;2.932361
5039.000000;2.929145
5038.000000;2.925689
5037.000000;2.922067
5036.000000;2.917245
5035.000000;2.911906
5034.000000;2.908462
5033.000000;2.907772
5032.000000;2.908094
5031.000000;2.908193
5030.000000;2.909055
5029.000000;2.911303
5028.000000;2.913239
5027.000000;2.912843
5026.000000;2.910340
5025.000000;2.907536
5024.000000;2.905615
5023.000000;2.904525
5022.000000;2.903724
5021.000000;2.902762
5020.000000;2.901282
5019.000000;2.898737
5018.000000;2.894245
5017.000000;2.887413
5016.000000;2.879778
5015.000000;2.874487
5014.000000;2.873446
5013.000000;2.875176
5012.000000;2.876560
5011.000000;2.876110
5010.000000;2.874117
5009.000000;2.870721
5008.000000;2.866067
5007.000000;2.862212
5006.000000;2.862022
5005.000000;2.865344
5004.000000;2.868883
5003.000000;2.870652
5002.000000;2.872326
5001.000000;2.875639
5000.000000;2.878764
4999.000000;2.878662
4998.000000;2.875237
4997.000000;2.870944
4996.000000;2.867722
4995.000000;2.865876
4994.000000;2.864598
4993.000000;2.862834
4992.000000;2.860345
4991.000000;2.858232
4990.000000;2.857627
4989.000000;2.857106
4988.000000;2.853019
4987.000000;2.844220
4986.000000;2.834930
4985.000000;2.830915
4984.000000;2.833373
4983.000000;2.837810
4982.000000;2.838898
4981.000000;2.835647
4980.000000;2.831396
4979.000000;2.829339
4978.000000;2.828988
4977.000000;2.826819
4976.000000;2.819978
4975.000000;2.809703
4974.000000;2.800843
4973.000000;2.797516
4972.000000;2.799208
4971.000000;2.800987
4970.000000;2.798128
4969.000000;2.791130
4968.000000;2.785221
4967.000000;2.784552
4966.000000;2.787697
4965.000000;2.789188
4964.000000;2.785473
4963.000000;2.778420
4962.000000;2.772305
4961.000000;2.769283
4960.000000;2.769054
4959.000000;2.771025
4958.000000;2.774184
4957.000000;2.775347
4956.000000;2.770943
4955.000000;2.761622
4954.000000;2.752299
4953.000000;2.746560
4952.000000;2.743135
4951.000000;2.738927
4950.000000;2.733833
4949.000000;2.730194
4948.000000;2.728448
4947.000000;2.726011
4946.000000;2.720842
4945.000000;2.714341
4944.000000;2.709737
4943.000000;2.708664
4942.000000;2.709903
4941.000000;2.710732
4940.000000;2.709203
4939.000000;2.705494
4938.000000;2.701169
4937.000000;2.697181
4936.000000;2.692921
4935.000000;2.687329
4934.000000;2.680439
4933.000000;2.673391
4932.000000;2.667571
4931.000000;2.664453
4930.000000;2.665229
4929.000000;2.669271
4928.000000;2.673079
4927.000000;2.672237
4926.000000;2.665430
4925.000000;2.655637
4924.000000;2.647160
4923.000000;2.642563
4922.000000;2.642033
4921.000000;2.644119
4920.000000;2.646394
4919.000000;2.646434
4918.000000;2.643394
4917.000000;2.638367
4916.000000;2.632683
4915.000000;2.626528
4914.000000;2.619794
4913.000000;2.613485
4912.000000;2.609104
4911.000000;2.606770
4910.000000;2.604898
4909.000000;2.601886
4908.000000;2.597483
4907.000000;2.592452
4906.000000;2.587783
4905.000000;2.584584
4904.000000;2.583679
4903.000000;2.584351
4902.000000;2.584100
4901.000000;2.580846
4900.000000;2.575264
4899.000000;2.569938
4898.000000;2.566402
4897.000000;2.564036
4896.000000;2.561718
4895.000000;2.559333
4894.000000;2.557152
4893.000000;2.554621
4892.000000;2.550644
4891.000000;2.544819
4890.000000;2.537906
4889.000000;2.531389
4888.000000;2.526871
4887.000000;2.525243
4886.000000;2.525681
4885.000000;2.525773
4884.000000;2.523508
4883.000000;2.519244
4882.000000;2.514876
4881.000000;2.511030
4880.000000;2.506255
4879.000000;2.499401
4878.000000;2.491906
4877.000000;2.486988
4876.000000;2.486726
4875.000000;2.490064
4874.000000;2.493382
4873.000000;2.493170
4872.000000;2.488673
4871.000000;2.482029
4870.000000;2.476016
4869.000000;2.471901
4868.000000;2.469163
4867.000000;2.466595
4866.000000;2.463407
4865.000000;2.459683
4864.000000;2.456177
4863.000000;2.453475
4862.000000;2.451046
4861.000000;2.447468
4860.000000;2.442198
4859.000000;2.436818
4858.000000;2.433641
4857.000000;2.433113
4856.000000;2.433253
4855.000000;2.431800
4854.000000;2.428350
4853.000000;2.424110
4852.000000;2.420221
4851.000000;2.416874
4850.000000;2.413537
4849.000000;2.409483
4848.000000;2.404342
4847.000000;2.398600
4846.000000;2.393465
4845.000000;2.389868
4844.000000;2.387640
4843.000000;2.385960
4842.000000;2.384376
4841.000000;2.383006
4840.000000;2.381787
4839.000000;2.379984
4838.000000;2.376675
4837.000000;2.371595
4836.000000;2.365415
4835.000000;2.359382
4834.000000;2.354765
4833.000000;2.352347
4832.000000;2.352031
4831.000000;2.352726
4830.000000;2.352824
4829.000000;2.351164
4828.000000;2.347702
4827.000000;2.343286
4826.000000;2.338906
4825.000000;2.335299
4824.000000;2.332965
4823.000000;2.331876
4822.000000;2.330917
4821.000000;2.328285
4820.000000;2.323257
4819.000000;2.317391
4818.000000;2.313245
4817.000000;2.311859
4816.000000;2.311968
4815.000000;2.311676
4814.000000;2.310314
4813.000000;2.308305
4812.000000;2.305788
4811.000000;2.302201
4810.000000;2.297257
4809.000000;2.291776
4808.000000;2.287291
4807.000000;2.284886
4806.000000;2.284321
4805.000000;2.284012
4804.000000;2.282057
4803.000000;2.277646
4802.000000;2.271579
4801.000000;2.265382
4800.000000;2.260083
4799.000000;2.255889
4798.000000;2.252683
4797.000000;2.250397
4796.000000;2.248855
4795.000000;2.247568
4794.000000;2.245927
4793.000000;2.243597
4792.000000;2.240674
4791.000000;2.237420
4790.000000;2.233890
4789.000000;2.229953
4788.000000;2.225728
4787.000000;2.221836
4786.000000;2.218920
4785.000000;2.216900
4784.000000;2.215009
4783.000000;2.212651
4782.000000;2.210078
4781.000000;2.208130
4780.000000;2.207361
4779.000000;2.207528
4778.000000;2.207747
4777.000000;2.206933
4776.000000;2.204227
4775.000000;2.199362
4774.000000;2.192907
4773.000000;2.186201
4772.000000;2.180823
4771.000000;2.177753
4770.000000;2.176663
4769.000000;2.176037
4768.000000;2.174365
4767.000000;2.171458
4766.000000;2.168402
4765.000000;2.166135
4764.000000;2.164370
4763.000000;2.162132
4762.000000;2.159083
4761.000000;2.155899
4760.000000;2.153346
4759.000000;2.151358
4758.000000;2.149208
4757.000000;2.146428
4756.000000;2.143336
4755.000000;2.140610
4754.000000;2.138436
4753.000000;2.136273
4752.000000;2.133519
4751.000000;2.130267
4750.000000;2.127143
4749.000000;2.124468
4748.000000;2.121937
4747.000000;2.119207
4746.000000;2.116443
4745.000000;2.113969
4744.000000;2.111628
4743.000000;2.108891
4742.000000;2.105553
4741.000000;2.102036
4740.000000;2.098911
4739.000000;2.096331
4738.000000;2.094056
4737.000000;2.091877
4736.000000;2.089828
4735.000000;2.087988
4734.000000;2.086179
4733.000000;2.083942
4732.000000;2.080974
4731.000000;2.077636
4730.000000;2.074842
4729.000000;2.073155
4728.000000;2.072057
4727.000000;2.070401
4726.000000;2.067693
4725.000000;2.064643
4724.000000;2.062264
4723.000000;2.060737
4722.000000;2.059403
4721.000000;2.057641
4720.000000;2.055359
4719.000000;2.052722
4718.000000;2.049902
4717.000000;2.047253
4716.000000;2.045300
4715.000000;2.044184
4714.000000;2.043289
4713.000000;2.041792
4712.000000;2.039524
4711.000000;2.037007
4710.000000;2.034664
4709.000000;2.032364
4708.000000;2.029812
4707.000000;2.027072
4706.000000;2.024520
4705.000000;2.022461
4704.000000;2.020916
4703.000000;2.019629
4702.000000;2.018173
4701.000000;2.016292
4700.000000;2.014258
4699.000000;2.012639
4698.000000;2.011492
4697.000000;2.010046
4696.000000;2.007479
4695.000000;2.003873
4694.000000;2.000059
4693.000000;1.996701
4692.000000;1.993927
4691.000000;1.991724
4690.000000;1.990195
4689.000000;1.989261
4688.000000;1.988475
4687.000000;1.987347
4686.000000;1.985692
4685.000000;1.983588
4684.000000;1.981257
4683.000000;1.979075
4682.000000;1.977420
4681.000000;1.976269
4680.000000;1.975104
4679.000000;1.973408
4678.000000;1.971144
4677.000000;1.968628
4676.000000;1.966108
4675.000000;1.963653
4674.000000;1.961304
4673.000000;1.959138
4672.000000;1.957272
4671.000000;1.955848
4670.000000;1.954858
4669.000000;1.953870
4668.000000;1.952241
4667.000000;1.949856
4666.000000;1.947452
4665.000000;1.945881
4664.000000;1.945124
4663.000000;1.944320
4662.000000;1.942754
4661.000000;1.940546
4660.000000;1.938336
4659.000000;1.936590
4658.000000;1.935324
4657.000000;1.934223
4656.000000;1.932894
4655.000000;1.931122
4654.000000;1.929029
4653.000000;1.926942
4652.000000;1.925101
4651.000000;1.923549
4650.000000;1.922266
4649.000000;1.921213
4648.000000;1.920186
4647.000000;1.918839
4646.000000;1.917068
4645.000000;1.915255
4644.000000;1.913898
4643.000000;1.913006
4642.000000;1.912037
4641.000000;1.910523
4640.000000;1.908622
4639.000000;1.906898
4638.000000;1.905679
4637.000000;1.904772
4636.000000;1.903798
4635.000000;1.902587
4634.000000;1.901147
4633.000000;1.899479
4632.000000;1.897657
4631.000000;1.896001
4630.000000;1.894851
4629.000000;1.894101
4628.000000;1.893171
4627.000000;1.891558
4626.000000;1.889293
4625.000000;1.886824
4624.000000;1.884619
4623.000000;1.882985
4622.000000;1.882021
4621.000000;1.881529
4620.000000;1.881033
4619.000000;1.880111
4618.000000;1.878732
4617.000000;1.877175
4616.000000;1.875731
4615.000000;1.874590
4614.000000;1.873873
4613.000000;1.873511
4612.000000;1.873164
4611.000000;1.872511
4610.000000;1.871606
4609.000000;1.870738
4608.000000;1.869933
4607.000000;1.868841
4606.000000;1.867200
4605.000000;1.865201
4604.000000;1.863285
4603.000000;1.861741
4602.000000;1.860619
4601.000000;1.859898
4600.000000;1.859566
4599.000000;1.859523
4598.000000;1.859498
4597.000000;1.859075
4596.000000;1.857900
4595.000000;1.855991
4594.000000;1.853884
4593.000000;1.852298
4592.000000;1.851544
4591.000000;1.851274
4590.000000;1.850882
4589.000000;1.850091
4588.000000;1.849107
4587.000000;1.848256
4586.000000;1.847604
4585.000000;1.846947
4584.000000;1.846102
4583.000000;1.845142
4582.000000;1.844309
4581.000000;1.843690
4580.000000;1.843040
4579.000000;1.842020
4578.000000;1.840595
4577.000000;1.839114
4576.000000;1.837977
4575.000000;1.837277
4574.000000;1.836775
4573.000000;1.836167
4572.000000;1.835336
4571.000000;1.834406
4570.000000;1.833598
4569.000000;1.833019
4568.000000;1.832565
4567.000000;1.832015
4566.000000;1.831246
4565.000000;1.830337
4564.000000;1.829468
4563.000000;1.828725
4562.000000;1.828011
4561.000000;1.827177
4560.000000;1.826234
4559.000000;1.825408
4558.000000;1.824879
4557.000000;1.824480
4556.000000;1.823807
4555.000000;1.822700
4554.000000;1.821481
4553.000000;1.820597
4552.000000;1.820158
4551.000000;1.819966
4550.000000;1.819806
4549.000000;1.819491
4548.000000;1.818741
4547.000000;1.817399
4546.000000;1.815790
4545.000000;1.814577
4544.000000;1.814112
4543.000000;1.814115
4542.000000;1.814074
4541.000000;1.813733
4540.000000;1.813104
4539.000000;1.812260
4538.000000;1.811364
4537.000000;1.810738
4536.000000;1.810612
4535.000000;1.810820
4534.000000;1.810939
4533.000000;1.810703
4532.000000;1.810153
4531.000000;1.809450
4530.000000;1.808741
4529.000000;1.808196
4528.000000;1.807964
4527.000000;1.807983
4526.000000;1.807975
4525.000000;1.807766
4524.000000;1.807520
4523.000000;1.807535
4522.000000;1.807822
4521.000000;1.807993
4520.000000;1.807644
4519.000000;1.806791
4518.000000;1.805828
4517.000000;1.805069
4516.000000;1.804471
4515.000000;1.803851
4514.000000;1.803241
4513.000000;1.802819
4512.000000;1.802579
4511.000000;1.802267
4510.000000;1.801746
4509.000000;1.801223
4508.000000;1.801031
4507.000000;1.801297
4506.000000;1.801921
4505.000000;1.802726
4504.000000;1.803509
4503.000000;1.804028
4502.000000;1.804104
4501.000000;1.803726
4500.000000;1.802994
4499.000000;1.802041
4498.000000;1.801053
4497.000000;1.800266
4496.000000;1.799815
4495.000000;1.799624
4494.000000;1.799556
4493.000000;1.799611
4492.000000;1.799846
4491.000000;1.800188
4490.000000;1.800464
4489.000000;1.800576
4488.000000;1.800547
4487.000000;1.800445
4486.000000;1.800350
4485.000000;1.800351
4484.000000;1.800506
4483.000000;1.800788
4482.000000;1.801160
4481.000000;1.801648
4480.000000;1.802232
4479.000000;1.802714
4478.000000;1.802853
4477.000000;1.802663
4476.000000;1.802445
4475.000000;1.802470
4474.000000;1.802712
4473.000000;1.802973
4472.000000;1.803183
4471.000000;1.803517
4470.000000;1.804201
4469.000000;1.805226
4468.000000;1.806261
4467.000000;1.806913
4466.000000;1.807103
4465.000000;1.807163
4464.000000;1.807573
4463.000000;1.808645
4462.000000;1.810377
4461.000000;1.812426
4460.000000;1.814198
4459.000000;1.815201
4458.000000;1.815509
4457.000000;1.815695
4456.000000;1.816155
4455.000000;1.816690
4454.000000;1.816898
4453.000000;1.816771
4452.000000;1.816637
4451.000000;1.816752
4450.000000;1.817298
4449.000000;1.818627
4448.000000;1.820968
4447.000000;1.823861
4446.000000;1.826325
4445.000000;1.827801
4444.000000;1.828626
4443.000000;1.829457
4442.000000;1.830601
4441.000000;1.832087
4440.000000;1.833935
4439.000000;1.835940
4438.000000;1.837516
4437.000000;1.838235
4436.000000;1.838476
4435.000000;1.839144
4434.000000;1.840738
4433.000000;1.842984
4432.000000;1.845323
4431.000000;1.847511
4430.000000;1.849671
4429.000000;1.851994
4428.000000;1.854435
4427.000000;1.856623
4426.000000;1.858100
4425.000000;1.858768
4424.000000;1.859093
4423.000000;1.859820
4422.000000;1.861561
4421.000000;1.864663
4420.000000;1.869128
4419.000000;1.874314
4418.000000;1.878912
4417.000000;1.881798
4416.000000;1.883042
4415.000000;1.883762
4414.000000;1.884897
4413.000000;1.886497
4412.000000;1.888230
4411.000000;1.890094
4410.000000;1.892329
4409.000000;1.894914
4408.000000;1.897547
4407.000000;1.900057
4406.000000;1.902509
4405.000000;1.904854
4404.000000;1.906764
4403.000000;1.908029
4402.000000;1.909069
4401.000000;1.910857
4400.000000;1.914131
4399.000000;1.918580
4398.000000;1.922961
4397.000000;1.926252
4396.000000;1.928668
4395.000000;1.931219
4394.000000;1.934289
4393.000000;1.937153
4392.000000;1.939072
4391.000000;1.940371
4390.000000;1.942018
4389.000000;1.944385
4388.000000;1.946983
4387.000000;1.949332
4386.000000;1.951590
4385.000000;1.954155
4384.000000;1.957068
4383.000000;1.960163
4382.000000;1.963491
4381.000000;1.967089
4380.000000;1.970331
4379.000000;1.972010
4378.000000;1.971548
4377.000000;1.970037
4376.000000;1.969626
4375.000000;1.971596
4374.000000;1.975176
4373.000000;1.978521
4372.000000;1.980730
4371.000000;1.982469
4370.000000;1.984629
4369.000000;1.987164
4368.000000;1.989754
4367.000000;1.992871
4366.000000;1.997153
4365.000000;2.001872
4364.000000;2.005121
4363.000000;2.005923
4362.000000;2.005378
4361.000000;2.005172
4360.000000;2.005802
4359.000000;2.006994
4358.000000;2.009131
4357.000000;2.013005
4356.000000;2.018213
4355.000000;2.022955
4354.000000;2.025963
4353.000000;2.027930
4352.000000;2.030331
4351.000000;2.033360
4350.000000;2.035847
4349.000000;2.037017
4348.000000;2.037410
4347.000000;2.037918
4346.000000;2.038750
4345.000000;2.039677
4344.000000;2.040623
4343.000000;2.041587
4342.000000;2.042557
4341.000000;2.043969
4340.000000;2.046695
4339.000000;2.050796
4338.000000;2.054770
4337.000000;2.057091
4336.000000;2.058394
4335.000000;2.060950
4334.000000;2.065597
4333.000000;2.070255
4332.000000;2.072349
4331.000000;2.071914
4330.000000;2.071118
4329.000000;2.071452
4328.000000;2.072574
4327.000000;2.073478
4326.000000;2.073788
4325.000000;2.073866
4324.000000;2.074432
4323.000000;2.076179
4322.000000;2.079123
4321.000000;2.082261
4320.000000;2.084541
4319.000000;2.086282
4318.000000;2.088909
4317.000000;2.093150
4316.000000;2.098195
4315.000000;2.102756
4314.000000;2.106197
4313.000000;2.108323
4312.000000;2.108833
4311.000000;2.107746
4310.000000;2.106101
4309.000000;2.105598
4308.000000;2.107440
4307.000000;2.111393
4306.000000;2.115460
4305.000000;2.116907
4304.000000;2.114865
4303.000000;2.111831
4302.000000;2.111405
4301.000000;2.114536
4300.000000;2.118967
4299.000000;2.122461
4298.000000;2.125210
4297.000000;2.128133
4296.000000;2.130364
4295.000000;2.130327
4294.000000;2.128664
4293.000000;2.128198
4292.000000;2.130976
4291.000000;2.136664
4290.000000;2.143633
4289.000000;2.150518
4288.000000;2.156772
4287.000000;2.162568
4286.000000;2.168291
4285.000000;2.173621
4284.000000;2.177536
4283.000000;2.179882
4282.000000;2.182244
4281.000000;2.186340
4280.000000;2.191921
4279.000000;2.197228
4278.000000;2.201152
4277.000000;2.203312
4276.000000;2.202604
4275.000000;2.198349
4274.000000;2.192758
4273.000000;2.189829
4272.000000;2.191674
4271.000000;2.197124
4270.000000;2.203860
4269.000000;2.210820
4268.000000;2.218276
4267.000000;2.226883
4266.000000;2.237101
4265.000000;2.248079
4264.000000;2.256577
4263.000000;2.258911
4262.000000;2.255241
4261.000000;2.250106
4260.000000;2.247786
4259.000000;2.248939
4258.000000;2.252133
4257.000000;2.256789
4256.000000;2.263251
4255.000000;2.271251
4254.000000;2.279964
4253.000000;2.288824
4252.000000;2.296703
4251.000000;2.301080
4250.000000;2.300004
4249.000000;2.295343
4248.000000;2.291631
4247.000000;2.292327
4246.000000;2.297781
4245.000000;2.305192
4244.000000;2.309844
4243.000000;2.308942
4242.000000;2.305965
4241.000000;2.308302
4240.000000;2.318160
4239.000000;2.327383
4238.000000;2.325123
4237.000000;2.312038
4236.000000;2.300879
4235.000000;2.302978
4234.000000;2.319418
4233.000000;2.342507
4232.000000;2.361591
4231.000000;2.368323
4230.000000;2.361040
4229.000000;2.347111
4228.000000;2.338692
4227.000000;2.343807
4226.000000;2.361009
4225.000000;2.381734
4224.000000;2.397849
4223.000000;2.406880
4222.000000;2.410417
4221.000000;2.411059
4220.000000;2.412108
4219.000000;2.416652
4218.000000;2.424770
4217.000000;2.432445
4216.000000;2.433961
4215.000000;2.426545
4214.000000;2.413333
4213.000000;2.401636
4212.000000;2.399337
4211.000000;2.409803
4210.000000;2.425543
4209.000000;2.431182
4208.000000;2.421163
4207.000000;2.407673
4206.000000;2.404402
4205.000000;2.412419
4204.000000;2.423078
4203.000000;2.430147
4202.000000;2.435753
4201.000000;2.443778
4200.000000;2.452954
4199.000000;2.460309
4198.000000;2.467297
4197.000000;2.477173
4196.000000;2.488718
4195.000000;2.496916
4194.000000;2.498317
4193.000000;2.493211
4192.000000;2.485356
4191.000000;2.481162
4190.000000;2.486598
4189.000000;2.501189
4188.000000;2.514274
4187.000000;2.512895
4186.000000;2.496313
4185.000000;2.475346
4184.000000;2.458138
4183.000000;2.445614
4182.000000;2.438201
4181.000000;2.439330
4180.000000;2.452598
4179.000000;2.478321
4178.000000;2.511562
4177.000000;2.540304
4176.000000;2.551915
4175.000000;2.549584
4174.000000;2.548863
4173.000000;2.559494
4172.000000;2.577579
4171.000000;2.591801
4170.000000;2.599566
4169.000000;2.608628
4168.000000;2.619560
4167.000000;2.622343
4166.000000;2.603520
4165.000000;2.558918
4164.000000;2.509976
4163.000000;2.483216
4162.000000;2.488885
4161.000000;2.520401
4160.000000;2.556462
4159.000000;2.570566
4158.000000;2.552927
4157.000000;2.523507
4156.000000;2.511483
4155.000000;2.528263
4154.000000;2.565071
4153.000000;2.601226
4152.000000;2.618839
4151.000000;2.616088
4150.000000;2.602086
4149.000000;2.584601
4148.000000;2.568269
4147.000000;2.560384
4146.000000;2.567079
4145.000000;2.577980
4144.000000;2.568540
4143.000000;2.536902
4142.000000;2.515645
4141.000000;2.539141
4140.000000;2.617928
4139.000000;2.723740
4138.000000;2.794513
4137.000000;2.800018
4136.000000;2.745471
4135.000000;2.657987
4134.000000;2.581067
4133.000000;2.537906
4132.000000;2.535961
4131.000000;2.571014
4130.000000;2.630060
4129.000000;2.696517
4128.000000;2.749917
4127.000000;2.763162
4126.000000;2.727431
4125.000000;2.671232
4124.000000;2.618925
4123.000000;2.570799
4122.000000;2.534927
4121.000000;2.526855
4120.000000;2.544785
4119.000000;2.577311
4118.000000;2.618674
4117.000000;2.659718
4116.000000;2.682148
4115.000000;2.670458
4114.000000;2.623018
4113.000000;2.560445
4112.000000;2.513214
4111.000000;2.498822
4110.000000;2.516229
4109.000000;2.547526
4108.000000;2.569604
4107.000000;2.574835
4106.000000;2.569691
4105.000000;2.563585
4104.000000;2.562745
4103.000000;2.567260
4102.000000;2.583069
4101.000000;2.624722
4100.000000;2.695731
4099.000000;2.708549
4098.000000;2.600955
4097.000000;2.500049
4096.000000;2.471564
4095.000000;2.505759
4094.000000;2.573281
4093.000000;2.649606
4092.000000;2.734489
4091.000000;2.844629
4090.000000;2.892255
4089.000000;2.721761
4088.000000;2.564111
4087.000000;2.514151
4086.000000;2.575871
4085.000000;2.776989
4084.000000;3.213138
4083.000000;3.251706
4082.000000;2.856389
4081.000000;2.706336
4080.000000;2.649008
4079.000000;2.629037
4078.000000;2.579467
4077.000000;2.516565
4076.000000;2.481954
4075.000000;2.486136
4074.000000;2.523269
4073.000000;2.570764
4072.000000;2.567270
4071.000000;2.515524
4070.000000;2.476267
4069.000000;2.458205
4068.000000;2.458952
4067.000000;2.476846
4066.000000;2.497811
4065.000000;2.544585
4064.000000;2.668547
4063.000000;2.921436
4062.000000;3.158177
4061.000000;2.992798
4060.000000;2.885947
4059.000000;3.051686
4058.000000;3.241529
4057.000000;2.661633
4056.000000;2.441949
4055.000000;2.380904
4054.000000;2.407339
4053.000000;2.465237
4052.000000;2.518248
4051.000000;2.549260
4050.000000;2.549414
4049.000000;2.570624
4048.000000;2.664708
4047.000000;2.719410
4046.000000;2.627159
4045.000000;2.502095
4044.000000;2.392424
4043.000000;2.328172
4042.000000;2.329947
4041.000000;2.396881
4040.000000;2.510938
4039.000000;2.643119
4038.000000;2.776771
4037.000000;2.864082
4036.000000;2.830638
4035.000000;2.732346
4034.000000;2.648615
4033.000000;2.598123
4032.000000;2.577148
4031.000000;2.577379
4030.000000;2.582624
4029.000000;2.569901
4028.000000;2.549668
4027.000000;2.564304
4026.000000;2.621604
4025.000000;2.680831
4024.000000;2.694361
4023.000000;2.655485
4022.000000;2.580882
4021.000000;2.483126
4020.000000;2.397992
4019.000000;2.367962
4018.000000;2.398599
4017.000000;2.432971
4016.000000;2.428717
4015.000000;2.417884
4014.000000;2.374238
4013.000000;2.296870
4012.000000;2.251178
4011.000000;2.245256
4010.000000;2.250879
4009.000000;2.256305
4008.000000;2.279323
4007.000000;2.345761
4006.000000;2.464276
4005.000000;2.619143
4004.000000;2.763959
4003.000000;2.775425
4002.000000;2.647780
4001.000000;2.574131
4000.000000;2.609389
3999.000000;2.763943
3998.000000;2.987096
3997.000000;2.989121
3996.000000;3.122168
3995.000000;3.451848
3994.000000;3.023558
3993.000000;2.782046
3992.000000;2.652677
3991.000000;2.538646
3990.000000;2.480232
3989.000000;2.482757
3988.000000;2.557079
3987.000000;2.726532
3986.000000;2.771503
3985.000000;2.651810
3984.000000;2.603566
3983.000000;2.580959
3982.000000;2.571345
3981.000000;2.635182
3980.000000;2.859869
3979.000000;3.295778
3978.000000;3.471640
3977.000000;3.492483
3976.000000;3.587191
3975.000000;3.316819
3974.000000;2.914340
3973.000000;2.758558
3972.000000;2.774285
3971.000000;3.085050
3970.000000;3.477138
3969.000000;2.952410
3968.000000;2.746851
3967.000000;2.718209
3966.000000;2.861901
3965.000000;3.448285
3964.000000;3.143689
3963.000000;2.785733
3962.000000;2.708991
3961.000000;2.699362
3960.000000;2.762966
3959.000000;2.887109
3958.000000;3.165978
3957.000000;3.332241
3956.000000;2.822286
3955.000000;2.503479
3954.000000;2.320421
3953.000000;2.264225
3952.000000;2.329768
3951.000000;2.502447
3950.000000;2.764871
3949.000000;2.942036
3948.000000;3.185547
3947.000000;3.496455
3946.000000;3.530752
3945.000000;3.221871
3944.000000;2.823457
3943.000000;2.659976
3942.000000;2.553229
3941.000000;2.532239
3940.000000;2.604914
3939.000000;2.748597
3938.000000;2.980965
3937.000000;3.227144
3936.000000;3.273335
3935.000000;2.786644
3934.000000;2.503715
3933.000000;2.426820
3932.000000;2.453488
3931.000000;2.533171
3930.000000;2.606286
3929.000000;2.564119
3928.000000;2.407531
3927.000000;2.302256
3926.000000;2.307958
3925.000000;2.395146
3924.000000;2.545204
3923.000000;2.724585
3922.000000;2.747771
3921.000000;2.734350
3920.000000;2.909369
3919.000000;3.254137
3918.000000;3.453288
3917.000000;3.250643
3916.000000;3.051884
3915.000000;2.976310
3914.000000;3.023318
3913.000000;3.082911
3912.000000;3.011419
3911.000000;2.906262
3910.000000;2.828365
3909.000000;2.813477
3908.000000;3.094658
3907.000000;3.526240
3906.000000;3.183568
3905.000000;3.256457
3904.000000;3.144987
3903.000000;2.847829
3902.000000;2.748234
3901.000000;2.741734
3900.000000;2.733601
3899.000000;2.622790
3898.000000;2.545009
3897.000000;2.576025
3896.000000;2.688280
3895.000000;2.826603
3894.000000;2.911165
3893.000000;2.914861
3892.000000;2.877941
3891.000000;2.863523
3890.000000;2.905330
3889.000000;3.036321
3888.000000;3.145088
3887.000000;2.869280
3886.000000;2.663696
3885.000000;2.670340
3884.000000;2.798105
3883.000000;2.950615
3882.000000;3.076239
3881.000000;3.203246
3880.000000;3.260464
3879.000000;3.134426
3878.000000;2.938292
3877.000000;2.734208
3876.000000;2.565802
3875.000000;2.542690
3874.000000;2.736789
3873.000000;3.037197
3872.000000;3.145899
3871.000000;3.227673
3870.000000;3.572810
3869.000000;3.755844
3868.000000;3.230659
3867.000000;2.970847
3866.000000;2.886703
3865.000000;2.888576
3864.000000;2.878824
3863.000000;2.814725
3862.000000;2.726694
3861.000000;2.686319
3860.000000;2.647293
3859.000000;3.016497
3858.000000;3.006298
3857.000000;2.712204
3856.000000;2.741329
3855.000000;2.749044
3854.000000;2.782988
3853.000000;2.755976
3852.000000;2.748593
3851.000000;2.812951
3850.000000;3.132194
3849.000000;3.618902
3848.000000;3.140837
3847.000000;3.039689
3846.000000;3.071503
3845.000000;3.067579
3844.000000;3.008216
3843.000000;2.926635
3842.000000;2.820890
3841.000000;2.825705
3840.000000;3.042712
3839.000000;3.271838
3838.000000;3.294359
3837.000000;3.286587
3836.000000;3.326042
3835.000000;3.379882
3834.000000;3.857515
3833.000000;3.538754
3832.000000;3.000902
3831.000000;2.919682
3830.000000;3.011494
3829.000000;3.357447
3828.000000;3.438691
3827.000000;3.253407
3826.000000;3.481381
3825.000000;3.822209
3824.000000;3.901450
3823.000000;3.591713
3822.000000;3.340385
3821.000000;3.310125
3820.000000;3.610377
3819.000000;3.979327
3818.000000;3.548162
3817.000000;3.389381
3816.000000;3.221689
3815.000000;3.035362
3814.000000;2.972907
3813.000000;3.208552
3812.000000;3.509032
3811.000000;3.266749
3810.000000;3.177475
3809.000000;3.096854
3808.000000;3.008604
3807.000000;2.962752
3806.000000;3.147409
3805.000000;3.350828
3804.000000;3.109036
3803.000000;2.949903
3802.000000;2.961316
3801.000000;3.072669
3800.000000;3.152485
3799.000000;3.187866
3798.000000;3.283803
3797.000000;3.628133
3796.000000;3.199180
3795.000000;2.919955
3794.000000;2.872707
3793.000000;2.957263
3792.000000;3.146725
3791.000000;2.937852
3790.000000;2.735978
3789.000000;2.739949
3788.000000;2.893382
3787.000000;3.068747
3786.000000;3.420445
3785.000000;3.543777
3784.000000;3.123811
3783.000000;3.035186
3782.000000;3.044604
3781.000000;3.160632
3780.000000;3.262310
3779.000000;3.108746
3778.000000;3.046778
3777.000000;3.174807
3776.000000;3.483332
3775.000000;3.484905
3774.000000;3.358265
3773.000000;3.405567
3772.000000;3.285190
3771.000000;3.057903
3770.000000;2.919729
3769.000000;2.897031
3768.000000;2.945237
3767.000000;3.034072
3766.000000;3.123658
3765.000000;3.126254
3764.000000;3.067435
3763.000000;3.024358
3762.000000;3.043615
3761.000000;3.128539
3760.000000;3.437839
3759.000000;3.338900
3758.000000;2.997605
3757.000000;3.019393
3756.000000;2.514819
3755.000000;2.283045
3754.000000;2.355680
3753.000000;2.509923
3752.000000;2.647727
3751.000000;2.781715
3750.000000;2.743258
3749.000000;2.642821
3748.000000;2.706809
3747.000000;2.760992
3746.000000;2.735215
3745.000000;2.863348
3744.000000;3.190838
3743.000000;2.976471
3742.000000;2.777198
3741.000000;2.757104
3740.000000;2.719945
3739.000000;2.686734
3738.000000;2.870424
3737.000000;3.319759
3736.000000;3.457305
3735.000000;3.406804
3734.000000;3.268724
3733.000000;3.104389
3732.000000;3.048536
3731.000000;3.082963
3730.000000;2.998050
3729.000000;2.879203
3728.000000;2.928739
3727.000000;3.092898
3726.000000;3.034671
3725.000000;2.943136
3724.000000;3.006344
3723.000000;3.214455
3722.000000;3.376939
3721.000000;3.210547
3720.000000;3.152592
3719.000000;3.053213
3718.000000;2.819200
3717.000000;2.758967
3716.000000;2.893198
3715.000000;3.116137
3714.000000;3.362992
3713.000000;3.466201
3712.000000;3.490478
3711.000000;3.323348
3710.000000;3.458632
3709.000000;3.852120
3708.000000;3.080438
3707.000000;2.949063
3706.000000;3.080275
3705.000000;3.224129
3704.000000;3.368456
3703.000000;3.562488
3702.000000;3.859311
3701.000000;3.287074
3700.000000;3.023698
3699.000000;3.158756
3698.000000;3.539209
3697.000000;3.157956
3696.000000;2.938643
3695.000000;2.879240
3694.000000;2.811047
3693.000000;2.753855
3692.000000;2.775036
3691.000000;2.836024
3690.000000;3.058514
3689.000000;3.602234
3688.000000;3.010643
3687.000000;2.766676
3686.000000;2.780202
3685.000000;3.026402
3684.000000;3.463219
3683.000000;3.278396
3682.000000;3.155096
3681.000000;3.007535
3680.000000;3.187646
3679.000000;3.889675
3678.000000;3.833229
3677.000000;3.505789
3676.000000;3.554138
3675.000000;3.382016
3674.000000;2.997863
3673.000000;3.132249
3672.000000;3.759641
3671.000000;3.379598
3670.000000;3.048838
3669.000000;2.963259
3668.000000;3.067750
3667.000000;3.508419
3666.000000;3.476687
3665.000000;3.068291
3664.000000;2.939731
3663.000000;2.854920
3662.000000;2.796582
3661.000000;2.810453
3660.000000;2.846106
3659.000000;2.824092
3658.000000;2.782057
3657.000000;2.810107
3656.000000;2.996196
3655.000000;3.278628
3654.000000;3.470685
3653.000000;3.530790
3652.000000;3.252185
3651.000000;3.156210
3650.000000;3.198125
3649.000000;3.088055
3648.000000;2.953710
3647.000000;2.908527
3646.000000;3.047579
3645.000000;3.166830
3644.000000;2.897490
3643.000000;2.750749
3642.000000;2.913452
3641.000000;3.165293
3640.000000;2.962459
3639.000000;2.871569
3638.000000;2.963421
3637.000000;3.019179
3636.000000;2.972059
3635.000000;2.956925
3634.000000;3.198593
3633.000000;3.634316
3632.000000;3.443666
3631.000000;3.251696
3630.000000;3.164051
3629.000000;3.188119
3628.000000;3.168553
3627.000000;3.146232
3626.000000;3.159704
3625.000000;3.069671
3624.000000;3.044280
3623.000000;3.102700
3622.000000;3.159767
3621.000000;3.283961
3620.000000;3.381233
3619.000000;2.956524
3618.000000;2.642691
3617.000000;2.557035
3616.000000;2.591709
3615.000000;2.663849
3614.000000;2.752893
3613.000000;2.897147
3612.000000;3.285345
3611.000000;3.690737
3610.000000;3.349862
3609.000000;3.284770
3608.000000;3.513501
3607.000000;4.381219
3606.000000;3.389790
3605.000000;2.957223
3604.000000;2.753850
3603.000000;2.677194
3602.000000;2.704283
3601.000000;2.751922
3600.000000;2.756607
3599.000000;2.685680
3598.000000;2.639562
3597.000000;2.670918
3596.000000;2.905180
3595.000000;3.195293
3594.000000;2.786867
3593.000000;2.512891
3592.000000;2.393323
3591.000000;2.388580
3590.000000;2.536301
3589.000000;2.783193
3588.000000;3.064458
3587.000000;3.250010
3586.000000;3.036150
3585.000000;2.852585
3584.000000;2.807478
3583.000000;2.845014
3582.000000;2.957836
3581.000000;3.027954
3580.000000;2.863719
3579.000000;2.725034
3578.000000;2.728598
3577.000000;3.036445
3576.000000;3.322993
3575.000000;2.777184
3574.000000;2.641860
3573.000000;2.673329
3572.000000;2.962585
3571.000000;4.058717
3570.000000;3.125150
3569.000000;2.591460
3568.000000;2.418580
3567.000000;2.470021
3566.000000;2.521688
3565.000000;2.543824
3564.000000;2.506672
3563.000000;2.461172
3562.000000;2.480059
3561.000000;2.539729
3560.000000;2.555512
3559.000000;2.522538
3558.000000;2.510275
3557.000000;2.596094
3556.000000;2.781547
3555.000000;2.885559
3554.000000;2.838017
3553.000000;2.703452
3552.000000;2.609886
3551.000000;2.616509
3550.000000;2.885129
3549.000000;3.216350
3548.000000;2.994214
3547.000000;3.074523
3546.000000;2.879985
3545.000000;2.666023
3544.000000;2.588890
3543.000000;2.594467
3542.000000;2.634128
3541.000000;2.655148
3540.000000;2.718512
3539.000000;3.013983
3538.000000;3.541508
3537.000000;3.199262
3536.000000;2.981284
3535.000000;2.967611
3534.000000;3.053312
3533.000000;2.924528
3532.000000;2.675820
3531.000000;2.545597
3530.000000;2.492029
3529.000000;2.469613
3528.000000;2.476866
3527.000000;2.562423
3526.000000;2.716423
3525.000000;2.869022
3524.000000;3.032831
3523.000000;3.147015
3522.000000;3.316384
3521.000000;3.224055
3520.000000;2.912350
3519.000000;2.875347
3518.000000;3.068716
3517.000000;3.067218
3516.000000;2.857761
3515.000000;2.843646
3514.000000;2.920299
3513.000000;2.856424
3512.000000;2.781851
3511.000000;2.841169
3510.000000;2.984036
3509.000000;3.092470
3508.000000;3.142513
3507.000000;3.191733
3506.000000;3.160115
3505.000000;3.246091
3504.000000;3.264415
3503.000000;3.012029
3502.000000;2.958532
3501.000000;3.050326
3500.000000;3.100369
3499.000000;3.055171
3498.000000;3.128518
3497.000000;3.533178
3496.000000;3.487720
3495.000000;3.003251
3494.000000;2.794035
3493.000000;2.714387
3492.000000;2.751258
3491.000000;2.881719
3490.000000;2.945248
3489.000000;2.902745
3488.000000;2.930936
3487.000000;3.020419
3486.000000;2.962028
3485.000000;2.754912
3484.000000;2.590943
3483.000000;2.556929
3482.000000;2.673646
3481.000000;2.908897
3480.000000;3.081149
3479.000000;3.075245
3478.000000;3.060783
3477.000000;3.211893
3476.000000;3.493239
3475.000000;3.242110
3474.000000;3.102438
3473.000000;3.161862
3472.000000;3.300512
3471.000000;3.380073
3470.000000;3.195611
3469.000000;3.029209
3468.000000;3.022264
3467.000000;3.075338
3466.000000;2.997664
3465.000000;2.932023
3464.000000;2.972107
3463.000000;3.381345
3462.000000;3.658564
3461.000000;3.024774
3460.000000;3.025297
3459.000000;3.178319
3458.000000;3.426360
3457.000000;3.598324
3456.000000;3.145038
3455.000000;2.896265
3454.000000;2.815883
3453.000000;2.806076
3452.000000;2.840125
3451.000000;2.885111
3450.000000;2.935110
3449.000000;3.030679
3448.000000;3.291781
3447.000000;3.349783
3446.000000;3.046646
3445.000000;2.958229
3444.000000;2.997320
3443.000000;3.076193
3442.000000;3.129671
3441.000000;3.131597
3440.000000;3.151520
3439.000000;3.138015
3438.000000;3.075181
3437.000000;3.139096
3436.000000;3.186050
3435.000000;2.960023
3434.000000;2.786368
3433.000000;2.728518
3432.000000;2.764083
3431.000000;2.903549
3430.000000;3.204737
3429.000000;3.281095
3428.000000;3.032067
3427.000000;2.958195
3426.000000;3.179933
3425.000000;3.191632
3424.000000;2.896973
3423.000000;2.903704
3422.000000;3.090664
3421.000000;3.249622
3420.000000;3.534077
3419.000000;3.419167
3418.000000;3.114762
3417.000000;2.968636
3416.000000;2.882808
3415.000000;2.838835
3414.000000;2.874422
3413.000000;3.033584
3412.000000;3.163345
3411.000000;3.083856
3410.000000;3.075021
3409.000000;3.109889
3408.000000;3.476313
3407.000000;3.704695
3406.000000;3.024106
3405.000000;2.921558
3404.000000;3.053408
3403.000000;3.332591
3402.000000;3.323953
3401.000000;3.382034
3400.000000;3.455697
3399.000000;3.200811
3398.000000;3.140719
3397.000000;3.333714
3396.000000;3.336520
3395.000000;3.155245
3394.000000;3.301180
3393.000000;3.647286
3392.000000;3.180578
3391.000000;2.973962
3390.000000;2.903362
3389.000000;2.904809
3388.000000;3.083902
3387.000000;3.465667
3386.000000;3.140108
3385.000000;2.990865
3384.000000;2.989953
3383.000000;3.039255
3382.000000;3.292732
3381.000000;3.498268
3380.000000;3.198660
3379.000000;3.319215
3378.000000;3.744719
3377.000000;3.506921
3376.000000;3.347034
3375.000000;3.290098
3374.000000;3.108114
3373.000000;2.994373
3372.000000;2.988407
3371.000000;3.068590
3370.000000;3.157882
3369.000000;3.129979
3368.000000;3.032946
3367.000000;2.948481
3366.000000;2.881029
3365.000000;2.853195
3364.000000;2.879546
3363.000000;2.858270
3362.000000;2.732744
3361.000000;2.672483
3360.000000;2.746458
3359.000000;3.070274
3358.000000;3.497314
3357.000000;2.952961
3356.000000;2.794425
3355.000000;2.734693
3354.000000;2.762692
3353.000000;2.863917
3352.000000;3.187278
3351.000000;3.525533
3350.000000;3.135004
3349.000000;3.054157
3348.000000;3.232898
3347.000000;3.200361
3346.000000;2.936036
3345.000000;2.807670
3344.000000;2.768744
3343.000000;2.795372
3342.000000;2.869315
3341.000000;2.976697
3340.000000;3.098194
3339.000000;3.127087
3338.000000;3.049069
3337.000000;2.996311
3336.000000;3.024636
3335.000000;3.197495
3334.000000;3.683393
3333.000000;3.538092
3332.000000;3.179136
3331.000000;3.040962
3330.000000;3.038339
3329.000000;3.076608
3328.000000;3.042882
3327.000000;3.019396
3326.000000;3.143250
3325.000000;3.481168
3324.000000;3.385234
3323.000000;3.206236
3322.000000;3.309666
3321.000000;3.460014
3320.000000;3.351402
3319.000000;3.020057
3318.000000;2.816958
3317.000000;2.759633
3316.000000;2.791343
3315.000000;2.859121
3314.000000;2.976623
3313.000000;3.206288
3312.000000;3.616626
3311.000000;3.714779
3310.000000;3.675348
3309.000000;3.949620
3308.000000;3.987588
3307.000000;3.502604
3306.000000;3.385663
3305.000000;3.469993
3304.000000;3.542155
3303.000000;3.317672
3302.000000;3.060554
3301.000000;2.932466
3300.000000;2.929314
3299.000000;3.021185
3298.000000;3.061795
3297.000000;2.997574
3296.000000;2.978485
3295.000000;3.191527
3294.000000;3.530929
3293.000000;3.086046
3292.000000;2.866611
3291.000000;2.846046
3290.000000;2.911577
3289.000000;3.049723
3288.000000;3.225074
3287.000000;3.333074
3286.000000;3.229334
3285.000000;3.161580
3284.000000;3.204027
3283.000000;3.191748
3282.000000;3.175337
3281.000000;3.194472
3280.000000;3.117177
3279.000000;2.918129
3278.000000;2.807502
3277.000000;2.852963
3276.000000;3.158121
3275.000000;3.791346
3274.000000;3.284507
3273.000000;3.185532
3272.000000;3.215850
3271.000000;3.197286
3270.000000;3.137723
3269.000000;3.154635
3268.000000;3.020295
3267.000000;2.862719
3266.000000;2.843255
3265.000000;2.964899
3264.000000;3.027703
3263.000000;2.878601
3262.000000;2.790936
3261.000000;2.849433
3260.000000;3.065520
3259.000000;4.153970
3258.000000;3.391390
3257.000000;3.314008
3256.000000;3.693767
3255.000000;3.433903
3254.000000;3.186290
3253.000000;3.122633
3252.000000;3.196403
3251.000000;3.359030
3250.000000;3.749440
3249.000000;4.392135
3248.000000;3.528561
3247.000000;3.440349
3246.000000;3.376175
3245.000000;3.367794
3244.000000;3.318852
3243.000000;3.270810
3242.000000;3.278379
3241.000000;3.169809
3240.000000;3.003673
3239.000000;2.918751
3238.000000;2.910282
3237.000000;2.996797
3236.000000;3.162759
3235.000000;3.252264
3234.000000;3.153382
3233.000000;3.060625
3232.000000;3.049914
3231.000000;3.008586
3230.000000;2.932647
3229.000000;2.862180
3228.000000;2.770103
3227.000000;2.724653
3226.000000;2.800158
3225.000000;3.083835
3224.000000;3.287397
3223.000000;2.949534
3222.000000;2.881398
3221.000000;2.909979
3220.000000;2.942347
3219.000000;2.861444
3218.000000;2.765403
3217.000000;2.732407
3216.000000;2.787771
3215.000000;2.958892
3214.000000;3.250613
3213.000000;3.665276
3212.000000;3.362695
3211.000000;2.996979
3210.000000;2.836894
3209.000000;2.791366
3208.000000;2.862520
3207.000000;3.056227
3206.000000;3.340650
3205.000000;3.269221
3204.000000;3.048013
3203.000000;2.984105
3202.000000;3.107579
3201.000000;3.377362
3200.000000;3.404704
3199.000000;3.246044
3198.000000;3.053469
3197.000000;2.990160
3196.000000;3.108315
3195.000000;3.551642
3194.000000;3.553047
3193.000000;3.118717
3192.000000;3.053676
3191.000000;3.080201
3190.000000;3.158055
3189.000000;3.138941
3188.000000;2.977107
3187.000000;2.772617
3186.000000;2.619944
3185.000000;2.551949
3184.000000;2.580384
3183.000000;2.699243
3182.000000;2.800958
3181.000000;2.800070
3180.000000;2.830419
3179.000000;2.943528
3178.000000;3.067564
3177.000000;3.085440
3176.000000;3.068095
3175.000000;3.142634
3174.000000;3.209761
3173.000000;2.944605
3172.000000;2.768271
3171.000000;2.691332
3170.000000;2.626967
3169.000000;2.566837
3168.000000;2.582768
3167.000000;2.721826
3166.000000;3.052396
3165.000000;3.739113
3164.000000;3.721381
3163.000000;3.371054
3162.000000;3.314551
3161.000000;3.492735
3160.000000;3.428075
3159.000000;3.231783
3158.000000;3.234929
3157.000000;3.192573
3156.000000;3.138014
3155.000000;3.159532
3154.000000;3.406663
3153.000000;3.513692
3152.000000;3.153043
3151.000000;3.044115
3150.000000;3.141578
3149.000000;3.471327
3148.000000;3.279015
3147.000000;2.951516
3146.000000;2.769794
3145.000000;2.706774
3144.000000;2.773063
3143.000000;2.986819
3142.000000;3.367746
3141.000000;3.849461
3140.000000;3.712219
3139.000000;3.492756
3138.000000;3.205083
3137.000000;2.957363
3136.000000;2.835050
3135.000000;2.778150
3134.000000;2.734486
3133.000000;2.673528
3132.000000;2.616421
3131.000000;2.593976
3130.000000;2.600404
3129.000000;2.608840
3128.000000;2.625695
3127.000000;2.677420
3126.000000;2.785283
3125.000000;2.951281
3124.000000;3.099719
3123.000000;3.102643
3122.000000;2.991610
3121.000000;2.849746
3120.000000;2.715988
3119.000000;2.621908
3118.000000;2.584569
3117.000000;2.601333
3116.000000;2.662351
3115.000000;2.751194
3114.000000;2.842311
3113.000000;2.927085
3112.000000;2.987635
3111.000000;2.995913
3110.000000;2.980202
3109.000000;3.061625
3108.000000;3.212378
3107.000000;3.047742
3106.000000;2.887025
3105.000000;2.852688
3104.000000;2.856485
3103.000000;2.950925
3102.000000;3.221709
3101.000000;3.506140
3100.000000;3.372745
3099.000000;3.107058
3098.000000;2.889846
3097.000000;2.730058
3096.000000;2.671474
3095.000000;2.724952
3094.000000;2.826545
3093.000000;2.844634
3092.000000;2.776923
3091.000000;2.728136
3090.000000;2.739431
3089.000000;2.793154
3088.000000;2.834210
3087.000000;2.837064
3086.000000;2.845497
3085.000000;2.867835
3084.000000;2.875002
3083.000000;2.886948
3082.000000;2.957511
3081.000000;3.211339
3080.000000;3.400964
3079.000000;3.233879
3078.000000;3.353933
3077.000000;3.615617
3076.000000;3.162774
3075.000000;2.923698
3074.000000;2.892323
3073.000000;2.945056
3072.000000;2.978411
3071.000000;2.948036
3070.000000;2.901827
3069.000000;2.850698
3068.000000;2.823847
3067.000000;2.851473
3066.000000;2.920613
3065.000000;2.951834
3064.000000;2.838239
3063.000000;2.670533
3062.000000;2.582434
3061.000000;2.609764
3060.000000;2.796600
3059.000000;3.162005
3058.000000;3.208208
3057.000000;3.148397
3056.000000;3.430039
3055.000000;3.970813
3054.000000;4.031338
3053.000000;3.875868
3052.000000;3.618742
3051.000000;3.312157
3050.000000;3.168602
3049.000000;3.163219
3048.000000;3.764149
3047.000000;3.480135
3046.000000;3.077885
3045.000000;2.964677
3044.000000;2.887418
3043.000000;2.855731
3042.000000;2.864974
3041.000000;2.889738
3040.000000;2.909264
3039.000000;2.981042
3038.000000;3.103713
3037.000000;3.053291
3036.000000;3.113988
3035.000000;3.260829
3034.000000;3.001520
3033.000000;2.950582
3032.000000;3.118496
3031.000000;3.344008
3030.000000;3.236476
3029.000000;3.100735
3028.000000;3.105164
3027.000000;3.228745
3026.000000;3.398772
3025.000000;3.634721
3024.000000;3.694387
3023.000000;3.371738
3022.000000;2.989635
3021.000000;2.755991
3020.000000;2.687066
3019.000000;2.758014
3018.000000;3.008467
3017.000000;3.519713
3016.000000;3.147071
3015.000000;2.925060
3014.000000;2.874777
3013.000000;3.052103
3012.000000;3.536368
3011.000000;2.949482
3010.000000;2.761760
3009.000000;2.741293
3008.000000;2.829940
3007.000000;3.021213
3006.000000;3.260635
3005.000000;3.355487
3004.000000;3.287546
3003.000000;3.180568
3002.000000;3.128836
3001.000000;3.171322
3000.000000;3.141878
2999.000000;3.042653
2998.000000;3.047020
2997.000000;3.095754
2996.000000;3.009791
2995.000000;2.877710
2994.000000;2.834053
2993.000000;2.931671
2992.000000;3.161793
2991.000000;3.114168
2990.000000;2.950882
2989.000000;2.882641
2988.000000;2.894413
2987.000000;3.076508
2986.000000;3.578328
2985.000000;3.449258
2984.000000;3.272078
2983.000000;3.213096
2982.000000;3.304933
2981.000000;3.366285
2980.000000;3.174823
2979.000000;3.174627
2978.000000;3.227458
2977.000000;3.060787
2976.000000;2.984870
2975.000000;3.101637
2974.000000;3.036549
2973.000000;2.863590
2972.000000;2.840818
2971.000000;2.884068
2970.000000;2.881710
2969.000000;2.829003
2968.000000;2.852583
2967.000000;2.992731
2966.000000;3.112995
2965.000000;3.065177
2964.000000;3.028207
2963.000000;3.128076
2962.000000;3.449623
2961.000000;3.858610
2960.000000;3.498028
2959.000000;3.335665
2958.000000;3.355905
2957.000000;3.504438
2956.000000;3.290207
2955.000000;3.003293
2954.000000;2.885932
2953.000000;2.908997
2952.000000;3.081688
2951.000000;3.294942
2950.000000;3.221823
2949.000000;2.998114
2948.000000;2.846986
2947.000000;2.783848
2946.000000;2.792660
2945.000000;2.871195
2944.000000;3.050223
2943.000000;3.757438
2942.000000;3.524544
2941.000000;3.076889
2940.000000;3.042804
2939.000000;3.261872
2938.000000;3.596606
2937.000000;3.169226
2936.000000;3.027437
2935.000000;3.049554
2934.000000;3.209763
2933.000000;3.793380
2932.000000;3.308685
2931.000000;3.092194
2930.000000;3.294820
2929.000000;3.996874
2928.000000;3.532356
2927.000000;3.439701
2926.000000;3.253523
2925.000000;3.001052
2924.000000;2.826583
2923.000000;2.697481
2922.000000;2.633820
2921.000000;2.624813
2920.000000;2.662455
2919.000000;2.756144
2918.000000;2.992885
2917.000000;3.348649
2916.000000;3.124401
2915.000000;2.902254
2914.000000;2.838609
2913.000000;2.823540
2912.000000;2.833816
2911.000000;2.853652
2910.000000;2.881800
2909.000000;2.935550
2908.000000;3.019774
2907.000000;3.228301
2906.000000;3.862779
2905.000000;3.462297
2904.000000;3.261248
2903.000000;3.496381
2902.000000;3.589545
2901.000000;3.598094
2900.000000;3.448469
2899.000000;2.968681
2898.000000;2.806797
2897.000000;2.782949
2896.000000;2.833311
2895.000000;2.984367
2894.000000;3.308828
2893.000000;3.345128
2892.000000;3.110569
2891.000000;3.069907
2890.000000;3.011582
2889.000000;2.907621
2888.000000;2.834603
2887.000000;2.830394
2886.000000;2.874542
2885.000000;2.935019
2884.000000;3.076210
2883.000000;3.298517
2882.000000;3.280547
2881.000000;3.194937
2880.000000;3.178314
2879.000000;3.154243
2878.000000;3.148189
2877.000000;3.178608
2876.000000;3.212093
2875.000000;3.065030
2874.000000;2.820828
2873.000000;2.682323
2872.000000;2.657463
2871.000000;2.715620
2870.000000;2.803768
2869.000000;2.917217
2868.000000;3.120128
2867.000000;3.063716
2866.000000;2.814144
2865.000000;2.748417
2864.000000;2.819273
2863.000000;3.028415
2862.000000;3.543909
2861.000000;3.260670
2860.000000;2.950537
2859.000000;2.896349
2858.000000;2.847968
2857.000000;2.828133
2856.000000;2.870241
2855.000000;2.948300
2854.000000;2.998103
2853.000000;2.984046
2852.000000;2.957710
2851.000000;2.987480
2850.000000;3.075618
2849.000000;3.167736
2848.000000;3.154773
2847.000000;3.268939
2846.000000;3.691739
2845.000000;3.270796
2844.000000;3.044844
2843.000000;3.060095
2842.000000;2.936137
2841.000000;2.763311
2840.000000;2.697186
2839.000000;2.714119
2838.000000;2.775386
2837.000000;2.852285
2836.000000;3.012501
2835.000000;3.205411
2834.000000;3.096685
2833.000000;2.970857
2832.000000;2.995679
2831.000000;3.061345
2830.000000;3.296174
2829.000000;3.914200
2828.000000;3.345355
2827.000000;3.121076
2826.000000;3.349003
2825.000000;3.989480
2824.000000;3.276519
2823.000000;3.016392
2822.000000;2.952813
2821.000000;2.970030
2820.000000;3.334375
2819.000000;3.725169
2818.000000;3.116937
2817.000000;3.009352
2816.000000;3.029078
2815.000000;3.057252
2814.000000;3.123864
2813.000000;3.212233
2812.000000;3.222613
2811.000000;3.035912
2810.000000;2.870046
2809.000000;2.799375
2808.000000;2.846033
2807.000000;3.067999
2806.000000;3.251073
2805.000000;2.930661
2804.000000;2.698871
2803.000000;2.615242
2802.000000;2.640715
2801.000000;2.771694
2800.000000;2.925465
2799.000000;2.954113
2798.000000;2.854704
2797.000000;2.764414
2796.000000;2.771112
2795.000000;2.908278
2794.000000;3.138996
2793.000000;3.264363
2792.000000;3.198844
2791.000000;3.067668
2790.000000;2.965222
2789.000000;2.934503
2788.000000;2.976826
2787.000000;3.002339
2786.000000;2.954403
2785.000000;2.940115
2784.000000;3.002221
2783.000000;3.041106
2782.000000;2.898556
2781.000000;2.748727
2780.000000;2.733889
2779.000000;2.860978
2778.000000;2.974977
2777.000000;2.871969
2776.000000;2.759717
2775.000000;2.746155
2774.000000;2.818675
2773.000000;2.939100
2772.000000;3.034037
2771.000000;3.018930
2770.000000;2.963787
2769.000000;2.980923
2768.000000;3.088304
2767.000000;3.336310
2766.000000;3.390686
2765.000000;3.188291
2764.000000;3.361022
2763.000000;3.392998
2762.000000;3.009334
2761.000000;2.853596
2760.000000;2.776094
2759.000000;2.742436
2758.000000;2.752722
2757.000000;2.784908
2756.000000;2.841545
2755.000000;2.925124
2754.000000;3.053770
2753.000000;3.134908
2752.000000;3.134791
2751.000000;3.031972
2750.000000;2.971525
2749.000000;2.973709
2748.000000;3.190757
2747.000000;3.921982
2746.000000;3.228807
2745.000000;3.023380
2744.000000;3.050961
2743.000000;3.048580
2742.000000;3.081404
2741.000000;3.272581
2740.000000;3.540693
2739.000000;3.500913
2738.000000;3.433259
2737.000000;3.037974
2736.000000;2.832509
2735.000000;2.829105
2734.000000;2.987643
2733.000000;3.373231
2732.000000;3.974600
2731.000000;3.512935
2730.000000;3.053117
2729.000000;2.863885
2728.000000;2.950776
2727.000000;3.189396
2726.000000;2.934865
2725.000000;2.764580
2724.000000;2.819279
2723.000000;2.977229
2722.000000;3.259636
2721.000000;3.545313
2720.000000;3.426958
2719.000000;3.282701
2718.000000;3.268363
2717.000000;3.167999
2716.000000;3.021135
2715.000000;2.958560
2714.000000;3.127082
2713.000000;3.526676
2712.000000;3.185535
2711.000000;2.920982
2710.000000;2.826387
2709.000000;2.810550
2708.000000;2.895968
2707.000000;3.093652
2706.000000;3.454172
2705.000000;3.780885
2704.000000;4.036340
2703.000000;3.725959
2702.000000;3.294561
2701.000000;3.084187
2700.000000;2.944896
2699.000000;2.853146
2698.000000;2.834533
2697.000000;2.888429
2696.000000;2.930892
2695.000000;2.906895
2694.000000;2.902113
2693.000000;2.909392
2692.000000;2.930260
2691.000000;3.009854
2690.000000;3.295827
2689.000000;4.079561
2688.000000;3.568262
2687.000000;3.128342
2686.000000;2.967325
2685.000000;2.992737
2684.000000;3.295670
2683.000000;3.542879
2682.000000;3.158046
2681.000000;3.007170
2680.000000;3.022962
2679.000000;3.100232
2678.000000;3.250345
2677.000000;3.418738
2676.000000;3.480588
2675.000000;3.352042
2674.000000;3.211731
2673.000000;3.216588
2672.000000;3.361978
2671.000000;3.551566
2670.000000;3.510812
2669.000000;3.264952
2668.000000;3.091231
2667.000000;3.016659
2666.000000;3.005524
2665.000000;3.100595
2664.000000;3.502079
2663.000000;3.403603
2662.000000;2.943223
2661.000000;2.768483
2660.000000;2.693883
2659.000000;2.656646
2658.000000;2.663122
2657.000000;2.719936
2656.000000;2.972029
2655.000000;3.304205
2654.000000;2.980105
2653.000000;2.822541
2652.000000;2.838799
2651.000000;2.909673
2650.000000;3.008306
2649.000000;3.115267
2648.000000;3.369796
2647.000000;3.627720
2646.000000;3.228199
2645.000000;2.935548
2644.000000;2.841390
2643.000000;2.898584
2642.000000;3.127855
2641.000000;3.425179
2640.000000;3.531448
2639.000000;3.340904
2638.000000;3.170321
2637.000000;3.190926
2636.000000;3.340214
2635.000000;3.347313
2634.000000;3.132543
2633.000000;2.949548
2632.000000;2.868893
2631.000000;2.862575
2630.000000;2.862681
2629.000000;2.843709
2628.000000;2.861754
2627.000000;2.962371
2626.000000;3.210445
2625.000000;3.823669
2624.000000;4.102741
2623.000000;3.352721
2622.000000;3.037258
2621.000000;2.858176
2620.000000;2.806872
2619.000000;2.839907
2618.000000;3.007293
2617.000000;3.515149
2616.000000;3.623659
2615.000000;3.548556
2614.000000;3.443617
2613.000000;3.119202
2612.000000;2.997295
2611.000000;2.957372
2610.000000;2.975641
2609.000000;3.056919
2608.000000;3.283069
2607.000000;3.468640
2606.000000;3.719582
2605.000000;4.113201
2604.000000;3.399037
2603.000000;3.234541
2602.000000;3.120869
2601.000000;3.044599
2600.000000;3.105600
2599.000000;3.027178
2598.000000;2.843688
2597.000000;2.749264
2596.000000;2.776433
2595.000000;2.853150
2594.000000;2.993857
2593.000000;3.369376
2592.000000;3.373666
2591.000000;3.200078
2590.000000;3.316942
2589.000000;3.306212
2588.000000;3.208933
2587.000000;3.222013
2586.000000;3.252392
2585.000000;3.153519
2584.000000;3.121893
2583.000000;3.206140
2582.000000;3.231388
2581.000000;3.118857
2580.000000;2.969268
2579.000000;2.863601
2578.000000;2.822953
2577.000000;2.863224
2576.000000;2.997814
2575.000000;3.151285
2574.000000;3.201879
2573.000000;3.228192
2572.000000;3.248574
2571.000000;3.282088
2570.000000;3.302054
2569.000000;3.281479
2568.000000;3.226884
2567.000000;3.185637
2566.000000;3.402948
2565.000000;3.441584
2564.000000;3.076325
2563.000000;2.960612
2562.000000;2.970719
2561.000000;2.982185
2560.000000;2.982427
2559.000000;2.940400
2558.000000;2.854450
2557.000000;2.780411
2556.000000;2.766937
2555.000000;2.813068
2554.000000;2.883838
2553.000000;2.909607
2552.000000;2.837989
2551.000000;2.743708
2550.000000;2.714101
2549.000000;2.773939
2548.000000;2.916969
2547.000000;3.033505
2546.000000;2.944656
2545.000000;2.839420
2544.000000;2.862258
2543.000000;2.957251
2542.000000;2.981952
2541.000000;2.996180
2540.000000;3.080350
2539.000000;3.053328
2538.000000;2.980921
2537.000000;3.010335
2536.000000;3.170644
2535.000000;3.382618
2534.000000;3.322937
2533.000000;3.172207
2532.000000;3.081840
2531.000000;3.028296
2530.000000;3.140411
2529.000000;3.259162
2528.000000;2.993096
2527.000000;2.861600
2526.000000;2.918202
2525.000000;3.133556
2524.000000;3.348724
2523.000000;3.209608
2522.000000;3.117160
2521.000000;3.105289
2520.000000;3.130830
2519.000000;3.402848
2518.000000;3.331454
2517.000000;2.947583
2516.000000;2.867298
2515.000000;2.987517
2514.000000;3.330737
2513.000000;3.476029
2512.000000;3.344767
2511.000000;3.399803
2510.000000;3.287972
2509.000000;3.060371
2508.000000;2.893839
2507.000000;2.836055
2506.000000;2.883560
2505.000000;2.986371
2504.000000;3.158345
2503.000000;3.455147
2502.000000;3.269815
2501.000000;3.006861
2500.000000;2.955180
2499.000000;3.171080
2498.000000;3.628743
2497.000000;3.415954
2496.000000;3.506597
2495.000000;3.567919
2494.000000;3.232143
2493.000000;3.247895
2492.000000;3.516916
2491.000000;3.438089
2490.000000;3.377502
2489.000000;3.385036
2488.000000;3.038185
2487.000000;2.823906
2486.000000;2.763277
2485.000000;2.813106
2484.000000;3.013014
2483.000000;3.199168
2482.000000;3.065810
2481.000000;3.056765
2480.000000;3.134938
2479.000000;2.936132
2478.000000;2.856265
2477.000000;2.948835
2476.000000;3.259972
2475.000000;4.266679
2474.000000;3.422761
2473.000000;3.212885
2472.000000;3.255448
2471.000000;3.172690
2470.000000;2.948567
2469.000000;2.818035
2468.000000;2.814184
2467.000000;2.948429
2466.000000;3.353399
2465.000000;3.373992
2464.000000;3.091758
2463.000000;3.121518
2462.000000;3.302174
2461.000000;3.426049
2460.000000;3.190822
2459.000000;3.136020
2458.000000;3.314577
2457.000000;3.107160
2456.000000;2.844358
2455.000000;2.739054
2454.000000;2.743137
2453.000000;2.866024
2452.000000;3.070028
2451.000000;3.193372
2450.000000;3.229897
2449.000000;3.373618
2448.000000;3.593493
2447.000000;3.396947
2446.000000;3.198865
2445.000000;3.226369
2444.000000;3.397835
2443.000000;3.246168
2442.000000;2.984307
2441.000000;2.881790
2440.000000;2.918605
2439.000000;3.032361
2438.000000;3.058282
2437.000000;3.040075
2436.000000;3.112332
2435.000000;3.348728
2434.000000;3.547374
2433.000000;3.189677
2432.000000;2.960051
2431.000000;2.932352
2430.000000;3.013196
2429.000000;3.008306
2428.000000;2.934490
2427.000000;2.966543
2426.000000;3.194111
2425.000000;3.740068
2424.000000;4.036516
2423.000000;3.532424
2422.000000;3.115384
2421.000000;2.990179
2420.000000;3.058440
2419.000000;3.193983
2418.000000;3.189884
2417.000000;3.060615
2416.000000;2.993251
2415.000000;3.039533
2414.000000;3.103905
2413.000000;3.037621
2412.000000;2.984921
2411.000000;3.022924
2410.000000;3.136819
2409.000000;3.151730
2408.000000;3.017210
2407.000000;2.936131
2406.000000;2.931682
2405.000000;2.983666
2404.000000;3.067188
2403.000000;3.336991
2402.000000;3.471041
2401.000000;3.053487
2400.000000;2.885468
2399.000000;2.894689
2398.000000;2.991593
2397.000000;3.117991
2396.000000;3.168994
2395.000000;3.073806
2394.000000;2.874322
2393.000000;2.746364
2392.000000;2.743794
2391.000000;3.005692
2390.000000;3.529026
2389.000000;3.083517
2388.000000;3.059176
2387.000000;3.165283
2386.000000;3.176673
2385.000000;3.232093
2384.000000;3.386633
2383.000000;3.479074
2382.000000;3.291409
2381.000000;3.132291
2380.000000;3.051988
2379.000000;3.052272
2378.000000;3.117845
2377.000000;3.252868
2376.000000;4.069626
2375.000000;3.572678
2374.000000;3.135287
2373.000000;3.054278
2372.000000;3.057120
2371.000000;3.130371
2370.000000;3.224847
2369.000000;3.261053
2368.000000;3.224976
2367.000000;3.185968
2366.000000;3.138675
2365.000000;3.143544
2364.000000;3.251188
2363.000000;3.432385
2362.000000;3.756598
2361.000000;4.202733
2360.000000;3.713575
2359.000000;3.383174
2358.000000;3.229507
2357.000000;3.172278
2356.000000;3.197678
2355.000000;3.356675
2354.000000;3.381743
2353.000000;3.117512
2352.000000;3.010284
2351.000000;3.109595
2350.000000;3.289249
2349.000000;3.318562
2348.000000;3.250146
2347.000000;3.166077
2346.000000;3.101628
2345.000000;3.106339
2344.000000;3.187595
2343.000000;3.261002
2342.000000;3.230221
2341.000000;3.178181
2340.000000;3.155032
2339.000000;3.191347
2338.000000;3.283767
2337.000000;3.315875
2336.000000;3.222705
2335.000000;3.083944
2334.000000;2.955775
2333.000000;2.892640
2332.000000;2.925836
2331.000000;3.136369
2330.000000;3.515907
2329.000000;3.335789
2328.000000;3.465977
2327.000000;3.705049
2326.000000;3.223718
2325.000000;3.115142
2324.000000;3.199469
2323.000000;3.297510
2322.000000;3.255020
2321.000000;3.203587
2320.000000;3.303748
2319.000000;3.548434
2318.000000;3.527752
2317.000000;3.443245
2316.000000;3.435445
2315.000000;3.376096
2314.000000;3.255807
2313.000000;3.106366
2312.000000;2.993016
2311.000000;2.957812
2310.000000;2.999507
2309.000000;3.055689
2308.000000;3.076104
2307.000000;3.115719
2306.000000;3.232848
2305.000000;3.309091
2304.000000;3.290567
2303.000000;3.424866
2302.000000;3.698784
2301.000000;3.335763
2300.000000;2.936262
2299.000000;2.737689
2298.000000;2.672494
2297.000000;2.725242
2296.000000;2.884473
2295.000000;3.046990
2294.000000;3.152943
2293.000000;3.443886
2292.000000;3.681135
2291.000000;3.362652
2290.000000;3.053346
2289.000000;2.850588
2288.000000;2.785996
2287.000000;2.870033
2286.000000;3.180491
2285.000000;3.478372
2284.000000;3.150657
2283.000000;3.147335
2282.000000;3.463413
2281.000000;4.222190
2280.000000;3.437825
2279.000000;3.537893
2278.000000;3.642045
2277.000000;3.174227
2276.000000;2.987373
2275.000000;2.953995
2274.000000;2.987652
2273.000000;3.071433
2272.000000;3.358761
2271.000000;3.332753
2270.000000;3.057478
2269.000000;3.014631
2268.000000;3.136501
2267.000000;3.387569
2266.000000;3.350271
2265.000000;3.252485
2264.000000;3.141449
2263.000000;2.999071
2262.000000;2.993280
2261.000000;3.230675
2260.000000;3.431062
2259.000000;3.082308
2258.000000;3.012874
2257.000000;3.124346
2256.000000;3.207458
2255.000000;3.007595
2254.000000;2.876354
2253.000000;2.873272
2252.000000;2.973606
2251.000000;3.147518
2250.000000;3.337007
2249.000000;3.425852
2248.000000;3.546631
2247.000000;3.860402
2246.000000;3.637112
2245.000000;3.285608
2244.000000;3.093878
2243.000000;2.927847
2242.000000;2.819412
2241.000000;2.817413
2240.000000;2.933994
2239.000000;3.115061
2238.000000;3.089115
2237.000000;2.918347
2236.000000;2.832436
2235.000000;2.890327
2234.000000;3.130549
2233.000000;3.681118
2232.000000;3.939929
2231.000000;3.405366
2230.000000;3.211013
2229.000000;3.165896
2228.000000;3.157827
2227.000000;3.064550
2226.000000;2.962383
2225.000000;2.910425
2224.000000;2.886510
2223.000000;2.874530
2222.000000;2.864938
2221.000000;2.851455
2220.000000;2.847236
2219.000000;2.853533
2218.000000;2.871577
2217.000000;2.907197
2216.000000;2.955843
2215.000000;3.016701
2214.000000;3.085795
2213.000000;3.142802
2212.000000;3.176616
2211.000000;3.198506
2210.000000;3.142319
2209.000000;3.004280
2208.000000;2.939804
2207.000000;3.028695
2206.000000;3.357979
2205.000000;3.807667
2204.000000;3.391691
2203.000000;3.350820
2202.000000;3.487598
2201.000000;3.236165
2200.000000;2.905663
2199.000000;2.780590
2198.000000;2.790382
2197.000000;2.915892
2196.000000;2.976154
2195.000000;2.869244
2194.000000;2.797599
2193.000000;2.774084
2192.000000;2.797486
2191.000000;2.844498
2190.000000;2.863017
2189.000000;2.850869
2188.000000;2.787998
2187.000000;2.703197
2186.000000;2.673966
2185.000000;2.749883
2184.000000;2.969794
2183.000000;3.199149
2182.000000;3.190799
2181.000000;3.143795
2180.000000;3.103323
2179.000000;3.182930
2178.000000;3.494247
2177.000000;3.950418
2176.000000;3.713231
2175.000000;3.426104
2174.000000;3.171804
2173.000000;2.987883
2172.000000;2.830072
2171.000000;2.788165
2170.000000;2.881884
2169.000000;2.911156
2168.000000;2.808955
2167.000000;2.809476
2166.000000;2.912422
2165.000000;3.080003
2164.000000;3.202300
2163.000000;3.101267
2162.000000;3.003667
2161.000000;3.039243
2160.000000;3.290715
2159.000000;3.305818
2158.000000;3.087561
2157.000000;3.092120
2156.000000;3.199010
2155.000000;3.237194
2154.000000;3.341650
2153.000000;3.169480
2152.000000;3.089116
2151.000000;3.329517
2150.000000;3.367608
2149.000000;3.059431
2148.000000;3.065366
2147.000000;3.216139
2146.000000;3.329534
2145.000000;3.275682
2144.000000;3.135545
2143.000000;2.964454
2142.000000;2.843819
2141.000000;2.779018
2140.000000;2.784800
2139.000000;2.877288
2138.000000;3.040195
2137.000000;3.269326
2136.000000;3.617753
2135.000000;3.266470
2134.000000;3.003733
2133.000000;2.963682
2132.000000;3.042527
2131.000000;3.210271
2130.000000;3.532459
2129.000000;3.150140
2128.000000;2.893027
2127.000000;2.809772
2126.000000;2.804801
2125.000000;2.823791
2124.000000;2.861245
2123.000000;2.990860
2122.000000;3.321353
2121.000000;3.382339
2120.000000;3.010559
2119.000000;2.862161
2118.000000;2.831681
2117.000000;3.040197
2116.000000;3.542652
2115.000000;3.280219
2114.000000;3.400210
2113.000000;3.288799
2112.000000;2.930360
2111.000000;2.851027
2110.000000;2.837382
2109.000000;2.867885
2108.000000;2.940640
2107.000000;3.164820
2106.000000;3.380397
2105.000000;3.029160
2104.000000;2.804889
2103.000000;2.721849
2102.000000;2.731369
2101.000000;2.820760
2100.000000;2.924074
2099.000000;2.918405
2098.000000;2.809441
2097.000000;2.727527
2096.000000;2.738499
2095.000000;2.829651
2094.000000;2.928854
2093.000000;3.082251
2092.000000;3.392342
2091.000000;3.339221
2090.000000;3.142891
2089.000000;3.064761
2088.000000;3.081030
2087.000000;3.507623
2086.000000;3.254521
2085.000000;2.870030
2084.000000;2.847118
2083.000000;2.936237
2082.000000;3.135135
2081.000000;3.479276
2080.000000;3.518952
2079.000000;3.230459
2078.000000;3.134720
2077.000000;3.129562
2076.000000;3.179120
2075.000000;3.344314
2074.000000;4.153893
2073.000000;3.620069
2072.000000;3.579509
2071.000000;4.154436
2070.000000;3.502259
2069.000000;3.308346
2068.000000;3.232830
2067.000000;3.158669
2066.000000;3.072156
2065.000000;3.047902
2064.000000;3.275459
2063.000000;3.645039
2062.000000;3.201013
2061.000000;3.038464
2060.000000;3.038228
2059.000000;3.151509
2058.000000;3.561276
2057.000000;3.887976
2056.000000;3.393372
2055.000000;3.271182
2054.000000;3.234286
2053.000000;3.184796
2052.000000;3.157216
2051.000000;3.231318
2050.000000;3.617340
2049.000000;3.351941
2048.000000;3.140265
2047.000000;3.136493
2046.000000;3.111597
2045.000000;3.131725
2044.000000;3.427971
2043.000000;3.269098
2042.000000;3.105382
2041.000000;3.130707
2040.000000;3.041726
2039.000000;2.934205
2038.000000;2.927099
2037.000000;3.007459
2036.000000;3.399844
2035.000000;3.886898
2034.000000;3.225506
2033.000000;3.277174
2032.000000;3.360917
2031.000000;3.145331
2030.000000;2.962924
2029.000000;2.953163
2028.000000;3.084117
2027.000000;3.155981
2026.000000;3.127422
2025.000000;3.292653
2024.000000;3.382420
2023.000000;3.131442
2022.000000;2.946367
2021.000000;2.816190
2020.000000;2.759018
2019.000000;2.804173
2018.000000;2.963231
2017.000000;3.223099
2016.000000;3.237559
2015.000000;3.089775
2014.000000;3.051430
2013.000000;3.056697
2012.000000;3.102786
2011.000000;3.287084
2010.000000;3.386683
2009.000000;3.144373
2008.000000;3.011014
2007.000000;2.987276
2006.000000;3.085666
2005.000000;3.364557
2004.000000;3.847960
2003.000000;3.458278
2002.000000;3.185054
2001.000000;3.220262
2000.000000;3.585205
1999.000000;3.617008
1998.000000;3.317063
1997.000000;3.138786
1996.000000;2.977596
1995.000000;2.921931
1994.000000;3.011817
1993.000000;3.154139
1992.000000;3.241560
1991.000000;3.493594
1990.000000;3.113183
1989.000000;2.851237
1988.000000;2.815028
1987.000000;2.980524
1986.000000;3.365889
1985.000000;3.798479
1984.000000;3.889247
1983.000000;3.355969
1982.000000;3.247895
1981.000000;3.272934
1980.000000;3.047383
1979.000000;2.841063
1978.000000;2.751049
1977.000000;2.727184
1976.000000;2.760088
1975.000000;2.865838
1974.000000;3.029759
1973.000000;3.466851
1972.000000;3.705639
1971.000000;3.395664
1970.000000;3.880730
1969.000000;3.156190
1968.000000;2.902752
1967.000000;2.976781
1966.000000;3.269151
1965.000000;3.372721
1964.000000;3.230836
1963.000000;3.169647
1962.000000;3.134141
1961.000000;3.149790
1960.000000;3.355470
1959.000000;3.897224
1958.000000;3.480910
1957.000000;3.264885
1956.000000;3.295161
1955.000000;3.448479
1954.000000;3.261644
1953.000000;3.032441
1952.000000;2.925901
1951.000000;2.857320
1950.000000;2.857992
1949.000000;2.960078
1948.000000;3.184252
1947.000000;3.438467
1946.000000;3.505544
1945.000000;3.745481
1944.000000;3.934567
1943.000000;3.679043
1942.000000;3.861254
1941.000000;3.861531
1940.000000;3.648512
1939.000000;3.550086
1938.000000;3.371295
1937.000000;3.186586
1936.000000;3.104006
1935.000000;3.150319
1934.000000;3.458163
1933.000000;3.772554
1932.000000;3.124513
1931.000000;2.958132
1930.000000;2.964607
1929.000000;2.944323
1928.000000;2.844405
1927.000000;2.914198
1926.000000;3.365551
1925.000000;3.160910
1924.000000;2.828973
1923.000000;2.883606
1922.000000;3.150243
1921.000000;3.730862
1920.000000;3.360378
1919.000000;3.046485
1918.000000;2.934148
1917.000000;2.895023
1916.000000;3.037393
1915.000000;3.357189
1914.000000;2.994928
1913.000000;2.792706
1912.000000;2.783026
1911.000000;2.847251
1910.000000;2.858669
1909.000000;2.798369
1908.000000;2.804374
1907.000000;2.943784
1906.000000;3.157208
1905.000000;3.061187
1904.000000;2.912797
1903.000000;2.871525
1902.000000;2.916522
1901.000000;3.036960
1900.000000;3.135088
1899.000000;3.037396
1898.000000;2.876854
1897.000000;2.815359
1896.000000;2.907937
1895.000000;3.471522
1894.000000;3.581175
1893.000000;3.154002
1892.000000;3.129565
1891.000000;3.067676
1890.000000;2.956803
1889.000000;2.845120
1888.000000;2.798003
1887.000000;2.836803
1886.000000;2.903411
1885.000000;2.880825
1884.000000;2.859573
1883.000000;2.930781
1882.000000;3.065804
1881.000000;3.419785
1880.000000;3.491594
1879.000000;2.982765
1878.000000;2.852673
1877.000000;2.849661
1876.000000;2.902889
1875.000000;2.976679
1874.000000;3.086973
1873.000000;3.269695
1872.000000;3.406383
1871.000000;3.445646
1870.000000;3.241520
1869.000000;3.082412
1868.000000;3.397381
1867.000000;3.374203
1866.000000;2.991450
1865.000000;2.948354
1864.000000;3.019821
1863.000000;3.078089
1862.000000;3.090985
1861.000000;3.088028
1860.000000;3.157982
1859.000000;3.590710
1858.000000;3.339754
1857.000000;2.955504
1856.000000;2.911261
1855.000000;3.114472
1854.000000;3.436957
1853.000000;3.444586
1852.000000;3.522449
1851.000000;3.369314
1850.000000;3.182128
1849.000000;3.112922
1848.000000;3.062910
1847.000000;2.991180
1846.000000;2.904448
1845.000000;2.875841
1844.000000;2.922050
1843.000000;2.954985
1842.000000;2.908851
1841.000000;2.869766
1840.000000;2.895077
1839.000000;2.935919
1838.000000;2.935108
1837.000000;2.902630
1836.000000;2.875278
1835.000000;2.908064
1834.000000;3.004898
1833.000000;3.089249
1832.000000;3.068520
1831.000000;3.043079
1830.000000;3.106348
1829.000000;3.385330
1828.000000;4.072853
1827.000000;3.445255
1826.000000;3.142869
1825.000000;2.988031
1824.000000;2.970091
1823.000000;3.153086
1822.000000;3.655271
1821.000000;4.101225
1820.000000;3.528907
1819.000000;3.229034
1818.000000;3.082048
1817.000000;3.066087
1816.000000;3.106798
1815.000000;3.144853
1814.000000;3.154186
1813.000000;3.165918
1812.000000;3.212596
1811.000000;3.220965
1810.000000;3.101387
1809.000000;2.921726
1808.000000;2.795686
1807.000000;2.767989
1806.000000;2.824565
1805.000000;2.897422
1804.000000;2.939374
1803.000000;2.927409
1802.000000;2.852748
1801.000000;2.834488
1800.000000;2.943911
1799.000000;3.162729
1798.000000;3.282638
1797.000000;3.216230
1796.000000;3.212085
1795.000000;3.358285
1794.000000;3.580674
1793.000000;3.380185
1792.000000;3.168430
1791.000000;3.110512
1790.000000;3.124109
1789.000000;3.221011
1788.000000;3.330923
1787.000000;3.476236
1786.000000;3.641372
1785.000000;3.312571
1784.000000;3.104901
1783.000000;3.099189
1782.000000;3.217508
1781.000000;3.373722
1780.000000;3.212331
1779.000000;3.070930
1778.000000;3.159688
1777.000000;3.457542
1776.000000;3.495999
1775.000000;3.200740
1774.000000;3.095060
1773.000000;3.156414
1772.000000;3.158251
1771.000000;3.067568
1770.000000;3.014584
1769.000000;3.027634
1768.000000;3.146333
1767.000000;3.373904
1766.000000;3.573113
1765.000000;3.679489
1764.000000;3.591481
1763.000000;3.466042
1762.000000;3.799991
1761.000000;4.053283
1760.000000;3.634597
1759.000000;3.445399
1758.000000;3.178352
1757.000000;3.046263
1756.000000;3.005139
1755.000000;2.976204
1754.000000;2.954840
1753.000000;2.989270
1752.000000;3.177308
1751.000000;3.194352
1750.000000;3.028359
1749.000000;3.067379
1748.000000;3.239393
1747.000000;3.328567
1746.000000;3.257806
1745.000000;3.210126
1744.000000;3.283534
1743.000000;3.486761
1742.000000;3.820761
1741.000000;3.461578
1740.000000;3.052830
1739.000000;2.886463
1738.000000;2.842490
1737.000000;2.850343
1736.000000;2.902205
1735.000000;3.058567
1734.000000;3.207089
1733.000000;3.120508
1732.000000;3.004172
1731.000000;3.015304
1730.000000;3.206759
1729.000000;3.551002
1728.000000;3.683556
1727.000000;3.462761
1726.000000;3.205002
1725.000000;3.059448
1724.000000;3.116351
1723.000000;3.395942
1722.000000;3.461705
1721.000000;3.534506
1720.000000;3.938932
1719.000000;3.138812
1718.000000;2.860679
1717.000000;2.812251
1716.000000;2.875737
1715.000000;3.058982
1714.000000;3.266555
1713.000000;3.269315
1712.000000;3.034374
1711.000000;2.867054
1710.000000;2.821446
1709.000000;2.865335
1708.000000;2.936657
1707.000000;3.007292
1706.000000;3.042790
1705.000000;3.040530
1704.000000;3.083981
1703.000000;3.175857
1702.000000;3.290073
1701.000000;3.422310
1700.000000;3.590125
1699.000000;3.757465
1698.000000;3.508789
1697.000000;3.295656
1696.000000;3.248870
1695.000000;3.244089
1694.000000;3.097058
1693.000000;2.913358
1692.000000;2.857021
1691.000000;2.942579
1690.000000;3.095886
1689.000000;3.157599
1688.000000;3.123901
1687.000000;3.272819
1686.000000;3.409677
1685.000000;3.095172
1684.000000;3.024093
1683.000000;3.164136
1682.000000;3.672044
1681.000000;3.568012
1680.000000;3.203116
1679.000000;3.229534
1678.000000;3.202790
1677.000000;3.153110
1676.000000;3.107848
1675.000000;3.118549
1674.000000;3.206531
1673.000000;3.288168
1672.000000;3.390056
1671.000000;3.493593
1670.000000;3.933314
1669.000000;3.877841
1668.000000;3.618148
1667.000000;4.035377
1666.000000;3.260685
1665.000000;2.848341
1664.000000;2.689198
1663.000000;2.672858
1662.000000;2.780894
1661.000000;2.976278
1660.000000;3.371119
1659.000000;3.709373
1658.000000;3.478492
1657.000000;3.425432
1656.000000;3.384482
1655.000000;3.209991
1654.000000;3.086432
1653.000000;3.069652
1652.000000;3.085264
1651.000000;3.091732
1650.000000;3.080452
1649.000000;3.130563
1648.000000;3.362110
1647.000000;3.259006
1646.000000;3.193135
1645.000000;3.733669
1644.000000;3.463532
1643.000000;3.270006
1642.000000;3.537282
1641.000000;3.300084
1640.000000;3.115616
1639.000000;3.090278
1638.000000;3.103404
1637.000000;3.231450
1636.000000;3.325706
1635.000000;3.215849
1634.000000;3.119955
1633.000000;3.144198
1632.000000;3.229541
1631.000000;3.168696
1630.000000;3.210618
1629.000000;3.400449
1628.000000;3.207007
1627.000000;3.090249
1626.000000;3.309353
1625.000000;3.561190
1624.000000;3.279783
1623.000000;3.227687
1622.000000;3.462593
1621.000000;3.680366
1620.000000;3.433473
1619.000000;3.021620
1618.000000;2.752709
1617.000000;2.661316
1616.000000;2.706250
1615.000000;2.816509
1614.000000;2.951639
1613.000000;3.040432
1612.000000;3.025156
1611.000000;2.971284
1610.000000;3.043190
1609.000000;3.422393
1608.000000;3.387714
1607.000000;3.045667
1606.000000;2.920622
1605.000000;2.816096
1604.000000;2.812969
1603.000000;2.957278
1602.000000;3.135745
1601.000000;3.161640
1600.000000;3.150553
1599.000000;3.151324
1598.000000;3.168196
1597.000000;3.320743
1596.000000;3.166433
1595.000000;2.862634
1594.000000;2.697028
1593.000000;2.621667
1592.000000;2.616157
1591.000000;2.669534
1590.000000;2.778522
1589.000000;2.929797
1588.000000;3.030820
1587.000000;2.956090
1586.000000;2.829495
1585.000000;2.786192
1584.000000;2.833769
1583.000000;2.881367
1582.000000;2.883918
1581.000000;2.935881
1580.000000;3.109775
1579.000000;3.571410
1578.000000;3.277413
1577.000000;2.911612
1576.000000;2.893094
1575.000000;3.008396
1574.000000;3.213035
1573.000000;3.396167
1572.000000;3.637776
1571.000000;3.550998
1570.000000;3.288206
1569.000000;3.289424
1568.000000;3.440666
1567.000000;3.961611
1566.000000;3.814475
1565.000000;3.420600
1564.000000;3.490652
1563.000000;3.649237
1562.000000;3.577780
1561.000000;3.284442
1560.000000;3.126163
1559.000000;3.165423
1558.000000;3.219234
1557.000000;3.242956
1556.000000;3.357302
1555.000000;3.387869
1554.000000;3.159070
1553.000000;2.997982
1552.000000;2.935669
1551.000000;2.979569
1550.000000;3.184524
1549.000000;3.380732
1548.000000;3.295972
1547.000000;3.255976
1546.000000;3.362995
1545.000000;3.569743
1544.000000;3.962255
1543.000000;4.218799
1542.000000;3.558490
1541.000000;3.286057
1540.000000;3.318394
1539.000000;3.521795
1538.000000;3.576766
1537.000000;3.383952
1536.000000;3.204954
1535.000000;3.132850
1534.000000;3.176736
1533.000000;3.219613
1532.000000;3.150905
1531.000000;3.253228
1530.000000;3.674306
1529.000000;3.320013
1528.000000;3.021354
1527.000000;3.006067
1526.000000;3.166852
1525.000000;3.480251
1524.000000;3.755120
1523.000000;3.579225
1522.000000;3.559915
1521.000000;3.943583
1520.000000;3.553660
1519.000000;3.185461
1518.000000;3.042364
1517.000000;2.992616
1516.000000;3.014685
1515.000000;3.053678
1514.000000;3.059205
1513.000000;3.040756
1512.000000;3.033439
1511.000000;3.055136
1510.000000;3.070777
1509.000000;3.057690
1508.000000;3.130507
1507.000000;3.400692
1506.000000;3.558463
1505.000000;3.200185
1504.000000;2.950881
1503.000000;2.871031
1502.000000;2.926286
1501.000000;3.099216
1500.000000;3.242346
1499.000000;3.227660
1498.000000;3.218747
1497.000000;3.298557
1496.000000;3.290645
1495.000000;3.119542
1494.000000;2.968069
1493.000000;2.901323
1492.000000;2.911724
1491.000000;3.121974
1490.000000;3.376797
1489.000000;3.076298
1488.000000;2.906308
1487.000000;2.914866
1486.000000;3.031410
1485.000000;3.339797
1484.000000;3.679448
1483.000000;3.426648
1482.000000;3.283961
1481.000000;3.345571
1480.000000;3.597027
1479.000000;3.697589
1478.000000;3.438483
1477.000000;3.368735
1476.000000;3.440757
1475.000000;3.495911
1474.000000;3.367632
1473.000000;3.257566
1472.000000;3.216724
1471.000000;3.125687
1470.000000;2.972431
1469.000000;2.884511
1468.000000;2.892810
1467.000000;2.946551
1466.000000;3.100188
1465.000000;3.103679
1464.000000;2.869866
1463.000000;2.759567
1462.000000;2.789619
1461.000000;2.911568
1460.000000;3.097149
1459.000000;3.300010
1458.000000;3.486364
1457.000000;3.971524
1456.000000;3.653365
1455.000000;3.259296
1454.000000;3.278322
1453.000000;3.163627
1452.000000;2.877262
1451.000000;2.762889
1450.000000;2.768246
1449.000000;2.826107
1448.000000;2.896141
1447.000000;2.949548
1446.000000;3.037538
1445.000000;3.207714
1444.000000;3.537092
1443.000000;3.870556
1442.000000;3.438404
1441.000000;3.215644
1440.000000;3.360070
1439.000000;3.858630
1438.000000;3.719839
1437.000000;3.486423
1436.000000;3.320161
1435.000000;3.045100
1434.000000;2.870370
1433.000000;2.783462
1432.000000;2.776826
1431.000000;2.862314
1430.000000;2.997497
1429.000000;3.065009
1428.000000;3.025426
1427.000000;2.956337
1426.000000;2.890428
1425.000000;2.877970
1424.000000;2.959634
1423.000000;3.131437
1422.000000;3.345550
1421.000000;3.516286
1420.000000;3.573099
1419.000000;3.640584
1418.000000;3.825347
1417.000000;3.722898
1416.000000;3.336424
1415.000000;3.099330
1414.000000;3.024127
1413.000000;3.104652
1412.000000;3.447680
1411.000000;3.837838
1410.000000;3.447453
1409.000000;3.265758
1408.000000;3.214431
1407.000000;3.278898
1406.000000;3.503596
1405.000000;3.692255
1404.000000;3.865272
1403.000000;3.544381
1402.000000;3.165084
1401.000000;3.017411
1400.000000;3.008782
1399.000000;3.219850
1398.000000;3.832726
1397.000000;3.500221
1396.000000;3.304657
1395.000000;3.353813
1394.000000;3.425231
1393.000000;3.357110
1392.000000;3.162331
1391.000000;3.080312
1390.000000;3.122494
1389.000000;3.212062
1388.000000;3.266381
1387.000000;3.195271
1386.000000;3.028402
1385.000000;2.897238
1384.000000;2.803504
1383.000000;2.765544
1382.000000;2.821997
1381.000000;2.954962
1380.000000;3.008492
1379.000000;2.917465
1378.000000;2.850019
1377.000000;2.852611
1376.000000;2.876781
1375.000000;2.882354
1374.000000;2.888841
1373.000000;2.934484
1372.000000;3.022765
1371.000000;3.007934
1370.000000;2.884870
1369.000000;2.825551
1368.000000;2.840777
1367.000000;2.891095
1366.000000;2.959906
1365.000000;3.035473
1364.000000;3.055599
1363.000000;2.967878
1362.000000;2.870123
1361.000000;2.865134
1360.000000;2.990062
1359.000000;3.117390
1358.000000;3.088666
1357.000000;3.088401
1356.000000;3.118461
1355.000000;3.100643
1354.000000;3.105438
1353.000000;3.233398
1352.000000;3.446568
1351.000000;3.383372
1350.000000;3.258663
1349.000000;3.389786
1348.000000;3.638204
1347.000000;3.205543
1346.000000;2.961917
1345.000000;2.858652
1344.000000;2.806108
1343.000000;2.785430
1342.000000;2.779011
1341.000000;2.795018
1340.000000;2.845840
1339.000000;2.926137
1338.000000;2.939629
1337.000000;2.900459
1336.000000;2.972745
1335.000000;3.088251
1334.000000;3.032255
1333.000000;2.980311
1332.000000;3.014248
1331.000000;3.075729
1330.000000;3.164051
1329.000000;3.254091
1328.000000;3.263428
1327.000000;3.241464
1326.000000;3.430820
1325.000000;3.808442
1324.000000;3.291960
1323.000000;3.070595
1322.000000;3.061151
1321.000000;3.123238
1320.000000;3.154341
1319.000000;3.070167
1318.000000;2.981435
1317.000000;3.058144
1316.000000;3.472540
1315.000000;3.402307
1314.000000;3.197275
1313.000000;3.445331
1312.000000;4.014071
1311.000000;3.743065
1310.000000;3.388422
1309.000000;3.243968
1308.000000;3.190288
1307.000000;3.115422
1306.000000;3.023582
1305.000000;2.994588
1304.000000;3.067707
1303.000000;3.296844
1302.000000;3.914275
1301.000000;3.595357
1300.000000;3.315732
1299.000000;3.301137
1298.000000;3.209998
1297.000000;3.073446
1296.000000;2.972899
1295.000000;2.938119
1294.000000;2.955410
1293.000000;3.025609
1292.000000;3.106913
1291.000000;3.136475
1290.000000;3.156871
1289.000000;3.148143
1288.000000;3.096491
1287.000000;3.065746
1286.000000;3.255781
1285.000000;3.653906
1284.000000;3.229708
1283.000000;3.022373
1282.000000;2.980895
1281.000000;3.083457
1280.000000;3.068457
1279.000000;2.829548
1278.000000;2.705769
1277.000000;2.696911
1276.000000;2.777129
1275.000000;2.938348
1274.000000;3.151142
1273.000000;3.137568
1272.000000;2.972985
1271.000000;2.900277
1270.000000;2.946815
1269.000000;3.131929
1268.000000;3.357247
1267.000000;3.361535
1266.000000;3.110131
1265.000000;2.895669
1264.000000;2.816024
1263.000000;2.859023
1262.000000;3.160583
1261.000000;3.623989
1260.000000;2.958976
1259.000000;2.794697
1258.000000;2.738375
1257.000000;2.729108
1256.000000;2.747334
1255.000000;2.805374
1254.000000;2.980996
1253.000000;3.273580
1252.000000;3.185666
1251.000000;3.040758
1250.000000;3.115889
1249.000000;3.374094
1248.000000;3.348401
1247.000000;3.047591
1246.000000;2.863989
1245.000000;2.737263
1244.000000;2.676436
1243.000000;2.701226
1242.000000;2.816761
1241.000000;2.987391
1240.000000;3.061632
1239.000000;2.995735
1238.000000;2.966762
1237.000000;3.090280
1236.000000;3.428633
1235.000000;3.539324
1234.000000;3.358124
1233.000000;3.158421
1232.000000;3.029718
1231.000000;3.147591
1230.000000;3.386314
1229.000000;3.147125
1228.000000;3.032870
1227.000000;3.162477
1226.000000;3.412937
1225.000000;3.261447
1224.000000;3.061203
1223.000000;3.034883
1222.000000;3.160909
1221.000000;3.848852
1220.000000;4.091248
1219.000000;3.781324
1218.000000;3.299324
1217.000000;2.996630
1216.000000;2.889874
1215.000000;2.846725
1214.000000;2.876992
1213.000000;2.991653
1212.000000;3.086614
1211.000000;3.015076
1210.000000;2.931869
1209.000000;2.902497
1208.000000;2.914818
1207.000000;2.952824
1206.000000;3.025764
1205.000000;3.205771
1204.000000;3.438451
1203.000000;3.630290
1202.000000;3.822046
1201.000000;3.244028
1200.000000;3.027426
