Criado como novo conjunto de dados;"e0108.spp","-4288125.2 Secs"
cm-1;Abs
10000.000000;0.875520
9999.000000;0.874880
9998.000000;0.874242
9997.000000;0.873604
9996.000000;0.872968
9995.000000;0.872331
9994.000000;0.871698
9993.000000;0.871061
9992.000000;0.870433
9991.000000;0.869792
9990.000000;0.869182
9989.000000;0.868429
9988.000000;0.867468
9987.000000;0.866623
9986.000000;0.866204
9985.000000;0.866226
9984.000000;0.866399
9983.000000;0.866528
9982.000000;0.866600
9981.000000;0.866600
9980.000000;0.866493
9979.000000;0.866404
9978.000000;0.866502
9977.000000;0.866692
9976.000000;0.866692
9975.000000;0.866445
9974.000000;0.866166
9973.000000;0.865939
9972.000000;0.865594
9971.000000;0.865043
9970.000000;0.864439
9969.000000;0.863804
9968.000000;0.862785
9967.000000;0.861096
9966.000000;0.859120
9965.000000;0.857782
9964.000000;0.857764
9963.000000;0.858937
9962.000000;0.860488
9961.000000;0.861506
9960.000000;0.861561
9959.000000;0.860898
9958.000000;0.860173
9957.000000;0.859922
9956.000000;0.860154
9955.000000;0.860403
9954.000000;0.860207
9953.000000;0.859552
9952.000000;0.858825
9951.000000;0.858348
9950.000000;0.858013
9949.000000;0.857422
9948.000000;0.856384
9947.000000;0.855176
9946.000000;0.854280
9945.000000;0.853908
9944.000000;0.853842
9943.000000;0.853697
9942.000000;0.853237
9941.000000;0.852463
9940.000000;0.851531
9939.000000;0.850690
9938.000000;0.850220
9937.000000;0.850273
9936.000000;0.850702
9935.000000;0.851108
9934.000000;0.851076
9933.000000;0.850441
9932.000000;0.849396
9931.000000;0.848430
9930.000000;0.848019
9929.000000;0.848211
9928.000000;0.848466
9927.000000;0.848089
9926.000000;0.846908
9925.000000;0.845478
9924.000000;0.844509
9923.000000;0.844218
9922.000000;0.844293
9921.000000;0.844306
9920.000000;0.844014
9919.000000;0.843411
9918.000000;0.842776
9917.000000;0.842624
9916.000000;0.843260
9915.000000;0.844276
9914.000000;0.844701
9913.000000;0.843876
9912.000000;0.842091
9911.000000;0.840328
9910.000000;0.839471
9909.000000;0.839762
9908.000000;0.840747
9907.000000;0.841591
9906.000000;0.841638
9905.000000;0.840899
9904.000000;0.839928
9903.000000;0.839176
9902.000000;0.838575
9901.000000;0.837870
9900.000000;0.837102
9899.000000;0.836529
9898.000000;0.836200
9897.000000;0.835862
9896.000000;0.835307
9895.000000;0.834640
9894.000000;0.834186
9893.000000;0.834261
9892.000000;0.834950
9891.000000;0.835957
9890.000000;0.836723
9889.000000;0.836865
9888.000000;0.836466
9887.000000;0.835823
9886.000000;0.835011
9885.000000;0.833884
9884.000000;0.832490
9883.000000;0.831248
9882.000000;0.830636
9881.000000;0.830771
9880.000000;0.831300
9879.000000;0.831672
9878.000000;0.831556
9877.000000;0.831072
9876.000000;0.830562
9875.000000;0.830163
9874.000000;0.829786
9873.000000;0.829522
9872.000000;0.829720
9871.000000;0.830421
9870.000000;0.830976
9869.000000;0.830605
9868.000000;0.829259
9867.000000;0.827629
9866.000000;0.826378
9865.000000;0.825662
9864.000000;0.825333
9863.000000;0.825214
9862.000000;0.825145
9861.000000;0.825083
9860.000000;0.825205
9859.000000;0.825628
9858.000000;0.826040
9857.000000;0.826004
9856.000000;0.825651
9855.000000;0.825589
9854.000000;0.825915
9853.000000;0.825823
9852.000000;0.824618
9851.000000;0.822816
9850.000000;0.821715
9849.000000;0.821970
9848.000000;0.822973
9847.000000;0.823592
9846.000000;0.823177
9845.000000;0.821841
9844.000000;0.820156
9843.000000;0.818796
9842.000000;0.818184
9841.000000;0.818182
9840.000000;0.818143
9839.000000;0.817546
9838.000000;0.816636
9837.000000;0.816284
9836.000000;0.817080
9835.000000;0.818633
9834.000000;0.819880
9833.000000;0.819998
9832.000000;0.818928
9831.000000;0.817154
9830.000000;0.815317
9829.000000;0.814063
9828.000000;0.813861
9827.000000;0.814628
9826.000000;0.815693
9825.000000;0.816402
9824.000000;0.816673
9823.000000;0.816685
9822.000000;0.816225
9821.000000;0.814813
9820.000000;0.812548
9819.000000;0.810367
9818.000000;0.809198
9817.000000;0.809150
9816.000000;0.809695
9815.000000;0.810356
9814.000000;0.810914
9813.000000;0.811166
9812.000000;0.810882
9811.000000;0.810073
9810.000000;0.809103
9809.000000;0.808421
9808.000000;0.808262
9807.000000;0.808573
9806.000000;0.809114
9805.000000;0.809584
9804.000000;0.809744
9803.000000;0.809481
9802.000000;0.808816
9801.000000;0.807905
9800.000000;0.806978
9799.000000;0.806167
9798.000000;0.805364
9797.000000;0.804447
9796.000000;0.803684
9795.000000;0.803647
9794.000000;0.804518
9793.000000;0.805620
9792.000000;0.805972
9791.000000;0.805333
9790.000000;0.804428
9789.000000;0.804076
9788.000000;0.804310
9787.000000;0.804503
9786.000000;0.804167
9785.000000;0.803390
9784.000000;0.802495
9783.000000;0.801577
9782.000000;0.800542
9781.000000;0.799451
9780.000000;0.798567
9779.000000;0.798041
9778.000000;0.797751
9777.000000;0.797573
9776.000000;0.797634
9775.000000;0.798093
9774.000000;0.798722
9773.000000;0.798970
9772.000000;0.798538
9771.000000;0.797749
9770.000000;0.797204
9769.000000;0.797129
9768.000000;0.797152
9767.000000;0.796739
9766.000000;0.795785
9765.000000;0.794744
9764.000000;0.794198
9763.000000;0.794378
9762.000000;0.795038
9761.000000;0.795664
9760.000000;0.795745
9759.000000;0.795031
9758.000000;0.793743
9757.000000;0.792488
9756.000000;0.791766
9755.000000;0.791554
9754.000000;0.791495
9753.000000;0.791440
9752.000000;0.791544
9751.000000;0.791821
9750.000000;0.791970
9749.000000;0.791839
9748.000000;0.791695
9747.000000;0.791752
9746.000000;0.791703
9745.000000;0.791119
9744.000000;0.790180
9743.000000;0.789625
9742.000000;0.789997
9741.000000;0.791155
9740.000000;0.792427
9739.000000;0.792980
9738.000000;0.792252
9737.000000;0.790471
9736.000000;0.788666
9735.000000;0.787768
9734.000000;0.787672
9733.000000;0.787550
9732.000000;0.787033
9731.000000;0.786580
9730.000000;0.786617
9729.000000;0.786864
9728.000000;0.786783
9727.000000;0.786268
9726.000000;0.785581
9725.000000;0.784983
9724.000000;0.784706
9723.000000;0.784911
9722.000000;0.785260
9721.000000;0.784869
9720.000000;0.783211
9719.000000;0.780922
9718.000000;0.779294
9717.000000;0.779015
9716.000000;0.779713
9715.000000;0.780594
9714.000000;0.781148
9713.000000;0.781267
9712.000000;0.781124
9711.000000;0.781060
9710.000000;0.781326
9709.000000;0.781757
9708.000000;0.781845
9707.000000;0.781262
9706.000000;0.780174
9705.000000;0.779011
9704.000000;0.778054
9703.000000;0.777330
9702.000000;0.776796
9701.000000;0.776461
9700.000000;0.776320
9699.000000;0.776250
9698.000000;0.776043
9697.000000;0.775633
9696.000000;0.775335
9695.000000;0.775716
9694.000000;0.777046
9693.000000;0.778866
9692.000000;0.780224
9691.000000;0.780376
9690.000000;0.779254
9689.000000;0.777343
9688.000000;0.775218
9687.000000;0.773216
9686.000000;0.771478
9685.000000;0.770172
9684.000000;0.769543
9683.000000;0.769657
9682.000000;0.770203
9681.000000;0.770720
9680.000000;0.771009
9679.000000;0.771123
9678.000000;0.771024
9677.000000;0.770611
9676.000000;0.770102
9675.000000;0.769977
9674.000000;0.770293
9673.000000;0.770416
9672.000000;0.769808
9671.000000;0.768831
9670.000000;0.768299
9669.000000;0.768378
9668.000000;0.768438
9667.000000;0.767996
9666.000000;0.767289
9665.000000;0.766751
9664.000000;0.766378
9663.000000;0.765909
9662.000000;0.765339
9661.000000;0.764905
9660.000000;0.764663
9659.000000;0.764391
9658.000000;0.763921
9657.000000;0.763405
9656.000000;0.763186
9655.000000;0.763439
9654.000000;0.763998
9653.000000;0.764524
9652.000000;0.764830
9651.000000;0.764933
9650.000000;0.764789
9649.000000;0.764205
9648.000000;0.763213
9647.000000;0.762317
9646.000000;0.762016
9645.000000;0.762124
9644.000000;0.761977
9643.000000;0.761370
9642.000000;0.760858
9641.000000;0.760940
9640.000000;0.761325
9639.000000;0.761362
9638.000000;0.760913
9637.000000;0.760433
9636.000000;0.760303
9635.000000;0.760437
9634.000000;0.760475
9633.000000;0.760080
9632.000000;0.759121
9631.000000;0.757873
9630.000000;0.756956
9629.000000;0.756759
9628.000000;0.756924
9627.000000;0.756742
9626.000000;0.756082
9625.000000;0.755507
9624.000000;0.755421
9623.000000;0.755545
9622.000000;0.755481
9621.000000;0.755397
9620.000000;0.755771
9619.000000;0.756675
9618.000000;0.757699
9617.000000;0.758480
9616.000000;0.758918
9615.000000;0.758908
9614.000000;0.758292
9613.000000;0.757169
9612.000000;0.755947
9611.000000;0.754926
9610.000000;0.754046
9609.000000;0.753136
9608.000000;0.752227
9607.000000;0.751489
9606.000000;0.751036
9605.000000;0.750911
9604.000000;0.751099
9603.000000;0.751427
9602.000000;0.751563
9601.000000;0.751304
9600.000000;0.750817
9599.000000;0.750479
9598.000000;0.750503
9597.000000;0.750773
9596.000000;0.750977
9595.000000;0.750829
9594.000000;0.750222
9593.000000;0.749287
9592.000000;0.748276
9591.000000;0.747368
9590.000000;0.746619
9589.000000;0.746100
9588.000000;0.745934
9587.000000;0.746088
9586.000000;0.746268
9585.000000;0.746197
9584.000000;0.745967
9583.000000;0.745943
9582.000000;0.746335
9581.000000;0.746956
9580.000000;0.747414
9579.000000;0.747440
9578.000000;0.747050
9577.000000;0.746466
9576.000000;0.745870
9575.000000;0.745208
9574.000000;0.744282
9573.000000;0.743103
9572.000000;0.742032
9571.000000;0.741395
9570.000000;0.741067
9569.000000;0.740644
9568.000000;0.740039
9567.000000;0.739649
9566.000000;0.739801
9565.000000;0.740248
9564.000000;0.740432
9563.000000;0.740187
9562.000000;0.739915
9561.000000;0.740001
9560.000000;0.740254
9559.000000;0.740082
9558.000000;0.739200
9557.000000;0.738009
9556.000000;0.737226
9555.000000;0.737234
9554.000000;0.737820
9553.000000;0.738480
9552.000000;0.738848
9551.000000;0.738844
9550.000000;0.738596
9549.000000;0.738325
9548.000000;0.738220
9547.000000;0.738271
9546.000000;0.738217
9545.000000;0.737756
9544.000000;0.736852
9543.000000;0.735782
9542.000000;0.734884
9541.000000;0.734284
9540.000000;0.733916
9539.000000;0.733785
9538.000000;0.734096
9537.000000;0.734935
9536.000000;0.735841
9535.000000;0.735985
9534.000000;0.735062
9533.000000;0.733832
9532.000000;0.733414
9531.000000;0.734043
9530.000000;0.734823
9529.000000;0.734774
9528.000000;0.733800
9527.000000;0.732509
9526.000000;0.731468
9525.000000;0.730950
9524.000000;0.731085
9523.000000;0.731722
9522.000000;0.732252
9521.000000;0.732049
9520.000000;0.731220
9519.000000;0.730608
9518.000000;0.730899
9517.000000;0.731888
9516.000000;0.732697
9515.000000;0.732544
9514.000000;0.731311
9513.000000;0.729588
9512.000000;0.728274
9511.000000;0.727960
9510.000000;0.728529
9509.000000;0.729348
9508.000000;0.729848
9507.000000;0.729917
9506.000000;0.729775
9505.000000;0.729593
9504.000000;0.729309
9503.000000;0.728744
9502.000000;0.727895
9501.000000;0.727085
9500.000000;0.726705
9499.000000;0.726738
9498.000000;0.726685
9497.000000;0.726145
9496.000000;0.725359
9495.000000;0.724969
9494.000000;0.725293
9493.000000;0.726003
9492.000000;0.726462
9491.000000;0.726211
9490.000000;0.725237
9489.000000;0.724005
9488.000000;0.723167
9487.000000;0.722965
9486.000000;0.722955
9485.000000;0.722585
9484.000000;0.721969
9483.000000;0.721731
9482.000000;0.722098
9481.000000;0.722582
9480.000000;0.722651
9479.000000;0.722321
9478.000000;0.721901
9477.000000;0.721516
9476.000000;0.721155
9475.000000;0.720885
9474.000000;0.720683
9473.000000;0.720245
9472.000000;0.719292
9471.000000;0.718014
9470.000000;0.716939
9469.000000;0.716401
9468.000000;0.716352
9467.000000;0.716624
9466.000000;0.717175
9465.000000;0.717987
9464.000000;0.718813
9463.000000;0.719160
9462.000000;0.718639
9461.000000;0.717421
9460.000000;0.716248
9459.000000;0.715817
9458.000000;0.716148
9457.000000;0.716718
9456.000000;0.717155
9455.000000;0.717516
9454.000000;0.717826
9453.000000;0.717758
9452.000000;0.717062
9451.000000;0.716066
9450.000000;0.715406
9449.000000;0.715316
9448.000000;0.715464
9447.000000;0.715454
9446.000000;0.715279
9445.000000;0.715220
9444.000000;0.715447
9443.000000;0.715753
9442.000000;0.715653
9441.000000;0.714797
9440.000000;0.713373
9439.000000;0.712067
9438.000000;0.711538
9437.000000;0.711916
9436.000000;0.712781
9435.000000;0.713519
9434.000000;0.713697
9433.000000;0.713267
9432.000000;0.712550
9431.000000;0.711945
9430.000000;0.711566
9429.000000;0.711226
9428.000000;0.710798
9427.000000;0.710425
9426.000000;0.710311
9425.000000;0.710413
9424.000000;0.710474
9423.000000;0.710278
9422.000000;0.709801
9421.000000;0.709252
9420.000000;0.708979
9419.000000;0.709217
9418.000000;0.709830
9417.000000;0.710446
9416.000000;0.710853
9415.000000;0.711047
9414.000000;0.710911
9413.000000;0.710224
9412.000000;0.709164
9411.000000;0.708388
9410.000000;0.708268
9409.000000;0.708324
9408.000000;0.707833
9407.000000;0.706839
9406.000000;0.706102
9405.000000;0.706083
9404.000000;0.706463
9403.000000;0.706731
9402.000000;0.706814
9401.000000;0.706906
9400.000000;0.706968
9399.000000;0.706698
9398.000000;0.705921
9397.000000;0.704812
9396.000000;0.703753
9395.000000;0.703061
9394.000000;0.702848
9393.000000;0.703045
9392.000000;0.703501
9391.000000;0.704001
9390.000000;0.704252
9389.000000;0.704010
9388.000000;0.703339
9387.000000;0.702635
9386.000000;0.702237
9385.000000;0.702095
9384.000000;0.701930
9383.000000;0.701629
9382.000000;0.701328
9381.000000;0.701171
9380.000000;0.701154
9379.000000;0.701144
9378.000000;0.700924
9377.000000;0.700319
9376.000000;0.699475
9375.000000;0.698922
9374.000000;0.699138
9373.000000;0.700046
9372.000000;0.701121
9371.000000;0.701937
9370.000000;0.702407
9369.000000;0.702535
9368.000000;0.702244
9367.000000;0.701512
9366.000000;0.700470
9365.000000;0.699296
9364.000000;0.698169
9363.000000;0.697344
9362.000000;0.697051
9361.000000;0.697264
9360.000000;0.697717
9359.000000;0.698168
9358.000000;0.698460
9357.000000;0.698390
9356.000000;0.697808
9355.000000;0.696928
9354.000000;0.696232
9353.000000;0.695922
9352.000000;0.695734
9351.000000;0.695423
9350.000000;0.695128
9349.000000;0.695029
9348.000000;0.694920
9347.000000;0.694504
9346.000000;0.693944
9345.000000;0.693754
9344.000000;0.694112
9343.000000;0.694635
9342.000000;0.694915
9341.000000;0.695029
9340.000000;0.695337
9339.000000;0.695903
9338.000000;0.696289
9337.000000;0.695944
9336.000000;0.694786
9335.000000;0.693380
9334.000000;0.692504
9333.000000;0.692450
9332.000000;0.692777
9331.000000;0.692821
9330.000000;0.692411
9329.000000;0.691978
9328.000000;0.691961
9327.000000;0.692309
9326.000000;0.692624
9325.000000;0.692650
9324.000000;0.692480
9323.000000;0.692333
9322.000000;0.692276
9321.000000;0.692201
9320.000000;0.691982
9319.000000;0.691607
9318.000000;0.691157
9317.000000;0.690716
9316.000000;0.690303
9315.000000;0.689890
9314.000000;0.689454
9313.000000;0.689008
9312.000000;0.688600
9311.000000;0.688296
9310.000000;0.688110
9309.000000;0.687940
9308.000000;0.687619
9307.000000;0.687125
9306.000000;0.686712
9305.000000;0.686698
9304.000000;0.687087
9303.000000;0.687533
9302.000000;0.687765
9301.000000;0.687917
9300.000000;0.688277
9299.000000;0.688800
9298.000000;0.689078
9297.000000;0.688859
9296.000000;0.688396
9295.000000;0.688127
9294.000000;0.688109
9293.000000;0.687950
9292.000000;0.687333
9291.000000;0.686473
9290.000000;0.685957
9289.000000;0.686135
9288.000000;0.686733
9287.000000;0.687111
9286.000000;0.686898
9285.000000;0.686288
9284.000000;0.685702
9283.000000;0.685320
9282.000000;0.685080
9281.000000;0.684989
9280.000000;0.685135
9279.000000;0.685378
9278.000000;0.685365
9277.000000;0.684999
9276.000000;0.684637
9275.000000;0.684601
9274.000000;0.684759
9273.000000;0.684805
9272.000000;0.684718
9271.000000;0.684584
9270.000000;0.684205
9269.000000;0.683388
9268.000000;0.682544
9267.000000;0.682405
9266.000000;0.683004
9265.000000;0.683451
9264.000000;0.683004
9263.000000;0.681982
9262.000000;0.681260
9261.000000;0.681198
9260.000000;0.681453
9259.000000;0.681636
9258.000000;0.681683
9257.000000;0.681626
9256.000000;0.681411
9255.000000;0.681047
9254.000000;0.680700
9253.000000;0.680516
9252.000000;0.680506
9251.000000;0.680581
9250.000000;0.680577
9249.000000;0.680256
9248.000000;0.679484
9247.000000;0.678441
9246.000000;0.677510
9245.000000;0.676930
9244.000000;0.676673
9243.000000;0.676664
9242.000000;0.676952
9241.000000;0.677586
9240.000000;0.678435
9239.000000;0.679200
9238.000000;0.679580
9237.000000;0.679462
9236.000000;0.678983
9235.000000;0.678407
9234.000000;0.677918
9233.000000;0.677562
9232.000000;0.677357
9231.000000;0.677350
9230.000000;0.677489
9229.000000;0.677589
9228.000000;0.677510
9227.000000;0.677271
9226.000000;0.676902
9225.000000;0.676350
9224.000000;0.675692
9223.000000;0.675295
9222.000000;0.675502
9221.000000;0.676168
9220.000000;0.676714
9219.000000;0.676684
9218.000000;0.676098
9217.000000;0.675282
9216.000000;0.674547
9215.000000;0.674068
9214.000000;0.673912
9213.000000;0.674058
9212.000000;0.674383
9211.000000;0.674669
9210.000000;0.674671
9209.000000;0.674300
9208.000000;0.673816
9207.000000;0.673690
9206.000000;0.674105
9205.000000;0.674680
9204.000000;0.674837
9203.000000;0.674394
9202.000000;0.673635
9201.000000;0.672912
9200.000000;0.672410
9199.000000;0.672225
9198.000000;0.672385
9197.000000;0.672730
9196.000000;0.672965
9195.000000;0.672919
9194.000000;0.672639
9193.000000;0.672207
9192.000000;0.671682
9191.000000;0.671225
9190.000000;0.671070
9189.000000;0.671261
9188.000000;0.671557
9187.000000;0.671691
9186.000000;0.671614
9185.000000;0.671412
9184.000000;0.671153
9183.000000;0.670901
9182.000000;0.670753
9181.000000;0.670730
9180.000000;0.670717
9179.000000;0.670616
9178.000000;0.670494
9177.000000;0.670499
9176.000000;0.670644
9175.000000;0.670757
9174.000000;0.670624
9173.000000;0.670185
9172.000000;0.669599
9171.000000;0.669111
9170.000000;0.668811
9169.000000;0.668567
9168.000000;0.668262
9167.000000;0.668031
9166.000000;0.668133
9165.000000;0.668605
9164.000000;0.669189
9163.000000;0.669603
9162.000000;0.669742
9161.000000;0.669635
9160.000000;0.669361
9159.000000;0.669075
9158.000000;0.668946
9157.000000;0.668976
9156.000000;0.668924
9155.000000;0.668497
9154.000000;0.667619
9153.000000;0.666583
9152.000000;0.665967
9151.000000;0.666237
9150.000000;0.667251
9149.000000;0.668211
9148.000000;0.668315
9147.000000;0.667482
9146.000000;0.666312
9145.000000;0.665416
9144.000000;0.665009
9143.000000;0.665019
9142.000000;0.665229
9141.000000;0.665270
9140.000000;0.664899
9139.000000;0.664424
9138.000000;0.664516
9137.000000;0.665381
9136.000000;0.666377
9135.000000;0.666705
9134.000000;0.666288
9133.000000;0.665691
9132.000000;0.665398
9131.000000;0.665434
9130.000000;0.665571
9129.000000;0.665551
9128.000000;0.665158
9127.000000;0.664404
9126.000000;0.663694
9125.000000;0.663530
9124.000000;0.663964
9123.000000;0.664464
9122.000000;0.664417
9121.000000;0.663701
9120.000000;0.662752
9119.000000;0.662173
9118.000000;0.662292
9117.000000;0.662996
9116.000000;0.663886
9115.000000;0.664559
9114.000000;0.664752
9113.000000;0.664340
9112.000000;0.663409
9111.000000;0.662362
9110.000000;0.661727
9109.000000;0.661677
9108.000000;0.661847
9107.000000;0.661761
9106.000000;0.661351
9105.000000;0.660937
9104.000000;0.660827
9103.000000;0.661124
9102.000000;0.661779
9101.000000;0.662576
9100.000000;0.663119
9099.000000;0.663099
9098.000000;0.662623
9097.000000;0.662103
9096.000000;0.661813
9095.000000;0.661725
9094.000000;0.661740
9093.000000;0.661816
9092.000000;0.661809
9091.000000;0.661466
9090.000000;0.660738
9089.000000;0.659950
9088.000000;0.659515
9087.000000;0.659583
9086.000000;0.660033
9085.000000;0.660649
9084.000000;0.661130
9083.000000;0.661141
9082.000000;0.660614
9081.000000;0.659986
9080.000000;0.659867
9079.000000;0.660413
9078.000000;0.661185
9077.000000;0.661674
9076.000000;0.661761
9075.000000;0.661575
9074.000000;0.661111
9073.000000;0.660285
9072.000000;0.659263
9071.000000;0.658471
9070.000000;0.658209
9069.000000;0.658417
9068.000000;0.658888
9067.000000;0.659521
9066.000000;0.660226
9065.000000;0.660750
9064.000000;0.660819
9063.000000;0.660451
9062.000000;0.659927
9061.000000;0.659443
9060.000000;0.658958
9059.000000;0.658440
9058.000000;0.658082
9057.000000;0.658147
9056.000000;0.658628
9055.000000;0.659155
9054.000000;0.659248
9053.000000;0.658701
9052.000000;0.657789
9051.000000;0.657092
9050.000000;0.656985
9049.000000;0.657290
9048.000000;0.657508
9047.000000;0.657392
9046.000000;0.657163
9045.000000;0.657133
9044.000000;0.657275
9043.000000;0.657268
9042.000000;0.656899
9041.000000;0.656311
9040.000000;0.655899
9039.000000;0.655968
9038.000000;0.656455
9037.000000;0.656947
9036.000000;0.657065
9035.000000;0.656829
9034.000000;0.656549
9033.000000;0.656397
9032.000000;0.656270
9031.000000;0.656095
9030.000000;0.656022
9029.000000;0.656189
9028.000000;0.656470
9027.000000;0.656624
9026.000000;0.656551
9025.000000;0.656275
9024.000000;0.655841
9023.000000;0.655399
9022.000000;0.655221
9021.000000;0.655353
9020.000000;0.655383
9019.000000;0.654824
9018.000000;0.653772
9017.000000;0.652918
9016.000000;0.652848
9015.000000;0.653504
9014.000000;0.654359
9013.000000;0.654935
9012.000000;0.655079
9011.000000;0.654889
9010.000000;0.654530
9009.000000;0.654110
9008.000000;0.653665
9007.000000;0.653253
9006.000000;0.653010
9005.000000;0.653101
9004.000000;0.653627
9003.000000;0.654565
9002.000000;0.655675
9001.000000;0.656413
9000.000000;0.656190
8999.000000;0.654940
8998.000000;0.653371
8997.000000;0.652413
8996.000000;0.652398
8995.000000;0.652898
8994.000000;0.653323
8993.000000;0.653479
8992.000000;0.653524
8991.000000;0.653650
8990.000000;0.653889
8989.000000;0.654089
8988.000000;0.654017
8987.000000;0.653567
8986.000000;0.652926
8985.000000;0.652398
8984.000000;0.652087
8983.000000;0.651897
8982.000000;0.651820
8981.000000;0.651996
8980.000000;0.652418
8979.000000;0.652812
8978.000000;0.652941
8977.000000;0.652872
8976.000000;0.652818
8975.000000;0.652885
8974.000000;0.653102
8973.000000;0.653536
8972.000000;0.654190
8971.000000;0.654862
8970.000000;0.655286
8969.000000;0.655348
8968.000000;0.655056
8967.000000;0.654391
8966.000000;0.653374
8965.000000;0.652247
8964.000000;0.651409
8963.000000;0.651133
8962.000000;0.651391
8961.000000;0.651913
8960.000000;0.652331
8959.000000;0.652366
8958.000000;0.652074
8957.000000;0.651854
8956.000000;0.652050
8955.000000;0.652531
8954.000000;0.652791
8953.000000;0.652491
8952.000000;0.651765
8951.000000;0.651011
8950.000000;0.650536
8949.000000;0.650441
8948.000000;0.650688
8947.000000;0.651119
8946.000000;0.651482
8945.000000;0.651548
8944.000000;0.651258
8943.000000;0.650763
8942.000000;0.650381
8941.000000;0.650429
8940.000000;0.650952
8939.000000;0.651573
8938.000000;0.651801
8937.000000;0.651556
8936.000000;0.651276
8935.000000;0.651407
8934.000000;0.651902
8933.000000;0.652364
8932.000000;0.652527
8931.000000;0.652407
8930.000000;0.652055
8929.000000;0.651475
8928.000000;0.650831
8927.000000;0.650463
8926.000000;0.650524
8925.000000;0.650736
8924.000000;0.650680
8923.000000;0.650289
8922.000000;0.649895
8921.000000;0.649817
8920.000000;0.650039
8919.000000;0.650301
8918.000000;0.650382
8917.000000;0.650258
8916.000000;0.650041
8915.000000;0.649851
8914.000000;0.649727
8913.000000;0.649640
8912.000000;0.649598
8911.000000;0.649667
8910.000000;0.649854
8909.000000;0.650004
8908.000000;0.649932
8907.000000;0.649645
8906.000000;0.649343
8905.000000;0.649161
8904.000000;0.649038
8903.000000;0.648877
8902.000000;0.648755
8901.000000;0.648871
8900.000000;0.649327
8899.000000;0.650037
8898.000000;0.650821
8897.000000;0.651496
8896.000000;0.651899
8895.000000;0.651921
8894.000000;0.651604
8893.000000;0.651166
8892.000000;0.650878
8891.000000;0.650878
8890.000000;0.651080
8889.000000;0.651240
8888.000000;0.651127
8887.000000;0.650706
8886.000000;0.650166
8885.000000;0.649794
8884.000000;0.649763
8883.000000;0.650006
8882.000000;0.650276
8881.000000;0.650354
8880.000000;0.650218
8879.000000;0.650005
8878.000000;0.649828
8877.000000;0.649695
8876.000000;0.649651
8875.000000;0.649860
8874.000000;0.650390
8873.000000;0.650949
8872.000000;0.651090
8871.000000;0.650740
8870.000000;0.650297
8869.000000;0.650090
8868.000000;0.649938
8867.000000;0.649509
8866.000000;0.648944
8865.000000;0.648797
8864.000000;0.649328
8863.000000;0.650141
8862.000000;0.650654
8861.000000;0.650702
8860.000000;0.650553
8859.000000;0.650480
8858.000000;0.650518
8857.000000;0.650560
8856.000000;0.650516
8855.000000;0.650377
8854.000000;0.650238
8853.000000;0.650250
8852.000000;0.650446
8851.000000;0.650638
8850.000000;0.650555
8849.000000;0.650081
8848.000000;0.649307
8847.000000;0.648447
8846.000000;0.647813
8845.000000;0.647792
8844.000000;0.648587
8843.000000;0.649905
8842.000000;0.651081
8841.000000;0.651648
8840.000000;0.651739
8839.000000;0.651807
8838.000000;0.652055
8837.000000;0.652271
8836.000000;0.652175
8835.000000;0.651760
8834.000000;0.651268
8833.000000;0.650929
8832.000000;0.650803
8831.000000;0.650826
8830.000000;0.650928
8829.000000;0.651079
8828.000000;0.651248
8827.000000;0.651371
8826.000000;0.651399
8825.000000;0.651389
8824.000000;0.651489
8823.000000;0.651764
8822.000000;0.652104
8821.000000;0.652339
8820.000000;0.652429
8819.000000;0.652437
8818.000000;0.652388
8817.000000;0.652291
8816.000000;0.652296
8815.000000;0.652621
8814.000000;0.653232
8813.000000;0.653751
8812.000000;0.653831
8811.000000;0.653561
8810.000000;0.653345
8809.000000;0.653465
8808.000000;0.653904
8807.000000;0.654529
8806.000000;0.655210
8805.000000;0.655726
8804.000000;0.655786
8803.000000;0.655323
8802.000000;0.654700
8801.000000;0.654442
8800.000000;0.654731
8799.000000;0.655242
8798.000000;0.655527
8797.000000;0.655505
8796.000000;0.655501
8795.000000;0.655813
8794.000000;0.656319
8793.000000;0.656618
8792.000000;0.656521
8791.000000;0.656277
8790.000000;0.656239
8789.000000;0.656445
8788.000000;0.656660
8787.000000;0.656764
8786.000000;0.656907
8785.000000;0.657256
8784.000000;0.657725
8783.000000;0.658034
8782.000000;0.657985
8781.000000;0.657652
8780.000000;0.657344
8779.000000;0.657366
8778.000000;0.657695
8777.000000;0.657945
8776.000000;0.657760
8775.000000;0.657275
8774.000000;0.657029
8773.000000;0.657381
8772.000000;0.658136
8771.000000;0.658813
8770.000000;0.659146
8769.000000;0.659218
8768.000000;0.659234
8767.000000;0.659343
8766.000000;0.659614
8765.000000;0.660028
8764.000000;0.660434
8763.000000;0.660614
8762.000000;0.660442
8761.000000;0.660012
8760.000000;0.659622
8759.000000;0.659621
8758.000000;0.660166
8757.000000;0.661065
8756.000000;0.661926
8755.000000;0.662502
8754.000000;0.662839
8753.000000;0.663085
8752.000000;0.663295
8751.000000;0.663476
8750.000000;0.663677
8749.000000;0.663905
8748.000000;0.664068
8747.000000;0.664126
8746.000000;0.664208
8745.000000;0.664422
8744.000000;0.664630
8743.000000;0.664615
8742.000000;0.664441
8741.000000;0.664440
8740.000000;0.664795
8739.000000;0.665319
8738.000000;0.665716
8737.000000;0.665924
8736.000000;0.666118
8735.000000;0.666461
8734.000000;0.666929
8733.000000;0.667326
8732.000000;0.667409
8731.000000;0.667107
8730.000000;0.666652
8729.000000;0.666456
8728.000000;0.666754
8727.000000;0.667399
8726.000000;0.668044
8725.000000;0.668493
8724.000000;0.668807
8723.000000;0.669131
8722.000000;0.669515
8721.000000;0.669903
8720.000000;0.670201
8719.000000;0.670329
8718.000000;0.670272
8717.000000;0.670196
8716.000000;0.670445
8715.000000;0.671267
8714.000000;0.672466
8713.000000;0.673452
8712.000000;0.673762
8711.000000;0.673493
8710.000000;0.673081
8709.000000;0.672724
8708.000000;0.672279
8707.000000;0.671723
8706.000000;0.671428
8705.000000;0.671727
8704.000000;0.672383
8703.000000;0.672775
8702.000000;0.672618
8701.000000;0.672259
8700.000000;0.672226
8699.000000;0.672670
8698.000000;0.673344
8697.000000;0.673952
8696.000000;0.674387
8695.000000;0.674706
8694.000000;0.675014
8693.000000;0.675391
8692.000000;0.675827
8691.000000;0.676224
8690.000000;0.676481
8689.000000;0.676617
8688.000000;0.676763
8687.000000;0.677008
8686.000000;0.677262
8685.000000;0.677317
8684.000000;0.677092
8683.000000;0.676794
8682.000000;0.676759
8681.000000;0.677132
8680.000000;0.677723
8679.000000;0.678199
8678.000000;0.678366
8677.000000;0.678252
8676.000000;0.678017
8675.000000;0.677857
8674.000000;0.677909
8673.000000;0.678147
8672.000000;0.678390
8671.000000;0.678478
8670.000000;0.678455
8669.000000;0.678538
8668.000000;0.678904
8667.000000;0.679513
8666.000000;0.680105
8665.000000;0.680355
8664.000000;0.680133
8663.000000;0.679620
8662.000000;0.679126
8661.000000;0.678775
8660.000000;0.678500
8659.000000;0.678342
8658.000000;0.678537
8657.000000;0.679166
8656.000000;0.679868
8655.000000;0.680140
8654.000000;0.679851
8653.000000;0.679320
8652.000000;0.678935
8651.000000;0.678876
8650.000000;0.679144
8649.000000;0.679647
8648.000000;0.680207
8647.000000;0.680659
8646.000000;0.680963
8645.000000;0.681115
8644.000000;0.681025
8643.000000;0.680681
8642.000000;0.680386
8641.000000;0.680551
8640.000000;0.681187
8639.000000;0.681831
8638.000000;0.682056
8637.000000;0.681864
8636.000000;0.681480
8635.000000;0.681023
8634.000000;0.680577
8633.000000;0.680371
8632.000000;0.680626
8631.000000;0.681249
8630.000000;0.681863
8629.000000;0.682161
8628.000000;0.682127
8627.000000;0.681960
8626.000000;0.681866
8625.000000;0.681893
8624.000000;0.681887
8623.000000;0.681657
8622.000000;0.681254
8621.000000;0.680994
8620.000000;0.681102
8619.000000;0.681415
8618.000000;0.681591
8617.000000;0.681524
8616.000000;0.681422
8615.000000;0.681484
8614.000000;0.681706
8613.000000;0.681998
8612.000000;0.682332
8611.000000;0.682677
8610.000000;0.682905
8609.000000;0.682874
8608.000000;0.682609
8607.000000;0.682321
8606.000000;0.682259
8605.000000;0.682519
8604.000000;0.682990
8603.000000;0.683475
8602.000000;0.683884
8601.000000;0.684271
8600.000000;0.684659
8599.000000;0.684904
8598.000000;0.684820
8597.000000;0.684443
8596.000000;0.684040
8595.000000;0.683810
8594.000000;0.683670
8593.000000;0.683425
8592.000000;0.683096
8591.000000;0.682950
8590.000000;0.683180
8589.000000;0.683634
8588.000000;0.683990
8587.000000;0.684140
8586.000000;0.684287
8585.000000;0.684617
8584.000000;0.684989
8583.000000;0.685058
8582.000000;0.684684
8581.000000;0.684103
8580.000000;0.683670
8579.000000;0.683535
8578.000000;0.683610
8577.000000;0.683733
8576.000000;0.683801
8575.000000;0.683788
8574.000000;0.683747
8573.000000;0.683768
8572.000000;0.683873
8571.000000;0.683931
8570.000000;0.683763
8569.000000;0.683369
8568.000000;0.683025
8567.000000;0.683079
8566.000000;0.683598
8565.000000;0.684257
8564.000000;0.684656
8563.000000;0.684736
8562.000000;0.684784
8561.000000;0.684978
8560.000000;0.685086
8559.000000;0.684778
8558.000000;0.684115
8557.000000;0.683507
8556.000000;0.683191
8555.000000;0.683018
8554.000000;0.682835
8553.000000;0.682807
8552.000000;0.683148
8551.000000;0.683695
8550.000000;0.684014
8549.000000;0.683908
8548.000000;0.683608
8547.000000;0.683448
8546.000000;0.683543
8545.000000;0.683805
8544.000000;0.684113
8543.000000;0.684365
8542.000000;0.684488
8541.000000;0.684490
8540.000000;0.684450
8539.000000;0.684392
8538.000000;0.684225
8537.000000;0.683879
8536.000000;0.683446
8535.000000;0.683147
8534.000000;0.683157
8533.000000;0.683485
8532.000000;0.683966
8531.000000;0.684338
8530.000000;0.684377
8529.000000;0.684059
8528.000000;0.683561
8527.000000;0.683099
8526.000000;0.682781
8525.000000;0.682661
8524.000000;0.682852
8523.000000;0.683437
8522.000000;0.684240
8521.000000;0.684826
8520.000000;0.684870
8519.000000;0.684508
8518.000000;0.684215
8517.000000;0.684293
8516.000000;0.684598
8515.000000;0.684821
8514.000000;0.684910
8513.000000;0.685036
8512.000000;0.685209
8511.000000;0.685165
8510.000000;0.684734
8509.000000;0.684174
8508.000000;0.683965
8507.000000;0.684317
8506.000000;0.685030
8505.000000;0.685755
8504.000000;0.686252
8503.000000;0.686379
8502.000000;0.686067
8501.000000;0.685426
8500.000000;0.684790
8499.000000;0.684505
8498.000000;0.684676
8497.000000;0.685185
8496.000000;0.685881
8495.000000;0.686632
8494.000000;0.687218
8493.000000;0.687342
8492.000000;0.686851
8491.000000;0.685911
8490.000000;0.684902
8489.000000;0.684147
8488.000000;0.683771
8487.000000;0.683764
8486.000000;0.684086
8485.000000;0.684653
8484.000000;0.685278
8483.000000;0.685708
8482.000000;0.685750
8481.000000;0.685391
8480.000000;0.684791
8479.000000;0.684194
8478.000000;0.683831
8477.000000;0.683845
8476.000000;0.684230
8475.000000;0.684833
8474.000000;0.685446
8473.000000;0.685908
8472.000000;0.686146
8471.000000;0.686133
8470.000000;0.685896
8469.000000;0.685569
8468.000000;0.685355
8467.000000;0.685353
8466.000000;0.685486
8465.000000;0.685656
8464.000000;0.685928
8463.000000;0.686423
8462.000000;0.687022
8461.000000;0.687337
8460.000000;0.687097
8459.000000;0.686481
8458.000000;0.685945
8457.000000;0.685735
8456.000000;0.685728
8455.000000;0.685710
8454.000000;0.685670
8453.000000;0.685736
8452.000000;0.685984
8451.000000;0.686404
8450.000000;0.686972
8449.000000;0.687604
8448.000000;0.688077
8447.000000;0.688145
8446.000000;0.687787
8445.000000;0.687250
8444.000000;0.686831
8443.000000;0.686671
8442.000000;0.686763
8441.000000;0.687035
8440.000000;0.687347
8439.000000;0.687499
8438.000000;0.687383
8437.000000;0.687124
8436.000000;0.686974
8435.000000;0.687032
8434.000000;0.687134
8433.000000;0.687058
8432.000000;0.686793
8431.000000;0.686533
8430.000000;0.686466
8429.000000;0.686623
8428.000000;0.686932
8427.000000;0.687297
8426.000000;0.687616
8425.000000;0.687801
8424.000000;0.687873
8423.000000;0.687987
8422.000000;0.688255
8421.000000;0.688568
8420.000000;0.688703
8419.000000;0.688607
8418.000000;0.688481
8417.000000;0.688523
8416.000000;0.688672
8415.000000;0.688709
8414.000000;0.688530
8413.000000;0.688244
8412.000000;0.688016
8411.000000;0.687953
8410.000000;0.688098
8409.000000;0.688425
8408.000000;0.688768
8407.000000;0.688865
8406.000000;0.688577
8405.000000;0.688069
8404.000000;0.687696
8403.000000;0.687695
8402.000000;0.687990
8401.000000;0.688299
8400.000000;0.688405
8399.000000;0.688333
8398.000000;0.688280
8397.000000;0.688399
8396.000000;0.688655
8395.000000;0.688906
8394.000000;0.689072
8393.000000;0.689172
8392.000000;0.689257
8391.000000;0.689362
8390.000000;0.689527
8389.000000;0.689757
8388.000000;0.689937
8387.000000;0.689899
8386.000000;0.689618
8385.000000;0.689287
8384.000000;0.689090
8383.000000;0.688989
8382.000000;0.688831
8381.000000;0.688622
8380.000000;0.688543
8379.000000;0.688677
8378.000000;0.688877
8377.000000;0.688982
8376.000000;0.689047
8375.000000;0.689252
8374.000000;0.689630
8373.000000;0.690006
8372.000000;0.690181
8371.000000;0.690106
8370.000000;0.689873
8369.000000;0.689616
8368.000000;0.689447
8367.000000;0.689422
8366.000000;0.689515
8365.000000;0.689670
8364.000000;0.689872
8363.000000;0.690152
8362.000000;0.690493
8361.000000;0.690796
8360.000000;0.690960
8359.000000;0.690969
8358.000000;0.690898
8357.000000;0.690844
8356.000000;0.690866
8355.000000;0.690933
8354.000000;0.690930
8353.000000;0.690779
8352.000000;0.690578
8351.000000;0.690553
8350.000000;0.690808
8349.000000;0.691166
8348.000000;0.691338
8347.000000;0.691196
8346.000000;0.690819
8345.000000;0.690341
8344.000000;0.689847
8343.000000;0.689419
8342.000000;0.689148
8341.000000;0.689077
8340.000000;0.689178
8339.000000;0.689424
8338.000000;0.689827
8337.000000;0.690364
8336.000000;0.690909
8335.000000;0.691277
8334.000000;0.691313
8333.000000;0.690993
8332.000000;0.690464
8331.000000;0.690001
8330.000000;0.689817
8329.000000;0.689889
8328.000000;0.690019
8327.000000;0.690077
8326.000000;0.690142
8325.000000;0.690385
8324.000000;0.690853
8323.000000;0.691390
8322.000000;0.691758
8321.000000;0.691834
8320.000000;0.691730
8319.000000;0.691685
8318.000000;0.691781
8317.000000;0.691828
8316.000000;0.691626
8315.000000;0.691313
8314.000000;0.691249
8313.000000;0.691547
8312.000000;0.691896
8311.000000;0.691973
8310.000000;0.691828
8309.000000;0.691710
8308.000000;0.691652
8307.000000;0.691466
8306.000000;0.691122
8305.000000;0.690892
8304.000000;0.691045
8303.000000;0.691535
8302.000000;0.692064
8301.000000;0.692373
8300.000000;0.692395
8299.000000;0.692216
8298.000000;0.691960
8297.000000;0.691710
8296.000000;0.691512
8295.000000;0.691432
8294.000000;0.691546
8293.000000;0.691834
8292.000000;0.692141
8291.000000;0.692323
8290.000000;0.692391
8289.000000;0.692433
8288.000000;0.692433
8287.000000;0.692336
8286.000000;0.692248
8285.000000;0.692399
8284.000000;0.692812
8283.000000;0.693165
8282.000000;0.693119
8281.000000;0.692710
8280.000000;0.692289
8279.000000;0.692134
8278.000000;0.692241
8277.000000;0.692439
8276.000000;0.692589
8275.000000;0.692642
8274.000000;0.692643
8273.000000;0.692714
8272.000000;0.692967
8271.000000;0.693352
8270.000000;0.693632
8269.000000;0.693596
8268.000000;0.693282
8267.000000;0.692959
8266.000000;0.692867
8265.000000;0.692985
8264.000000;0.693076
8263.000000;0.692962
8262.000000;0.692750
8261.000000;0.692735
8260.000000;0.693064
8259.000000;0.693531
8258.000000;0.693772
8257.000000;0.693648
8256.000000;0.693362
8255.000000;0.693174
8254.000000;0.693092
8253.000000;0.692957
8252.000000;0.692740
8251.000000;0.692611
8250.000000;0.692664
8249.000000;0.692749
8248.000000;0.692687
8247.000000;0.692560
8246.000000;0.692638
8245.000000;0.693035
8244.000000;0.693563
8243.000000;0.693959
8242.000000;0.694153
8241.000000;0.694277
8240.000000;0.694480
8239.000000;0.694778
8238.000000;0.695042
8237.000000;0.695109
8236.000000;0.694955
8235.000000;0.694759
8234.000000;0.694718
8233.000000;0.694788
8232.000000;0.694724
8231.000000;0.694429
8230.000000;0.694129
8229.000000;0.694126
8228.000000;0.694460
8227.000000;0.694924
8226.000000;0.695318
8225.000000;0.695548
8224.000000;0.695533
8223.000000;0.695237
8222.000000;0.694819
8221.000000;0.694611
8220.000000;0.694810
8219.000000;0.695268
8218.000000;0.695630
8217.000000;0.695665
8216.000000;0.695418
8215.000000;0.695117
8214.000000;0.694978
8213.000000;0.695063
8212.000000;0.695247
8211.000000;0.695333
8210.000000;0.695222
8209.000000;0.694972
8208.000000;0.694713
8207.000000;0.694542
8206.000000;0.694524
8205.000000;0.694712
8204.000000;0.695130
8203.000000;0.695700
8202.000000;0.696234
8201.000000;0.696528
8200.000000;0.696496
8199.000000;0.696238
8198.000000;0.695967
8197.000000;0.695835
8196.000000;0.695830
8195.000000;0.695862
8194.000000;0.695897
8193.000000;0.695974
8192.000000;0.696082
8191.000000;0.696100
8190.000000;0.695910
8189.000000;0.695560
8188.000000;0.695272
8187.000000;0.695250
8186.000000;0.695481
8185.000000;0.695743
8184.000000;0.695858
8183.000000;0.695882
8182.000000;0.695999
8181.000000;0.696237
8180.000000;0.696432
8179.000000;0.696500
8178.000000;0.696603
8177.000000;0.696894
8176.000000;0.697216
8175.000000;0.697244
8174.000000;0.696912
8173.000000;0.696530
8172.000000;0.696411
8171.000000;0.696574
8170.000000;0.696857
8169.000000;0.697154
8168.000000;0.697391
8167.000000;0.697416
8166.000000;0.697128
8165.000000;0.696690
8164.000000;0.696449
8163.000000;0.696575
8162.000000;0.696900
8161.000000;0.697157
8160.000000;0.697290
8159.000000;0.697449
8158.000000;0.697747
8157.000000;0.698109
8156.000000;0.698369
8155.000000;0.698463
8154.000000;0.698478
8153.000000;0.698554
8152.000000;0.698759
8151.000000;0.699057
8150.000000;0.699358
8149.000000;0.699564
8148.000000;0.699593
8147.000000;0.699414
8146.000000;0.699089
8145.000000;0.698780
8144.000000;0.698662
8143.000000;0.698818
8142.000000;0.699170
8141.000000;0.699510
8140.000000;0.699636
8139.000000;0.699506
8138.000000;0.699286
8137.000000;0.699205
8136.000000;0.699358
8135.000000;0.699651
8134.000000;0.699909
8133.000000;0.699991
8132.000000;0.699827
8131.000000;0.699439
8130.000000;0.698977
8129.000000;0.698664
8128.000000;0.698634
8127.000000;0.698841
8126.000000;0.699142
8125.000000;0.699421
8124.000000;0.699590
8123.000000;0.699562
8122.000000;0.699340
8121.000000;0.699120
8120.000000;0.699166
8119.000000;0.699530
8118.000000;0.699981
8117.000000;0.700249
8116.000000;0.700279
8115.000000;0.700197
8114.000000;0.700122
8113.000000;0.700101
8112.000000;0.700166
8111.000000;0.700340
8110.000000;0.700561
8109.000000;0.700720
8108.000000;0.700791
8107.000000;0.700840
8106.000000;0.700881
8105.000000;0.700824
8104.000000;0.700614
8103.000000;0.700371
8102.000000;0.700288
8101.000000;0.700424
8100.000000;0.700657
8099.000000;0.700819
8098.000000;0.700812
8097.000000;0.700630
8096.000000;0.700359
8095.000000;0.700156
8094.000000;0.700163
8093.000000;0.700401
8092.000000;0.700762
8091.000000;0.701088
8090.000000;0.701249
8089.000000;0.701199
8088.000000;0.701034
8087.000000;0.700973
8086.000000;0.701166
8085.000000;0.701511
8084.000000;0.701735
8083.000000;0.701689
8082.000000;0.701476
8081.000000;0.701284
8080.000000;0.701191
8079.000000;0.701199
8078.000000;0.701333
8077.000000;0.701619
8076.000000;0.702006
8075.000000;0.702404
8074.000000;0.702752
8073.000000;0.702993
8072.000000;0.703049
8071.000000;0.702908
8070.000000;0.702689
8069.000000;0.702533
8068.000000;0.702456
8067.000000;0.702379
8066.000000;0.702272
8065.000000;0.702169
8064.000000;0.702081
8063.000000;0.701992
8062.000000;0.701953
8061.000000;0.702050
8060.000000;0.702268
8059.000000;0.702478
8058.000000;0.702595
8057.000000;0.702678
8056.000000;0.702836
8055.000000;0.703112
8054.000000;0.703471
8053.000000;0.703833
8052.000000;0.704078
8051.000000;0.704106
8050.000000;0.703952
8049.000000;0.703801
8048.000000;0.703823
8047.000000;0.704008
8046.000000;0.704161
8045.000000;0.704073
8044.000000;0.703704
8043.000000;0.703257
8042.000000;0.703051
8041.000000;0.703241
8040.000000;0.703634
8039.000000;0.703872
8038.000000;0.703812
8037.000000;0.703647
8036.000000;0.703614
8035.000000;0.703721
8034.000000;0.703851
8033.000000;0.704017
8032.000000;0.704335
8031.000000;0.704772
8030.000000;0.705090
8029.000000;0.705104
8028.000000;0.704898
8027.000000;0.704729
8026.000000;0.704751
8025.000000;0.704880
8024.000000;0.704900
8023.000000;0.704696
8022.000000;0.704414
8021.000000;0.704356
8020.000000;0.704665
8019.000000;0.705123
8018.000000;0.705359
8017.000000;0.705238
8016.000000;0.704968
8015.000000;0.704803
8014.000000;0.704796
8013.000000;0.704859
8012.000000;0.704931
8011.000000;0.704979
8010.000000;0.704961
8009.000000;0.704891
8008.000000;0.704882
8007.000000;0.704959
8006.000000;0.704915
8005.000000;0.704555
8004.000000;0.704049
8003.000000;0.703847
8002.000000;0.704167
8001.000000;0.704753
8000.000000;0.705212
7999.000000;0.705440
7998.000000;0.705601
7997.000000;0.705832
7996.000000;0.706120
7995.000000;0.706409
7994.000000;0.706667
7993.000000;0.706873
7992.000000;0.707033
7991.000000;0.707190
7990.000000;0.707326
7989.000000;0.707317
7988.000000;0.707100
7987.000000;0.706828
7986.000000;0.706731
7985.000000;0.706840
7984.000000;0.707000
7983.000000;0.707119
7982.000000;0.707255
7981.000000;0.707434
7980.000000;0.707575
7979.000000;0.707645
7978.000000;0.707737
7977.000000;0.707913
7976.000000;0.708076
7975.000000;0.708093
7974.000000;0.707954
7973.000000;0.707729
7972.000000;0.707476
7971.000000;0.707281
7970.000000;0.707267
7969.000000;0.707459
7968.000000;0.707708
7967.000000;0.707875
7966.000000;0.708012
7965.000000;0.708245
7964.000000;0.708541
7963.000000;0.708746
7962.000000;0.708807
7961.000000;0.708820
7960.000000;0.708837
7959.000000;0.708792
7958.000000;0.708643
7957.000000;0.708487
7956.000000;0.708470
7955.000000;0.708647
7954.000000;0.708953
7953.000000;0.709269
7952.000000;0.709474
7951.000000;0.709515
7950.000000;0.709459
7949.000000;0.709447
7948.000000;0.709559
7947.000000;0.709757
7946.000000;0.709968
7945.000000;0.710174
7944.000000;0.710391
7943.000000;0.710590
7942.000000;0.710702
7941.000000;0.710696
7940.000000;0.710621
7939.000000;0.710566
7938.000000;0.710583
7937.000000;0.710644
7936.000000;0.710682
7935.000000;0.710677
7934.000000;0.710693
7933.000000;0.710815
7932.000000;0.711028
7931.000000;0.711178
7930.000000;0.711088
7929.000000;0.710734
7928.000000;0.710327
7927.000000;0.710154
7926.000000;0.710323
7925.000000;0.710679
7924.000000;0.711005
7923.000000;0.711261
7922.000000;0.711539
7921.000000;0.711848
7920.000000;0.712063
7919.000000;0.712109
7918.000000;0.712078
7917.000000;0.712104
7916.000000;0.712215
7915.000000;0.712348
7914.000000;0.712428
7913.000000;0.712380
7912.000000;0.712178
7911.000000;0.711939
7910.000000;0.711873
7909.000000;0.712049
7908.000000;0.712303
7907.000000;0.712452
7906.000000;0.712511
7905.000000;0.712568
7904.000000;0.712557
7903.000000;0.712355
7902.000000;0.712062
7901.000000;0.711969
7900.000000;0.712214
7899.000000;0.712602
7898.000000;0.712849
7897.000000;0.712860
7896.000000;0.712745
7895.000000;0.712651
7894.000000;0.712688
7893.000000;0.712922
7892.000000;0.713350
7891.000000;0.713872
7890.000000;0.714326
7889.000000;0.714567
7888.000000;0.714535
7887.000000;0.714322
7886.000000;0.714134
7885.000000;0.714131
7884.000000;0.714305
7883.000000;0.714555
7882.000000;0.714842
7881.000000;0.715178
7880.000000;0.715467
7879.000000;0.715519
7878.000000;0.715270
7877.000000;0.714910
7876.000000;0.714723
7875.000000;0.714855
7874.000000;0.715239
7873.000000;0.715655
7872.000000;0.715853
7871.000000;0.715724
7870.000000;0.715416
7869.000000;0.715234
7868.000000;0.715362
7867.000000;0.715731
7866.000000;0.716166
7865.000000;0.716572
7864.000000;0.716932
7863.000000;0.717204
7862.000000;0.717324
7861.000000;0.717277
7860.000000;0.717107
7859.000000;0.716878
7858.000000;0.716681
7857.000000;0.716615
7856.000000;0.716707
7855.000000;0.716854
7854.000000;0.716920
7853.000000;0.716875
7852.000000;0.716811
7851.000000;0.716834
7850.000000;0.716972
7849.000000;0.717169
7848.000000;0.717344
7847.000000;0.717459
7846.000000;0.717555
7845.000000;0.717686
7844.000000;0.717833
7843.000000;0.717934
7842.000000;0.718003
7841.000000;0.718134
7840.000000;0.718360
7839.000000;0.718576
7838.000000;0.718648
7837.000000;0.718550
7836.000000;0.718355
7835.000000;0.718152
7834.000000;0.718040
7833.000000;0.718136
7832.000000;0.718483
7831.000000;0.718950
7830.000000;0.719303
7829.000000;0.719410
7828.000000;0.719319
7827.000000;0.719158
7826.000000;0.719018
7825.000000;0.718942
7824.000000;0.718964
7823.000000;0.719108
7822.000000;0.719382
7821.000000;0.719779
7820.000000;0.720258
7819.000000;0.720728
7818.000000;0.721063
7817.000000;0.721181
7816.000000;0.721111
7815.000000;0.720978
7814.000000;0.720923
7813.000000;0.721025
7812.000000;0.721269
7811.000000;0.721564
7810.000000;0.721814
7809.000000;0.721967
7808.000000;0.722038
7807.000000;0.722068
7806.000000;0.722073
7805.000000;0.722003
7804.000000;0.721793
7803.000000;0.721469
7802.000000;0.721198
7801.000000;0.721178
7800.000000;0.721476
7799.000000;0.721991
7798.000000;0.722576
7797.000000;0.723139
7796.000000;0.723613
7795.000000;0.723905
7794.000000;0.723947
7793.000000;0.723797
7792.000000;0.723618
7791.000000;0.723541
7790.000000;0.723576
7789.000000;0.723648
7788.000000;0.723718
7787.000000;0.723841
7786.000000;0.724115
7785.000000;0.724539
7784.000000;0.724955
7783.000000;0.725159
7782.000000;0.725107
7781.000000;0.724993
7780.000000;0.725059
7779.000000;0.725349
7778.000000;0.725683
7777.000000;0.725878
7776.000000;0.725945
7775.000000;0.726039
7774.000000;0.726241
7773.000000;0.726448
7772.000000;0.726504
7771.000000;0.726411
7770.000000;0.726361
7769.000000;0.726535
7768.000000;0.726885
7767.000000;0.727165
7766.000000;0.727203
7765.000000;0.727089
7764.000000;0.727057
7763.000000;0.727203
7762.000000;0.727402
7761.000000;0.727497
7760.000000;0.727495
7759.000000;0.727517
7758.000000;0.727603
7757.000000;0.727663
7756.000000;0.727622
7755.000000;0.727548
7754.000000;0.727577
7753.000000;0.727775
7752.000000;0.728104
7751.000000;0.728489
7750.000000;0.728856
7749.000000;0.729121
7748.000000;0.729235
7747.000000;0.729239
7746.000000;0.729219
7745.000000;0.729225
7744.000000;0.729264
7743.000000;0.729390
7742.000000;0.729685
7741.000000;0.730130
7740.000000;0.730568
7739.000000;0.730859
7738.000000;0.731013
7737.000000;0.731127
7736.000000;0.731235
7735.000000;0.731320
7734.000000;0.731419
7733.000000;0.731624
7732.000000;0.731951
7731.000000;0.732292
7730.000000;0.732511
7729.000000;0.732583
7728.000000;0.732616
7727.000000;0.732763
7726.000000;0.733086
7725.000000;0.733483
7724.000000;0.733763
7723.000000;0.733820
7722.000000;0.733720
7721.000000;0.733595
7720.000000;0.733515
7719.000000;0.733491
7718.000000;0.733557
7717.000000;0.733752
7716.000000;0.734048
7715.000000;0.734366
7714.000000;0.734678
7713.000000;0.735026
7712.000000;0.735440
7711.000000;0.735876
7710.000000;0.736240
7709.000000;0.736414
7708.000000;0.736329
7707.000000;0.736062
7706.000000;0.735854
7705.000000;0.735921
7704.000000;0.736231
7703.000000;0.736559
7702.000000;0.736743
7701.000000;0.736834
7700.000000;0.736969
7699.000000;0.737213
7698.000000;0.737540
7697.000000;0.737897
7696.000000;0.738231
7695.000000;0.738517
7694.000000;0.738800
7693.000000;0.739151
7692.000000;0.739552
7691.000000;0.739883
7690.000000;0.740050
7689.000000;0.740064
7688.000000;0.739975
7687.000000;0.739803
7686.000000;0.739595
7685.000000;0.739457
7684.000000;0.739472
7683.000000;0.739622
7682.000000;0.739829
7681.000000;0.740028
7680.000000;0.740180
7679.000000;0.740289
7678.000000;0.740448
7677.000000;0.740783
7676.000000;0.741295
7675.000000;0.741811
7674.000000;0.742172
7673.000000;0.742390
7672.000000;0.742561
7671.000000;0.742708
7670.000000;0.742804
7669.000000;0.742898
7668.000000;0.743069
7667.000000;0.743306
7666.000000;0.743533
7665.000000;0.743757
7664.000000;0.744059
7663.000000;0.744420
7662.000000;0.744671
7661.000000;0.744675
7660.000000;0.744487
7659.000000;0.744291
7658.000000;0.744227
7657.000000;0.744334
7656.000000;0.744593
7655.000000;0.744950
7654.000000;0.745336
7653.000000;0.745705
7652.000000;0.746059
7651.000000;0.746426
7650.000000;0.746805
7649.000000;0.747165
7648.000000;0.747471
7647.000000;0.747669
7646.000000;0.747694
7645.000000;0.747535
7644.000000;0.747299
7643.000000;0.747192
7642.000000;0.747379
7641.000000;0.747868
7640.000000;0.748525
7639.000000;0.749174
7638.000000;0.749693
7637.000000;0.750038
7636.000000;0.750219
7635.000000;0.750295
7634.000000;0.750343
7633.000000;0.750414
7632.000000;0.750515
7631.000000;0.750665
7630.000000;0.750936
7629.000000;0.751406
7628.000000;0.752042
7627.000000;0.752686
7626.000000;0.753167
7625.000000;0.753409
7624.000000;0.753440
7623.000000;0.753352
7622.000000;0.753282
7621.000000;0.753381
7620.000000;0.753726
7619.000000;0.754240
7618.000000;0.754734
7617.000000;0.755074
7616.000000;0.755294
7615.000000;0.755542
7614.000000;0.755898
7613.000000;0.756279
7612.000000;0.756540
7611.000000;0.756648
7610.000000;0.756721
7609.000000;0.756875
7608.000000;0.757108
7607.000000;0.757373
7606.000000;0.757678
7605.000000;0.758023
7604.000000;0.758309
7603.000000;0.758441
7602.000000;0.758533
7601.000000;0.758823
7600.000000;0.759361
7599.000000;0.759893
7598.000000;0.760163
7597.000000;0.760209
7596.000000;0.760264
7595.000000;0.760464
7594.000000;0.760786
7593.000000;0.761183
7592.000000;0.761630
7591.000000;0.762065
7590.000000;0.762424
7589.000000;0.762755
7588.000000;0.763170
7587.000000;0.763668
7586.000000;0.764121
7585.000000;0.764458
7584.000000;0.764760
7583.000000;0.765125
7582.000000;0.765531
7581.000000;0.765897
7580.000000;0.766196
7579.000000;0.766473
7578.000000;0.766780
7577.000000;0.767140
7576.000000;0.767524
7575.000000;0.767848
7574.000000;0.768044
7573.000000;0.768187
7572.000000;0.768447
7571.000000;0.768889
7570.000000;0.769369
7569.000000;0.769706
7568.000000;0.769902
7567.000000;0.770107
7566.000000;0.770414
7565.000000;0.770771
7564.000000;0.771092
7563.000000;0.771364
7562.000000;0.771626
7561.000000;0.771920
7560.000000;0.772270
7559.000000;0.772678
7558.000000;0.773105
7557.000000;0.773481
7556.000000;0.773777
7555.000000;0.774041
7554.000000;0.774352
7553.000000;0.774740
7552.000000;0.775168
7551.000000;0.775583
7550.000000;0.775982
7549.000000;0.776408
7548.000000;0.776878
7547.000000;0.777327
7546.000000;0.777664
7545.000000;0.777902
7544.000000;0.778158
7543.000000;0.778510
7542.000000;0.778903
7541.000000;0.779258
7540.000000;0.779625
7539.000000;0.780131
7538.000000;0.780773
7537.000000;0.781361
7536.000000;0.781720
7535.000000;0.781892
7534.000000;0.782077
7533.000000;0.782407
7532.000000;0.782826
7531.000000;0.783196
7530.000000;0.783462
7529.000000;0.783718
7528.000000;0.784108
7527.000000;0.784682
7526.000000;0.785322
7525.000000;0.785834
7524.000000;0.786119
7523.000000;0.786275
7522.000000;0.786510
7521.000000;0.786959
7520.000000;0.787564
7519.000000;0.788132
7518.000000;0.788510
7517.000000;0.788728
7516.000000;0.788966
7515.000000;0.789366
7514.000000;0.789874
7513.000000;0.790308
7512.000000;0.790581
7511.000000;0.790800
7510.000000;0.791128
7509.000000;0.791596
7508.000000;0.792096
7507.000000;0.792535
7506.000000;0.792928
7505.000000;0.793355
7504.000000;0.793870
7503.000000;0.794469
7502.000000;0.795089
7501.000000;0.795641
7500.000000;0.796072
7499.000000;0.796416
7498.000000;0.796748
7497.000000;0.797093
7496.000000;0.797419
7495.000000;0.797719
7494.000000;0.798052
7493.000000;0.798479
7492.000000;0.798991
7491.000000;0.799517
7490.000000;0.799974
7489.000000;0.800322
7488.000000;0.800587
7487.000000;0.800874
7486.000000;0.801273
7485.000000;0.801755
7484.000000;0.802220
7483.000000;0.802649
7482.000000;0.803132
7481.000000;0.803710
7480.000000;0.804260
7479.000000;0.804645
7478.000000;0.804898
7477.000000;0.805165
7476.000000;0.805498
7475.000000;0.805809
7474.000000;0.806026
7473.000000;0.806205
7472.000000;0.806454
7471.000000;0.806834
7470.000000;0.807345
7469.000000;0.807958
7468.000000;0.808612
7467.000000;0.809241
7466.000000;0.809812
7465.000000;0.810312
7464.000000;0.810720
7463.000000;0.811039
7462.000000;0.811382
7461.000000;0.811913
7460.000000;0.812643
7459.000000;0.813350
7458.000000;0.813774
7457.000000;0.813882
7456.000000;0.813881
7455.000000;0.814009
7454.000000;0.814363
7453.000000;0.814909
7452.000000;0.815563
7451.000000;0.816221
7450.000000;0.816763
7449.000000;0.817122
7448.000000;0.817361
7447.000000;0.817647
7446.000000;0.818093
7445.000000;0.818644
7444.000000;0.819144
7443.000000;0.819527
7442.000000;0.819887
7441.000000;0.820346
7440.000000;0.820896
7439.000000;0.821423
7438.000000;0.821854
7437.000000;0.822217
7436.000000;0.822563
7435.000000;0.822907
7434.000000;0.823267
7433.000000;0.823668
7432.000000;0.824085
7431.000000;0.824443
7430.000000;0.824730
7429.000000;0.825062
7428.000000;0.825560
7427.000000;0.826172
7426.000000;0.826710
7425.000000;0.827055
7424.000000;0.827273
7423.000000;0.827520
7422.000000;0.827887
7421.000000;0.828360
7420.000000;0.828890
7419.000000;0.829434
7418.000000;0.829924
7417.000000;0.830269
7416.000000;0.830432
7415.000000;0.830497
7414.000000;0.830640
7413.000000;0.831000
7412.000000;0.831573
7411.000000;0.832221
7410.000000;0.832777
7409.000000;0.833151
7408.000000;0.833376
7407.000000;0.833584
7406.000000;0.833906
7405.000000;0.834371
7404.000000;0.834895
7403.000000;0.835380
7402.000000;0.835799
7401.000000;0.836177
7400.000000;0.836538
7399.000000;0.836901
7398.000000;0.837286
7397.000000;0.837678
7396.000000;0.838046
7395.000000;0.838425
7394.000000;0.838920
7393.000000;0.839549
7392.000000;0.840150
7391.000000;0.840550
7390.000000;0.840784
7389.000000;0.841045
7388.000000;0.841433
7387.000000;0.841862
7386.000000;0.842229
7385.000000;0.842518
7384.000000;0.842734
7383.000000;0.842869
7382.000000;0.843003
7381.000000;0.843309
7380.000000;0.843844
7379.000000;0.844432
7378.000000;0.844872
7377.000000;0.845195
7376.000000;0.845578
7375.000000;0.846080
7374.000000;0.846593
7373.000000;0.847030
7372.000000;0.847416
7371.000000;0.847798
7370.000000;0.848166
7369.000000;0.848511
7368.000000;0.848858
7367.000000;0.849237
7366.000000;0.849663
7365.000000;0.850141
7364.000000;0.850634
7363.000000;0.851086
7362.000000;0.851507
7361.000000;0.851990
7360.000000;0.852548
7359.000000;0.853006
7358.000000;0.853194
7357.000000;0.853223
7356.000000;0.853383
7355.000000;0.853795
7354.000000;0.854302
7353.000000;0.854732
7352.000000;0.855103
7351.000000;0.855541
7350.000000;0.856133
7349.000000;0.856880
7348.000000;0.857664
7347.000000;0.858244
7346.000000;0.858459
7345.000000;0.858464
7344.000000;0.858577
7343.000000;0.858884
7342.000000;0.859213
7341.000000;0.859514
7340.000000;0.860001
7339.000000;0.860764
7338.000000;0.861517
7337.000000;0.861964
7336.000000;0.862225
7335.000000;0.862666
7334.000000;0.863437
7333.000000;0.864377
7332.000000;0.865260
7331.000000;0.865922
7330.000000;0.866305
7329.000000;0.866552
7328.000000;0.866957
7327.000000;0.867597
7326.000000;0.868162
7325.000000;0.868402
7324.000000;0.868570
7323.000000;0.869130
7322.000000;0.870127
7321.000000;0.871162
7320.000000;0.871957
7319.000000;0.872621
7318.000000;0.873323
7317.000000;0.874032
7316.000000;0.874679
7315.000000;0.875320
7314.000000;0.875972
7313.000000;0.876527
7312.000000;0.876958
7311.000000;0.877428
7310.000000;0.878035
7309.000000;0.878668
7308.000000;0.879234
7307.000000;0.879831
7306.000000;0.880538
7305.000000;0.881223
7304.000000;0.881771
7303.000000;0.882361
7302.000000;0.883278
7301.000000;0.884518
7300.000000;0.885764
7299.000000;0.886718
7298.000000;0.887303
7297.000000;0.887618
7296.000000;0.887909
7295.000000;0.888506
7294.000000;0.889578
7293.000000;0.890899
7292.000000;0.892048
7291.000000;0.892882
7290.000000;0.893637
7289.000000;0.894560
7288.000000;0.895655
7287.000000;0.896803
7286.000000;0.897965
7285.000000;0.899151
7284.000000;0.900328
7283.000000;0.901468
7282.000000;0.902619
7281.000000;0.903844
7280.000000;0.905096
7279.000000;0.906252
7278.000000;0.907259
7277.000000;0.908205
7276.000000;0.909252
7275.000000;0.910514
7274.000000;0.911948
7273.000000;0.913392
7272.000000;0.914737
7271.000000;0.916035
7270.000000;0.917393
7269.000000;0.918790
7268.000000;0.920070
7267.000000;0.921130
7266.000000;0.922058
7265.000000;0.923055
7264.000000;0.924277
7263.000000;0.925735
7262.000000;0.927294
7261.000000;0.928768
7260.000000;0.930105
7259.000000;0.931472
7258.000000;0.933066
7257.000000;0.934842
7256.000000;0.936538
7255.000000;0.938010
7254.000000;0.939413
7253.000000;0.941002
7252.000000;0.942834
7251.000000;0.944789
7250.000000;0.946784
7249.000000;0.948822
7248.000000;0.950852
7247.000000;0.952684
7246.000000;0.954114
7245.000000;0.955163
7244.000000;0.956195
7243.000000;0.957712
7242.000000;0.959937
7241.000000;0.962552
7240.000000;0.964962
7239.000000;0.966889
7238.000000;0.968558
7237.000000;0.970316
7236.000000;0.972229
7235.000000;0.974156
7234.000000;0.976119
7233.000000;0.978383
7232.000000;0.981120
7231.000000;0.984107
7230.000000;0.986916
7229.000000;0.989366
7228.000000;0.991698
7227.000000;0.994263
7226.000000;0.997141
7225.000000;1.000109
7224.000000;1.002921
7223.000000;1.005547
7222.000000;1.008147
7221.000000;1.010861
7220.000000;1.013683
7219.000000;1.016517
7218.000000;1.019341
7217.000000;1.022257
7216.000000;1.025365
7215.000000;1.028636
7214.000000;1.031936
7213.000000;1.035196
7212.000000;1.038500
7211.000000;1.041991
7210.000000;1.045670
7209.000000;1.049317
7208.000000;1.052679
7207.000000;1.055728
7206.000000;1.058716
7205.000000;1.061970
7204.000000;1.065614
7203.000000;1.069471
7202.000000;1.073220
7201.000000;1.076688
7200.000000;1.079999
7199.000000;1.083475
7198.000000;1.087352
7197.000000;1.091602
7196.000000;1.095998
7195.000000;1.100333
7194.000000;1.104544
7193.000000;1.108662
7192.000000;1.112742
7191.000000;1.116834
7190.000000;1.120948
7189.000000;1.125012
7188.000000;1.128950
7187.000000;1.132824
7186.000000;1.136826
7185.000000;1.141095
7184.000000;1.145601
7183.000000;1.150243
7182.000000;1.154943
7181.000000;1.159615
7180.000000;1.164158
7179.000000;1.168606
7178.000000;1.173202
7177.000000;1.178187
7176.000000;1.183530
7175.000000;1.188956
7174.000000;1.194216
7173.000000;1.199256
7172.000000;1.204149
7171.000000;1.208980
7170.000000;1.213787
7169.000000;1.218517
7168.000000;1.223066
7167.000000;1.227476
7166.000000;1.232051
7165.000000;1.237128
7164.000000;1.242685
7163.000000;1.248352
7162.000000;1.253806
7161.000000;1.259047
7160.000000;1.264262
7159.000000;1.269564
7158.000000;1.274963
7157.000000;1.280461
7156.000000;1.286017
7155.000000;1.291499
7154.000000;1.296829
7153.000000;1.302164
7152.000000;1.307795
7151.000000;1.313823
7150.000000;1.320003
7149.000000;1.325909
7148.000000;1.331249
7147.000000;1.336096
7146.000000;1.340869
7145.000000;1.346057
7144.000000;1.351799
7143.000000;1.357682
7142.000000;1.363105
7141.000000;1.367986
7140.000000;1.372998
7139.000000;1.378900
7138.000000;1.385635
7137.000000;1.392283
7136.000000;1.398015
7135.000000;1.402878
7134.000000;1.407558
7133.000000;1.412552
7132.000000;1.417822
7131.000000;1.423129
7130.000000;1.428386
7129.000000;1.433605
7128.000000;1.438743
7127.000000;1.443790
7126.000000;1.448868
7125.000000;1.454095
7124.000000;1.459433
7123.000000;1.464775
7122.000000;1.470066
7121.000000;1.475180
7120.000000;1.479839
7119.000000;1.483959
7118.000000;1.488064
7117.000000;1.492992
7116.000000;1.498999
7115.000000;1.505368
7114.000000;1.511099
7113.000000;1.515845
7112.000000;1.520065
7111.000000;1.524440
7110.000000;1.529326
7109.000000;1.534662
7108.000000;1.540154
7107.000000;1.545502
7106.000000;1.550525
7105.000000;1.555175
7104.000000;1.559495
7103.000000;1.563648
7102.000000;1.567956
7101.000000;1.572723
7100.000000;1.577937
7099.000000;1.583208
7098.000000;1.588115
7097.000000;1.592538
7096.000000;1.596551
7095.000000;1.600142
7094.000000;1.603270
7093.000000;1.606189
7092.000000;1.609450
7091.000000;1.613425
7090.000000;1.617915
7089.000000;1.622285
7088.000000;1.626034
7087.000000;1.629257
7086.000000;1.632589
7085.000000;1.636659
7084.000000;1.641539
7083.000000;1.646690
7082.000000;1.651460
7081.000000;1.655603
7080.000000;1.659317
7079.000000;1.662964
7078.000000;1.666857
7077.000000;1.671145
7076.000000;1.675642
7075.000000;1.679811
7074.000000;1.683154
7073.000000;1.685688
7072.000000;1.687879
7071.000000;1.690136
7070.000000;1.692559
7069.000000;1.695146
7068.000000;1.697974
7067.000000;1.701081
7066.000000;1.704333
7065.000000;1.707506
7064.000000;1.710388
7063.000000;1.712828
7062.000000;1.714914
7061.000000;1.717146
7060.000000;1.720133
7059.000000;1.723948
7058.000000;1.727918
7057.000000;1.731189
7056.000000;1.733400
7055.000000;1.734756
7054.000000;1.735720
7053.000000;1.736827
7052.000000;1.738607
7051.000000;1.741283
7050.000000;1.744527
7049.000000;1.747699
7048.000000;1.750432
7047.000000;1.752887
7046.000000;1.755421
7045.000000;1.758159
7044.000000;1.760918
7043.000000;1.763426
7042.000000;1.765539
7041.000000;1.767279
7040.000000;1.768770
7039.000000;1.770184
7038.000000;1.771705
7037.000000;1.773445
7036.000000;1.775346
7035.000000;1.777263
7034.000000;1.779265
7033.000000;1.781699
7032.000000;1.784692
7031.000000;1.787662
7030.000000;1.789703
7029.000000;1.790638
7028.000000;1.791375
7027.000000;1.792958
7026.000000;1.795410
7025.000000;1.797698
7024.000000;1.798760
7023.000000;1.798450
7022.000000;1.797616
7021.000000;1.797454
7020.000000;1.798664
7019.000000;1.800990
7018.000000;1.803555
7017.000000;1.805761
7016.000000;1.807770
7015.000000;1.809969
7014.000000;1.812252
7013.000000;1.814134
7012.000000;1.815405
7011.000000;1.816279
7010.000000;1.816953
7009.000000;1.817443
7008.000000;1.817846
7007.000000;1.818330
7006.000000;1.818738
7005.000000;1.818681
7004.000000;1.818271
7003.000000;1.818397
7002.000000;1.819939
7001.000000;1.822872
7000.000000;1.826362
6999.000000;1.829521
6998.000000;1.831791
6997.000000;1.832805
6996.000000;1.832416
6995.000000;1.831040
6994.000000;1.829641
6993.000000;1.829171
6992.000000;1.829990
6991.000000;1.831736
6990.000000;1.833527
6989.000000;1.834422
6988.000000;1.834081
6987.000000;1.833206
6986.000000;1.833058
6985.000000;1.834280
6984.000000;1.836223
6983.000000;1.837566
6982.000000;1.837581
6981.000000;1.836644
6980.000000;1.835574
6979.000000;1.834812
6978.000000;1.834395
6977.000000;1.834473
6976.000000;1.835506
6975.000000;1.837790
6974.000000;1.840866
6973.000000;1.843546
6972.000000;1.844731
6971.000000;1.844311
6970.000000;1.843208
6969.000000;1.842478
6968.000000;1.842412
6967.000000;1.842573
6966.000000;1.842582
6965.000000;1.842601
6964.000000;1.842943
6963.000000;1.843465
6962.000000;1.843701
6961.000000;1.843541
6960.000000;1.843454
6959.000000;1.843860
6958.000000;1.844542
6957.000000;1.844927
6956.000000;1.844796
6955.000000;1.844401
6954.000000;1.843970
6953.000000;1.843518
6952.000000;1.843267
6951.000000;1.843830
6950.000000;1.845548
6949.000000;1.847825
6948.000000;1.849494
6947.000000;1.849942
6946.000000;1.849571
6945.000000;1.849075
6944.000000;1.848573
6943.000000;1.847724
6942.000000;1.846482
6941.000000;1.845346
6940.000000;1.844886
6939.000000;1.845272
6938.000000;1.846287
6937.000000;1.847529
6936.000000;1.848507
6935.000000;1.848767
6934.000000;1.848154
6933.000000;1.847022
6932.000000;1.846017
6931.000000;1.845552
6930.000000;1.845512
6929.000000;1.845482
6928.000000;1.845225
6927.000000;1.844886
6926.000000;1.844623
6925.000000;1.844221
6924.000000;1.843389
6923.000000;1.842411
6922.000000;1.842110
6921.000000;1.842910
6920.000000;1.844199
6919.000000;1.844967
6918.000000;1.844918
6917.000000;1.844543
6916.000000;1.844144
6915.000000;1.843390
6914.000000;1.842068
6913.000000;1.840771
6912.000000;1.840335
6911.000000;1.840759
6910.000000;1.841127
6909.000000;1.840662
6908.000000;1.839562
6907.000000;1.838670
6906.000000;1.838563
6905.000000;1.839122
6904.000000;1.839835
6903.000000;1.840289
6902.000000;1.840343
6901.000000;1.840033
6900.000000;1.839497
6899.000000;1.838982
6898.000000;1.838699
6897.000000;1.838556
6896.000000;1.838182
6895.000000;1.837420
6894.000000;1.836667
6893.000000;1.836457
6892.000000;1.836736
6891.000000;1.836838
6890.000000;1.836221
6889.000000;1.834928
6888.000000;1.833256
6887.000000;1.831426
6886.000000;1.829836
6885.000000;1.829267
6884.000000;1.830262
6883.000000;1.832327
6882.000000;1.834192
6881.000000;1.835010
6880.000000;1.834942
6879.000000;1.834488
6878.000000;1.833682
6877.000000;1.832243
6876.000000;1.830221
6875.000000;1.828134
6874.000000;1.826513
6873.000000;1.825560
6872.000000;1.825207
6871.000000;1.825260
6870.000000;1.825413
6869.000000;1.825328
6868.000000;1.824913
6867.000000;1.824538
6866.000000;1.824808
6865.000000;1.826009
6864.000000;1.827782
6863.000000;1.829356
6862.000000;1.830086
6861.000000;1.829696
6860.000000;1.828202
6859.000000;1.825914
6858.000000;1.823518
6857.000000;1.821748
6856.000000;1.820746
6855.000000;1.819947
6854.000000;1.818882
6853.000000;1.817880
6852.000000;1.817617
6851.000000;1.818109
6850.000000;1.818606
6849.000000;1.818585
6848.000000;1.818323
6847.000000;1.818268
6846.000000;1.818280
6845.000000;1.817847
6844.000000;1.816801
6843.000000;1.815419
6842.000000;1.813917
6841.000000;1.812236
6840.000000;1.810344
6839.000000;1.808412
6838.000000;1.806626
6837.000000;1.805038
6836.000000;1.803672
6835.000000;1.802565
6834.000000;1.801596
6833.000000;1.800464
6832.000000;1.799014
6831.000000;1.797513
6830.000000;1.796426
6829.000000;1.795891
6828.000000;1.795503
6827.000000;1.794712
6826.000000;1.793419
6825.000000;1.792076
6824.000000;1.791147
6823.000000;1.790555
6822.000000;1.789801
6821.000000;1.788579
6820.000000;1.787026
6819.000000;1.785330
6818.000000;1.783377
6817.000000;1.781054
6816.000000;1.778703
6815.000000;1.776890
6814.000000;1.775697
6813.000000;1.774562
6812.000000;1.772914
6811.000000;1.770746
6810.000000;1.768503
6809.000000;1.766614
6808.000000;1.765243
6807.000000;1.764232
6806.000000;1.763112
6805.000000;1.761360
6804.000000;1.758900
6803.000000;1.756211
6802.000000;1.753794
6801.000000;1.751681
6800.000000;1.749634
6799.000000;1.747645
6798.000000;1.745916
6797.000000;1.744496
6796.000000;1.743238
6795.000000;1.742113
6794.000000;1.741222
6793.000000;1.740456
6792.000000;1.739425
6791.000000;1.737813
6790.000000;1.735614
6789.000000;1.732967
6788.000000;1.730039
6787.000000;1.727142
6786.000000;1.724662
6785.000000;1.722676
6784.000000;1.720831
6783.000000;1.718769
6782.000000;1.716526
6781.000000;1.714424
6780.000000;1.712734
6779.000000;1.711514
6778.000000;1.710534
6777.000000;1.709198
6776.000000;1.706886
6775.000000;1.703633
6774.000000;1.700282
6773.000000;1.697665
6772.000000;1.695773
6771.000000;1.693929
6770.000000;1.691611
6769.000000;1.688877
6768.000000;1.686155
6767.000000;1.683906
6766.000000;1.682367
6765.000000;1.681238
6764.000000;1.679741
6763.000000;1.677349
6762.000000;1.674488
6761.000000;1.672114
6760.000000;1.670584
6759.000000;1.669285
6758.000000;1.667459
6757.000000;1.665062
6756.000000;1.662634
6755.000000;1.660565
6754.000000;1.658696
6753.000000;1.656520
6752.000000;1.653674
6751.000000;1.650378
6750.000000;1.647430
6749.000000;1.645535
6748.000000;1.644521
6747.000000;1.643431
6746.000000;1.641516
6745.000000;1.638953
6744.000000;1.636415
6743.000000;1.634187
6742.000000;1.632007
6741.000000;1.629629
6740.000000;1.627210
6739.000000;1.625085
6738.000000;1.623383
6737.000000;1.621925
6736.000000;1.620387
6735.000000;1.618523
6734.000000;1.616314
6733.000000;1.613930
6732.000000;1.611538
6731.000000;1.609155
6730.000000;1.606700
6729.000000;1.604134
6728.000000;1.601530
6727.000000;1.599066
6726.000000;1.596968
6725.000000;1.595323
6724.000000;1.593875
6723.000000;1.592125
6722.000000;1.589791
6721.000000;1.587143
6720.000000;1.584729
6719.000000;1.582787
6718.000000;1.581047
6717.000000;1.579121
6716.000000;1.576957
6715.000000;1.574810
6714.000000;1.572834
6713.000000;1.570843
6712.000000;1.568525
6711.000000;1.565829
6710.000000;1.563048
6709.000000;1.560536
6708.000000;1.558452
6707.000000;1.556756
6706.000000;1.555306
6705.000000;1.553843
6704.000000;1.552030
6703.000000;1.549707
6702.000000;1.547079
6701.000000;1.544529
6700.000000;1.542263
6699.000000;1.540242
6698.000000;1.538347
6697.000000;1.536440
6696.000000;1.534310
6695.000000;1.531801
6694.000000;1.529037
6693.000000;1.526358
6692.000000;1.523965
6691.000000;1.521808
6690.000000;1.519787
6689.000000;1.517885
6688.000000;1.516063
6687.000000;1.514240
6686.000000;1.512455
6685.000000;1.510835
6684.000000;1.509332
6683.000000;1.507699
6682.000000;1.505830
6681.000000;1.503897
6680.000000;1.502024
6679.000000;1.500041
6678.000000;1.497772
6677.000000;1.495360
6676.000000;1.493099
6675.000000;1.491082
6674.000000;1.489255
6673.000000;1.487639
6672.000000;1.486230
6671.000000;1.484758
6670.000000;1.482877
6669.000000;1.480615
6668.000000;1.478377
6667.000000;1.476458
6666.000000;1.474768
6665.000000;1.473074
6664.000000;1.471279
6663.000000;1.469389
6662.000000;1.467393
6661.000000;1.465326
6660.000000;1.463304
6659.000000;1.461373
6658.000000;1.459380
6657.000000;1.457142
6656.000000;1.454717
6655.000000;1.452387
6654.000000;1.450363
6653.000000;1.448586
6652.000000;1.446855
6651.000000;1.445103
6650.000000;1.443444
6649.000000;1.441933
6648.000000;1.440365
6647.000000;1.438412
6646.000000;1.435969
6645.000000;1.433270
6644.000000;1.430706
6643.000000;1.428628
6642.000000;1.427269
6641.000000;1.426598
6640.000000;1.426128
6639.000000;1.425078
6638.000000;1.423001
6637.000000;1.420243
6636.000000;1.417639
6635.000000;1.415774
6634.000000;1.414617
6633.000000;1.413747
6632.000000;1.412727
6631.000000;1.411299
6630.000000;1.409467
6629.000000;1.407485
6628.000000;1.405656
6627.000000;1.404072
6626.000000;1.402598
6625.000000;1.401083
6624.000000;1.399480
6623.000000;1.397758
6622.000000;1.395854
6621.000000;1.393771
6620.000000;1.391663
6619.000000;1.389726
6618.000000;1.388055
6617.000000;1.386605
6616.000000;1.385250
6615.000000;1.383868
6614.000000;1.382401
6613.000000;1.380880
6612.000000;1.379365
6611.000000;1.377869
6610.000000;1.376344
6609.000000;1.374695
6608.000000;1.372814
6607.000000;1.370668
6606.000000;1.368436
6605.000000;1.366448
6604.000000;1.364896
6603.000000;1.363613
6602.000000;1.362274
6601.000000;1.360774
6600.000000;1.359280
6599.000000;1.357920
6598.000000;1.356576
6597.000000;1.355041
6596.000000;1.353248
6595.000000;1.351291
6594.000000;1.349304
6593.000000;1.347422
6592.000000;1.345770
6591.000000;1.344411
6590.000000;1.343277
6589.000000;1.342208
6588.000000;1.341026
6587.000000;1.339600
6586.000000;1.337934
6585.000000;1.336209
6584.000000;1.334688
6583.000000;1.333476
6582.000000;1.332408
6581.000000;1.331195
6580.000000;1.329661
6579.000000;1.327827
6578.000000;1.325831
6577.000000;1.323839
6576.000000;1.322012
6575.000000;1.320474
6574.000000;1.319237
6573.000000;1.318164
6572.000000;1.317041
6571.000000;1.315765
6570.000000;1.314442
6569.000000;1.313263
6568.000000;1.312235
6567.000000;1.311124
6566.000000;1.309732
6565.000000;1.308155
6564.000000;1.306661
6563.000000;1.305338
6562.000000;1.303990
6561.000000;1.302407
6560.000000;1.300618
6559.000000;1.298816
6558.000000;1.297147
6557.000000;1.295665
6556.000000;1.294412
6555.000000;1.293401
6554.000000;1.292522
6553.000000;1.291570
6552.000000;1.290443
6551.000000;1.289247
6550.000000;1.288150
6549.000000;1.287149
6548.000000;1.286028
6547.000000;1.284603
6546.000000;1.282937
6545.000000;1.281286
6544.000000;1.279835
6543.000000;1.278579
6542.000000;1.277430
6541.000000;1.276341
6540.000000;1.275268
6539.000000;1.274107
6538.000000;1.272765
6537.000000;1.271249
6536.000000;1.269631
6535.000000;1.267978
6534.000000;1.266390
6533.000000;1.265029
6532.000000;1.263979
6531.000000;1.263097
6530.000000;1.262127
6529.000000;1.260986
6528.000000;1.259835
6527.000000;1.258849
6526.000000;1.258034
6525.000000;1.257277
6524.000000;1.256464
6523.000000;1.255488
6522.000000;1.254250
6521.000000;1.252769
6520.000000;1.251232
6519.000000;1.249868
6518.000000;1.248754
6517.000000;1.247791
6516.000000;1.246818
6515.000000;1.245719
6514.000000;1.244481
6513.000000;1.243198
6512.000000;1.242002
6511.000000;1.240932
6510.000000;1.239902
6509.000000;1.238788
6508.000000;1.237535
6507.000000;1.236169
6506.000000;1.234772
6505.000000;1.233471
6504.000000;1.232383
6503.000000;1.231507
6502.000000;1.230680
6501.000000;1.229707
6500.000000;1.228527
6499.000000;1.227246
6498.000000;1.226019
6497.000000;1.224922
6496.000000;1.223904
6495.000000;1.222866
6494.000000;1.221796
6493.000000;1.220816
6492.000000;1.220031
6491.000000;1.219337
6490.000000;1.218481
6489.000000;1.217342
6488.000000;1.216090
6487.000000;1.214975
6486.000000;1.214044
6485.000000;1.213138
6484.000000;1.212111
6483.000000;1.210968
6482.000000;1.209799
6481.000000;1.208682
6480.000000;1.207662
6479.000000;1.206737
6478.000000;1.205846
6477.000000;1.204916
6476.000000;1.203966
6475.000000;1.203105
6474.000000;1.202408
6473.000000;1.201811
6472.000000;1.201145
6471.000000;1.200270
6470.000000;1.199162
6469.000000;1.197908
6468.000000;1.196639
6467.000000;1.195456
6466.000000;1.194401
6465.000000;1.193467
6464.000000;1.192607
6463.000000;1.191738
6462.000000;1.190763
6461.000000;1.189648
6460.000000;1.188468
6459.000000;1.187358
6458.000000;1.186397
6457.000000;1.185556
6456.000000;1.184752
6455.000000;1.183937
6454.000000;1.183138
6453.000000;1.182402
6452.000000;1.181701
6451.000000;1.180928
6450.000000;1.180006
6449.000000;1.178982
6448.000000;1.177980
6447.000000;1.177057
6446.000000;1.176169
6445.000000;1.175259
6444.000000;1.174346
6443.000000;1.173480
6442.000000;1.172681
6441.000000;1.171955
6440.000000;1.171307
6439.000000;1.170715
6438.000000;1.170101
6437.000000;1.169386
6436.000000;1.168575
6435.000000;1.167735
6434.000000;1.166914
6433.000000;1.166096
6432.000000;1.165236
6431.000000;1.164334
6430.000000;1.163473
6429.000000;1.162773
6428.000000;1.162248
6427.000000;1.161707
6426.000000;1.160895
6425.000000;1.159770
6424.000000;1.158572
6423.000000;1.157584
6422.000000;1.156864
6421.000000;1.156282
6420.000000;1.155717
6419.000000;1.155126
6418.000000;1.154470
6417.000000;1.153697
6416.000000;1.152817
6415.000000;1.151889
6414.000000;1.150938
6413.000000;1.149978
6412.000000;1.149112
6411.000000;1.148477
6410.000000;1.148047
6409.000000;1.147595
6408.000000;1.146910
6407.000000;1.146004
6406.000000;1.145054
6405.000000;1.144208
6404.000000;1.143497
6403.000000;1.142877
6402.000000;1.142284
6401.000000;1.141665
6400.000000;1.141020
6399.000000;1.140382
6398.000000;1.139764
6397.000000;1.139137
6396.000000;1.138475
6395.000000;1.137766
6394.000000;1.136961
6393.000000;1.136008
6392.000000;1.134983
6391.000000;1.134109
6390.000000;1.133551
6389.000000;1.133217
6388.000000;1.132835
6387.000000;1.132217
6386.000000;1.131399
6385.000000;1.130544
6384.000000;1.129808
6383.000000;1.129270
6382.000000;1.128903
6381.000000;1.128565
6380.000000;1.128070
6379.000000;1.127317
6378.000000;1.126341
6377.000000;1.125265
6376.000000;1.124227
6375.000000;1.123339
6374.000000;1.122643
6373.000000;1.122082
6372.000000;1.121547
6371.000000;1.120986
6370.000000;1.120432
6369.000000;1.119909
6368.000000;1.119371
6367.000000;1.118753
6366.000000;1.118048
6365.000000;1.117304
6364.000000;1.116558
6363.000000;1.115818
6362.000000;1.115091
6361.000000;1.114397
6360.000000;1.113752
6359.000000;1.113170
6358.000000;1.112659
6357.000000;1.112214
6356.000000;1.111802
6355.000000;1.111384
6354.000000;1.110940
6353.000000;1.110460
6352.000000;1.109929
6351.000000;1.109311
6350.000000;1.108581
6349.000000;1.107744
6348.000000;1.106838
6347.000000;1.105944
6346.000000;1.105163
6345.000000;1.104570
6344.000000;1.104143
6343.000000;1.103753
6342.000000;1.103271
6341.000000;1.102687
6340.000000;1.102117
6339.000000;1.101669
6338.000000;1.101326
6337.000000;1.100980
6336.000000;1.100544
6335.000000;1.099995
6334.000000;1.099344
6333.000000;1.098622
6332.000000;1.097895
6331.000000;1.097246
6330.000000;1.096706
6329.000000;1.096248
6328.000000;1.095856
6327.000000;1.095550
6326.000000;1.095299
6325.000000;1.094993
6324.000000;1.094544
6323.000000;1.093992
6322.000000;1.093433
6321.000000;1.092897
6320.000000;1.092349
6319.000000;1.091789
6318.000000;1.091263
6317.000000;1.090772
6316.000000;1.090255
6315.000000;1.089680
6314.000000;1.089099
6313.000000;1.088593
6312.000000;1.088212
6311.000000;1.087963
6310.000000;1.087791
6309.000000;1.087561
6308.000000;1.087134
6307.000000;1.086518
6306.000000;1.085885
6305.000000;1.085390
6304.000000;1.085012
6303.000000;1.084609
6302.000000;1.084097
6301.000000;1.083512
6300.000000;1.082937
6299.000000;1.082440
6298.000000;1.082062
6297.000000;1.081794
6296.000000;1.081536
6295.000000;1.081156
6294.000000;1.080601
6293.000000;1.079946
6292.000000;1.079319
6291.000000;1.078785
6290.000000;1.078326
6289.000000;1.077894
6288.000000;1.077470
6287.000000;1.077062
6286.000000;1.076686
6285.000000;1.076362
6284.000000;1.076120
6283.000000;1.075965
6282.000000;1.075825
6281.000000;1.075564
6280.000000;1.075086
6279.000000;1.074435
6278.000000;1.073772
6277.000000;1.073231
6276.000000;1.072842
6275.000000;1.072556
6274.000000;1.072297
6273.000000;1.071985
6272.000000;1.071558
6271.000000;1.071050
6270.000000;1.070586
6269.000000;1.070265
6268.000000;1.070046
6267.000000;1.069797
6266.000000;1.069435
6265.000000;1.068995
6264.000000;1.068569
6263.000000;1.068211
6262.000000;1.067898
6261.000000;1.067554
6260.000000;1.067107
6259.000000;1.066570
6258.000000;1.066052
6257.000000;1.065666
6256.000000;1.065407
6255.000000;1.065162
6254.000000;1.064823
6253.000000;1.064377
6252.000000;1.063877
6251.000000;1.063396
6250.000000;1.062999
6249.000000;1.062714
6248.000000;1.062500
6247.000000;1.062261
6246.000000;1.061933
6245.000000;1.061546
6244.000000;1.061173
6243.000000;1.060831
6242.000000;1.060483
6241.000000;1.060122
6240.000000;1.059817
6239.000000;1.059641
6238.000000;1.059583
6237.000000;1.059561
6236.000000;1.059491
6235.000000;1.059318
6234.000000;1.058985
6233.000000;1.058454
6232.000000;1.057788
6231.000000;1.057151
6230.000000;1.056680
6229.000000;1.056381
6228.000000;1.056185
6227.000000;1.056054
6226.000000;1.055982
6225.000000;1.055922
6224.000000;1.055789
6223.000000;1.055555
6222.000000;1.055266
6221.000000;1.054961
6220.000000;1.054635
6219.000000;1.054289
6218.000000;1.053954
6217.000000;1.053621
6216.000000;1.053241
6215.000000;1.052819
6214.000000;1.052438
6213.000000;1.052132
6212.000000;1.051816
6211.000000;1.051419
6210.000000;1.051036
6209.000000;1.050821
6208.000000;1.050747
6207.000000;1.050592
6206.000000;1.050186
6205.000000;1.049604
6204.000000;1.049088
6203.000000;1.048815
6202.000000;1.048764
6201.000000;1.048750
6200.000000;1.048572
6199.000000;1.048171
6198.000000;1.047681
6197.000000;1.047315
6196.000000;1.047170
6195.000000;1.047166
6194.000000;1.047143
6193.000000;1.046998
6192.000000;1.046715
6191.000000;1.046356
6190.000000;1.046017
6189.000000;1.045763
6188.000000;1.045551
6187.000000;1.045271
6186.000000;1.044882
6185.000000;1.044478
6184.000000;1.044187
6183.000000;1.044034
6182.000000;1.043940
6181.000000;1.043822
6180.000000;1.043644
6179.000000;1.043414
6178.000000;1.043179
6177.000000;1.043014
6176.000000;1.042956
6175.000000;1.042931
6174.000000;1.042798
6173.000000;1.042489
6172.000000;1.042075
6171.000000;1.041689
6170.000000;1.041400
6169.000000;1.041183
6168.000000;1.040980
6167.000000;1.040759
6166.000000;1.040516
6165.000000;1.040280
6164.000000;1.040105
6163.000000;1.040040
6162.000000;1.040077
6161.000000;1.040134
6160.000000;1.040109
6159.000000;1.039948
6158.000000;1.039662
6157.000000;1.039280
6156.000000;1.038832
6155.000000;1.038362
6154.000000;1.037934
6153.000000;1.037605
6152.000000;1.037394
6151.000000;1.037288
6150.000000;1.037258
6149.000000;1.037268
6148.000000;1.037268
6147.000000;1.037213
6146.000000;1.037084
6145.000000;1.036888
6144.000000;1.036646
6143.000000;1.036384
6142.000000;1.036136
6141.000000;1.035931
6140.000000;1.035778
6139.000000;1.035665
6138.000000;1.035573
6137.000000;1.035484
6136.000000;1.035392
6135.000000;1.035302
6134.000000;1.035217
6133.000000;1.035121
6132.000000;1.034982
6131.000000;1.034794
6130.000000;1.034587
6129.000000;1.034386
6128.000000;1.034177
6127.000000;1.033932
6126.000000;1.033658
6125.000000;1.033408
6124.000000;1.033228
6123.000000;1.033123
6122.000000;1.033047
6121.000000;1.032925
6120.000000;1.032699
6119.000000;1.032364
6118.000000;1.031992
6117.000000;1.031672
6116.000000;1.031431
6115.000000;1.031227
6114.000000;1.031011
6113.000000;1.030796
6112.000000;1.030641
6111.000000;1.030596
6110.000000;1.030659
6109.000000;1.030774
6108.000000;1.030863
6107.000000;1.030852
6106.000000;1.030712
6105.000000;1.030472
6104.000000;1.030202
6103.000000;1.029960
6102.000000;1.029767
6101.000000;1.029614
6100.000000;1.029510
6099.000000;1.029487
6098.000000;1.029552
6097.000000;1.029660
6096.000000;1.029733
6095.000000;1.029715
6094.000000;1.029574
6093.000000;1.029294
6092.000000;1.028897
6091.000000;1.028473
6090.000000;1.028130
6089.000000;1.027915
6088.000000;1.027799
6087.000000;1.027749
6086.000000;1.027754
6085.000000;1.027781
6084.000000;1.027779
6083.000000;1.027751
6082.000000;1.027764
6081.000000;1.027830
6080.000000;1.027829
6079.000000;1.027639
6078.000000;1.027304
6077.000000;1.027025
6076.000000;1.026949
6075.000000;1.027043
6074.000000;1.027142
6073.000000;1.027106
6072.000000;1.026922
6071.000000;1.026707
6070.000000;1.026619
6069.000000;1.026716
6068.000000;1.026894
6067.000000;1.026995
6066.000000;1.026961
6065.000000;1.026857
6064.000000;1.026766
6063.000000;1.026715
6062.000000;1.026695
6061.000000;1.026679
6060.000000;1.026616
6059.000000;1.026465
6058.000000;1.026255
6057.000000;1.026059
6056.000000;1.025898
6055.000000;1.025727
6054.000000;1.025535
6053.000000;1.025391
6052.000000;1.025342
6051.000000;1.025348
6050.000000;1.025358
6049.000000;1.025399
6048.000000;1.025518
6047.000000;1.025658
6046.000000;1.025690
6045.000000;1.025552
6044.000000;1.025324
6043.000000;1.025132
6042.000000;1.025033
6041.000000;1.024991
6040.000000;1.024925
6039.000000;1.024788
6038.000000;1.024619
6037.000000;1.024524
6036.000000;1.024566
6035.000000;1.024686
6034.000000;1.024759
6033.000000;1.024748
6032.000000;1.024725
6031.000000;1.024745
6030.000000;1.024750
6029.000000;1.024659
6028.000000;1.024499
6027.000000;1.024393
6026.000000;1.024421
6025.000000;1.024553
6024.000000;1.024709
6023.000000;1.024827
6022.000000;1.024866
6021.000000;1.024795
6020.000000;1.024630
6019.000000;1.024445
6018.000000;1.024318
6017.000000;1.024253
6016.000000;1.024203
6015.000000;1.024154
6014.000000;1.024151
6013.000000;1.024234
6012.000000;1.024383
6011.000000;1.024553
6010.000000;1.024744
6009.000000;1.024982
6008.000000;1.025260
6007.000000;1.025518
6006.000000;1.025696
6005.000000;1.025798
6004.000000;1.025865
6003.000000;1.025917
6002.000000;1.025911
6001.000000;1.025801
6000.000000;1.025616
5999.000000;1.025479
5998.000000;1.025500
5997.000000;1.025664
5996.000000;1.025819
5995.000000;1.025818
5994.000000;1.025655
5993.000000;1.025466
5992.000000;1.025395
5991.000000;1.025486
5990.000000;1.025670
5989.000000;1.025854
5988.000000;1.025989
5987.000000;1.026084
5986.000000;1.026176
5985.000000;1.026304
5984.000000;1.026491
5983.000000;1.026734
5982.000000;1.026991
5981.000000;1.027191
5980.000000;1.027282
5979.000000;1.027280
5978.000000;1.027253
5977.000000;1.027269
5976.000000;1.027361
5975.000000;1.027528
5974.000000;1.027752
5973.000000;1.027988
5972.000000;1.028195
5971.000000;1.028376
5970.000000;1.028577
5969.000000;1.028811
5968.000000;1.029026
5967.000000;1.029160
5966.000000;1.029219
5965.000000;1.029261
5964.000000;1.029335
5963.000000;1.029473
5962.000000;1.029707
5961.000000;1.030047
5960.000000;1.030441
5959.000000;1.030793
5958.000000;1.031039
5957.000000;1.031191
5956.000000;1.031296
5955.000000;1.031401
5954.000000;1.031550
5953.000000;1.031774
5952.000000;1.032056
5951.000000;1.032328
5950.000000;1.032525
5949.000000;1.032641
5948.000000;1.032740
5947.000000;1.032901
5946.000000;1.033165
5945.000000;1.033491
5944.000000;1.033782
5943.000000;1.033962
5942.000000;1.034050
5941.000000;1.034126
5940.000000;1.034245
5939.000000;1.034404
5938.000000;1.034596
5937.000000;1.034853
5936.000000;1.035204
5935.000000;1.035626
5934.000000;1.036063
5933.000000;1.036462
5932.000000;1.036776
5931.000000;1.036954
5930.000000;1.036977
5929.000000;1.036909
5928.000000;1.036885
5927.000000;1.037009
5926.000000;1.037284
5925.000000;1.037644
5924.000000;1.038029
5923.000000;1.038422
5922.000000;1.038802
5921.000000;1.039101
5920.000000;1.039242
5919.000000;1.039234
5918.000000;1.039185
5917.000000;1.039222
5916.000000;1.039387
5915.000000;1.039628
5914.000000;1.039881
5913.000000;1.040113
5912.000000;1.040302
5911.000000;1.040412
5910.000000;1.040439
5909.000000;1.040440
5908.000000;1.040498
5907.000000;1.040633
5906.000000;1.040780
5905.000000;1.040878
5904.000000;1.040946
5903.000000;1.041047
5902.000000;1.041199
5901.000000;1.041359
5900.000000;1.041503
5899.000000;1.041666
5898.000000;1.041869
5897.000000;1.042049
5896.000000;1.042113
5895.000000;1.042084
5894.000000;1.042106
5893.000000;1.042271
5892.000000;1.042489
5891.000000;1.042575
5890.000000;1.042459
5889.000000;1.042260
5888.000000;1.042162
5887.000000;1.042270
5886.000000;1.042558
5885.000000;1.042925
5884.000000;1.043254
5883.000000;1.043478
5882.000000;1.043616
5881.000000;1.043741
5880.000000;1.043901
5879.000000;1.044076
5878.000000;1.044238
5877.000000;1.044413
5876.000000;1.044653
5875.000000;1.044949
5874.000000;1.045223
5873.000000;1.045416
5872.000000;1.045546
5871.000000;1.045663
5870.000000;1.045789
5869.000000;1.045936
5868.000000;1.046155
5867.000000;1.046502
5866.000000;1.046946
5865.000000;1.047363
5864.000000;1.047668
5863.000000;1.047909
5862.000000;1.048198
5861.000000;1.048571
5860.000000;1.048976
5859.000000;1.049360
5858.000000;1.049722
5857.000000;1.050076
5856.000000;1.050418
5855.000000;1.050757
5854.000000;1.051120
5853.000000;1.051492
5852.000000;1.051805
5851.000000;1.052027
5850.000000;1.052231
5849.000000;1.052523
5848.000000;1.052924
5847.000000;1.053367
5846.000000;1.053787
5845.000000;1.054176
5844.000000;1.054536
5843.000000;1.054851
5842.000000;1.055118
5841.000000;1.055399
5840.000000;1.055782
5839.000000;1.056299
5838.000000;1.056886
5837.000000;1.057431
5836.000000;1.057872
5835.000000;1.058244
5834.000000;1.058618
5833.000000;1.059004
5832.000000;1.059351
5831.000000;1.059634
5830.000000;1.059910
5829.000000;1.060252
5828.000000;1.060681
5827.000000;1.061174
5826.000000;1.061725
5825.000000;1.062337
5824.000000;1.062958
5823.000000;1.063497
5822.000000;1.063902
5821.000000;1.064212
5820.000000;1.064507
5819.000000;1.064840
5818.000000;1.065213
5817.000000;1.065627
5816.000000;1.066101
5815.000000;1.066656
5814.000000;1.067268
5813.000000;1.067857
5812.000000;1.068341
5811.000000;1.068715
5810.000000;1.069053
5809.000000;1.069440
5808.000000;1.069907
5807.000000;1.070448
5806.000000;1.071053
5805.000000;1.071685
5804.000000;1.072277
5803.000000;1.072784
5802.000000;1.073252
5801.000000;1.073783
5800.000000;1.074434
5799.000000;1.075173
5798.000000;1.075921
5797.000000;1.076615
5796.000000;1.077223
5795.000000;1.077740
5794.000000;1.078192
5793.000000;1.078621
5792.000000;1.079059
5791.000000;1.079529
5790.000000;1.080052
5789.000000;1.080631
5788.000000;1.081224
5787.000000;1.081780
5786.000000;1.082307
5785.000000;1.082869
5784.000000;1.083516
5783.000000;1.084234
5782.000000;1.084969
5781.000000;1.085674
5780.000000;1.086319
5779.000000;1.086891
5778.000000;1.087403
5777.000000;1.087888
5776.000000;1.088361
5775.000000;1.088816
5774.000000;1.089262
5773.000000;1.089752
5772.000000;1.090321
5771.000000;1.090927
5770.000000;1.091476
5769.000000;1.091934
5768.000000;1.092373
5767.000000;1.092891
5766.000000;1.093508
5765.000000;1.094164
5764.000000;1.094818
5763.000000;1.095497
5762.000000;1.096237
5761.000000;1.096997
5760.000000;1.097679
5759.000000;1.098225
5758.000000;1.098669
5757.000000;1.099078
5756.000000;1.099498
5755.000000;1.099961
5754.000000;1.100494
5753.000000;1.101086
5752.000000;1.101668
5751.000000;1.102188
5750.000000;1.102685
5749.000000;1.103255
5748.000000;1.103943
5747.000000;1.104690
5746.000000;1.105407
5745.000000;1.106047
5744.000000;1.106616
5743.000000;1.107147
5742.000000;1.107685
5741.000000;1.108278
5740.000000;1.108933
5739.000000;1.109614
5738.000000;1.110285
5737.000000;1.110954
5736.000000;1.111655
5735.000000;1.112388
5734.000000;1.113107
5733.000000;1.113771
5732.000000;1.114391
5731.000000;1.115010
5730.000000;1.115648
5729.000000;1.116285
5728.000000;1.116901
5727.000000;1.117518
5726.000000;1.118175
5725.000000;1.118875
5724.000000;1.119570
5723.000000;1.120198
5722.000000;1.120737
5721.000000;1.121234
5720.000000;1.121793
5719.000000;1.122530
5718.000000;1.123481
5717.000000;1.124526
5716.000000;1.125453
5715.000000;1.126124
5714.000000;1.126590
5713.000000;1.127018
5712.000000;1.127522
5711.000000;1.128092
5710.000000;1.128652
5709.000000;1.129164
5708.000000;1.129671
5707.000000;1.130263
5706.000000;1.130997
5705.000000;1.131825
5704.000000;1.132621
5703.000000;1.133303
5702.000000;1.133922
5701.000000;1.134596
5700.000000;1.135373
5699.000000;1.136205
5698.000000;1.137044
5697.000000;1.137904
5696.000000;1.138792
5695.000000;1.139641
5694.000000;1.140370
5693.000000;1.140972
5692.000000;1.141518
5691.000000;1.142066
5690.000000;1.142633
5689.000000;1.143251
5688.000000;1.143983
5687.000000;1.144852
5686.000000;1.145788
5685.000000;1.146668
5684.000000;1.147415
5683.000000;1.148046
5682.000000;1.148631
5681.000000;1.149237
5680.000000;1.149899
5679.000000;1.150620
5678.000000;1.151365
5677.000000;1.152079
5676.000000;1.152731
5675.000000;1.153347
5674.000000;1.153983
5673.000000;1.154666
5672.000000;1.155361
5671.000000;1.156014
5670.000000;1.156602
5669.000000;1.157162
5668.000000;1.157772
5667.000000;1.158490
5666.000000;1.159316
5665.000000;1.160188
5664.000000;1.161040
5663.000000;1.161833
5662.000000;1.162559
5661.000000;1.163211
5660.000000;1.163791
5659.000000;1.164323
5658.000000;1.164841
5657.000000;1.165363
5656.000000;1.165907
5655.000000;1.166498
5654.000000;1.167143
5653.000000;1.167781
5652.000000;1.168333
5651.000000;1.168804
5650.000000;1.169313
5649.000000;1.169969
5648.000000;1.170743
5647.000000;1.171497
5646.000000;1.172126
5645.000000;1.172656
5644.000000;1.173207
5643.000000;1.173877
5642.000000;1.174654
5641.000000;1.175427
5640.000000;1.176068
5639.000000;1.176525
5638.000000;1.176850
5637.000000;1.177156
5636.000000;1.177538
5635.000000;1.178028
5634.000000;1.178582
5633.000000;1.179127
5632.000000;1.179628
5631.000000;1.180134
5630.000000;1.180739
5629.000000;1.181472
5628.000000;1.182243
5627.000000;1.182889
5626.000000;1.183306
5625.000000;1.183532
5624.000000;1.183738
5623.000000;1.184101
5622.000000;1.184676
5621.000000;1.185373
5620.000000;1.186075
5619.000000;1.186735
5618.000000;1.187350
5617.000000;1.187887
5616.000000;1.188299
5615.000000;1.188617
5614.000000;1.188924
5613.000000;1.189237
5612.000000;1.189487
5611.000000;1.189654
5610.000000;1.189846
5609.000000;1.190197
5608.000000;1.190729
5607.000000;1.191368
5606.000000;1.192042
5605.000000;1.192681
5604.000000;1.193178
5603.000000;1.193443
5602.000000;1.193529
5601.000000;1.193626
5600.000000;1.193882
5599.000000;1.194271
5598.000000;1.194653
5597.000000;1.194940
5596.000000;1.195157
5595.000000;1.195373
5594.000000;1.195602
5593.000000;1.195794
5592.000000;1.195905
5591.000000;1.195969
5590.000000;1.196067
5589.000000;1.196234
5588.000000;1.196438
5587.000000;1.196653
5586.000000;1.196914
5585.000000;1.197259
5584.000000;1.197643
5583.000000;1.197972
5582.000000;1.198213
5581.000000;1.198418
5580.000000;1.198622
5579.000000;1.198775
5578.000000;1.198821
5577.000000;1.198808
5576.000000;1.198875
5575.000000;1.199109
5574.000000;1.199434
5573.000000;1.199679
5572.000000;1.199751
5571.000000;1.199733
5570.000000;1.199804
5569.000000;1.200062
5568.000000;1.200443
5567.000000;1.200801
5566.000000;1.201028
5565.000000;1.201104
5564.000000;1.201079
5563.000000;1.201032
5562.000000;1.201035
5561.000000;1.201108
5560.000000;1.201234
5559.000000;1.201411
5558.000000;1.201651
5557.000000;1.201907
5556.000000;1.202056
5555.000000;1.202019
5554.000000;1.201876
5553.000000;1.201799
5552.000000;1.201875
5551.000000;1.202036
5550.000000;1.202155
5549.000000;1.202176
5548.000000;1.202128
5547.000000;1.202065
5546.000000;1.202024
5545.000000;1.202024
5544.000000;1.202057
5543.000000;1.202108
5542.000000;1.202176
5541.000000;1.202306
5540.000000;1.202552
5539.000000;1.202914
5538.000000;1.203296
5537.000000;1.203547
5536.000000;1.203585
5535.000000;1.203462
5534.000000;1.203315
5533.000000;1.203245
5532.000000;1.203275
5531.000000;1.203396
5530.000000;1.203581
5529.000000;1.203757
5528.000000;1.203841
5527.000000;1.203825
5526.000000;1.203794
5525.000000;1.203805
5524.000000;1.203816
5523.000000;1.203758
5522.000000;1.203660
5521.000000;1.203635
5520.000000;1.203766
5519.000000;1.204048
5518.000000;1.204397
5517.000000;1.204677
5516.000000;1.204758
5515.000000;1.204636
5514.000000;1.204477
5513.000000;1.204477
5512.000000;1.204677
5511.000000;1.204946
5510.000000;1.205144
5509.000000;1.205245
5508.000000;1.205314
5507.000000;1.205428
5506.000000;1.205613
5505.000000;1.205836
5504.000000;1.206051
5503.000000;1.206258
5502.000000;1.206492
5501.000000;1.206735
5500.000000;1.206903
5499.000000;1.206956
5498.000000;1.206985
5497.000000;1.207095
5496.000000;1.207271
5495.000000;1.207421
5494.000000;1.207526
5493.000000;1.207638
5492.000000;1.207749
5491.000000;1.207805
5490.000000;1.207841
5489.000000;1.207987
5488.000000;1.208302
5487.000000;1.208714
5486.000000;1.209138
5485.000000;1.209562
5484.000000;1.209972
5483.000000;1.210314
5482.000000;1.210599
5481.000000;1.210943
5480.000000;1.211395
5479.000000;1.211825
5478.000000;1.212098
5477.000000;1.212281
5476.000000;1.212555
5475.000000;1.212952
5474.000000;1.213295
5473.000000;1.213453
5472.000000;1.213522
5471.000000;1.213690
5470.000000;1.214034
5469.000000;1.214507
5468.000000;1.215042
5467.000000;1.215608
5466.000000;1.216185
5465.000000;1.216711
5464.000000;1.217104
5463.000000;1.217325
5462.000000;1.217448
5461.000000;1.217630
5460.000000;1.217993
5459.000000;1.218535
5458.000000;1.219199
5457.000000;1.219965
5456.000000;1.220836
5455.000000;1.221771
5454.000000;1.222667
5453.000000;1.223456
5452.000000;1.224186
5451.000000;1.224935
5450.000000;1.225668
5449.000000;1.226258
5448.000000;1.226707
5447.000000;1.227220
5446.000000;1.227949
5445.000000;1.228732
5444.000000;1.229300
5443.000000;1.229704
5442.000000;1.230295
5441.000000;1.231286
5440.000000;1.232505
5439.000000;1.233644
5438.000000;1.234608
5437.000000;1.235515
5436.000000;1.236465
5435.000000;1.237462
5434.000000;1.238483
5433.000000;1.239514
5432.000000;1.240592
5431.000000;1.241813
5430.000000;1.243217
5429.000000;1.244693
5428.000000;1.246076
5427.000000;1.247356
5426.000000;1.248697
5425.000000;1.250221
5424.000000;1.251875
5423.000000;1.253559
5422.000000;1.255254
5421.000000;1.256996
5420.000000;1.258784
5419.000000;1.260584
5418.000000;1.262336
5417.000000;1.263953
5416.000000;1.265385
5415.000000;1.266711
5414.000000;1.268094
5413.000000;1.269597
5412.000000;1.271168
5411.000000;1.272839
5410.000000;1.274785
5409.000000;1.277082
5408.000000;1.279566
5407.000000;1.282062
5406.000000;1.284626
5405.000000;1.287418
5404.000000;1.290433
5403.000000;1.293492
5402.000000;1.296432
5401.000000;1.299196
5400.000000;1.301800
5399.000000;1.304332
5398.000000;1.306923
5397.000000;1.309659
5396.000000;1.312527
5395.000000;1.315488
5394.000000;1.318539
5393.000000;1.321672
5392.000000;1.324867
5391.000000;1.328178
5390.000000;1.331721
5389.000000;1.335498
5388.000000;1.339354
5387.000000;1.343188
5386.000000;1.347095
5385.000000;1.351211
5384.000000;1.355515
5383.000000;1.359908
5382.000000;1.364372
5381.000000;1.368893
5380.000000;1.373414
5379.000000;1.377986
5378.000000;1.382799
5377.000000;1.387929
5376.000000;1.393206
5375.000000;1.398481
5374.000000;1.403906
5373.000000;1.409709
5372.000000;1.415840
5371.000000;1.422089
5370.000000;1.428416
5369.000000;1.434929
5368.000000;1.441609
5367.000000;1.448363
5366.000000;1.455286
5365.000000;1.462560
5364.000000;1.470105
5363.000000;1.477665
5362.000000;1.485258
5361.000000;1.493227
5360.000000;1.501751
5359.000000;1.510564
5358.000000;1.519267
5357.000000;1.527742
5356.000000;1.536185
5355.000000;1.544914
5354.000000;1.554206
5353.000000;1.564122
5352.000000;1.574458
5351.000000;1.585030
5350.000000;1.595945
5349.000000;1.607328
5348.000000;1.618974
5347.000000;1.630591
5346.000000;1.642337
5345.000000;1.654706
5344.000000;1.667833
5343.000000;1.681247
5342.000000;1.694534
5341.000000;1.707894
5340.000000;1.721777
5339.000000;1.736346
5338.000000;1.751447
5337.000000;1.766842
5336.000000;1.782379
5335.000000;1.798165
5334.000000;1.814562
5333.000000;1.831815
5332.000000;1.849674
5331.000000;1.867654
5330.000000;1.885667
5329.000000;1.904058
5328.000000;1.923055
5327.000000;1.942572
5326.000000;1.962577
5325.000000;1.983272
5324.000000;2.004800
5323.000000;2.027096
5322.000000;2.050040
5321.000000;2.073355
5320.000000;2.096349
5319.000000;2.118400
5318.000000;2.139919
5317.000000;2.162272
5316.000000;2.186467
5315.000000;2.212264
5314.000000;2.238635
5313.000000;2.264734
5312.000000;2.290388
5311.000000;2.316148
5310.000000;2.342833
5309.000000;2.370490
5308.000000;2.397852
5307.000000;2.423504
5306.000000;2.447593
5305.000000;2.471618
5304.000000;2.496639
5303.000000;2.522525
5302.000000;2.548454
5301.000000;2.573169
5300.000000;2.595717
5299.000000;2.617060
5298.000000;2.639718
5297.000000;2.664677
5296.000000;2.689855
5295.000000;2.712856
5294.000000;2.733657
5293.000000;2.752789
5292.000000;2.769198
5291.000000;2.782766
5290.000000;2.796428
5289.000000;2.812129
5288.000000;2.827035
5287.000000;2.837951
5286.000000;2.847477
5285.000000;2.860869
5284.000000;2.878551
5283.000000;2.896312
5282.000000;2.912015
5281.000000;2.927151
5280.000000;2.942046
5279.000000;2.954850
5278.000000;2.965358
5277.000000;2.974804
5276.000000;2.981399
5275.000000;2.981741
5274.000000;2.976763
5273.000000;2.970249
5272.000000;2.963395
5271.000000;2.955486
5270.000000;2.947939
5269.000000;2.944193
5268.000000;2.945932
5267.000000;2.952022
5266.000000;2.960494
5265.000000;2.969321
5264.000000;2.975833
5263.000000;2.978088
5262.000000;2.977396
5261.000000;2.976847
5260.000000;2.977800
5259.000000;2.979552
5258.000000;2.979953
5257.000000;2.975758
5256.000000;2.965326
5255.000000;2.952259
5254.000000;2.944394
5253.000000;2.946828
5252.000000;2.957621
5251.000000;2.971315
5250.000000;2.983909
5249.000000;2.992582
5248.000000;2.994364
5247.000000;2.989801
5246.000000;2.985084
5245.000000;2.985474
5244.000000;2.988939
5243.000000;2.990253
5242.000000;2.989128
5241.000000;2.988885
5240.000000;2.989163
5239.000000;2.986276
5238.000000;2.980133
5237.000000;2.975139
5236.000000;2.973847
5235.000000;2.974632
5234.000000;2.975671
5233.000000;2.977184
5232.000000;2.979468
5231.000000;2.981305
5230.000000;2.981688
5229.000000;2.981335
5228.000000;2.980695
5227.000000;2.978936
5226.000000;2.975627
5225.000000;2.971533
5224.000000;2.968410
5223.000000;2.969155
5222.000000;2.975927
5221.000000;2.986269
5220.000000;2.992957
5219.000000;2.991350
5218.000000;2.985417
5217.000000;2.981689
5216.000000;2.980172
5215.000000;2.976075
5214.000000;2.968693
5213.000000;2.963139
5212.000000;2.963297
5211.000000;2.967897
5210.000000;2.973672
5209.000000;2.978862
5208.000000;2.982295
5207.000000;2.982320
5206.000000;2.979079
5205.000000;2.974939
5204.000000;2.971520
5203.000000;2.969051
5202.000000;2.968471
5201.000000;2.971057
5200.000000;2.975269
5199.000000;2.976471
5198.000000;2.971887
5197.000000;2.964257
5196.000000;2.958553
5195.000000;2.956154
5194.000000;2.954287
5193.000000;2.950862
5192.000000;2.947721
5191.000000;2.948889
5190.000000;2.955468
5189.000000;2.962091
5188.000000;2.961020
5187.000000;2.951359
5186.000000;2.940480
5185.000000;2.935181
5184.000000;2.935882
5183.000000;2.940217
5182.000000;2.948336
5181.000000;2.961065
5180.000000;2.974906
5179.000000;2.983926
5178.000000;2.986927
5177.000000;2.987642
5176.000000;2.987354
5175.000000;2.982866
5174.000000;2.973167
5173.000000;2.963044
5172.000000;2.957460
5171.000000;2.956172
5170.000000;2.955741
5169.000000;2.954838
5168.000000;2.955376
5167.000000;2.958928
5166.000000;2.963980
5165.000000;2.966972
5164.000000;2.965892
5163.000000;2.962995
5162.000000;2.963129
5161.000000;2.968664
5160.000000;2.976445
5159.000000;2.980661
5158.000000;2.979091
5157.000000;2.974801
5156.000000;2.971522
5155.000000;2.970101
5154.000000;2.969765
5153.000000;2.970108
5152.000000;2.970923
5151.000000;2.971821
5150.000000;2.972102
5149.000000;2.970325
5148.000000;2.965530
5147.000000;2.959674
5146.000000;2.957350
5145.000000;2.961496
5144.000000;2.969074
5143.000000;2.973094
5142.000000;2.970379
5141.000000;2.964389
5140.000000;2.960148
5139.000000;2.959906
5138.000000;2.962970
5137.000000;2.967122
5136.000000;2.970050
5135.000000;2.970995
5134.000000;2.971159
5133.000000;2.971608
5132.000000;2.971456
5131.000000;2.969502
5130.000000;2.966653
5129.000000;2.964601
5128.000000;2.963328
5127.000000;2.962206
5126.000000;2.961867
5125.000000;2.962876
5124.000000;2.963784
5123.000000;2.962811
5122.000000;2.960794
5121.000000;2.959980
5120.000000;2.960455
5119.000000;2.959801
5118.000000;2.956982
5117.000000;2.954656
5116.000000;2.955945
5115.000000;2.960581
5114.000000;2.965113
5113.000000;2.966451
5112.000000;2.964862
5111.000000;2.963438
5110.000000;2.964766
5109.000000;2.967871
5108.000000;2.969161
5107.000000;2.967131
5106.000000;2.964304
5105.000000;2.963712
5104.000000;2.965381
5103.000000;2.967044
5102.000000;2.967596
5101.000000;2.967849
5100.000000;2.967864
5099.000000;2.966333
5098.000000;2.962774
5097.000000;2.958336
5096.000000;2.954581
5095.000000;2.952921
5094.000000;2.954404
5093.000000;2.958183
5092.000000;2.960925
5091.000000;2.959722
5090.000000;2.955134
5089.000000;2.949978
5088.000000;2.946350
5087.000000;2.945224
5086.000000;2.947133
5085.000000;2.950835
5084.000000;2.952558
5083.000000;2.949550
5082.000000;2.944023
5081.000000;2.940879
5080.000000;2.942118
5079.000000;2.945411
5078.000000;2.947158
5077.000000;2.945118
5076.000000;2.939076
5075.000000;2.931784
5074.000000;2.928779
5073.000000;2.934032
5072.000000;2.945244
5071.000000;2.955249
5070.000000;2.958893
5069.000000;2.957246
5068.000000;2.954556
5067.000000;2.953573
5066.000000;2.955213
5065.000000;2.959544
5064.000000;2.964299
5063.000000;2.965508
5062.000000;2.962195
5061.000000;2.957232
5060.000000;2.951970
5059.000000;2.944463
5058.000000;2.935258
5057.000000;2.930039
5056.000000;2.933288
5055.000000;2.942283
5054.000000;2.949015
5053.000000;2.947792
5052.000000;2.939884
5051.000000;2.930348
5050.000000;2.922760
5049.000000;2.917814
5048.000000;2.914835
5047.000000;2.913352
5046.000000;2.913645
5045.000000;2.916229
5044.000000;2.921037
5043.000000;2.927085
5042.000000;2.932552
5041.000000;2.935031
5040.000000;2.932526
5039.000000;2.925334
5038.000000;2.916650
5037.000000;2.910535
5036.000000;2.909688
5035.000000;2.914904
5034.000000;2.924719
5033.000000;2.934439
5032.000000;2.937904
5031.000000;2.933147
5030.000000;2.924876
5029.000000;2.919215
5028.000000;2.917574
5027.000000;2.917156
5026.000000;2.916163
5025.000000;2.915727
5024.000000;2.916605
5023.000000;2.916940
5022.000000;2.914208
5021.000000;2.907597
5020.000000;2.898118
5019.000000;2.888255
5018.000000;2.881696
5017.000000;2.881123
5016.000000;2.885284
5015.000000;2.889586
5014.000000;2.890633
5013.000000;2.889040
5012.000000;2.886962
5011.000000;2.884988
5010.000000;2.882502
5009.000000;2.879058
5008.000000;2.874197
5007.000000;2.867813
5006.000000;2.862352
5005.000000;2.862585
5004.000000;2.870685
5003.000000;2.882067
5002.000000;2.888078
5001.000000;2.883875
5000.000000;2.872142
4999.000000;2.858799
4998.000000;2.848430
4997.000000;2.843483
4996.000000;2.843921
4995.000000;2.846558
4994.000000;2.846497
4993.000000;2.840802
4992.000000;2.830961
4991.000000;2.821026
4990.000000;2.813905
4989.000000;2.810516
4988.000000;2.811153
4987.000000;2.815338
4986.000000;2.820440
4985.000000;2.822770
4984.000000;2.821475
4983.000000;2.819678
4982.000000;2.820238
4981.000000;2.821735
4980.000000;2.819871
4979.000000;2.812311
4978.000000;2.801029
4977.000000;2.789811
4976.000000;2.781135
4975.000000;2.775941
4974.000000;2.774253
4973.000000;2.774855
4972.000000;2.775491
4971.000000;2.774440
4970.000000;2.771565
4969.000000;2.767550
4968.000000;2.762984
4967.000000;2.758554
4966.000000;2.755022
4965.000000;2.752219
4964.000000;2.749084
4963.000000;2.745344
4962.000000;2.742169
4961.000000;2.740289
4960.000000;2.738124
4959.000000;2.732794
4958.000000;2.723131
4957.000000;2.711368
4956.000000;2.702058
4955.000000;2.699191
4954.000000;2.703051
4953.000000;2.709062
4952.000000;2.711162
4951.000000;2.707946
4950.000000;2.703664
4949.000000;2.701908
4948.000000;2.700779
4947.000000;2.696015
4946.000000;2.687248
4945.000000;2.678105
4944.000000;2.671202
4943.000000;2.666541
4942.000000;2.664057
4941.000000;2.664227
4940.000000;2.665839
4939.000000;2.665604
4938.000000;2.661585
4937.000000;2.655838
4936.000000;2.651549
4935.000000;2.648647
4934.000000;2.644091
4933.000000;2.636024
4932.000000;2.626193
4931.000000;2.618076
4930.000000;2.613836
4929.000000;2.613404
4928.000000;2.615454
4927.000000;2.618415
4926.000000;2.620526
4925.000000;2.619538
4924.000000;2.613617
4923.000000;2.603315
4922.000000;2.591848
4921.000000;2.582573
4920.000000;2.576621
4919.000000;2.573205
4918.000000;2.571287
4917.000000;2.569973
4916.000000;2.567908
4915.000000;2.564061
4914.000000;2.559273
4913.000000;2.555440
4912.000000;2.552832
4911.000000;2.549556
4910.000000;2.544163
4909.000000;2.537632
4908.000000;2.532072
4907.000000;2.528658
4906.000000;2.527539
4905.000000;2.528419
4904.000000;2.530084
4903.000000;2.530271
4902.000000;2.527445
4901.000000;2.522440
4900.000000;2.517234
4899.000000;2.512504
4898.000000;2.507403
4897.000000;2.501296
4896.000000;2.494700
4895.000000;2.488665
4894.000000;2.484053
4893.000000;2.481297
4892.000000;2.479984
4891.000000;2.478527
4890.000000;2.475264
4889.000000;2.470280
4888.000000;2.465173
4887.000000;2.460798
4886.000000;2.456190
4885.000000;2.450179
4884.000000;2.443400
4883.000000;2.437819
4882.000000;2.434391
4881.000000;2.431970
4880.000000;2.428727
4879.000000;2.424106
4878.000000;2.418981
4877.000000;2.414326
4876.000000;2.410331
4875.000000;2.406746
4874.000000;2.403559
4873.000000;2.400966
4872.000000;2.398900
4871.000000;2.396913
4870.000000;2.394590
4869.000000;2.391956
4868.000000;2.389367
4867.000000;2.386944
4866.000000;2.384157
4865.000000;2.380198
4864.000000;2.374962
4863.000000;2.369479
4862.000000;2.365020
4861.000000;2.361885
4860.000000;2.359289
4859.000000;2.356148
4858.000000;2.351647
4857.000000;2.345504
4856.000000;2.338537
4855.000000;2.332870
4854.000000;2.330399
4853.000000;2.330555
4852.000000;2.330396
4851.000000;2.327560
4850.000000;2.322573
4849.000000;2.317508
4848.000000;2.313231
4847.000000;2.309002
4846.000000;2.304214
4845.000000;2.299280
4844.000000;2.294839
4843.000000;2.291180
4842.000000;2.288498
4841.000000;2.286666
4840.000000;2.284719
4839.000000;2.281483
4838.000000;2.276982
4837.000000;2.272563
4836.000000;2.269254
4835.000000;2.266606
4834.000000;2.263512
4833.000000;2.259626
4832.000000;2.255522
4831.000000;2.251810
4830.000000;2.248628
4829.000000;2.245773
4828.000000;2.242874
4827.000000;2.239560
4826.000000;2.235793
4825.000000;2.231991
4824.000000;2.228578
4823.000000;2.225471
4822.000000;2.222186
4821.000000;2.218426
4820.000000;2.214500
4819.000000;2.211072
4818.000000;2.208463
4817.000000;2.206179
4816.000000;2.203274
4815.000000;2.199400
4814.000000;2.195354
4813.000000;2.192294
4812.000000;2.190448
4811.000000;2.188911
4810.000000;2.186666
4809.000000;2.183427
4808.000000;2.179402
4807.000000;2.174787
4806.000000;2.169851
4805.000000;2.165155
4804.000000;2.161366
4803.000000;2.158779
4802.000000;2.157148
4801.000000;2.155812
4800.000000;2.153890
4799.000000;2.150738
4798.000000;2.146402
4797.000000;2.141521
4796.000000;2.136659
4795.000000;2.132036
4794.000000;2.128022
4793.000000;2.125322
4792.000000;2.124173
4791.000000;2.123554
4790.000000;2.121822
4789.000000;2.118308
4788.000000;2.113916
4787.000000;2.110039
4786.000000;2.107235
4785.000000;2.105077
4784.000000;2.102977
4783.000000;2.100804
4782.000000;2.098690
4781.000000;2.096457
4780.000000;2.093547
4779.000000;2.089605
4778.000000;2.085016
4777.000000;2.080599
4776.000000;2.076745
4775.000000;2.073141
4774.000000;2.069457
4773.000000;2.065931
4772.000000;2.063014
4771.000000;2.060686
4770.000000;2.058384
4769.000000;2.055563
4768.000000;2.052119
4767.000000;2.048321
4766.000000;2.044636
4765.000000;2.041598
4764.000000;2.039541
4763.000000;2.038252
4762.000000;2.037003
4761.000000;2.035058
4760.000000;2.032177
4759.000000;2.028639
4758.000000;2.024908
4757.000000;2.021309
4756.000000;2.017925
4755.000000;2.014768
4754.000000;2.012008
4753.000000;2.009903
4752.000000;2.008370
4751.000000;2.006782
4750.000000;2.004455
4749.000000;2.001327
4748.000000;1.997892
4747.000000;1.994504
4746.000000;1.991070
4745.000000;1.987488
4744.000000;1.984015
4743.000000;1.980940
4742.000000;1.978134
4741.000000;1.975230
4740.000000;1.972159
4739.000000;1.969234
4738.000000;1.966720
4737.000000;1.964520
4736.000000;1.962323
4735.000000;1.959904
4734.000000;1.957279
4733.000000;1.954715
4732.000000;1.952570
4731.000000;1.950937
4730.000000;1.949432
4729.000000;1.947476
4728.000000;1.944889
4727.000000;1.942059
4726.000000;1.939459
4725.000000;1.937142
4724.000000;1.934822
4723.000000;1.932312
4722.000000;1.929699
4721.000000;1.927135
4720.000000;1.924661
4719.000000;1.922281
4718.000000;1.920047
4717.000000;1.917950
4716.000000;1.915769
4715.000000;1.913212
4714.000000;1.910256
4713.000000;1.907263
4712.000000;1.904672
4711.000000;1.902600
4710.000000;1.900807
4709.000000;1.899030
4708.000000;1.897239
4707.000000;1.895524
4706.000000;1.893825
4705.000000;1.891923
4704.000000;1.889699
4703.000000;1.887310
4702.000000;1.885087
4701.000000;1.883285
4700.000000;1.881881
4699.000000;1.880499
4698.000000;1.878597
4697.000000;1.875911
4696.000000;1.872779
4695.000000;1.869858
4694.000000;1.867466
4693.000000;1.865335
4692.000000;1.863107
4691.000000;1.860843
4690.000000;1.858852
4689.000000;1.857187
4688.000000;1.855620
4687.000000;1.854054
4686.000000;1.852620
4685.000000;1.851305
4684.000000;1.849800
4683.000000;1.847918
4682.000000;1.845925
4681.000000;1.844191
4680.000000;1.842651
4679.000000;1.840865
4678.000000;1.838570
4677.000000;1.835979
4676.000000;1.833473
4675.000000;1.831180
4674.000000;1.828945
4673.000000;1.826665
4672.000000;1.824570
4671.000000;1.823113
4670.000000;1.822490
4669.000000;1.822229
4668.000000;1.821414
4667.000000;1.819469
4666.000000;1.816720
4665.000000;1.814042
4664.000000;1.811980
4663.000000;1.810351
4662.000000;1.808651
4661.000000;1.806647
4660.000000;1.804517
4659.000000;1.802595
4658.000000;1.801108
4657.000000;1.800054
4656.000000;1.799166
4655.000000;1.798015
4654.000000;1.796318
4653.000000;1.794207
4652.000000;1.792173
4651.000000;1.790711
4650.000000;1.789966
4649.000000;1.789672
4648.000000;1.789346
4647.000000;1.788593
4646.000000;1.787281
4645.000000;1.785522
4644.000000;1.783532
4643.000000;1.781535
4642.000000;1.779696
4641.000000;1.778025
4640.000000;1.776346
4639.000000;1.774483
4638.000000;1.772514
4637.000000;1.770750
4636.000000;1.769404
4635.000000;1.768377
4634.000000;1.767441
4633.000000;1.766472
4632.000000;1.765392
4631.000000;1.764009
4630.000000;1.762198
4629.000000;1.760209
4628.000000;1.758556
4627.000000;1.757457
4626.000000;1.756574
4625.000000;1.755405
4624.000000;1.753859
4623.000000;1.752273
4622.000000;1.750967
4621.000000;1.749934
4620.000000;1.748958
4619.000000;1.747852
4618.000000;1.746598
4617.000000;1.745375
4616.000000;1.744465
4615.000000;1.743981
4614.000000;1.743633
4613.000000;1.742923
4612.000000;1.741684
4611.000000;1.740316
4610.000000;1.739331
4609.000000;1.738704
4608.000000;1.737837
4607.000000;1.736202
4606.000000;1.733952
4605.000000;1.731858
4604.000000;1.730630
4603.000000;1.730290
4602.000000;1.730146
4601.000000;1.729425
4600.000000;1.727988
4599.000000;1.726384
4598.000000;1.725209
4597.000000;1.724481
4596.000000;1.723744
4595.000000;1.722677
4594.000000;1.721465
4593.000000;1.720550
4592.000000;1.720162
4591.000000;1.720118
4590.000000;1.719965
4589.000000;1.719268
4588.000000;1.717891
4587.000000;1.716087
4586.000000;1.714283
4585.000000;1.712760
4584.000000;1.711574
4583.000000;1.710771
4582.000000;1.710500
4581.000000;1.710778
4580.000000;1.711260
4579.000000;1.711413
4578.000000;1.710941
4577.000000;1.709950
4576.000000;1.708746
4575.000000;1.707602
4574.000000;1.706703
4573.000000;1.706073
4572.000000;1.705490
4571.000000;1.704639
4570.000000;1.703524
4569.000000;1.702564
4568.000000;1.702088
4567.000000;1.701808
4566.000000;1.701040
4565.000000;1.699512
4564.000000;1.697750
4563.000000;1.696547
4562.000000;1.696193
4561.000000;1.696345
4560.000000;1.696502
4559.000000;1.696389
4558.000000;1.695941
4557.000000;1.695167
4556.000000;1.694195
4555.000000;1.693296
4554.000000;1.692711
4553.000000;1.692448
4552.000000;1.692319
4551.000000;1.692115
4550.000000;1.691701
4549.000000;1.691013
4548.000000;1.690105
4547.000000;1.689195
4546.000000;1.688523
4545.000000;1.688110
4544.000000;1.687740
4543.000000;1.687210
4542.000000;1.686563
4541.000000;1.686009
4540.000000;1.685699
4539.000000;1.685631
4538.000000;1.685737
4537.000000;1.685954
4536.000000;1.686184
4535.000000;1.686259
4534.000000;1.686037
4533.000000;1.685522
4532.000000;1.684869
4531.000000;1.684268
4530.000000;1.683851
4529.000000;1.683676
4528.000000;1.683721
4527.000000;1.683815
4526.000000;1.683662
4525.000000;1.683058
4524.000000;1.682128
4523.000000;1.681278
4522.000000;1.680889
4521.000000;1.681073
4520.000000;1.681686
4519.000000;1.682423
4518.000000;1.682929
4517.000000;1.682999
4516.000000;1.682782
4515.000000;1.682601
4514.000000;1.682499
4513.000000;1.682119
4512.000000;1.681202
4511.000000;1.680015
4510.000000;1.679081
4509.000000;1.678623
4508.000000;1.678556
4507.000000;1.678846
4506.000000;1.679516
4505.000000;1.680261
4504.000000;1.680481
4503.000000;1.679887
4502.000000;1.678859
4501.000000;1.678027
4500.000000;1.677674
4499.000000;1.677688
4498.000000;1.677896
4497.000000;1.678200
4496.000000;1.678498
4495.000000;1.678682
4494.000000;1.678732
4493.000000;1.678685
4492.000000;1.678557
4491.000000;1.678397
4490.000000;1.678365
4489.000000;1.678635
4488.000000;1.679210
4487.000000;1.679894
4486.000000;1.680438
4485.000000;1.680703
4484.000000;1.680748
4483.000000;1.680793
4482.000000;1.681019
4481.000000;1.681363
4480.000000;1.681610
4479.000000;1.681688
4478.000000;1.681734
4477.000000;1.681834
4476.000000;1.681901
4475.000000;1.681963
4474.000000;1.682332
4473.000000;1.683296
4472.000000;1.684722
4471.000000;1.686180
4470.000000;1.687368
4469.000000;1.688264
4468.000000;1.688942
4467.000000;1.689486
4466.000000;1.690098
4465.000000;1.691044
4464.000000;1.692391
4463.000000;1.693841
4462.000000;1.694879
4461.000000;1.695121
4460.000000;1.694623
4459.000000;1.693934
4458.000000;1.693722
4457.000000;1.694258
4456.000000;1.695309
4455.000000;1.696574
4454.000000;1.698033
4453.000000;1.699747
4452.000000;1.701545
4451.000000;1.703187
4450.000000;1.704676
4449.000000;1.706101
4448.000000;1.707306
4447.000000;1.708062
4446.000000;1.708528
4445.000000;1.709169
4444.000000;1.710201
4443.000000;1.711447
4442.000000;1.712765
4441.000000;1.714253
4440.000000;1.715967
4439.000000;1.717787
4438.000000;1.719664
4437.000000;1.721645
4436.000000;1.723504
4435.000000;1.724746
4434.000000;1.725289
4433.000000;1.725797
4432.000000;1.727008
4431.000000;1.728971
4430.000000;1.731233
4429.000000;1.733524
4428.000000;1.735857
4427.000000;1.738124
4426.000000;1.740113
4425.000000;1.741931
4424.000000;1.743934
4423.000000;1.746116
4422.000000;1.747927
4421.000000;1.748947
4420.000000;1.749570
4419.000000;1.750792
4418.000000;1.753371
4417.000000;1.757234
4416.000000;1.761505
4415.000000;1.765041
4414.000000;1.767147
4413.000000;1.768040
4412.000000;1.768632
4411.000000;1.769828
4410.000000;1.771976
4409.000000;1.774872
4408.000000;1.778099
4407.000000;1.781272
4406.000000;1.784073
4405.000000;1.786280
4404.000000;1.787884
4403.000000;1.789122
4402.000000;1.790294
4401.000000;1.791498
4400.000000;1.792645
4399.000000;1.793837
4398.000000;1.795578
4397.000000;1.798351
4396.000000;1.801872
4395.000000;1.805067
4394.000000;1.807154
4393.000000;1.808738
4392.000000;1.811429
4391.000000;1.816201
4390.000000;1.822275
4389.000000;1.827805
4388.000000;1.831599
4387.000000;1.833932
4386.000000;1.835668
4385.000000;1.837094
4384.000000;1.837942
4383.000000;1.838331
4382.000000;1.839125
4381.000000;1.841122
4380.000000;1.844119
4379.000000;1.847079
4378.000000;1.849243
4377.000000;1.850870
4376.000000;1.852735
4375.000000;1.855081
4374.000000;1.857270
4373.000000;1.858596
4372.000000;1.859316
4371.000000;1.860669
4370.000000;1.863741
4369.000000;1.868322
4368.000000;1.873008
4367.000000;1.876495
4366.000000;1.878649
4365.000000;1.880252
4364.000000;1.882042
4363.000000;1.884320
4362.000000;1.887176
4361.000000;1.890503
4360.000000;1.893758
4359.000000;1.896257
4358.000000;1.898028
4357.000000;1.899968
4356.000000;1.902811
4355.000000;1.906195
4354.000000;1.909086
4353.000000;1.910919
4352.000000;1.912040
4351.000000;1.913207
4350.000000;1.915108
4349.000000;1.918129
4348.000000;1.921954
4347.000000;1.925336
4346.000000;1.926861
4345.000000;1.926338
4344.000000;1.925141
4343.000000;1.924936
4342.000000;1.926361
4341.000000;1.929081
4340.000000;1.932716
4339.000000;1.937135
4338.000000;1.941908
4337.000000;1.946138
4336.000000;1.949119
4335.000000;1.951011
4334.000000;1.952634
4333.000000;1.954441
4332.000000;1.955706
4331.000000;1.955067
4330.000000;1.952229
4329.000000;1.949078
4328.000000;1.948612
4327.000000;1.952410
4326.000000;1.959153
4325.000000;1.965790
4324.000000;1.970218
4323.000000;1.972542
4322.000000;1.973833
4321.000000;1.974589
4320.000000;1.974787
4319.000000;1.974741
4318.000000;1.975191
4317.000000;1.976667
4316.000000;1.979177
4315.000000;1.982297
4314.000000;1.985275
4313.000000;1.987454
4312.000000;1.988990
4311.000000;1.990894
4310.000000;1.993970
4309.000000;1.997889
4308.000000;2.001694
4307.000000;2.004970
4306.000000;2.007880
4305.000000;2.010313
4304.000000;2.011987
4303.000000;2.013462
4302.000000;2.016072
4301.000000;2.020323
4300.000000;2.024956
4299.000000;2.028226
4298.000000;2.029848
4297.000000;2.031060
4296.000000;2.033057
4295.000000;2.036052
4294.000000;2.039764
4293.000000;2.044114
4292.000000;2.049005
4291.000000;2.053763
4290.000000;2.057436
4289.000000;2.059885
4288.000000;2.062431
4287.000000;2.066783
4286.000000;2.072969
4285.000000;2.078694
4284.000000;2.081233
4283.000000;2.079955
4282.000000;2.076743
4281.000000;2.074309
4280.000000;2.074552
4279.000000;2.078046
4278.000000;2.084264
4277.000000;2.091881
4276.000000;2.099260
4275.000000;2.105169
4274.000000;2.109225
4273.000000;2.112050
4272.000000;2.115188
4271.000000;2.120223
4270.000000;2.126988
4269.000000;2.132925
4268.000000;2.135569
4267.000000;2.135628
4266.000000;2.136030
4265.000000;2.138205
4264.000000;2.141216
4263.000000;2.144535
4262.000000;2.149351
4261.000000;2.156151
4260.000000;2.163078
4259.000000;2.168636
4258.000000;2.174309
4257.000000;2.181680
4256.000000;2.188519
4255.000000;2.191093
4254.000000;2.189679
4253.000000;2.188662
4252.000000;2.191195
4251.000000;2.195996
4250.000000;2.200164
4249.000000;2.203481
4248.000000;2.207727
4247.000000;2.212772
4246.000000;2.215837
4245.000000;2.214777
4244.000000;2.210779
4243.000000;2.207297
4242.000000;2.207541
4241.000000;2.213316
4240.000000;2.225105
4239.000000;2.241436
4238.000000;2.257570
4237.000000;2.267390
4236.000000;2.269853
4235.000000;2.271266
4234.000000;2.278084
4233.000000;2.288993
4232.000000;2.296229
4231.000000;2.295507
4230.000000;2.291202
4229.000000;2.289169
4228.000000;2.289592
4227.000000;2.289297
4226.000000;2.287342
4225.000000;2.285476
4224.000000;2.285287
4223.000000;2.287765
4222.000000;2.293652
4221.000000;2.300788
4220.000000;2.303576
4219.000000;2.299513
4218.000000;2.294100
4217.000000;2.294772
4216.000000;2.302526
4215.000000;2.314444
4214.000000;2.330300
4213.000000;2.349603
4212.000000;2.365552
4211.000000;2.370231
4210.000000;2.366675
4209.000000;2.366815
4208.000000;2.375952
4207.000000;2.386791
4206.000000;2.390720
4205.000000;2.389441
4204.000000;2.388962
4203.000000;2.388997
4202.000000;2.387211
4201.000000;2.388427
4200.000000;2.399608
4199.000000;2.418411
4198.000000;2.432967
4197.000000;2.432669
4196.000000;2.420949
4195.000000;2.412978
4194.000000;2.418905
4193.000000;2.436682
4192.000000;2.457063
4191.000000;2.473812
4190.000000;2.488220
4189.000000;2.502277
4188.000000;2.512824
4187.000000;2.515274
4186.000000;2.509380
4185.000000;2.496752
4184.000000;2.475839
4183.000000;2.444578
4182.000000;2.411196
4181.000000;2.392555
4180.000000;2.397898
4179.000000;2.423308
4178.000000;2.456269
4177.000000;2.481809
4176.000000;2.492947
4175.000000;2.497646
4174.000000;2.510151
4173.000000;2.535379
4172.000000;2.561854
4171.000000;2.569280
4170.000000;2.547769
4169.000000;2.507061
4168.000000;2.465352
4167.000000;2.436500
4166.000000;2.422798
4165.000000;2.415665
4164.000000;2.407555
4163.000000;2.403585
4162.000000;2.418707
4161.000000;2.460125
4160.000000;2.510532
4159.000000;2.538726
4158.000000;2.541051
4157.000000;2.543653
4156.000000;2.558434
4155.000000;2.571686
4154.000000;2.573182
4153.000000;2.572180
4152.000000;2.570509
4151.000000;2.552775
4150.000000;2.525802
4149.000000;2.521365
4148.000000;2.548648
4147.000000;2.576941
4146.000000;2.573488
4145.000000;2.554489
4144.000000;2.555009
4143.000000;2.577400
4142.000000;2.592680
4141.000000;2.584971
4140.000000;2.572714
4139.000000;2.561241
4138.000000;2.533418
4137.000000;2.491342
4136.000000;2.457658
4135.000000;2.446789
4134.000000;2.461156
4133.000000;2.500482
4132.000000;2.557476
4131.000000;2.603034
4130.000000;2.606258
4129.000000;2.581006
4128.000000;2.566673
4127.000000;2.583776
4126.000000;2.625986
4125.000000;2.666357
4124.000000;2.684187
4123.000000;2.683473
4122.000000;2.654453
4121.000000;2.597824
4120.000000;2.548798
4119.000000;2.523031
4118.000000;2.507515
4117.000000;2.491724
4116.000000;2.481534
4115.000000;2.480615
4114.000000;2.475283
4113.000000;2.455916
4112.000000;2.441964
4111.000000;2.456996
4110.000000;2.496837
4109.000000;2.532634
4108.000000;2.544925
4107.000000;2.538094
4106.000000;2.517260
4105.000000;2.494821
4104.000000;2.495158
4103.000000;2.527719
4102.000000;2.569550
4101.000000;2.581883
4100.000000;2.568112
4099.000000;2.580863
4098.000000;2.658960
4097.000000;2.779065
4096.000000;2.805424
4095.000000;2.681225
4094.000000;2.548409
4093.000000;2.485516
4092.000000;2.495789
4091.000000;2.535735
4090.000000;2.548506
4089.000000;2.532234
4088.000000;2.513800
4087.000000;2.513531
4086.000000;2.521332
4085.000000;2.493367
4084.000000;2.431431
4083.000000;2.381666
4082.000000;2.361913
4081.000000;2.362815
4080.000000;2.382076
4079.000000;2.429446
4078.000000;2.489949
4077.000000;2.522514
4076.000000;2.507631
4075.000000;2.460425
4074.000000;2.405108
4073.000000;2.368167
4072.000000;2.371495
4071.000000;2.415535
4070.000000;2.464108
4069.000000;2.477598
4068.000000;2.492288
4067.000000;2.565284
4066.000000;2.677048
4065.000000;2.722496
4064.000000;2.655575
4063.000000;2.553385
4062.000000;2.512180
4061.000000;2.543573
4060.000000;2.603789
4059.000000;2.692976
4058.000000;2.874037
4057.000000;3.100295
4056.000000;3.094973
4055.000000;3.055283
4054.000000;3.097371
4053.000000;2.942942
4052.000000;2.702336
4051.000000;2.567297
4050.000000;2.502809
4049.000000;2.471680
4048.000000;2.462752
4047.000000;2.488614
4046.000000;2.540605
4045.000000;2.558596
4044.000000;2.492615
4043.000000;2.393136
4042.000000;2.338866
4041.000000;2.350694
4040.000000;2.405284
4039.000000;2.461713
4038.000000;2.483645
4037.000000;2.469935
4036.000000;2.452204
4035.000000;2.451274
4034.000000;2.481251
4033.000000;2.567465
4032.000000;2.774425
4031.000000;3.266449
4030.000000;3.432532
4029.000000;3.037085
4028.000000;2.845927
4027.000000;2.729836
4026.000000;2.841243
4025.000000;3.237689
4024.000000;3.291086
4023.000000;3.274306
4022.000000;3.270869
4021.000000;2.893866
4020.000000;2.658109
4019.000000;2.515335
4018.000000;2.460877
4017.000000;2.477171
4016.000000;2.503365
4015.000000;2.486909
4014.000000;2.463487
4013.000000;2.492664
4012.000000;2.564066
4011.000000;2.616860
4010.000000;2.684201
4009.000000;2.760131
4008.000000;2.664983
4007.000000;2.684092
4006.000000;2.875321
4005.000000;2.638025
4004.000000;2.452515
4003.000000;2.419866
4002.000000;2.456462
4001.000000;2.512652
4000.000000;2.501925
3999.000000;2.465210
3998.000000;2.497747
3997.000000;2.610390
3996.000000;2.732971
3995.000000;2.762690
3994.000000;2.774499
3993.000000;2.944923
3992.000000;3.220519
3991.000000;3.017395
3990.000000;2.853717
3989.000000;2.884449
3988.000000;2.972509
3987.000000;3.016598
3986.000000;2.991831
3985.000000;2.838497
3984.000000;2.669801
3983.000000;2.603413
3982.000000;2.621122
3981.000000;2.621728
3980.000000;2.537977
3979.000000;2.427402
3978.000000;2.376520
3977.000000;2.403529
3976.000000;2.440902
3975.000000;2.466575
3974.000000;2.576968
3973.000000;2.815657
3972.000000;3.052633
3971.000000;3.312681
3970.000000;3.421866
3969.000000;2.939799
3968.000000;2.655741
3967.000000;2.533114
3966.000000;2.536069
3965.000000;2.688854
3964.000000;2.843531
3963.000000;2.678715
3962.000000;2.516494
3961.000000;2.454042
3960.000000;2.464367
3959.000000;2.563445
3958.000000;2.793490
3957.000000;3.129970
3956.000000;3.040936
3955.000000;2.905843
3954.000000;2.786194
3953.000000;2.727990
3952.000000;2.795673
3951.000000;3.155509
3950.000000;3.651666
3949.000000;2.981237
3948.000000;2.905873
3947.000000;2.970145
3946.000000;3.034302
3945.000000;3.098645
3944.000000;3.152405
3943.000000;3.022434
3942.000000;2.818475
3941.000000;2.754300
3940.000000;2.793656
3939.000000;2.830811
3938.000000;2.751633
3937.000000;2.620768
3936.000000;2.592240
3935.000000;2.734267
3934.000000;2.838680
3933.000000;2.702312
3932.000000;2.633508
3931.000000;2.691892
3930.000000;2.747310
3929.000000;2.771748
3928.000000;2.842082
3927.000000;3.009723
3926.000000;3.273041
3925.000000;3.276601
3924.000000;3.072319
3923.000000;3.016805
3922.000000;3.115000
3921.000000;3.212442
3920.000000;3.158876
3919.000000;3.098342
3918.000000;3.159372
3917.000000;3.178842
3916.000000;3.039393
3915.000000;2.835910
3914.000000;2.680288
3913.000000;2.614096
3912.000000;2.623878
3911.000000;2.689555
3910.000000;2.634977
3909.000000;2.557379
3908.000000;2.595657
3907.000000;2.696238
3906.000000;2.785519
3905.000000;2.901604
3904.000000;3.019146
3903.000000;3.135441
3902.000000;3.684138
3901.000000;3.520129
3900.000000;3.095893
3899.000000;3.005013
3898.000000;3.079082
3897.000000;3.035233
3896.000000;2.972061
3895.000000;3.022079
3894.000000;3.161164
3893.000000;3.291054
3892.000000;3.360100
3891.000000;3.239969
3890.000000;3.039666
3889.000000;2.944872
3888.000000;2.970361
3887.000000;3.090953
3886.000000;3.132069
3885.000000;3.051223
3884.000000;2.969443
3883.000000;2.845111
3882.000000;2.740641
3881.000000;2.733183
3880.000000;2.803404
3879.000000;3.000448
3878.000000;3.345104
3877.000000;3.113655
3876.000000;3.042822
3875.000000;3.271968
3874.000000;3.073584
3873.000000;2.822460
3872.000000;2.703016
3871.000000;2.663090
3870.000000;2.704879
3869.000000;2.885194
3868.000000;3.325845
3867.000000;3.197786
3866.000000;2.819251
3865.000000;2.700733
3864.000000;2.674723
3863.000000;2.712693
3862.000000;2.806158
3861.000000;2.971954
3860.000000;3.312939
3859.000000;3.381555
3858.000000;3.035098
3857.000000;2.784839
3856.000000;2.608493
3855.000000;2.528619
3854.000000;2.559899
3853.000000;2.694133
3852.000000;2.903955
3851.000000;3.152353
3850.000000;3.451877
3849.000000;3.569160
3848.000000;3.678685
3847.000000;3.670381
3846.000000;3.126100
3845.000000;2.889860
3844.000000;2.851127
3843.000000;2.928201
3842.000000;3.001097
3841.000000;2.953341
3840.000000;2.926451
3839.000000;3.062641
3838.000000;3.490114
3837.000000;3.314165
3836.000000;2.960517
3835.000000;2.888857
3834.000000;2.930484
3833.000000;3.118191
3832.000000;3.313053
3831.000000;3.279990
3830.000000;3.383587
3829.000000;3.333054
3828.000000;3.108356
3827.000000;3.011229
3826.000000;3.101535
3825.000000;3.515902
3824.000000;3.456710
3823.000000;2.965840
3822.000000;2.706677
3821.000000;2.600610
3820.000000;2.627221
3819.000000;2.765188
3818.000000;2.989997
3817.000000;3.137561
3816.000000;3.003828
3815.000000;2.854305
3814.000000;2.793307
3813.000000;2.784646
3812.000000;2.822392
3811.000000;2.936199
3810.000000;3.083356
3809.000000;3.102470
3808.000000;3.007545
3807.000000;2.895338
3806.000000;2.822998
3805.000000;2.853262
3804.000000;3.038231
3803.000000;3.297680
3802.000000;3.252388
3801.000000;3.083837
3800.000000;2.968457
3799.000000;2.920839
3798.000000;2.879599
3797.000000;2.865250
3796.000000;2.892514
3795.000000;3.109835
3794.000000;3.459838
3793.000000;2.984485
3792.000000;2.778596
3791.000000;2.728876
3790.000000;2.692914
3789.000000;2.691392
3788.000000;2.727011
3787.000000;2.829581
3786.000000;2.990779
3785.000000;3.172796
3784.000000;3.331633
3783.000000;3.396566
3782.000000;3.388332
3781.000000;3.429634
3780.000000;3.384409
3779.000000;3.433290
3778.000000;2.975114
3777.000000;2.537915
3776.000000;2.367321
3775.000000;2.311550
3774.000000;2.372838
3773.000000;2.540717
3772.000000;2.851860
3771.000000;3.236395
3770.000000;2.936967
3769.000000;2.462482
3768.000000;2.521163
3767.000000;2.888203
3766.000000;2.807459
3765.000000;2.944497
3764.000000;2.895524
3763.000000;2.952827
3762.000000;3.108848
3761.000000;3.447327
3760.000000;3.427370
3759.000000;3.161571
3758.000000;3.065574
3757.000000;3.152952
3756.000000;3.203774
3755.000000;3.118623
3754.000000;3.262219
3753.000000;3.733641
3752.000000;3.588511
3751.000000;3.267494
3750.000000;3.042360
3749.000000;2.903013
3748.000000;2.912818
3747.000000;3.056556
3746.000000;3.067941
3745.000000;2.961327
3744.000000;2.903793
3743.000000;3.068804
3742.000000;3.391990
3741.000000;2.897113
3740.000000;2.660303
3739.000000;2.643768
3738.000000;2.758967
3737.000000;3.041373
3736.000000;3.357894
3735.000000;3.440707
3734.000000;3.259343
3733.000000;3.059968
3732.000000;2.922120
3731.000000;2.878409
3730.000000;2.911900
3729.000000;2.970517
3728.000000;3.260786
3727.000000;3.584512
3726.000000;3.090030
3725.000000;2.894653
3724.000000;2.832586
3723.000000;2.795723
3722.000000;2.755421
3721.000000;2.716980
3720.000000;2.727916
3719.000000;2.832393
3718.000000;2.971250
3717.000000;2.871835
3716.000000;2.770957
3715.000000;2.776839
3714.000000;2.821715
3713.000000;2.814178
3712.000000;2.773757
3711.000000;2.776683
3710.000000;3.006258
3709.000000;3.615348
3708.000000;3.123160
3707.000000;2.838073
3706.000000;2.750198
3705.000000;2.737720
3704.000000;2.818389
3703.000000;2.959866
3702.000000;3.121458
3701.000000;3.323489
3700.000000;3.419458
3699.000000;3.383789
3698.000000;3.699546
3697.000000;3.405562
3696.000000;3.076079
3695.000000;2.969154
3694.000000;2.883704
3693.000000;2.861949
3692.000000;2.851708
3691.000000;2.768855
3690.000000;2.686475
3689.000000;2.678470
3688.000000;2.742967
3687.000000;2.820446
3686.000000;2.910045
3685.000000;3.077911
3684.000000;3.178055
3683.000000;3.278489
3682.000000;3.312827
3681.000000;2.997343
3680.000000;2.865829
3679.000000;2.862587
3678.000000;3.043156
3677.000000;3.482193
3676.000000;3.159727
3675.000000;2.912269
3674.000000;2.973608
3673.000000;3.459371
3672.000000;3.784773
3671.000000;3.245380
3670.000000;3.116599
3669.000000;3.026288
3668.000000;2.973089
3667.000000;2.958847
3666.000000;3.052619
3665.000000;2.994682
3664.000000;2.754796
3663.000000;2.625989
3662.000000;2.602529
3661.000000;2.647679
3660.000000;2.803261
3659.000000;3.193983
3658.000000;3.294111
3657.000000;3.001464
3656.000000;3.263001
3655.000000;3.760591
3654.000000;3.056207
3653.000000;2.934898
3652.000000;2.890060
3651.000000;2.780746
3650.000000;2.681621
3649.000000;2.628643
3648.000000;2.650370
3647.000000;2.684526
3646.000000;2.697937
3645.000000;2.670176
3644.000000;2.674566
3643.000000;2.745536
3642.000000;2.873661
3641.000000;2.941160
3640.000000;2.993175
3639.000000;3.341616
3638.000000;3.209432
3637.000000;2.906252
3636.000000;2.905524
3635.000000;3.101413
3634.000000;3.646348
3633.000000;3.274655
3632.000000;2.996166
3631.000000;2.620127
3630.000000;2.441455
3629.000000;2.320392
3628.000000;2.714705
3627.000000;8.000000
3626.000000;3.207217
3625.000000;3.796669
3624.000000;3.587255
3623.000000;3.488108
3622.000000;3.179418
3621.000000;3.093723
3620.000000;3.056510
3619.000000;3.063702
3618.000000;3.095569
3617.000000;3.164079
3616.000000;3.459588
3615.000000;3.906124
3614.000000;3.576246
3613.000000;3.681570
3612.000000;3.458773
3611.000000;3.302355
3610.000000;2.956545
3609.000000;2.696588
3608.000000;2.576425
3607.000000;2.545641
3606.000000;2.707168
3605.000000;2.958836
3604.000000;2.831404
3603.000000;2.660271
3602.000000;2.670039
3601.000000;2.801181
3600.000000;3.019451
3599.000000;3.214736
3598.000000;3.111544
3597.000000;2.926410
3596.000000;2.839292
3595.000000;2.822305
3594.000000;2.879866
3593.000000;2.994186
3592.000000;3.172236
3591.000000;3.211438
3590.000000;3.131659
3589.000000;3.696172
3588.000000;3.208560
3587.000000;2.718390
3586.000000;2.806840
3585.000000;3.250390
3584.000000;3.135497
3583.000000;2.832311
3582.000000;2.705383
3581.000000;2.671908
3580.000000;2.700611
3579.000000;2.782821
3578.000000;2.925378
3577.000000;3.207118
3576.000000;3.611116
3575.000000;3.449765
3574.000000;3.552074
3573.000000;3.875347
3572.000000;3.563215
3571.000000;3.605490
3570.000000;3.924810
3569.000000;3.938386
3568.000000;3.860630
3567.000000;3.340618
3566.000000;3.109531
3565.000000;3.261619
3564.000000;3.460388
3563.000000;3.351790
3562.000000;3.170896
3561.000000;2.987412
3560.000000;2.858251
3559.000000;2.844561
3558.000000;2.935081
3557.000000;3.034001
3556.000000;3.055162
3555.000000;3.039042
3554.000000;3.066505
3553.000000;3.005219
3552.000000;2.861273
3551.000000;2.818750
3550.000000;2.860521
3549.000000;2.903494
3548.000000;2.905743
3547.000000;2.898277
3546.000000;2.973415
3545.000000;3.219548
3544.000000;3.787545
3543.000000;3.863595
3542.000000;3.387555
3541.000000;3.226179
3540.000000;3.076031
3539.000000;2.958035
3538.000000;2.927558
3537.000000;2.991030
3536.000000;3.279633
3535.000000;3.362564
3534.000000;3.098249
3533.000000;3.051688
3532.000000;3.167908
3531.000000;3.216988
3530.000000;2.949061
3529.000000;2.811946
3528.000000;2.861195
3527.000000;2.974576
3526.000000;3.074034
3525.000000;3.149600
3524.000000;3.371964
3523.000000;3.810652
3522.000000;3.446971
3521.000000;3.199013
3520.000000;3.125311
3519.000000;3.139500
3518.000000;3.227265
3517.000000;3.260882
3516.000000;3.329533
3515.000000;3.561509
3514.000000;3.701250
3513.000000;3.826826
3512.000000;3.464304
3511.000000;3.111979
3510.000000;3.012006
3509.000000;2.987210
3508.000000;3.004741
3507.000000;3.024283
3506.000000;3.060417
3505.000000;3.087581
3504.000000;2.956503
3503.000000;2.816415
3502.000000;2.805948
3501.000000;2.883066
3500.000000;2.968951
3499.000000;3.034462
3498.000000;3.163619
3497.000000;3.457909
3496.000000;3.221964
3495.000000;2.994618
3494.000000;2.947707
3493.000000;2.924127
3492.000000;2.891076
3491.000000;2.895039
3490.000000;3.127391
3489.000000;3.228336
3488.000000;2.892343
3487.000000;2.809061
3486.000000;2.820483
3485.000000;2.842042
3484.000000;2.899485
3483.000000;2.997287
3482.000000;3.063835
3481.000000;3.055819
3480.000000;3.032660
3479.000000;3.011865
3478.000000;2.985257
3477.000000;2.942818
3476.000000;2.926533
3475.000000;3.027216
3474.000000;3.197590
3473.000000;3.139812
3472.000000;3.094403
3471.000000;3.257199
3470.000000;3.513929
3469.000000;3.263698
3468.000000;3.059838
3467.000000;2.975434
3466.000000;2.943590
3465.000000;2.985900
3464.000000;3.143478
3463.000000;3.237884
3462.000000;3.085033
3461.000000;3.058374
3460.000000;3.168068
3459.000000;3.173420
3458.000000;3.051967
3457.000000;3.060340
3456.000000;3.289644
3455.000000;3.108173
3454.000000;2.816875
3453.000000;2.759958
3452.000000;2.843500
3451.000000;3.067252
3450.000000;3.590635
3449.000000;3.334942
3448.000000;2.949684
3447.000000;2.790725
3446.000000;2.760556
3445.000000;2.828984
3444.000000;2.893996
3443.000000;2.889028
3442.000000;2.860036
3441.000000;2.849588
3440.000000;2.910325
3439.000000;3.121503
3438.000000;3.363626
3437.000000;3.371436
3436.000000;3.695729
3435.000000;3.484817
3434.000000;3.056504
3433.000000;2.912462
3432.000000;2.815811
3431.000000;2.739483
3430.000000;2.697463
3429.000000;2.710836
3428.000000;2.733115
3427.000000;2.726322
3426.000000;2.755293
3425.000000;2.834576
3424.000000;2.896509
3423.000000;2.871495
3422.000000;2.788523
3421.000000;2.778205
3420.000000;2.900812
3419.000000;3.254244
3418.000000;3.726242
3417.000000;3.114980
3416.000000;2.840389
3415.000000;2.695938
3414.000000;2.645447
3413.000000;2.686453
3412.000000;2.793547
3411.000000;2.912815
3410.000000;2.944140
3409.000000;2.887536
3408.000000;2.845860
3407.000000;2.884998
3406.000000;2.965046
3405.000000;3.019462
3404.000000;3.070012
3403.000000;3.141664
3402.000000;3.217305
3401.000000;3.310022
3400.000000;3.853723
3399.000000;3.546365
3398.000000;3.125830
3397.000000;2.995621
3396.000000;2.882119
3395.000000;2.765361
3394.000000;2.677038
3393.000000;2.666944
3392.000000;2.767516
3391.000000;2.982276
3390.000000;3.244470
3389.000000;3.394266
3388.000000;3.287661
3387.000000;3.142571
3386.000000;3.175364
3385.000000;3.485925
3384.000000;3.575084
3383.000000;3.249804
3382.000000;3.132102
3381.000000;3.192827
3380.000000;3.194858
3379.000000;2.889748
3378.000000;2.722544
3377.000000;2.678230
3376.000000;2.678410
3375.000000;2.693085
3374.000000;2.738486
3373.000000;2.806754
3372.000000;2.825054
3371.000000;2.768446
3370.000000;2.716818
3369.000000;2.754532
3368.000000;2.931001
3367.000000;3.285335
3366.000000;4.007406
3365.000000;3.583543
3364.000000;3.151473
3363.000000;2.951116
3362.000000;2.877148
3361.000000;2.950751
3360.000000;3.190561
3359.000000;3.176283
3358.000000;3.051516
3357.000000;3.083717
3356.000000;3.063826
3355.000000;2.999618
3354.000000;3.008175
3353.000000;3.073930
3352.000000;3.100864
3351.000000;3.040289
3350.000000;2.976030
3349.000000;2.970070
3348.000000;3.005555
3347.000000;3.025601
3346.000000;3.002077
3345.000000;2.966946
3344.000000;2.924975
3343.000000;2.852887
3342.000000;2.756493
3341.000000;2.672602
3340.000000;2.658942
3339.000000;2.782050
3338.000000;3.189628
3337.000000;3.234030
3336.000000;3.051596
3335.000000;3.087900
3334.000000;3.061927
3333.000000;2.933616
3332.000000;2.811618
3331.000000;2.740148
3330.000000;2.710602
3329.000000;2.694647
3328.000000;2.709735
3327.000000;2.803289
3326.000000;2.864459
3325.000000;2.795403
3324.000000;2.767635
3323.000000;2.805463
3322.000000;2.860133
3321.000000;2.897524
3320.000000;2.882482
3319.000000;2.819643
3318.000000;2.792699
3317.000000;2.881824
3316.000000;3.105814
3315.000000;3.036480
3314.000000;2.920811
3313.000000;2.984803
3312.000000;3.110312
3311.000000;3.152023
3310.000000;3.197087
3309.000000;3.432681
3308.000000;3.615755
3307.000000;3.224535
3306.000000;3.264298
3305.000000;3.654282
3304.000000;3.104893
3303.000000;2.791167
3302.000000;2.682145
3301.000000;2.703867
3300.000000;2.826994
3299.000000;2.952698
3298.000000;2.867414
3297.000000;2.777026
3296.000000;2.848204
3295.000000;3.288275
3294.000000;3.650596
3293.000000;3.513286
3292.000000;3.381724
3291.000000;3.053052
3290.000000;2.991198
3289.000000;3.010782
3288.000000;2.969569
3287.000000;2.934648
3286.000000;2.947212
3285.000000;2.974040
3284.000000;3.044574
3283.000000;3.168518
3282.000000;3.297945
3281.000000;3.451699
3280.000000;3.550043
3279.000000;3.395780
3278.000000;3.326661
3277.000000;3.135965
3276.000000;2.987337
3275.000000;3.021310
3274.000000;3.104325
3273.000000;3.028909
3272.000000;2.926630
3271.000000;2.867436
3270.000000;2.864069
3269.000000;2.982085
3268.000000;3.253655
3267.000000;3.284634
3266.000000;3.253538
3265.000000;3.204844
3264.000000;3.097411
3263.000000;3.158675
3262.000000;3.229061
3261.000000;3.096123
3260.000000;2.901458
3259.000000;2.768354
3258.000000;2.720208
3257.000000;2.753086
3256.000000;2.844812
3255.000000;2.906494
3254.000000;2.902384
3253.000000;2.933268
3252.000000;3.055815
3251.000000;3.288394
3250.000000;3.193843
3249.000000;2.975566
3248.000000;2.939039
3247.000000;3.003490
3246.000000;3.186142
3245.000000;3.257366
3244.000000;2.987352
3243.000000;2.817888
3242.000000;2.770119
3241.000000;2.812954
3240.000000;2.928591
3239.000000;3.174162
3238.000000;3.342388
3237.000000;3.136026
3236.000000;3.031336
3235.000000;3.082652
3234.000000;3.328584
3233.000000;3.728890
3232.000000;3.441708
3231.000000;3.353024
3230.000000;3.436828
3229.000000;3.140075
3228.000000;2.888128
3227.000000;2.833349
3226.000000;2.960140
3225.000000;3.147775
3224.000000;3.090458
3223.000000;3.114632
3222.000000;3.442274
3221.000000;3.993647
3220.000000;3.466781
3219.000000;3.536676
3218.000000;3.839136
3217.000000;3.404269
3216.000000;3.043775
3215.000000;2.972518
3214.000000;3.028543
3213.000000;3.009238
3212.000000;2.977452
3211.000000;3.036966
3210.000000;3.831209
3209.000000;3.306432
3208.000000;2.870222
3207.000000;2.810397
3206.000000;2.923774
3205.000000;3.520254
3204.000000;3.242765
3203.000000;3.120149
3202.000000;3.258340
3201.000000;3.179478
3200.000000;3.154891
3199.000000;3.199850
3198.000000;3.058799
3197.000000;2.991699
3196.000000;3.005677
3195.000000;3.155114
3194.000000;3.562348
3193.000000;3.355421
3192.000000;3.151331
3191.000000;3.019778
3190.000000;2.800012
3189.000000;2.721930
3188.000000;2.752551
3187.000000;3.174854
3186.000000;3.344115
3185.000000;2.890676
3184.000000;2.884353
3183.000000;3.167627
3182.000000;3.064688
3181.000000;2.887448
3180.000000;2.960263
3179.000000;3.234347
3178.000000;3.145859
3177.000000;2.945152
3176.000000;2.895701
3175.000000;2.881247
3174.000000;2.892202
3173.000000;3.032659
3172.000000;3.403652
3171.000000;4.046814
3170.000000;3.713395
3169.000000;3.368940
3168.000000;3.147573
3167.000000;3.020678
3166.000000;3.002460
3165.000000;3.062399
3164.000000;3.095941
3163.000000;3.079148
3162.000000;3.087193
3161.000000;3.098711
3160.000000;3.088763
3159.000000;3.088971
3158.000000;3.102618
3157.000000;3.097233
3156.000000;3.098595
3155.000000;3.166682
3154.000000;3.330123
3153.000000;3.488457
3152.000000;3.319222
3151.000000;3.247567
3150.000000;3.272142
3149.000000;3.163393
3148.000000;3.108409
3147.000000;3.078694
3146.000000;3.068257
3145.000000;3.265551
3144.000000;3.822476
3143.000000;3.994155
3142.000000;3.977937
3141.000000;3.308042
3140.000000;2.999246
3139.000000;2.783390
3138.000000;2.713225
3137.000000;2.770689
3136.000000;2.923631
3135.000000;3.068422
3134.000000;3.158791
3133.000000;3.284048
3132.000000;3.336520
3131.000000;3.150535
3130.000000;2.985056
3129.000000;2.943990
3128.000000;2.980201
3127.000000;2.933350
3126.000000;2.897478
3125.000000;2.985629
3124.000000;3.393914
3123.000000;3.134923
3122.000000;2.817890
3121.000000;2.750814
3120.000000;2.870502
3119.000000;3.181116
3118.000000;3.485650
3117.000000;3.368032
3116.000000;3.187092
3115.000000;3.245416
3114.000000;3.570850
3113.000000;3.291407
3112.000000;3.058413
3111.000000;3.275728
3110.000000;3.544609
3109.000000;3.002388
3108.000000;2.821904
3107.000000;2.810905
3106.000000;2.933026
3105.000000;3.113942
3104.000000;3.422025
3103.000000;3.492208
3102.000000;3.025538
3101.000000;2.815595
3100.000000;2.783062
3099.000000;2.864073
3098.000000;3.011678
3097.000000;3.110480
3096.000000;3.126330
3095.000000;2.923149
3094.000000;2.751707
3093.000000;2.761565
3092.000000;2.999819
3091.000000;3.504631
3090.000000;3.429620
3089.000000;3.368668
3088.000000;3.224566
3087.000000;3.226634
3086.000000;3.211594
3085.000000;3.039843
3084.000000;2.914046
3083.000000;2.811556
3082.000000;2.739397
3081.000000;2.760636
3080.000000;2.931468
3079.000000;2.980281
3078.000000;2.821820
3077.000000;2.777166
3076.000000;2.841092
3075.000000;2.974907
3074.000000;3.151616
3073.000000;3.376427
3072.000000;3.961846
3071.000000;3.261664
3070.000000;2.925151
3069.000000;2.806391
3068.000000;2.790124
3067.000000;2.825921
3066.000000;2.880314
3065.000000;2.977255
3064.000000;3.228375
3063.000000;3.337545
3062.000000;3.136001
3061.000000;3.170038
3060.000000;3.093219
3059.000000;2.994057
3058.000000;3.020563
3057.000000;3.431143
3056.000000;3.822564
3055.000000;3.176079
3054.000000;3.183655
3053.000000;3.292351
3052.000000;3.218747
3051.000000;2.985775
3050.000000;2.809069
3049.000000;2.699088
3048.000000;2.670759
3047.000000;2.729035
3046.000000;2.867939
3045.000000;2.971275
3044.000000;2.864801
3043.000000;2.740794
3042.000000;2.698356
3041.000000;2.711154
3040.000000;2.727816
3039.000000;2.715496
3038.000000;2.684163
3037.000000;2.686322
3036.000000;2.791153
3035.000000;3.091907
3034.000000;3.132305
3033.000000;2.851572
3032.000000;2.829748
3031.000000;2.929020
3030.000000;3.237846
3029.000000;3.305380
3028.000000;2.929373
3027.000000;2.799101
3026.000000;2.817862
3025.000000;2.944341
3024.000000;3.049129
3023.000000;2.957808
3022.000000;2.820208
3021.000000;2.802433
3020.000000;2.939332
3019.000000;3.707663
3018.000000;3.284261
3017.000000;3.017901
3016.000000;3.107517
3015.000000;3.389095
3014.000000;3.412905
3013.000000;3.253308
3012.000000;3.335306
3011.000000;3.488896
3010.000000;3.507390
3009.000000;3.382044
3008.000000;3.170249
3007.000000;3.232427
3006.000000;3.622541
3005.000000;3.313602
3004.000000;3.066357
3003.000000;3.123899
3002.000000;3.357298
3001.000000;3.646657
3000.000000;3.370988
2999.000000;3.072235
2998.000000;3.289182
2997.000000;3.275016
2996.000000;2.836235
2995.000000;2.747925
2994.000000;2.948189
2993.000000;3.351188
2992.000000;3.192907
2991.000000;3.203906
2990.000000;3.160412
2989.000000;2.939872
2988.000000;2.847129
2987.000000;2.820622
2986.000000;2.821650
2985.000000;2.871576
2984.000000;2.986050
2983.000000;3.055292
2982.000000;3.080797
2981.000000;3.418636
2980.000000;3.464351
2979.000000;3.148123
2978.000000;3.274815
2977.000000;3.088117
2976.000000;2.904724
2975.000000;2.958090
2974.000000;3.175229
2973.000000;3.035461
2972.000000;2.749400
2971.000000;2.621839
2970.000000;2.581115
2969.000000;2.622061
2968.000000;2.754335
2967.000000;2.992421
2966.000000;3.298428
2965.000000;3.662909
2964.000000;3.436602
2963.000000;3.205160
2962.000000;3.099282
2961.000000;2.988081
2960.000000;2.957865
2959.000000;3.079661
2958.000000;3.384957
2957.000000;3.504324
2956.000000;3.553099
2955.000000;3.855125
2954.000000;3.697256
2953.000000;3.500521
2952.000000;3.200792
2951.000000;2.908291
2950.000000;2.759338
2949.000000;2.760734
2948.000000;2.899258
2947.000000;3.039706
2946.000000;2.940274
2945.000000;2.822625
2944.000000;2.831211
2943.000000;2.890982
2942.000000;2.888320
2941.000000;2.905799
2940.000000;3.049470
2939.000000;3.210765
2938.000000;3.045257
2937.000000;3.054661
2936.000000;3.629922
2935.000000;2.938359
2934.000000;2.701795
2933.000000;2.782253
2932.000000;3.188177
2931.000000;3.475044
2930.000000;3.139127
2929.000000;3.264907
2928.000000;3.462666
2927.000000;3.446322
2926.000000;3.240432
2925.000000;2.931053
2924.000000;2.744613
2923.000000;2.646082
2922.000000;2.629443
2921.000000;2.712755
2920.000000;2.943299
2919.000000;3.403038
2918.000000;3.471010
2917.000000;3.171926
2916.000000;3.190900
2915.000000;3.494058
2914.000000;3.100036
2913.000000;2.822760
2912.000000;2.777265
2911.000000;2.783777
2910.000000;2.762790
2909.000000;2.693255
2908.000000;2.653690
2907.000000;2.696961
2906.000000;2.820653
2905.000000;2.991546
2904.000000;3.167092
2903.000000;3.295773
2902.000000;3.264736
2901.000000;3.136825
2900.000000;3.065356
2899.000000;3.063614
2898.000000;3.053824
2897.000000;2.915602
2896.000000;2.768501
2895.000000;2.718685
2894.000000;2.737230
2893.000000;2.780826
2892.000000;2.872678
2891.000000;3.048176
2890.000000;3.206309
2889.000000;3.439706
2888.000000;3.492961
2887.000000;3.222612
2886.000000;3.294242
2885.000000;3.665305
2884.000000;3.350452
2883.000000;3.133631
2882.000000;3.156976
2881.000000;3.335465
2880.000000;3.489384
2879.000000;3.497031
2878.000000;3.663032
2877.000000;3.656259
2876.000000;3.370905
2875.000000;3.213457
2874.000000;3.090501
2873.000000;2.985520
2872.000000;2.909495
2871.000000;2.834111
2870.000000;2.729113
2869.000000;2.659177
2868.000000;2.690046
2867.000000;2.836235
2866.000000;3.338291
2865.000000;3.641235
2864.000000;3.203418
2863.000000;3.223852
2862.000000;3.047895
2861.000000;2.859239
2860.000000;2.801997
2859.000000;2.831288
2858.000000;2.976804
2857.000000;3.329953
2856.000000;3.379695
2855.000000;3.097868
2854.000000;2.994368
2853.000000;2.985058
2852.000000;3.009557
2851.000000;2.944371
2850.000000;2.791940
2849.000000;2.673215
2848.000000;2.625887
2847.000000;2.644688
2846.000000;2.712680
2845.000000;2.872135
2844.000000;3.042430
2843.000000;2.923766
2842.000000;2.819002
2841.000000;2.920070
2840.000000;3.216774
2839.000000;3.122556
2838.000000;2.894558
2837.000000;2.879051
2836.000000;2.954399
2835.000000;3.069425
2834.000000;3.184158
2833.000000;3.487895
2832.000000;3.739083
2831.000000;3.365537
2830.000000;3.197807
2829.000000;3.120965
2828.000000;3.136756
2827.000000;3.294521
2826.000000;3.700706
2825.000000;4.372468
2824.000000;3.623681
2823.000000;3.311092
2822.000000;3.190347
2821.000000;3.225605
2820.000000;3.342840
2819.000000;3.398695
2818.000000;3.389365
2817.000000;3.178556
2816.000000;2.978162
2815.000000;2.907683
2814.000000;2.940866
2813.000000;3.027914
2812.000000;3.149832
2811.000000;3.402385
2810.000000;3.559140
2809.000000;3.175040
2808.000000;2.926448
2807.000000;2.844521
2806.000000;2.822487
2805.000000;2.808221
2804.000000;2.763081
2803.000000;2.723024
2802.000000;2.729346
2801.000000;2.839637
2800.000000;3.216424
2799.000000;3.193191
2798.000000;2.846686
2797.000000;2.805429
2796.000000;3.122761
2795.000000;3.315858
2794.000000;2.843870
2793.000000;2.739014
2792.000000;2.755244
2791.000000;2.822629
2790.000000;2.955839
2789.000000;3.032684
2788.000000;3.029309
2787.000000;2.985906
2786.000000;3.003729
2785.000000;3.108859
2784.000000;3.380984
2783.000000;3.608268
2782.000000;3.251812
2781.000000;3.020120
2780.000000;2.944464
2779.000000;2.897769
2778.000000;2.885563
2777.000000;2.946261
2776.000000;3.003930
2775.000000;2.971974
2774.000000;2.929740
2773.000000;2.930466
2772.000000;2.960491
2771.000000;3.004522
2770.000000;3.048990
2769.000000;3.157755
2768.000000;3.216136
2767.000000;3.027650
2766.000000;2.832420
2765.000000;2.946047
2764.000000;3.363953
2763.000000;2.919857
2762.000000;2.677614
2761.000000;2.675334
2760.000000;2.686040
2759.000000;2.642436
2758.000000;2.607551
2757.000000;2.643660
2756.000000;2.752570
2755.000000;2.962096
2754.000000;3.108322
2753.000000;2.998706
2752.000000;2.972451
2751.000000;3.282138
2750.000000;3.535668
2749.000000;3.049311
2748.000000;2.846322
2747.000000;2.794661
2746.000000;2.821117
2745.000000;2.938039
2744.000000;3.120829
2743.000000;3.201410
2742.000000;3.081490
2741.000000;3.007253
2740.000000;3.010706
2739.000000;2.986252
2738.000000;2.939872
2737.000000;2.930560
2736.000000;2.965488
2735.000000;3.089426
2734.000000;3.246009
2733.000000;3.523325
2732.000000;3.675576
2731.000000;3.183816
2730.000000;2.963304
2729.000000;2.898399
2728.000000;2.925109
2727.000000;2.995438
2726.000000;2.976832
2725.000000;2.942228
2724.000000;3.047559
2723.000000;3.387656
2722.000000;3.631731
2721.000000;3.642352
2720.000000;3.998130
2719.000000;3.815120
2718.000000;3.222730
2717.000000;2.938533
2716.000000;2.841599
2715.000000;2.941610
2714.000000;3.199283
2713.000000;3.061955
2712.000000;2.874085
2711.000000;2.891921
2710.000000;3.030351
2709.000000;3.217565
2708.000000;3.397535
2707.000000;3.638523
2706.000000;3.581451
2705.000000;3.440411
2704.000000;3.616082
2703.000000;3.938090
2702.000000;4.318089
2701.000000;3.576473
2700.000000;3.081150
2699.000000;2.900736
2698.000000;2.865697
2697.000000;2.875416
2696.000000;2.880096
2695.000000;2.897792
2694.000000;3.007798
2693.000000;3.251996
2692.000000;3.213676
2691.000000;2.979395
2690.000000;2.839597
2689.000000;2.775212
2688.000000;2.821360
2687.000000;3.047124
2686.000000;3.483500
2685.000000;3.648016
2684.000000;3.332506
2683.000000;3.057360
2682.000000;2.944668
2681.000000;2.982935
2680.000000;3.249113
2679.000000;3.452955
2678.000000;3.169684
2677.000000;3.048602
2676.000000;2.986667
2675.000000;2.944708
2674.000000;2.988106
2673.000000;3.144294
2672.000000;3.438498
2671.000000;3.622858
2670.000000;3.242649
2669.000000;2.921211
2668.000000;2.754904
2667.000000;2.658537
2666.000000;2.601542
2665.000000;2.602063
2664.000000;2.681160
2663.000000;2.846103
2662.000000;3.028127
2661.000000;3.264397
2660.000000;3.623151
2659.000000;3.360599
2658.000000;3.101677
2657.000000;2.922093
2656.000000;2.806620
2655.000000;2.842924
2654.000000;3.014753
2653.000000;3.311565
2652.000000;3.362557
2651.000000;3.038304
2650.000000;2.907760
2649.000000;2.966901
2648.000000;2.990917
2647.000000;2.911793
2646.000000;2.909493
2645.000000;3.139911
2644.000000;3.403074
2643.000000;3.025677
2642.000000;2.770888
2641.000000;2.675523
2640.000000;2.693800
2639.000000;2.866869
2638.000000;3.103321
2637.000000;3.076955
2636.000000;2.948080
2635.000000;2.851209
2634.000000;2.778957
2633.000000;2.760135
2632.000000;2.802053
2631.000000;2.879971
2630.000000;2.902431
2629.000000;2.939930
2628.000000;3.185980
2627.000000;3.173787
2626.000000;2.941228
2625.000000;3.146525
2624.000000;3.511801
2623.000000;3.089438
2622.000000;2.929249
2621.000000;2.937323
2620.000000;2.966785
2619.000000;2.973402
2618.000000;3.097584
2617.000000;3.661125
2616.000000;3.277731
2615.000000;3.189079
2614.000000;3.963698
2613.000000;3.256744
2612.000000;3.148257
2611.000000;3.266289
2610.000000;3.132389
2609.000000;3.049837
2608.000000;3.245390
2607.000000;3.855782
2606.000000;3.037518
2605.000000;2.763176
2604.000000;2.728941
2603.000000;2.776638
2602.000000;2.824178
2601.000000;2.781465
2600.000000;2.767347
2599.000000;2.811654
2598.000000;2.928027
2597.000000;3.071905
2596.000000;3.238111
2595.000000;3.785700
2594.000000;3.865788
2593.000000;3.466532
2592.000000;3.419043
2591.000000;3.182576
2590.000000;3.058638
2589.000000;3.079476
2588.000000;3.114923
2587.000000;3.045108
2586.000000;3.001221
2585.000000;3.025200
2584.000000;3.162452
2583.000000;3.646473
2582.000000;3.417016
2581.000000;3.120333
2580.000000;3.128746
2579.000000;3.111099
2578.000000;3.085464
2577.000000;3.109905
2576.000000;3.034796
2575.000000;2.885841
2574.000000;2.767024
2573.000000;2.688451
2572.000000;2.664708
2571.000000;2.696489
2570.000000;2.788251
2569.000000;2.877197
2568.000000;2.938462
2567.000000;3.187644
2566.000000;3.260181
2565.000000;3.001464
2564.000000;2.930636
2563.000000;2.979943
2562.000000;3.181097
2561.000000;3.237335
2560.000000;3.020387
2559.000000;2.928563
2558.000000;2.904586
2557.000000;2.860525
2556.000000;2.755026
2555.000000;2.724062
2554.000000;2.775093
2553.000000;3.081040
2552.000000;3.850084
2551.000000;3.051215
2550.000000;2.818954
2549.000000;2.746950
2548.000000;2.734704
2547.000000;2.783333
2546.000000;2.820530
2545.000000;2.901278
2544.000000;3.033955
2543.000000;3.088721
2542.000000;2.971174
2541.000000;2.950969
2540.000000;3.035140
2539.000000;3.222913
2538.000000;3.702182
2537.000000;3.617169
2536.000000;3.274581
2535.000000;3.031178
2534.000000;2.992976
2533.000000;3.267268
2532.000000;3.844561
2531.000000;3.961300
2530.000000;3.233633
2529.000000;3.021870
2528.000000;3.145242
2527.000000;3.415971
2526.000000;3.181686
2525.000000;2.986507
2524.000000;2.937560
2523.000000;2.848292
2522.000000;2.706466
2521.000000;2.605439
2520.000000;2.608698
2519.000000;2.721781
2518.000000;2.939607
2517.000000;3.133403
2516.000000;3.149683
2515.000000;3.142703
2514.000000;3.275292
2513.000000;3.151445
2512.000000;3.016766
2511.000000;3.323489
2510.000000;3.343886
2509.000000;2.966962
2508.000000;3.002608
2507.000000;3.519598
2506.000000;3.524273
2505.000000;3.174629
2504.000000;3.058243
2503.000000;3.020628
2502.000000;3.107193
2501.000000;3.174611
2500.000000;3.120254
2499.000000;3.010832
2498.000000;2.916036
2497.000000;2.896340
2496.000000;3.032412
2495.000000;3.476138
2494.000000;3.337912
2493.000000;2.929575
2492.000000;2.860166
2491.000000;2.881751
2490.000000;2.902930
2489.000000;2.905358
2488.000000;2.954905
2487.000000;3.387399
2486.000000;3.509764
2485.000000;3.022879
2484.000000;2.935804
2483.000000;2.935360
2482.000000;2.944781
2481.000000;2.972962
2480.000000;3.152457
2479.000000;3.467326
2478.000000;3.187003
2477.000000;3.024007
2476.000000;3.155826
2475.000000;3.660657
2474.000000;3.431690
2473.000000;3.154779
2472.000000;3.152833
2471.000000;3.235142
2470.000000;3.295376
2469.000000;3.166660
2468.000000;3.026321
2467.000000;3.018342
2466.000000;3.087850
2465.000000;3.079116
2464.000000;3.060389
2463.000000;3.111586
2462.000000;3.190297
2461.000000;3.387976
2460.000000;3.831634
2459.000000;3.704513
2458.000000;3.464393
2457.000000;3.526317
2456.000000;3.998333
2455.000000;3.723986
2454.000000;3.381866
2453.000000;3.250009
2452.000000;3.350777
2451.000000;4.194138
2450.000000;3.541848
2449.000000;3.347059
2448.000000;3.194385
2447.000000;2.927705
2446.000000;2.797667
2445.000000;2.751545
2444.000000;2.779113
2443.000000;2.885083
2442.000000;3.157290
2441.000000;3.437569
2440.000000;3.195660
2439.000000;3.084189
2438.000000;3.122898
2437.000000;3.247291
2436.000000;3.285193
2435.000000;3.127436
2434.000000;3.001398
2433.000000;2.979404
2432.000000;3.052417
2431.000000;3.133477
2430.000000;3.187981
2429.000000;3.373382
2428.000000;3.461512
2427.000000;3.003236
2426.000000;2.762662
2425.000000;2.708579
2424.000000;2.854984
2423.000000;3.351210
2422.000000;3.175743
2421.000000;2.981180
2420.000000;3.013750
2419.000000;3.062016
2418.000000;3.106307
2417.000000;3.211701
2416.000000;3.236577
2415.000000;3.015637
2414.000000;2.926260
2413.000000;2.982452
2412.000000;3.069042
2411.000000;3.099918
2410.000000;3.164939
2409.000000;3.418621
2408.000000;3.900664
2407.000000;3.493872
2406.000000;3.167173
2405.000000;3.079952
2404.000000;3.068568
2403.000000;3.051736
2402.000000;2.937986
2401.000000;2.786090
2400.000000;2.700051
2399.000000;2.712933
2398.000000;2.795758
2397.000000;2.899948
2396.000000;2.993543
2395.000000;3.185211
2394.000000;3.715025
2393.000000;3.469602
2392.000000;3.083211
2391.000000;2.861429
2390.000000;2.780895
2389.000000;2.902684
2388.000000;3.349975
2387.000000;3.262360
2386.000000;2.903310
2385.000000;2.854773
2384.000000;2.966611
2383.000000;3.297798
2382.000000;3.319973
2381.000000;3.097311
2380.000000;3.128392
2379.000000;3.759569
2378.000000;3.425343
2377.000000;2.952015
2376.000000;2.872902
2375.000000;2.885382
2374.000000;2.922125
2373.000000;2.883311
2372.000000;2.807715
2371.000000;2.796194
2370.000000;2.921557
2369.000000;3.264809
2368.000000;3.605106
2367.000000;3.067451
2366.000000;2.780689
2365.000000;2.707968
2364.000000;2.822678
2363.000000;3.245299
2362.000000;3.318855
2361.000000;2.890466
2360.000000;2.744511
2359.000000;2.666755
2358.000000;2.692740
2357.000000;2.878085
2356.000000;3.095605
2355.000000;2.894236
2354.000000;2.656485
2353.000000;2.541193
2352.000000;2.512329
2351.000000;2.556434
2350.000000;2.645395
2349.000000;2.705710
2348.000000;2.716913
2347.000000;2.719184
2346.000000;2.803697
2345.000000;2.937804
2344.000000;2.877009
2343.000000;2.775460
2342.000000;2.727779
2341.000000;2.734262
2340.000000;2.727222
2339.000000;2.672695
2338.000000;2.674653
2337.000000;2.880075
2336.000000;3.251708
2335.000000;2.953682
2334.000000;2.811929
2333.000000;2.784328
2332.000000;2.797189
2331.000000;2.790255
2330.000000;2.733947
2329.000000;2.701558
2328.000000;2.741690
2327.000000;2.827329
2326.000000;2.893171
2325.000000;2.930602
2324.000000;2.942023
2323.000000;2.980151
2322.000000;3.093903
2321.000000;3.268646
2320.000000;3.367830
2319.000000;3.349793
2318.000000;3.229066
2317.000000;3.102711
2316.000000;3.087189
2315.000000;3.284241
2314.000000;4.113948
2313.000000;3.285834
2312.000000;3.081089
2311.000000;3.055383
2310.000000;3.101396
2309.000000;3.212373
2308.000000;3.493488
2307.000000;4.048253
2306.000000;3.511776
2305.000000;3.276819
2304.000000;3.257823
2303.000000;3.331622
2302.000000;3.370625
2301.000000;3.323408
2300.000000;3.244542
2299.000000;3.212892
2298.000000;3.266912
2297.000000;3.280440
2296.000000;3.269114
2295.000000;3.316063
2294.000000;3.275876
2293.000000;3.165138
2292.000000;3.119025
2291.000000;3.223718
2290.000000;3.552436
2289.000000;3.536620
2288.000000;3.290412
2287.000000;3.134295
2286.000000;3.080774
2285.000000;3.249916
2284.000000;3.924165
2283.000000;3.316828
2282.000000;3.232699
2281.000000;3.496965
2280.000000;3.242968
2279.000000;2.957122
2278.000000;2.926109
2277.000000;3.011048
2276.000000;3.124781
2275.000000;3.177058
2274.000000;3.186878
2273.000000;3.442807
2272.000000;3.650460
2271.000000;3.210593
2270.000000;3.060949
2269.000000;3.081666
2268.000000;3.115018
2267.000000;3.108695
2266.000000;3.116326
2265.000000;3.093942
2264.000000;3.037055
2263.000000;3.075047
2262.000000;3.334114
2261.000000;3.838178
2260.000000;3.429038
2259.000000;3.378472
2258.000000;3.553677
2257.000000;3.447732
2256.000000;3.206933
2255.000000;3.171156
2254.000000;3.448651
2253.000000;3.779388
2252.000000;3.113325
2251.000000;2.884823
2250.000000;2.779784
2249.000000;2.736899
2248.000000;2.702228
2247.000000;2.705770
2246.000000;2.795037
2245.000000;3.065201
2244.000000;3.345784
2243.000000;3.157712
2242.000000;3.050460
2241.000000;3.070893
2240.000000;3.265444
2239.000000;3.155438
2238.000000;2.871824
2237.000000;2.744804
2236.000000;2.708081
2235.000000;2.698238
2234.000000;2.686961
2233.000000;2.691998
2232.000000;2.743345
2231.000000;2.858549
2230.000000;3.077317
2229.000000;3.475270
2228.000000;3.303874
2227.000000;3.003334
2226.000000;2.922138
2225.000000;2.937413
2224.000000;3.375323
2223.000000;3.725918
2222.000000;2.947747
2221.000000;2.869957
2220.000000;2.900920
2219.000000;3.035542
2218.000000;3.516998
2217.000000;3.564925
2216.000000;3.114058
2215.000000;3.042393
2214.000000;3.013407
2213.000000;2.946494
2212.000000;2.877848
2211.000000;2.879183
2210.000000;2.933490
2209.000000;2.955217
2208.000000;2.903448
2207.000000;2.859238
2206.000000;2.904833
2205.000000;3.153812
2204.000000;3.680279
2203.000000;3.070768
2202.000000;2.971734
2201.000000;2.992876
2200.000000;3.013399
2199.000000;2.966397
2198.000000;2.907208
2197.000000;2.873947
2196.000000;2.896784
2195.000000;2.937800
2194.000000;2.926788
2193.000000;2.894668
2192.000000;2.866225
2191.000000;2.824509
2190.000000;2.784476
2189.000000;2.746964
2188.000000;2.739619
2187.000000;2.823292
2186.000000;3.065691
2185.000000;3.376178
2184.000000;4.201839
2183.000000;3.404245
2182.000000;3.232985
2181.000000;3.577246
2180.000000;3.672386
2179.000000;3.288321
2178.000000;3.184636
2177.000000;3.073760
2176.000000;2.979800
2175.000000;2.987225
2174.000000;3.133832
2173.000000;3.342559
2172.000000;3.365779
2171.000000;3.326861
2170.000000;3.312264
2169.000000;3.125879
2168.000000;2.958282
2167.000000;2.960298
2166.000000;3.181066
2165.000000;3.600479
2164.000000;3.262874
2163.000000;3.008319
2162.000000;2.954332
2161.000000;2.986263
2160.000000;3.110048
2159.000000;3.329803
2158.000000;3.817598
2157.000000;4.291774
2156.000000;3.805265
2155.000000;3.182107
2154.000000;2.893143
2153.000000;2.819636
2152.000000;2.940357
2151.000000;3.322709
2150.000000;4.259013
2149.000000;3.767417
2148.000000;3.419586
2147.000000;3.106886
2146.000000;2.970911
2145.000000;2.971010
2144.000000;3.066772
2143.000000;3.402209
2142.000000;3.509927
2141.000000;2.960201
2140.000000;2.780298
2139.000000;2.733663
2138.000000;2.777082
2137.000000;2.834885
2136.000000;2.846897
2135.000000;2.839680
2134.000000;2.910542
2133.000000;2.970807
2132.000000;2.863789
2131.000000;2.802352
2130.000000;2.873936
2129.000000;3.080936
2128.000000;3.420451
2127.000000;3.538237
2126.000000;3.159365
2125.000000;2.954947
2124.000000;2.872860
2123.000000;2.881220
2122.000000;2.978426
2121.000000;2.986622
2120.000000;2.836439
2119.000000;2.778423
2118.000000;2.785988
2117.000000;2.791062
2116.000000;2.842407
2115.000000;2.892765
2114.000000;2.853854
2113.000000;2.926795
2112.000000;3.163167
2111.000000;3.163707
2110.000000;3.097795
2109.000000;3.317470
2108.000000;3.472967
2107.000000;3.245934
2106.000000;3.179581
2105.000000;3.332271
2104.000000;3.472877
2103.000000;3.316068
2102.000000;3.162347
2101.000000;3.040851
2100.000000;2.953845
2099.000000;2.910968
2098.000000;2.906903
2097.000000;2.946357
2096.000000;3.031520
2095.000000;3.142051
2094.000000;3.256885
2093.000000;3.321035
2092.000000;3.211369
2091.000000;3.057181
2090.000000;2.998655
2089.000000;3.172570
2088.000000;3.343371
2087.000000;3.021616
2086.000000;2.848987
2085.000000;2.776072
2084.000000;2.769860
2083.000000;2.804518
2082.000000;2.866023
2081.000000;2.912576
2080.000000;2.930856
2079.000000;2.968403
2078.000000;2.975790
2077.000000;2.972523
2076.000000;3.012532
2075.000000;3.024354
2074.000000;2.993080
2073.000000;2.975630
2072.000000;2.993295
2071.000000;3.060171
2070.000000;3.152960
2069.000000;3.182892
2068.000000;3.147505
2067.000000;3.102461
2066.000000;3.033443
2065.000000;2.966084
2064.000000;2.889848
2063.000000;2.802755
2062.000000;2.761189
2061.000000;2.788325
2060.000000;2.869576
2059.000000;2.927072
2058.000000;2.906288
2057.000000;2.874870
2056.000000;2.865796
2055.000000;2.897776
2054.000000;2.996012
2053.000000;3.144475
2052.000000;3.201355
2051.000000;3.098318
2050.000000;2.879308
2049.000000;2.683704
2048.000000;2.589621
2047.000000;2.597466
2046.000000;2.698450
2045.000000;2.876614
2044.000000;3.017871
2043.000000;2.955515
2042.000000;2.822318
2041.000000;2.729706
2040.000000;2.705839
2039.000000;2.769053
2038.000000;2.946429
2037.000000;3.172647
2036.000000;3.240299
2035.000000;3.168143
2034.000000;3.289860
2033.000000;3.538730
2032.000000;3.141116
2031.000000;2.980954
2030.000000;3.235607
2029.000000;3.493289
2028.000000;3.166683
2027.000000;3.076457
2026.000000;3.597424
2025.000000;3.258195
2024.000000;2.846590
2023.000000;2.745315
2022.000000;2.790736
2021.000000;2.975830
2020.000000;3.188278
2019.000000;3.095509
2018.000000;2.993772
2017.000000;2.958829
2016.000000;2.955069
2015.000000;3.000630
2014.000000;3.293790
2013.000000;3.687088
2012.000000;3.023474
2011.000000;3.015659
2010.000000;3.152783
2009.000000;3.065530
2008.000000;2.891652
2007.000000;2.859561
2006.000000;2.912043
2005.000000;2.955149
2004.000000;2.932268
2003.000000;2.949553
2002.000000;2.963630
2001.000000;2.911834
2000.000000;2.866512
1999.000000;2.817395
1998.000000;2.776422
1997.000000;2.781105
1996.000000;2.818345
1995.000000;2.860778
1994.000000;2.947149
1993.000000;3.193189
1992.000000;3.354839
1991.000000;3.188468
1990.000000;3.313382
1989.000000;3.980505
1988.000000;3.193809
1987.000000;2.934028
1986.000000;2.910326
1985.000000;3.110004
1984.000000;3.624178
1983.000000;3.746155
1982.000000;3.257931
1981.000000;3.100054
1980.000000;3.218098
1979.000000;3.336706
1978.000000;3.175020
1977.000000;3.165643
1976.000000;3.208430
1975.000000;3.180316
1974.000000;3.173668
1973.000000;3.703467
1972.000000;3.465482
1971.000000;3.064297
1970.000000;2.997301
1969.000000;3.054333
1968.000000;3.252673
1967.000000;3.639767
1966.000000;4.302817
1965.000000;3.619859
1964.000000;3.368438
1963.000000;3.304631
1962.000000;3.326089
1961.000000;3.269705
1960.000000;3.064993
1959.000000;2.891211
1958.000000;2.848907
1957.000000;2.988388
1956.000000;3.445156
1955.000000;3.465978
1954.000000;3.023816
1953.000000;2.808967
1952.000000;2.643628
1951.000000;2.573116
1950.000000;2.588427
1949.000000;2.665685
1948.000000;2.774398
1947.000000;2.931906
1946.000000;3.155381
1945.000000;3.209576
1944.000000;3.301245
1943.000000;3.763399
1942.000000;3.170216
1941.000000;2.944371
1940.000000;2.975745
1939.000000;3.223598
1938.000000;3.501095
1937.000000;3.135458
1936.000000;3.058426
1935.000000;3.184883
1934.000000;3.379384
1933.000000;3.414824
1932.000000;3.441281
1931.000000;3.667355
1930.000000;3.553354
1929.000000;3.120489
1928.000000;2.961928
1927.000000;2.949918
1926.000000;3.065065
1925.000000;3.341760
1924.000000;3.334574
1923.000000;3.012109
1922.000000;2.828324
1921.000000;2.717243
1920.000000;2.662073
1919.000000;2.636781
1918.000000;2.643425
1917.000000;2.706651
1916.000000;2.897108
1915.000000;3.549360
1914.000000;2.962118
1913.000000;2.717806
1912.000000;2.739122
1911.000000;2.871225
1910.000000;3.062655
1909.000000;3.147527
1908.000000;3.130776
1907.000000;3.106270
1906.000000;3.092887
1905.000000;3.026505
1904.000000;2.957150
1903.000000;2.961362
1902.000000;3.252004
1901.000000;3.793793
1900.000000;3.322611
1899.000000;3.370795
1898.000000;3.458382
1897.000000;3.455433
1896.000000;3.338726
1895.000000;3.004085
1894.000000;2.863300
1893.000000;2.907578
1892.000000;3.185131
1891.000000;3.766872
1890.000000;3.305753
1889.000000;3.068301
1888.000000;2.987900
1887.000000;2.890761
1886.000000;2.848798
1885.000000;3.005489
1884.000000;3.680389
1883.000000;3.280705
1882.000000;3.104414
1881.000000;3.243901
1880.000000;3.409606
1879.000000;3.377450
1878.000000;3.600806
1877.000000;4.188235
1876.000000;3.762054
1875.000000;3.508891
1874.000000;3.273912
1873.000000;3.131100
1872.000000;2.997488
1871.000000;2.838693
1870.000000;2.713181
1869.000000;2.683579
1868.000000;2.793623
1867.000000;3.104400
1866.000000;3.464056
1865.000000;3.443450
1864.000000;3.288185
1863.000000;3.137908
1862.000000;3.107411
1861.000000;3.189435
1860.000000;3.282082
1859.000000;3.216344
1858.000000;3.162929
1857.000000;3.202064
1856.000000;3.245330
1855.000000;3.314432
1854.000000;3.270901
1853.000000;3.111256
1852.000000;3.028941
1851.000000;3.032358
1850.000000;3.113246
1849.000000;3.140847
1848.000000;3.037689
1847.000000;3.145555
1846.000000;3.549689
1845.000000;3.307883
1844.000000;3.044698
1843.000000;2.914594
1842.000000;2.796919
1841.000000;2.741764
1840.000000;2.737313
1839.000000;2.802078
1838.000000;3.000657
1837.000000;3.093339
1836.000000;2.862664
1835.000000;2.711311
1834.000000;2.689247
1833.000000;2.790139
1832.000000;3.039454
1831.000000;3.427006
1830.000000;3.671789
1829.000000;3.347983
1828.000000;3.090717
1827.000000;2.949550
1826.000000;2.961399
1825.000000;3.158159
1824.000000;3.311036
1823.000000;3.109059
1822.000000;2.872954
1821.000000;2.750491
1820.000000;2.791600
1819.000000;3.143432
1818.000000;3.273242
1817.000000;2.893907
1816.000000;2.830328
1815.000000;2.858853
1814.000000;2.937595
1813.000000;3.141333
1812.000000;3.145381
1811.000000;2.987363
1810.000000;3.009699
1809.000000;3.234051
1808.000000;3.518985
1807.000000;3.393330
1806.000000;3.508548
1805.000000;3.592299
1804.000000;3.022241
1803.000000;2.818995
1802.000000;2.806672
1801.000000;2.901202
1800.000000;3.013063
1799.000000;3.002499
1798.000000;2.969094
1797.000000;2.979661
1796.000000;2.995168
1795.000000;3.023792
1794.000000;3.090573
1793.000000;3.033166
1792.000000;2.919795
1791.000000;2.905831
1790.000000;3.009935
1789.000000;3.453253
1788.000000;3.511873
1787.000000;3.097541
1786.000000;3.067896
1785.000000;3.288511
1784.000000;3.697288
1783.000000;3.604081
1782.000000;3.593613
1781.000000;3.325528
1780.000000;3.197974
1779.000000;3.336034
1778.000000;3.275019
1777.000000;3.169519
1776.000000;3.126427
1775.000000;3.025598
1774.000000;2.978021
1773.000000;3.129847
1772.000000;3.586997
1771.000000;3.370415
1770.000000;2.931811
1769.000000;2.699130
1768.000000;2.614032
1767.000000;2.673552
1766.000000;2.747555
1765.000000;2.754241
1764.000000;2.800610
1763.000000;2.952894
1762.000000;3.324870
1761.000000;3.605274
1760.000000;3.641079
1759.000000;3.594161
1758.000000;3.215736
1757.000000;3.083956
1756.000000;3.109126
1755.000000;3.119706
1754.000000;3.111241
1753.000000;3.068956
1752.000000;2.942704
1751.000000;2.843739
1750.000000;2.907708
1749.000000;3.175477
1748.000000;3.266700
1747.000000;3.177441
1746.000000;3.031545
1745.000000;2.845060
1744.000000;2.845315
1743.000000;3.019725
1742.000000;3.420396
1741.000000;3.445589
1740.000000;2.952332
1739.000000;2.769944
1738.000000;2.756463
1737.000000;2.886804
1736.000000;3.119448
1735.000000;3.065608
1734.000000;2.918622
1733.000000;2.871951
1732.000000;2.906633
1731.000000;3.107868
1730.000000;3.143581
1729.000000;2.993279
1728.000000;2.991309
1727.000000;3.057251
1726.000000;3.324302
1725.000000;3.953228
1724.000000;4.024633
1723.000000;3.598543
1722.000000;3.249419
1721.000000;3.393137
1720.000000;3.500632
1719.000000;3.086495
1718.000000;3.149634
1717.000000;3.606212
1716.000000;3.747184
1715.000000;3.442217
1714.000000;3.273327
1713.000000;3.180335
1712.000000;3.099448
1711.000000;3.011605
1710.000000;2.934453
1709.000000;2.913980
1708.000000;2.986398
1707.000000;3.153936
1706.000000;3.468984
1705.000000;3.873883
1704.000000;3.491704
1703.000000;3.218163
1702.000000;3.085708
1701.000000;2.953207
1700.000000;2.946279
1699.000000;2.911029
1698.000000;2.935504
1697.000000;3.211089
1696.000000;2.888246
1695.000000;2.638706
1694.000000;2.575538
1693.000000;2.590350
1692.000000;2.786941
1691.000000;3.178142
1690.000000;3.545061
1689.000000;3.516978
1688.000000;3.382523
1687.000000;3.234375
1686.000000;3.120372
1685.000000;3.106047
1684.000000;3.169239
1683.000000;3.158707
1682.000000;2.985193
1681.000000;3.006021
1680.000000;3.453401
1679.000000;3.461999
1678.000000;3.254525
1677.000000;3.451318
1676.000000;3.513688
1675.000000;3.327404
1674.000000;3.273453
1673.000000;3.360729
1672.000000;3.355824
1671.000000;3.038240
1670.000000;2.825055
1669.000000;2.781457
1668.000000;2.833969
1667.000000;2.905468
1666.000000;2.902309
1665.000000;2.960197
1664.000000;3.195374
1663.000000;3.246039
1662.000000;3.143247
1661.000000;3.188946
1660.000000;3.269774
1659.000000;3.188259
1658.000000;3.147932
1657.000000;3.449439
1656.000000;3.245257
1655.000000;2.882121
1654.000000;2.890263
1653.000000;3.093989
1652.000000;3.245512
1651.000000;3.131488
1650.000000;3.010871
1649.000000;3.084264
1648.000000;3.289170
1647.000000;3.467443
1646.000000;3.456417
1645.000000;3.262495
1644.000000;3.079867
1643.000000;3.012730
1642.000000;2.992684
1641.000000;2.971809
1640.000000;2.912600
1639.000000;2.809107
1638.000000;2.763317
1637.000000;2.862240
1636.000000;3.218495
1635.000000;3.363150
1634.000000;3.024374
1633.000000;2.953066
1632.000000;3.131310
1631.000000;3.404140
1630.000000;3.311692
1629.000000;3.235660
1628.000000;3.282612
1627.000000;3.356447
1626.000000;3.349918
1625.000000;3.092257
1624.000000;2.837463
1623.000000;2.698623
1622.000000;2.659160
1621.000000;2.683066
1620.000000;2.780553
1619.000000;2.960322
1618.000000;3.126510
1617.000000;3.124209
1616.000000;3.080049
1615.000000;3.082784
1614.000000;3.234655
1613.000000;3.581207
1612.000000;3.798616
1611.000000;4.137854
1610.000000;3.808379
1609.000000;3.453439
1608.000000;3.304844
1607.000000;3.356260
1606.000000;3.434035
1605.000000;3.087935
1604.000000;2.863362
1603.000000;2.808186
1602.000000;2.877118
1601.000000;3.065439
1600.000000;3.135394
1599.000000;2.991824
1598.000000;2.927225
1597.000000;3.001646
1596.000000;3.191368
1595.000000;3.386160
1594.000000;3.414827
1593.000000;3.323003
1592.000000;3.249166
1591.000000;3.253630
1590.000000;3.419432
1589.000000;3.530919
1588.000000;3.236029
1587.000000;3.190009
1586.000000;3.160861
1585.000000;2.888675
1584.000000;2.745706
1583.000000;2.741381
1582.000000;2.758088
1581.000000;2.712272
1580.000000;2.680155
1579.000000;2.732001
1578.000000;2.887517
1577.000000;3.110440
1576.000000;3.221788
1575.000000;3.178636
1574.000000;2.971972
1573.000000;2.828425
1572.000000;2.769734
1571.000000;2.728778
1570.000000;2.759225
1569.000000;2.927070
1568.000000;3.465391
1567.000000;3.413722
1566.000000;3.220707
1565.000000;3.732661
1564.000000;3.569256
1563.000000;3.255144
1562.000000;3.408000
1561.000000;3.785884
1560.000000;3.420937
1559.000000;3.257956
1558.000000;3.162503
1557.000000;2.960489
1556.000000;2.800557
1555.000000;2.725249
1554.000000;2.722678
1553.000000;2.739769
1552.000000;2.729546
1551.000000;2.699340
1550.000000;2.698144
1549.000000;2.712737
1548.000000;2.748004
1547.000000;2.836708
1546.000000;3.019364
1545.000000;3.108137
1544.000000;2.889555
1543.000000;2.768636
1542.000000;2.966905
1541.000000;3.283518
1540.000000;3.061020
1539.000000;2.975618
1538.000000;2.992231
1537.000000;3.016063
1536.000000;3.226376
1535.000000;3.334666
1534.000000;3.095656
1533.000000;3.027092
1532.000000;3.071671
1531.000000;3.073981
1530.000000;3.065258
1529.000000;3.166406
1528.000000;3.325091
1527.000000;3.693637
1526.000000;3.963446
1525.000000;3.257516
1524.000000;3.052723
1523.000000;3.109059
1522.000000;3.002913
1521.000000;2.792174
1520.000000;2.698214
1519.000000;2.748363
1518.000000;3.169835
1517.000000;3.532767
1516.000000;3.177225
1515.000000;3.186934
1514.000000;3.317609
1513.000000;3.603588
1512.000000;3.132860
1511.000000;3.122824
1510.000000;3.904139
1509.000000;3.023016
1508.000000;2.739759
1507.000000;2.658081
1506.000000;2.608336
1505.000000;2.607009
1504.000000;2.689385
1503.000000;2.868158
1502.000000;2.883753
1501.000000;2.899811
1500.000000;3.075686
1499.000000;3.222160
1498.000000;3.107531
1497.000000;3.064474
1496.000000;3.199725
1495.000000;3.235272
1494.000000;3.105298
1493.000000;3.054553
1492.000000;3.057460
1491.000000;3.043122
1490.000000;3.019794
1489.000000;2.944605
1488.000000;2.959910
1487.000000;3.028735
1486.000000;2.929036
1485.000000;2.867502
1484.000000;3.115036
1483.000000;3.659523
1482.000000;3.185613
1481.000000;3.032427
1480.000000;3.043607
1479.000000;2.954980
1478.000000;2.828014
1477.000000;2.735054
1476.000000;2.723996
1475.000000;2.764872
1474.000000;2.820825
1473.000000;2.838872
1472.000000;2.810531
1471.000000;2.762552
1470.000000;2.730205
1469.000000;2.682561
1468.000000;2.647909
1467.000000;2.591330
1466.000000;2.551001
1465.000000;2.584501
1464.000000;2.747324
1463.000000;3.455450
1462.000000;3.275832
1461.000000;2.911480
1460.000000;3.074644
1459.000000;3.083957
1458.000000;2.872641
1457.000000;2.744190
1456.000000;2.699285
1455.000000;2.748260
1454.000000;3.127395
1453.000000;3.037329
1452.000000;2.774586
1451.000000;2.786413
1450.000000;3.098162
1449.000000;3.945325
1448.000000;3.006090
1447.000000;2.858626
1446.000000;2.862078
1445.000000;2.900353
1444.000000;3.095376
1443.000000;3.105706
1442.000000;2.926851
1441.000000;2.833460
1440.000000;2.775790
1439.000000;2.658658
1438.000000;2.563246
1437.000000;2.549355
1436.000000;2.714363
1435.000000;3.075110
1434.000000;2.975712
1433.000000;2.881934
1432.000000;2.866313
1431.000000;2.779375
1430.000000;2.774998
1429.000000;2.839069
1428.000000;2.928526
1427.000000;2.993157
1426.000000;3.006879
1425.000000;2.964408
1424.000000;2.941553
1423.000000;2.872041
1422.000000;2.786332
1421.000000;2.807676
1420.000000;2.951176
1419.000000;3.089029
1418.000000;2.978027
1417.000000;2.767212
1416.000000;2.648875
1415.000000;2.647846
1414.000000;2.674703
1413.000000;2.653375
1412.000000;2.645930
1411.000000;2.730310
1410.000000;2.948706
1409.000000;3.115114
1408.000000;3.095091
1407.000000;3.142329
1406.000000;3.235726
1405.000000;3.279113
1404.000000;3.106788
1403.000000;2.956447
1402.000000;3.069749
1401.000000;3.183202
1400.000000;2.907254
1399.000000;2.766420
1398.000000;2.804354
1397.000000;2.926774
1396.000000;2.846841
1395.000000;2.778383
1394.000000;2.875340
1393.000000;3.023305
1392.000000;3.096864
1391.000000;3.115454
1390.000000;3.336087
1389.000000;3.508645
1388.000000;3.186652
1387.000000;3.131364
1386.000000;3.623616
1385.000000;3.453398
1384.000000;3.066235
1383.000000;3.291593
1382.000000;3.622346
1381.000000;3.196989
1380.000000;3.009122
1379.000000;3.070472
1378.000000;3.136118
1377.000000;2.928815
1376.000000;2.779856
1375.000000;2.756586
1374.000000;2.771863
1373.000000;2.857914
1372.000000;3.112356
1371.000000;3.066557
1370.000000;2.895503
1369.000000;2.945355
1368.000000;3.194288
1367.000000;3.564143
1366.000000;3.414775
1365.000000;3.222541
1364.000000;2.974065
1363.000000;2.757781
1362.000000;2.673732
1361.000000;2.730321
1360.000000;3.072466
1359.000000;3.452913
1358.000000;3.130662
1357.000000;3.031891
1356.000000;3.011274
1355.000000;2.964312
1354.000000;2.918142
1353.000000;2.914695
1352.000000;2.959610
1351.000000;3.027431
1350.000000;3.107379
1349.000000;3.207277
1348.000000;3.219508
1347.000000;2.993592
1346.000000;2.822031
1345.000000;2.792852
1344.000000;2.878066
1343.000000;2.939330
1342.000000;2.868749
1341.000000;2.847548
1340.000000;2.959194
1339.000000;3.192703
1338.000000;3.312829
1337.000000;3.095764
1336.000000;2.925203
1335.000000;2.884818
1334.000000;2.925120
1333.000000;2.981934
1332.000000;2.976768
1331.000000;2.941883
1330.000000;2.952816
1329.000000;2.991445
1328.000000;3.033747
1327.000000;3.076877
1326.000000;3.107126
1325.000000;3.079999
1324.000000;3.164830
1323.000000;3.702926
1322.000000;3.341421
1321.000000;3.138498
1320.000000;3.229478
1319.000000;3.232302
1318.000000;3.144511
1317.000000;3.136173
1316.000000;3.351929
1315.000000;3.280600
1314.000000;2.925147
1313.000000;2.821718
1312.000000;2.876108
1311.000000;3.286408
1310.000000;3.503674
1309.000000;2.975249
1308.000000;2.993907
1307.000000;3.232888
1306.000000;3.603652
1305.000000;3.503499
1304.000000;3.400727
1303.000000;3.334362
1302.000000;3.127849
1301.000000;2.941413
1300.000000;2.826005
1299.000000;2.835525
1298.000000;2.927332
1297.000000;2.951480
1296.000000;2.922483
1295.000000;2.956436
1294.000000;3.092151
1293.000000;3.372344
1292.000000;3.718384
1291.000000;3.464989
1290.000000;3.280711
1289.000000;3.257979
1288.000000;3.363517
1287.000000;3.418635
1286.000000;3.242921
1285.000000;3.127235
1284.000000;3.083704
1283.000000;3.050847
1282.000000;3.131472
1281.000000;3.440528
1280.000000;3.235636
1279.000000;3.023142
1278.000000;3.092335
1277.000000;3.047469
1276.000000;2.965642
1275.000000;2.968498
1274.000000;2.957332
1273.000000;2.956582
1272.000000;3.024852
1271.000000;3.130480
1270.000000;3.213247
1269.000000;3.409360
1268.000000;3.526451
1267.000000;3.251929
1266.000000;3.154012
1265.000000;3.190649
1264.000000;3.291919
1263.000000;3.396033
1262.000000;3.295828
1261.000000;3.115891
1260.000000;2.958322
1259.000000;2.828719
1258.000000;2.780729
1257.000000;2.966297
1256.000000;3.453967
1255.000000;3.133459
1254.000000;2.941099
1253.000000;2.955535
1252.000000;2.830843
1251.000000;2.660278
1250.000000;2.608272
1249.000000;2.675563
1248.000000;2.810394
1247.000000;2.883733
1246.000000;2.901838
1245.000000;2.947194
1244.000000;2.981149
1243.000000;3.023440
1242.000000;3.192933
1241.000000;3.646885
1240.000000;3.260813
1239.000000;3.038769
1238.000000;3.030305
1237.000000;3.141607
1236.000000;3.425177
1235.000000;4.066951
1234.000000;3.449207
1233.000000;3.160975
1232.000000;3.088710
1231.000000;3.260292
1230.000000;3.507981
1229.000000;3.288385
1228.000000;3.304059
1227.000000;3.269409
1226.000000;3.097666
1225.000000;3.046760
1224.000000;3.018042
1223.000000;2.932896
1222.000000;2.866667
1221.000000;2.892241
1220.000000;3.018961
1219.000000;3.229292
1218.000000;3.366220
1217.000000;3.313450
1216.000000;3.210616
1215.000000;3.099899
1214.000000;3.008882
1213.000000;2.937798
1212.000000;2.871017
1211.000000;2.846819
1210.000000;2.930165
1209.000000;3.269679
1208.000000;3.822608
1207.000000;3.184192
1206.000000;3.239219
1205.000000;3.584870
1204.000000;3.389672
1203.000000;3.182161
1202.000000;3.152241
1201.000000;3.069258
1200.000000;2.957164
