Criado como novo conjunto de dados;"Jao_teste_celulas.spp","9663.9 Secs"
cm-1;Abs
10000.000000;1.477619
9999.000000;1.476392
9998.000000;1.475168
9997.000000;1.473947
9996.000000;1.472728
9995.000000;1.471517
9994.000000;1.470301
9993.000000;1.469105
9992.000000;1.467882
9991.000000;1.466716
9990.000000;1.465442
9989.000000;1.464688
9988.000000;1.464772
9987.000000;1.465094
9986.000000;1.465132
9985.000000;1.464591
9984.000000;1.464059
9983.000000;1.464433
9982.000000;1.465757
9981.000000;1.466847
9980.000000;1.466601
9979.000000;1.465384
9978.000000;1.464500
9977.000000;1.464494
9976.000000;1.464603
9975.000000;1.463840
9974.000000;1.462137
9973.000000;1.460247
9972.000000;1.458892
9971.000000;1.458324
9970.000000;1.458426
9969.000000;1.458852
9968.000000;1.459061
9967.000000;1.458541
9966.000000;1.457288
9965.000000;1.456021
9964.000000;1.455669
9963.000000;1.456485
9962.000000;1.457694
9961.000000;1.458128
9960.000000;1.457212
9959.000000;1.455283
9958.000000;1.453126
9957.000000;1.451558
9956.000000;1.451321
9955.000000;1.452772
9954.000000;1.455291
9953.000000;1.457278
9952.000000;1.457286
9951.000000;1.455291
9950.000000;1.452606
9949.000000;1.450549
9948.000000;1.449452
9947.000000;1.448822
9946.000000;1.448127
9945.000000;1.447339
9944.000000;1.446901
9943.000000;1.447292
9942.000000;1.448462
9941.000000;1.449638
9940.000000;1.449832
9939.000000;1.448729
9938.000000;1.447007
9937.000000;1.445665
9936.000000;1.445140
9935.000000;1.445176
9934.000000;1.445376
9933.000000;1.445573
9932.000000;1.445630
9931.000000;1.445244
9930.000000;1.444261
9929.000000;1.443040
9928.000000;1.442172
9927.000000;1.441824
9926.000000;1.441648
9925.000000;1.441343
9924.000000;1.441047
9923.000000;1.441048
9922.000000;1.441400
9921.000000;1.441968
9920.000000;1.442625
9919.000000;1.443154
9918.000000;1.443180
9917.000000;1.442440
9916.000000;1.440995
9915.000000;1.439028
9914.000000;1.436635
9913.000000;1.434055
9912.000000;1.431850
9911.000000;1.430448
9910.000000;1.429691
9909.000000;1.429245
9908.000000;1.429339
9907.000000;1.430532
9906.000000;1.432671
9905.000000;1.434602
9904.000000;1.435264
9903.000000;1.434822
9902.000000;1.434380
9901.000000;1.434744
9900.000000;1.435664
9899.000000;1.436122
9898.000000;1.435241
9897.000000;1.433105
9896.000000;1.430826
9895.000000;1.429660
9894.000000;1.429881
9893.000000;1.430549
9892.000000;1.430451
9891.000000;1.429221
9890.000000;1.427513
9889.000000;1.426330
9888.000000;1.426249
9887.000000;1.427010
9886.000000;1.427608
9885.000000;1.427029
9884.000000;1.425201
9883.000000;1.423136
9882.000000;1.422008
9881.000000;1.422226
9880.000000;1.423384
9879.000000;1.424744
9878.000000;1.425590
9877.000000;1.425473
9876.000000;1.424502
9875.000000;1.423292
9874.000000;1.422361
9873.000000;1.421640
9872.000000;1.420733
9871.000000;1.419449
9870.000000;1.417889
9869.000000;1.416259
9868.000000;1.414916
9867.000000;1.414344
9866.000000;1.414651
9865.000000;1.415185
9864.000000;1.415070
9863.000000;1.414156
9862.000000;1.413085
9861.000000;1.412467
9860.000000;1.412356
9859.000000;1.412481
9858.000000;1.412529
9857.000000;1.412126
9856.000000;1.411019
9855.000000;1.409490
9854.000000;1.408253
9853.000000;1.407734
9852.000000;1.407735
9851.000000;1.407962
9850.000000;1.408510
9849.000000;1.409507
9848.000000;1.410544
9847.000000;1.410915
9846.000000;1.410397
9845.000000;1.409454
9844.000000;1.408715
9843.000000;1.408437
9842.000000;1.408413
9841.000000;1.408170
9840.000000;1.407272
9839.000000;1.405615
9838.000000;1.403492
9837.000000;1.401388
9836.000000;1.399716
9835.000000;1.398736
9834.000000;1.398552
9833.000000;1.399022
9832.000000;1.399755
9831.000000;1.400340
9830.000000;1.400587
9829.000000;1.400500
9828.000000;1.400085
9827.000000;1.399294
9826.000000;1.398130
9825.000000;1.396793
9824.000000;1.395796
9823.000000;1.395804
9822.000000;1.397041
9821.000000;1.398725
9820.000000;1.399453
9819.000000;1.398557
9818.000000;1.396929
9817.000000;1.396126
9816.000000;1.396722
9815.000000;1.397824
9814.000000;1.398160
9813.000000;1.397357
9812.000000;1.396023
9811.000000;1.394866
9810.000000;1.393976
9809.000000;1.392935
9808.000000;1.391491
9807.000000;1.390052
9806.000000;1.389410
9805.000000;1.389925
9804.000000;1.391099
9803.000000;1.392057
9802.000000;1.392353
9801.000000;1.392086
9800.000000;1.391430
9799.000000;1.390433
9798.000000;1.389257
9797.000000;1.388190
9796.000000;1.387355
9795.000000;1.386728
9794.000000;1.386445
9793.000000;1.386689
9792.000000;1.387150
9791.000000;1.387080
9790.000000;1.386178
9789.000000;1.385028
9788.000000;1.384315
9787.000000;1.383960
9786.000000;1.383415
9785.000000;1.382521
9784.000000;1.381638
9783.000000;1.381076
9782.000000;1.380869
9781.000000;1.381008
9780.000000;1.381450
9779.000000;1.381900
9778.000000;1.381978
9777.000000;1.381680
9776.000000;1.381354
9775.000000;1.381191
9774.000000;1.381041
9773.000000;1.380757
9772.000000;1.380429
9771.000000;1.380152
9770.000000;1.379804
9769.000000;1.379149
9768.000000;1.378050
9767.000000;1.376602
9766.000000;1.375199
9765.000000;1.374354
9764.000000;1.374156
9763.000000;1.373998
9762.000000;1.373237
9761.000000;1.372100
9760.000000;1.371478
9759.000000;1.371730
9758.000000;1.372163
9757.000000;1.371921
9756.000000;1.371031
9755.000000;1.370235
9754.000000;1.370040
9753.000000;1.370348
9752.000000;1.370844
9751.000000;1.371303
9750.000000;1.371465
9749.000000;1.370931
9748.000000;1.369483
9747.000000;1.367504
9746.000000;1.365918
9745.000000;1.365473
9744.000000;1.365991
9743.000000;1.366450
9742.000000;1.366008
9741.000000;1.364827
9740.000000;1.363717
9739.000000;1.363215
9738.000000;1.363354
9737.000000;1.364026
9736.000000;1.364971
9735.000000;1.365459
9734.000000;1.364719
9733.000000;1.362923
9732.000000;1.361202
9731.000000;1.360420
9730.000000;1.360369
9729.000000;1.360361
9728.000000;1.360045
9727.000000;1.359316
9726.000000;1.358018
9725.000000;1.356363
9724.000000;1.355239
9723.000000;1.355434
9722.000000;1.356638
9721.000000;1.357728
9720.000000;1.357944
9719.000000;1.357416
9718.000000;1.356710
9717.000000;1.356317
9716.000000;1.356340
9715.000000;1.356267
9714.000000;1.355257
9713.000000;1.353203
9712.000000;1.351309
9711.000000;1.350928
9710.000000;1.351925
9709.000000;1.352791
9708.000000;1.352389
9707.000000;1.350976
9706.000000;1.349436
9705.000000;1.348299
9704.000000;1.347770
9703.000000;1.348000
9702.000000;1.348742
9701.000000;1.349188
9700.000000;1.348717
9699.000000;1.347657
9698.000000;1.346909
9697.000000;1.346947
9696.000000;1.347435
9695.000000;1.347626
9694.000000;1.346931
9693.000000;1.345314
9692.000000;1.343409
9691.000000;1.342099
9690.000000;1.341773
9689.000000;1.342076
9688.000000;1.342472
9687.000000;1.342796
9686.000000;1.343067
9685.000000;1.343068
9684.000000;1.342475
9683.000000;1.341301
9682.000000;1.339964
9681.000000;1.338963
9680.000000;1.338658
9679.000000;1.339145
9678.000000;1.340054
9677.000000;1.340609
9676.000000;1.340228
9675.000000;1.339085
9674.000000;1.337873
9673.000000;1.337107
9672.000000;1.336835
9671.000000;1.336873
9670.000000;1.337007
9669.000000;1.336988
9668.000000;1.336617
9667.000000;1.335891
9666.000000;1.334957
9665.000000;1.334015
9664.000000;1.333358
9663.000000;1.333315
9662.000000;1.333845
9661.000000;1.334303
9660.000000;1.333962
9659.000000;1.332787
9658.000000;1.331375
9657.000000;1.330172
9656.000000;1.329180
9655.000000;1.328425
9654.000000;1.328216
9653.000000;1.328611
9652.000000;1.329051
9651.000000;1.328950
9650.000000;1.328474
9649.000000;1.328270
9648.000000;1.328497
9647.000000;1.328604
9646.000000;1.328086
9645.000000;1.327059
9644.000000;1.325911
9643.000000;1.324803
9642.000000;1.323837
9641.000000;1.323386
9640.000000;1.323809
9639.000000;1.324845
9638.000000;1.325645
9637.000000;1.325526
9636.000000;1.324513
9635.000000;1.323116
9634.000000;1.321822
9633.000000;1.320907
9632.000000;1.320455
9631.000000;1.320375
9630.000000;1.320522
9629.000000;1.320890
9628.000000;1.321518
9627.000000;1.322103
9626.000000;1.321985
9625.000000;1.320795
9624.000000;1.318952
9623.000000;1.317265
9622.000000;1.316208
9621.000000;1.315789
9620.000000;1.315899
9619.000000;1.316392
9618.000000;1.316871
9617.000000;1.316845
9616.000000;1.316219
9615.000000;1.315307
9614.000000;1.314304
9613.000000;1.313106
9612.000000;1.311799
9611.000000;1.310908
9610.000000;1.310898
9609.000000;1.311673
9608.000000;1.312792
9607.000000;1.313938
9606.000000;1.314851
9605.000000;1.315084
9604.000000;1.314312
9603.000000;1.312909
9602.000000;1.311776
9601.000000;1.311457
9600.000000;1.311620
9599.000000;1.311489
9598.000000;1.310630
9597.000000;1.309218
9596.000000;1.307710
9595.000000;1.306416
9594.000000;1.305392
9593.000000;1.304663
9592.000000;1.304440
9591.000000;1.304962
9590.000000;1.306047
9589.000000;1.306935
9588.000000;1.306845
9587.000000;1.305712
9586.000000;1.304220
9585.000000;1.303121
9584.000000;1.302652
9583.000000;1.302540
9582.000000;1.302353
9581.000000;1.301811
9580.000000;1.300953
9579.000000;1.300091
9578.000000;1.299506
9577.000000;1.299165
9576.000000;1.298878
9575.000000;1.298682
9574.000000;1.298819
9573.000000;1.299259
9572.000000;1.299547
9571.000000;1.299306
9570.000000;1.298702
9569.000000;1.298165
9568.000000;1.297793
9567.000000;1.297285
9566.000000;1.296383
9565.000000;1.295131
9564.000000;1.293743
9563.000000;1.292508
9562.000000;1.291781
9561.000000;1.291720
9560.000000;1.291934
9559.000000;1.291692
9558.000000;1.290704
9557.000000;1.289543
9556.000000;1.289093
9555.000000;1.289727
9554.000000;1.291144
9553.000000;1.292728
9552.000000;1.293788
9551.000000;1.293700
9550.000000;1.292332
9549.000000;1.290441
9548.000000;1.289275
9547.000000;1.289517
9546.000000;1.290700
9545.000000;1.291698
9544.000000;1.291676
9543.000000;1.290546
9542.000000;1.288769
9541.000000;1.286972
9540.000000;1.285651
9539.000000;1.284934
9538.000000;1.284551
9537.000000;1.284142
9536.000000;1.283649
9535.000000;1.283361
9534.000000;1.283622
9533.000000;1.284488
9532.000000;1.285571
9531.000000;1.286123
9530.000000;1.285474
9529.000000;1.283600
9528.000000;1.281246
9527.000000;1.279342
9526.000000;1.278306
9525.000000;1.277931
9524.000000;1.277823
9523.000000;1.277787
9522.000000;1.277803
9521.000000;1.277866
9520.000000;1.277881
9519.000000;1.277625
9518.000000;1.276861
9517.000000;1.275656
9516.000000;1.274548
9515.000000;1.274143
9514.000000;1.274452
9513.000000;1.274777
9512.000000;1.274418
9511.000000;1.273408
9510.000000;1.272465
9509.000000;1.272342
9508.000000;1.273265
9507.000000;1.274740
9506.000000;1.275731
9505.000000;1.275298
9504.000000;1.273430
9503.000000;1.271275
9502.000000;1.270251
9501.000000;1.270772
9500.000000;1.271943
9499.000000;1.272496
9498.000000;1.271876
9497.000000;1.270376
9496.000000;1.268543
9495.000000;1.266795
9494.000000;1.265509
9493.000000;1.265005
9492.000000;1.265270
9491.000000;1.265824
9490.000000;1.266084
9489.000000;1.265828
9488.000000;1.265228
9487.000000;1.264493
9486.000000;1.263638
9485.000000;1.262650
9484.000000;1.261744
9483.000000;1.261291
9482.000000;1.261448
9481.000000;1.261893
9480.000000;1.262001
9479.000000;1.261350
9478.000000;1.260086
9477.000000;1.258794
9476.000000;1.258001
9475.000000;1.257835
9474.000000;1.258072
9473.000000;1.258378
9472.000000;1.258467
9471.000000;1.258211
9470.000000;1.257772
9469.000000;1.257539
9468.000000;1.257723
9467.000000;1.258023
9466.000000;1.257881
9465.000000;1.257150
9464.000000;1.256308
9463.000000;1.255880
9462.000000;1.255837
9461.000000;1.255720
9460.000000;1.255271
9459.000000;1.254734
9458.000000;1.254509
9457.000000;1.254647
9456.000000;1.254783
9455.000000;1.254556
9454.000000;1.254040
9453.000000;1.253686
9452.000000;1.253771
9451.000000;1.253995
9450.000000;1.253769
9449.000000;1.252897
9448.000000;1.251781
9447.000000;1.250928
9446.000000;1.250464
9445.000000;1.250230
9444.000000;1.250103
9443.000000;1.249996
9442.000000;1.249690
9441.000000;1.248984
9440.000000;1.248022
9439.000000;1.247246
9438.000000;1.246988
9437.000000;1.247251
9436.000000;1.247860
9435.000000;1.248607
9434.000000;1.249231
9433.000000;1.249491
9432.000000;1.249387
9431.000000;1.249177
9430.000000;1.249069
9429.000000;1.248994
9428.000000;1.248734
9427.000000;1.248170
9426.000000;1.247319
9425.000000;1.246260
9424.000000;1.245145
9423.000000;1.244202
9422.000000;1.243613
9421.000000;1.243375
9420.000000;1.243303
9419.000000;1.243150
9418.000000;1.242740
9417.000000;1.242099
9416.000000;1.241481
9415.000000;1.241194
9414.000000;1.241302
9413.000000;1.241548
9412.000000;1.241622
9411.000000;1.241452
9410.000000;1.241187
9409.000000;1.240947
9408.000000;1.240679
9407.000000;1.240230
9406.000000;1.239512
9405.000000;1.238610
9404.000000;1.237742
9403.000000;1.237046
9402.000000;1.236400
9401.000000;1.235542
9400.000000;1.234423
9399.000000;1.233342
9398.000000;1.232673
9397.000000;1.232522
9396.000000;1.232715
9395.000000;1.233009
9394.000000;1.233164
9393.000000;1.232944
9392.000000;1.232271
9391.000000;1.231426
9390.000000;1.230880
9389.000000;1.230781
9388.000000;1.230735
9387.000000;1.230246
9386.000000;1.229337
9385.000000;1.228564
9384.000000;1.228366
9383.000000;1.228571
9382.000000;1.228650
9381.000000;1.228359
9380.000000;1.227946
9379.000000;1.227696
9378.000000;1.227466
9377.000000;1.226863
9376.000000;1.225836
9375.000000;1.224887
9374.000000;1.224585
9373.000000;1.224968
9372.000000;1.225518
9371.000000;1.225673
9370.000000;1.225262
9369.000000;1.224460
9368.000000;1.223489
9367.000000;1.222497
9366.000000;1.221651
9365.000000;1.221154
9364.000000;1.221083
9363.000000;1.221252
9362.000000;1.221332
9361.000000;1.221084
9360.000000;1.220466
9359.000000;1.219584
9358.000000;1.218608
9357.000000;1.217731
9356.000000;1.217105
9355.000000;1.216795
9354.000000;1.216787
9353.000000;1.217035
9352.000000;1.217426
9351.000000;1.217730
9350.000000;1.217698
9349.000000;1.217296
9348.000000;1.216773
9347.000000;1.216447
9346.000000;1.216396
9345.000000;1.216349
9344.000000;1.215896
9343.000000;1.214919
9342.000000;1.213865
9341.000000;1.213435
9340.000000;1.213836
9339.000000;1.214419
9338.000000;1.214292
9337.000000;1.213311
9336.000000;1.212221
9335.000000;1.211767
9334.000000;1.211983
9333.000000;1.212450
9332.000000;1.212885
9331.000000;1.213150
9330.000000;1.212942
9329.000000;1.212023
9328.000000;1.210757
9327.000000;1.209946
9326.000000;1.209946
9325.000000;1.210220
9324.000000;1.210003
9323.000000;1.209198
9322.000000;1.208376
9321.000000;1.208002
9320.000000;1.207987
9319.000000;1.208004
9318.000000;1.207968
9317.000000;1.208054
9316.000000;1.208284
9315.000000;1.208326
9314.000000;1.207798
9313.000000;1.206742
9312.000000;1.205662
9311.000000;1.205033
9310.000000;1.204867
9309.000000;1.204848
9308.000000;1.204789
9307.000000;1.204766
9306.000000;1.204799
9305.000000;1.204648
9304.000000;1.204063
9303.000000;1.203118
9302.000000;1.202125
9301.000000;1.201283
9300.000000;1.200549
9299.000000;1.199861
9298.000000;1.199348
9297.000000;1.199228
9296.000000;1.199529
9295.000000;1.199972
9294.000000;1.200184
9293.000000;1.200057
9292.000000;1.199861
9291.000000;1.199906
9290.000000;1.200121
9289.000000;1.200084
9288.000000;1.199554
9287.000000;1.198831
9286.000000;1.198420
9285.000000;1.198375
9284.000000;1.198196
9283.000000;1.197426
9282.000000;1.196200
9281.000000;1.195030
9280.000000;1.194172
9279.000000;1.193440
9278.000000;1.192675
9277.000000;1.192138
9276.000000;1.192199
9275.000000;1.192731
9274.000000;1.193096
9273.000000;1.192824
9272.000000;1.192112
9271.000000;1.191484
9270.000000;1.191114
9269.000000;1.190726
9268.000000;1.190135
9267.000000;1.189604
9266.000000;1.189566
9265.000000;1.190128
9264.000000;1.190966
9263.000000;1.191598
9262.000000;1.191683
9261.000000;1.191150
9260.000000;1.190175
9259.000000;1.189055
9258.000000;1.188030
9257.000000;1.187215
9256.000000;1.186678
9255.000000;1.186472
9254.000000;1.186502
9253.000000;1.186486
9252.000000;1.186210
9251.000000;1.185797
9250.000000;1.185577
9249.000000;1.185675
9248.000000;1.185823
9247.000000;1.185621
9246.000000;1.184940
9245.000000;1.184018
9244.000000;1.183237
9243.000000;1.182822
9242.000000;1.182664
9241.000000;1.182420
9240.000000;1.181835
9239.000000;1.181000
9238.000000;1.180242
9237.000000;1.179743
9236.000000;1.179372
9235.000000;1.178951
9234.000000;1.178567
9233.000000;1.178501
9232.000000;1.178909
9231.000000;1.179677
9230.000000;1.180564
9229.000000;1.181333
9228.000000;1.181725
9227.000000;1.181466
9226.000000;1.180440
9225.000000;1.178848
9224.000000;1.177131
9223.000000;1.175713
9222.000000;1.174791
9221.000000;1.174297
9220.000000;1.174036
9219.000000;1.173860
9218.000000;1.173721
9217.000000;1.173609
9216.000000;1.173504
9215.000000;1.173425
9214.000000;1.173424
9213.000000;1.173466
9212.000000;1.173408
9211.000000;1.173206
9210.000000;1.173060
9209.000000;1.173144
9208.000000;1.173265
9207.000000;1.173036
9206.000000;1.172408
9205.000000;1.171748
9204.000000;1.171304
9203.000000;1.170856
9202.000000;1.170135
9201.000000;1.169352
9200.000000;1.168987
9199.000000;1.169130
9198.000000;1.169298
9197.000000;1.168977
9196.000000;1.168168
9195.000000;1.167357
9194.000000;1.167047
9193.000000;1.167325
9192.000000;1.167797
9191.000000;1.167976
9190.000000;1.167808
9189.000000;1.167703
9188.000000;1.167941
9187.000000;1.168229
9186.000000;1.168082
9185.000000;1.167538
9184.000000;1.167102
9183.000000;1.166971
9182.000000;1.166687
9181.000000;1.165763
9180.000000;1.164416
9179.000000;1.163403
9178.000000;1.163207
9177.000000;1.163560
9176.000000;1.163719
9175.000000;1.163151
9174.000000;1.161987
9173.000000;1.160883
9172.000000;1.160358
9171.000000;1.160267
9170.000000;1.160032
9169.000000;1.159372
9168.000000;1.158631
9167.000000;1.158310
9166.000000;1.158463
9165.000000;1.158713
9164.000000;1.158751
9163.000000;1.158639
9162.000000;1.158632
9161.000000;1.158826
9160.000000;1.159021
9159.000000;1.158894
9158.000000;1.158353
9157.000000;1.157709
9156.000000;1.157366
9155.000000;1.157321
9154.000000;1.157158
9153.000000;1.156652
9152.000000;1.156137
9151.000000;1.156085
9150.000000;1.156425
9149.000000;1.156551
9148.000000;1.156014
9147.000000;1.155016
9146.000000;1.154142
9145.000000;1.153766
9144.000000;1.153764
9143.000000;1.153713
9142.000000;1.153294
9141.000000;1.152558
9140.000000;1.151837
9139.000000;1.151386
9138.000000;1.151128
9137.000000;1.150791
9136.000000;1.150247
9135.000000;1.149609
9134.000000;1.148990
9133.000000;1.148316
9132.000000;1.147486
9131.000000;1.146633
9130.000000;1.146046
9129.000000;1.145835
9128.000000;1.145808
9127.000000;1.145758
9126.000000;1.145748
9125.000000;1.145946
9124.000000;1.146256
9123.000000;1.146352
9122.000000;1.146138
9121.000000;1.145921
9120.000000;1.145952
9119.000000;1.146011
9118.000000;1.145700
9117.000000;1.145016
9116.000000;1.144335
9115.000000;1.143841
9114.000000;1.143317
9113.000000;1.142595
9112.000000;1.141937
9111.000000;1.141806
9110.000000;1.142402
9109.000000;1.143470
9108.000000;1.144417
9107.000000;1.144587
9106.000000;1.143709
9105.000000;1.142237
9104.000000;1.141080
9103.000000;1.140797
9102.000000;1.141150
9101.000000;1.141502
9100.000000;1.141479
9099.000000;1.141127
9098.000000;1.140627
9097.000000;1.140114
9096.000000;1.139669
9095.000000;1.139259
9094.000000;1.138758
9093.000000;1.138159
9092.000000;1.137690
9091.000000;1.137574
9090.000000;1.137734
9089.000000;1.137894
9088.000000;1.137836
9087.000000;1.137470
9086.000000;1.136793
9085.000000;1.135969
9084.000000;1.135306
9083.000000;1.134982
9082.000000;1.134874
9081.000000;1.134798
9080.000000;1.134769
9079.000000;1.134841
9078.000000;1.134863
9077.000000;1.134659
9076.000000;1.134325
9075.000000;1.134083
9074.000000;1.133915
9073.000000;1.133648
9072.000000;1.133294
9071.000000;1.133034
9070.000000;1.132873
9069.000000;1.132635
9068.000000;1.132320
9067.000000;1.132169
9066.000000;1.132272
9065.000000;1.132374
9064.000000;1.132133
9063.000000;1.131428
9062.000000;1.130361
9061.000000;1.129172
9060.000000;1.128215
9059.000000;1.127802
9058.000000;1.127958
9057.000000;1.128392
9056.000000;1.128716
9055.000000;1.128609
9054.000000;1.127910
9053.000000;1.126793
9052.000000;1.125810
9051.000000;1.125445
9050.000000;1.125615
9049.000000;1.125841
9048.000000;1.125912
9047.000000;1.126014
9046.000000;1.126166
9045.000000;1.125992
9044.000000;1.125293
9043.000000;1.124479
9042.000000;1.124091
9041.000000;1.124133
9040.000000;1.124201
9039.000000;1.124098
9038.000000;1.123956
9037.000000;1.123864
9036.000000;1.123725
9035.000000;1.123503
9034.000000;1.123323
9033.000000;1.123238
9032.000000;1.123116
9031.000000;1.122841
9030.000000;1.122474
9029.000000;1.122159
9028.000000;1.121951
9027.000000;1.121797
9026.000000;1.121580
9025.000000;1.121168
9024.000000;1.120485
9023.000000;1.119591
9022.000000;1.118668
9021.000000;1.117946
9020.000000;1.117639
9019.000000;1.117830
9018.000000;1.118295
9017.000000;1.118536
9016.000000;1.118181
9015.000000;1.117381
9014.000000;1.116650
9013.000000;1.116294
9012.000000;1.116157
9011.000000;1.115989
9010.000000;1.115828
9009.000000;1.115851
9008.000000;1.115957
9007.000000;1.115780
9006.000000;1.115176
9005.000000;1.114490
9004.000000;1.114171
9003.000000;1.114226
9002.000000;1.114218
9001.000000;1.113795
9000.000000;1.113067
8999.000000;1.112421
8998.000000;1.112103
8997.000000;1.112058
8996.000000;1.112083
8995.000000;1.112008
8994.000000;1.111784
8993.000000;1.111468
8992.000000;1.111125
8991.000000;1.110713
8990.000000;1.110132
8989.000000;1.109390
8988.000000;1.108643
8987.000000;1.108027
8986.000000;1.107549
8985.000000;1.107229
8984.000000;1.107169
8983.000000;1.107346
8982.000000;1.107447
8981.000000;1.107159
8980.000000;1.106586
8979.000000;1.106139
8978.000000;1.106017
8977.000000;1.106010
8976.000000;1.105874
8975.000000;1.105657
8974.000000;1.105519
8973.000000;1.105431
8972.000000;1.105241
8971.000000;1.104952
8970.000000;1.104733
8969.000000;1.104666
8968.000000;1.104645
8967.000000;1.104543
8966.000000;1.104361
8965.000000;1.104156
8964.000000;1.103887
8963.000000;1.103440
8962.000000;1.102815
8961.000000;1.102216
8960.000000;1.101881
8959.000000;1.101812
8958.000000;1.101768
8957.000000;1.101528
8956.000000;1.101084
8955.000000;1.100540
8954.000000;1.099988
8953.000000;1.099566
8952.000000;1.099471
8951.000000;1.099697
8950.000000;1.099868
8949.000000;1.099566
8948.000000;1.098831
8947.000000;1.098065
8946.000000;1.097480
8945.000000;1.096938
8944.000000;1.096426
8943.000000;1.096308
8942.000000;1.096845
8941.000000;1.097680
8940.000000;1.098127
8939.000000;1.097915
8938.000000;1.097371
8937.000000;1.096903
8936.000000;1.096575
8935.000000;1.096245
8934.000000;1.095875
8933.000000;1.095558
8932.000000;1.095338
8931.000000;1.095153
8930.000000;1.094944
8929.000000;1.094752
8928.000000;1.094698
8927.000000;1.094846
8926.000000;1.095077
8925.000000;1.095118
8924.000000;1.094760
8923.000000;1.094069
8922.000000;1.093357
8921.000000;1.092926
8920.000000;1.092825
8919.000000;1.092836
8918.000000;1.092665
8917.000000;1.092193
8916.000000;1.091588
8915.000000;1.091137
8914.000000;1.090941
8913.000000;1.090793
8912.000000;1.090430
8911.000000;1.089864
8910.000000;1.089371
8909.000000;1.089164
8908.000000;1.089182
8907.000000;1.089216
8906.000000;1.089145
8905.000000;1.088949
8904.000000;1.088611
8903.000000;1.088183
8902.000000;1.087912
8901.000000;1.088079
8900.000000;1.088595
8899.000000;1.088900
8898.000000;1.088482
8897.000000;1.087424
8896.000000;1.086294
8895.000000;1.085508
8894.000000;1.085016
8893.000000;1.084616
8892.000000;1.084328
8891.000000;1.084280
8890.000000;1.084398
8889.000000;1.084433
8888.000000;1.084272
8887.000000;1.084050
8886.000000;1.083930
8885.000000;1.083888
8884.000000;1.083720
8883.000000;1.083226
8882.000000;1.082409
8881.000000;1.081582
8880.000000;1.081211
8879.000000;1.081519
8878.000000;1.082240
8877.000000;1.082828
8876.000000;1.082891
8875.000000;1.082367
8874.000000;1.081423
8873.000000;1.080373
8872.000000;1.079640
8871.000000;1.079524
8870.000000;1.079893
8869.000000;1.080261
8868.000000;1.080260
8867.000000;1.079945
8866.000000;1.079580
8865.000000;1.079270
8864.000000;1.078940
8863.000000;1.078533
8862.000000;1.078084
8861.000000;1.077636
8860.000000;1.077213
8859.000000;1.076899
8858.000000;1.076848
8857.000000;1.077117
8856.000000;1.077500
8855.000000;1.077582
8854.000000;1.077066
8853.000000;1.076100
8852.000000;1.075226
8851.000000;1.074899
8850.000000;1.075064
8849.000000;1.075255
8848.000000;1.075086
8847.000000;1.074597
8846.000000;1.074164
8845.000000;1.074159
8844.000000;1.074653
8843.000000;1.075330
8842.000000;1.075688
8841.000000;1.075430
8840.000000;1.074677
8839.000000;1.073762
8838.000000;1.072908
8837.000000;1.072209
8836.000000;1.071798
8835.000000;1.071776
8834.000000;1.072011
8833.000000;1.072250
8832.000000;1.072484
8831.000000;1.072940
8830.000000;1.073618
8829.000000;1.074084
8828.000000;1.073890
8827.000000;1.073048
8826.000000;1.071947
8825.000000;1.070959
8824.000000;1.070278
8823.000000;1.069979
8822.000000;1.070012
8821.000000;1.070200
8820.000000;1.070397
8819.000000;1.070595
8818.000000;1.070782
8817.000000;1.070812
8816.000000;1.070600
8815.000000;1.070333
8814.000000;1.070239
8813.000000;1.070229
8812.000000;1.070021
8811.000000;1.069617
8810.000000;1.069393
8809.000000;1.069618
8808.000000;1.070080
8807.000000;1.070316
8806.000000;1.070107
8805.000000;1.069602
8804.000000;1.069049
8803.000000;1.068550
8802.000000;1.068079
8801.000000;1.067634
8800.000000;1.067305
8799.000000;1.067217
8798.000000;1.067394
8797.000000;1.067714
8796.000000;1.067991
8795.000000;1.068102
8794.000000;1.067999
8793.000000;1.067682
8792.000000;1.067208
8791.000000;1.066733
8790.000000;1.066412
8789.000000;1.066236
8788.000000;1.066040
8787.000000;1.065772
8786.000000;1.065653
8785.000000;1.065949
8784.000000;1.066593
8783.000000;1.067165
8782.000000;1.067307
8781.000000;1.067069
8780.000000;1.066734
8779.000000;1.066438
8778.000000;1.066094
8777.000000;1.065667
8776.000000;1.065299
8775.000000;1.065120
8774.000000;1.065101
8773.000000;1.065203
8772.000000;1.065494
8771.000000;1.065942
8770.000000;1.066245
8769.000000;1.066100
8768.000000;1.065592
8767.000000;1.065104
8766.000000;1.064853
8765.000000;1.064728
8764.000000;1.064605
8763.000000;1.064545
8762.000000;1.064595
8761.000000;1.064617
8760.000000;1.064488
8759.000000;1.064311
8758.000000;1.064243
8757.000000;1.064212
8756.000000;1.064012
8755.000000;1.063611
8754.000000;1.063224
8753.000000;1.063027
8752.000000;1.062950
8751.000000;1.062791
8750.000000;1.062491
8749.000000;1.062217
8748.000000;1.062172
8747.000000;1.062361
8746.000000;1.062617
8745.000000;1.062844
8744.000000;1.063112
8743.000000;1.063406
8742.000000;1.063458
8741.000000;1.063084
8740.000000;1.062621
8739.000000;1.062706
8738.000000;1.063506
8737.000000;1.064456
8736.000000;1.064908
8735.000000;1.064820
8734.000000;1.064577
8733.000000;1.064348
8732.000000;1.063963
8731.000000;1.063353
8730.000000;1.062773
8729.000000;1.062529
8728.000000;1.062674
8727.000000;1.062996
8726.000000;1.063177
8725.000000;1.062968
8724.000000;1.062410
8723.000000;1.061934
8722.000000;1.062061
8721.000000;1.062893
8720.000000;1.063954
8719.000000;1.064565
8718.000000;1.064353
8717.000000;1.063458
8716.000000;1.062366
8715.000000;1.061574
8714.000000;1.061270
8713.000000;1.061285
8712.000000;1.061366
8711.000000;1.061469
8710.000000;1.061671
8709.000000;1.061857
8708.000000;1.061737
8707.000000;1.061222
8706.000000;1.060632
8705.000000;1.060391
8704.000000;1.060588
8703.000000;1.060931
8702.000000;1.061039
8701.000000;1.060714
8700.000000;1.060021
8699.000000;1.059235
8698.000000;1.058660
8697.000000;1.058434
8696.000000;1.058476
8695.000000;1.058658
8694.000000;1.058925
8693.000000;1.059202
8692.000000;1.059304
8691.000000;1.059085
8690.000000;1.058672
8689.000000;1.058400
8688.000000;1.058484
8687.000000;1.058835
8686.000000;1.059228
8685.000000;1.059523
8684.000000;1.059665
8683.000000;1.059552
8682.000000;1.059074
8681.000000;1.058299
8680.000000;1.057539
8679.000000;1.057165
8678.000000;1.057357
8677.000000;1.057993
8676.000000;1.058717
8675.000000;1.059141
8674.000000;1.059073
8673.000000;1.058625
8672.000000;1.058099
8671.000000;1.057740
8670.000000;1.057589
8669.000000;1.057540
8668.000000;1.057436
8667.000000;1.057111
8666.000000;1.056472
8665.000000;1.055636
8664.000000;1.054932
8663.000000;1.054629
8662.000000;1.054710
8661.000000;1.054975
8660.000000;1.055291
8659.000000;1.055638
8658.000000;1.055973
8657.000000;1.056238
8656.000000;1.056481
8655.000000;1.056755
8654.000000;1.056854
8653.000000;1.056386
8652.000000;1.055238
8651.000000;1.053844
8650.000000;1.052817
8649.000000;1.052417
8648.000000;1.052471
8647.000000;1.052686
8646.000000;1.052864
8645.000000;1.052867
8644.000000;1.052611
8643.000000;1.052169
8642.000000;1.051777
8641.000000;1.051619
8640.000000;1.051652
8639.000000;1.051643
8638.000000;1.051388
8637.000000;1.050879
8636.000000;1.050293
8635.000000;1.049829
8634.000000;1.049564
8633.000000;1.049479
8632.000000;1.049561
8631.000000;1.049772
8630.000000;1.049942
8629.000000;1.049842
8628.000000;1.049443
8627.000000;1.049002
8626.000000;1.048813
8625.000000;1.048931
8624.000000;1.049177
8623.000000;1.049341
8622.000000;1.049300
8621.000000;1.049056
8620.000000;1.048739
8619.000000;1.048516
8618.000000;1.048390
8617.000000;1.048169
8616.000000;1.047759
8615.000000;1.047381
8614.000000;1.047326
8613.000000;1.047521
8612.000000;1.047510
8611.000000;1.046938
8610.000000;1.045949
8609.000000;1.045050
8608.000000;1.044640
8607.000000;1.044675
8606.000000;1.044748
8605.000000;1.044478
8604.000000;1.043864
8603.000000;1.043243
8602.000000;1.042903
8601.000000;1.042809
8600.000000;1.042740
8599.000000;1.042593
8598.000000;1.042463
8597.000000;1.042450
8596.000000;1.042494
8595.000000;1.042395
8594.000000;1.041969
8593.000000;1.041251
8592.000000;1.040568
8591.000000;1.040296
8590.000000;1.040474
8589.000000;1.040776
8588.000000;1.040914
8587.000000;1.040940
8586.000000;1.041010
8585.000000;1.041041
8584.000000;1.040851
8583.000000;1.040501
8582.000000;1.040186
8581.000000;1.039849
8580.000000;1.039226
8579.000000;1.038317
8578.000000;1.037488
8577.000000;1.037005
8576.000000;1.036725
8575.000000;1.036420
8574.000000;1.036161
8573.000000;1.036137
8572.000000;1.036276
8571.000000;1.036313
8570.000000;1.036165
8569.000000;1.036027
8568.000000;1.036040
8567.000000;1.036049
8566.000000;1.035753
8565.000000;1.035040
8564.000000;1.034158
8563.000000;1.033546
8562.000000;1.033433
8561.000000;1.033574
8560.000000;1.033477
8559.000000;1.032996
8558.000000;1.032594
8557.000000;1.032846
8556.000000;1.033710
8555.000000;1.034486
8554.000000;1.034541
8553.000000;1.033943
8552.000000;1.033271
8551.000000;1.032897
8550.000000;1.032635
8549.000000;1.032098
8548.000000;1.031255
8547.000000;1.030486
8546.000000;1.030130
8545.000000;1.030096
8544.000000;1.029996
8543.000000;1.029587
8542.000000;1.029001
8541.000000;1.028547
8540.000000;1.028380
8539.000000;1.028385
8538.000000;1.028338
8537.000000;1.028138
8536.000000;1.027894
8535.000000;1.027772
8534.000000;1.027772
8533.000000;1.027706
8532.000000;1.027413
8531.000000;1.026927
8530.000000;1.026349
8529.000000;1.025678
8528.000000;1.024897
8527.000000;1.024199
8526.000000;1.023912
8525.000000;1.024127
8524.000000;1.024540
8523.000000;1.024749
8522.000000;1.024622
8521.000000;1.024310
8520.000000;1.024006
8519.000000;1.023790
8518.000000;1.023626
8517.000000;1.023411
8516.000000;1.023079
8515.000000;1.022734
8514.000000;1.022594
8513.000000;1.022719
8512.000000;1.022846
8511.000000;1.022628
8510.000000;1.022026
8509.000000;1.021344
8508.000000;1.020857
8507.000000;1.020520
8506.000000;1.020108
8505.000000;1.019557
8504.000000;1.019063
8503.000000;1.018817
8502.000000;1.018750
8501.000000;1.018589
8500.000000;1.018185
8499.000000;1.017700
8498.000000;1.017402
8497.000000;1.017319
8496.000000;1.017163
8495.000000;1.016639
8494.000000;1.015783
8493.000000;1.014981
8492.000000;1.014663
8491.000000;1.014958
8490.000000;1.015589
8489.000000;1.016092
8488.000000;1.016181
8487.000000;1.015933
8486.000000;1.015617
8485.000000;1.015384
8484.000000;1.015173
8483.000000;1.014878
8482.000000;1.014491
8481.000000;1.014074
8480.000000;1.013695
8479.000000;1.013422
8478.000000;1.013283
8477.000000;1.013174
8476.000000;1.012903
8475.000000;1.012409
8474.000000;1.011880
8473.000000;1.011546
8472.000000;1.011396
8471.000000;1.011170
8470.000000;1.010674
8469.000000;1.010043
8468.000000;1.009643
8467.000000;1.009678
8466.000000;1.009906
8465.000000;1.009826
8464.000000;1.009221
8463.000000;1.008471
8462.000000;1.008188
8461.000000;1.008559
8460.000000;1.009179
8459.000000;1.009567
8458.000000;1.009652
8457.000000;1.009661
8456.000000;1.009681
8455.000000;1.009537
8454.000000;1.009051
8453.000000;1.008250
8452.000000;1.007318
8451.000000;1.006470
8450.000000;1.005870
8449.000000;1.005550
8448.000000;1.005355
8447.000000;1.005060
8446.000000;1.004608
8445.000000;1.004184
8444.000000;1.004034
8443.000000;1.004234
8442.000000;1.004635
8441.000000;1.004982
8440.000000;1.005079
8439.000000;1.004880
8438.000000;1.004464
8437.000000;1.003932
8436.000000;1.003353
8435.000000;1.002801
8434.000000;1.002397
8433.000000;1.002238
8432.000000;1.002281
8431.000000;1.002316
8430.000000;1.002101
8429.000000;1.001559
8428.000000;1.000892
8427.000000;1.000463
8426.000000;1.000474
8425.000000;1.000735
8424.000000;1.000838
8423.000000;1.000576
8422.000000;1.000105
8421.000000;0.999648
8420.000000;0.999208
8419.000000;0.998687
8418.000000;0.998164
8417.000000;0.997844
8416.000000;0.997769
8415.000000;0.997749
8414.000000;0.997597
8413.000000;0.997292
8412.000000;0.996900
8411.000000;0.996478
8410.000000;0.996113
8409.000000;0.995915
8408.000000;0.995884
8407.000000;0.995846
8406.000000;0.995617
8405.000000;0.995199
8404.000000;0.994761
8403.000000;0.994451
8402.000000;0.994267
8401.000000;0.994092
8400.000000;0.993826
8399.000000;0.993477
8398.000000;0.993127
8397.000000;0.992826
8396.000000;0.992542
8395.000000;0.992231
8394.000000;0.991905
8393.000000;0.991587
8392.000000;0.991276
8391.000000;0.991027
8390.000000;0.990957
8389.000000;0.991042
8388.000000;0.991014
8387.000000;0.990631
8386.000000;0.990044
8385.000000;0.989663
8384.000000;0.989631
8383.000000;0.989633
8382.000000;0.989361
8381.000000;0.988933
8380.000000;0.988658
8379.000000;0.988520
8378.000000;0.988193
8377.000000;0.987556
8376.000000;0.986956
8375.000000;0.986833
8374.000000;0.987218
8373.000000;0.987697
8372.000000;0.987788
8371.000000;0.987291
8370.000000;0.986364
8369.000000;0.985344
8368.000000;0.984521
8367.000000;0.983971
8366.000000;0.983564
8365.000000;0.983152
8364.000000;0.982773
8363.000000;0.982651
8362.000000;0.982945
8361.000000;0.983516
8360.000000;0.983991
8359.000000;0.984090
8358.000000;0.983840
8357.000000;0.983431
8356.000000;0.982955
8355.000000;0.982399
8354.000000;0.981816
8353.000000;0.981343
8352.000000;0.981004
8351.000000;0.980650
8350.000000;0.980174
8349.000000;0.979670
8348.000000;0.979286
8347.000000;0.979009
8346.000000;0.978716
8345.000000;0.978397
8344.000000;0.978184
8343.000000;0.978173
8342.000000;0.978311
8341.000000;0.978453
8340.000000;0.978449
8339.000000;0.978196
8338.000000;0.977691
8337.000000;0.977059
8336.000000;0.976456
8335.000000;0.975966
8334.000000;0.975648
8333.000000;0.975594
8332.000000;0.975780
8331.000000;0.975887
8330.000000;0.975500
8329.000000;0.974583
8328.000000;0.973594
8327.000000;0.973028
8326.000000;0.972917
8325.000000;0.972900
8324.000000;0.972666
8323.000000;0.972211
8322.000000;0.971719
8321.000000;0.971378
8320.000000;0.971298
8319.000000;0.971446
8318.000000;0.971609
8317.000000;0.971518
8316.000000;0.971093
8315.000000;0.970504
8314.000000;0.970003
8313.000000;0.969736
8312.000000;0.969707
8311.000000;0.969801
8310.000000;0.969807
8309.000000;0.969541
8308.000000;0.969037
8307.000000;0.968545
8306.000000;0.968265
8305.000000;0.968132
8304.000000;0.967937
8303.000000;0.967604
8302.000000;0.967242
8301.000000;0.966948
8300.000000;0.966685
8299.000000;0.966418
8298.000000;0.966245
8297.000000;0.966296
8296.000000;0.966520
8295.000000;0.966634
8294.000000;0.966332
8293.000000;0.965563
8292.000000;0.964584
8291.000000;0.963749
8290.000000;0.963200
8289.000000;0.962784
8288.000000;0.962276
8287.000000;0.961677
8286.000000;0.961226
8285.000000;0.961128
8284.000000;0.961307
8283.000000;0.961459
8282.000000;0.961320
8281.000000;0.960860
8280.000000;0.960235
8279.000000;0.959611
8278.000000;0.959049
8277.000000;0.958538
8276.000000;0.958115
8275.000000;0.957883
8274.000000;0.957899
8273.000000;0.958058
8272.000000;0.958131
8271.000000;0.957938
8270.000000;0.957456
8269.000000;0.956807
8268.000000;0.956180
8267.000000;0.955749
8266.000000;0.955561
8265.000000;0.955453
8264.000000;0.955148
8263.000000;0.954503
8262.000000;0.953645
8261.000000;0.952848
8260.000000;0.952284
8259.000000;0.951948
8258.000000;0.951762
8257.000000;0.951704
8256.000000;0.951794
8255.000000;0.952010
8254.000000;0.952235
8253.000000;0.952316
8252.000000;0.952178
8251.000000;0.951881
8250.000000;0.951534
8249.000000;0.951172
8248.000000;0.950764
8247.000000;0.950318
8246.000000;0.949913
8245.000000;0.949591
8244.000000;0.949310
8243.000000;0.949017
8242.000000;0.948733
8241.000000;0.948516
8240.000000;0.948404
8239.000000;0.948402
8238.000000;0.948454
8237.000000;0.948384
8236.000000;0.947970
8235.000000;0.947202
8234.000000;0.946370
8233.000000;0.945808
8232.000000;0.945580
8231.000000;0.945513
8230.000000;0.945462
8229.000000;0.945389
8228.000000;0.945212
8227.000000;0.944778
8226.000000;0.944027
8225.000000;0.943065
8224.000000;0.942058
8223.000000;0.941182
8222.000000;0.940685
8221.000000;0.940788
8220.000000;0.941392
8219.000000;0.942044
8218.000000;0.942334
8217.000000;0.942234
8216.000000;0.941932
8215.000000;0.941469
8214.000000;0.940750
8213.000000;0.939862
8212.000000;0.939138
8211.000000;0.938821
8210.000000;0.938789
8209.000000;0.938714
8208.000000;0.938415
8207.000000;0.937993
8206.000000;0.937653
8205.000000;0.937476
8204.000000;0.937362
8203.000000;0.937175
8202.000000;0.936907
8201.000000;0.936671
8200.000000;0.936515
8199.000000;0.936287
8198.000000;0.935759
8197.000000;0.934892
8196.000000;0.933958
8195.000000;0.933354
8194.000000;0.933276
8193.000000;0.933542
8192.000000;0.933725
8191.000000;0.933502
8190.000000;0.932916
8189.000000;0.932298
8188.000000;0.931919
8187.000000;0.931766
8186.000000;0.931637
8185.000000;0.931377
8184.000000;0.930972
8183.000000;0.930506
8182.000000;0.930133
8181.000000;0.930022
8180.000000;0.930198
8179.000000;0.930414
8178.000000;0.930332
8177.000000;0.929877
8176.000000;0.929322
8175.000000;0.928951
8174.000000;0.928745
8173.000000;0.928464
8172.000000;0.927981
8171.000000;0.927400
8170.000000;0.926898
8169.000000;0.926558
8168.000000;0.926388
8167.000000;0.926359
8166.000000;0.926351
8165.000000;0.926135
8164.000000;0.925549
8163.000000;0.924697
8162.000000;0.923886
8161.000000;0.923332
8160.000000;0.922979
8159.000000;0.922647
8158.000000;0.922263
8157.000000;0.921879
8156.000000;0.921528
8155.000000;0.921183
8154.000000;0.920860
8153.000000;0.920640
8152.000000;0.920556
8151.000000;0.920539
8150.000000;0.920497
8149.000000;0.920392
8148.000000;0.920186
8147.000000;0.919843
8146.000000;0.919445
8145.000000;0.919195
8144.000000;0.919165
8143.000000;0.919124
8142.000000;0.918785
8141.000000;0.918206
8140.000000;0.917759
8139.000000;0.917678
8138.000000;0.917773
8137.000000;0.917667
8136.000000;0.917153
8135.000000;0.916284
8134.000000;0.915241
8133.000000;0.914292
8132.000000;0.913753
8131.000000;0.913780
8130.000000;0.914136
8129.000000;0.914331
8128.000000;0.914062
8127.000000;0.913468
8126.000000;0.912907
8125.000000;0.912567
8124.000000;0.912354
8123.000000;0.912088
8122.000000;0.911710
8121.000000;0.911271
8120.000000;0.910812
8119.000000;0.910312
8118.000000;0.909766
8117.000000;0.909273
8116.000000;0.908991
8115.000000;0.908984
8114.000000;0.909111
8113.000000;0.909095
8112.000000;0.908740
8111.000000;0.908094
8110.000000;0.907402
8109.000000;0.906883
8108.000000;0.906567
8107.000000;0.906322
8106.000000;0.906039
8105.000000;0.905734
8104.000000;0.905478
8103.000000;0.905262
8102.000000;0.904992
8101.000000;0.904619
8100.000000;0.904210
8099.000000;0.903863
8098.000000;0.903582
8097.000000;0.903279
8096.000000;0.902889
8095.000000;0.902435
8094.000000;0.901984
8093.000000;0.901588
8092.000000;0.901285
8091.000000;0.901119
8090.000000;0.901098
8089.000000;0.901147
8088.000000;0.901127
8087.000000;0.900936
8086.000000;0.900580
8085.000000;0.900130
8084.000000;0.899651
8083.000000;0.899173
8082.000000;0.898715
8081.000000;0.898283
8080.000000;0.897859
8079.000000;0.897435
8078.000000;0.897076
8077.000000;0.896888
8076.000000;0.896866
8075.000000;0.896819
8074.000000;0.896530
8073.000000;0.895974
8072.000000;0.895337
8071.000000;0.894799
8070.000000;0.894385
8069.000000;0.894063
8068.000000;0.893878
8067.000000;0.893911
8066.000000;0.894116
8065.000000;0.894303
8064.000000;0.894286
8063.000000;0.894004
8062.000000;0.893501
8061.000000;0.892859
8060.000000;0.892212
8059.000000;0.891722
8058.000000;0.891469
8057.000000;0.891331
8056.000000;0.891066
8055.000000;0.890532
8054.000000;0.889815
8053.000000;0.889134
8052.000000;0.888653
8051.000000;0.888395
8050.000000;0.888279
8049.000000;0.888195
8048.000000;0.888053
8047.000000;0.887820
8046.000000;0.887516
8045.000000;0.887176
8044.000000;0.886809
8043.000000;0.886429
8042.000000;0.886086
8041.000000;0.885818
8040.000000;0.885550
8039.000000;0.885126
8038.000000;0.884498
8037.000000;0.883827
8036.000000;0.883351
8035.000000;0.883127
8034.000000;0.882967
8033.000000;0.882646
8032.000000;0.882129
8031.000000;0.881598
8030.000000;0.881267
8029.000000;0.881180
8028.000000;0.881179
8027.000000;0.881053
8026.000000;0.880723
8025.000000;0.880283
8024.000000;0.879866
8023.000000;0.879517
8022.000000;0.879202
8021.000000;0.878900
8020.000000;0.878610
8019.000000;0.878290
8018.000000;0.877860
8017.000000;0.877314
8016.000000;0.876774
8015.000000;0.876394
8014.000000;0.876238
8013.000000;0.876249
8012.000000;0.876315
8011.000000;0.876349
8010.000000;0.876332
8009.000000;0.876286
8008.000000;0.876187
8007.000000;0.875900
8006.000000;0.875282
8005.000000;0.874380
8004.000000;0.873464
8003.000000;0.872795
8002.000000;0.872397
8001.000000;0.872125
8000.000000;0.871899
7999.000000;0.871762
7998.000000;0.871706
7997.000000;0.871586
7996.000000;0.871286
7995.000000;0.870903
7994.000000;0.870630
7993.000000;0.870493
7992.000000;0.870292
7991.000000;0.869855
7990.000000;0.869256
7989.000000;0.868733
7988.000000;0.868421
7987.000000;0.868240
7986.000000;0.868044
7985.000000;0.867782
7984.000000;0.867506
7983.000000;0.867262
7982.000000;0.867045
7981.000000;0.866833
7980.000000;0.866611
7979.000000;0.866341
7978.000000;0.865943
7977.000000;0.865348
7976.000000;0.864542
7975.000000;0.863612
7974.000000;0.862756
7973.000000;0.862235
7972.000000;0.862192
7971.000000;0.862481
7970.000000;0.862730
7969.000000;0.862663
7968.000000;0.862328
7967.000000;0.861948
7966.000000;0.861600
7965.000000;0.861160
7964.000000;0.860570
7963.000000;0.860012
7962.000000;0.859711
7961.000000;0.859645
7960.000000;0.859544
7959.000000;0.859181
7958.000000;0.858568
7957.000000;0.857880
7956.000000;0.857247
7955.000000;0.856677
7954.000000;0.856139
7953.000000;0.855653
7952.000000;0.855288
7951.000000;0.855082
7950.000000;0.854990
7949.000000;0.854903
7948.000000;0.854744
7947.000000;0.854509
7946.000000;0.854228
7945.000000;0.853911
7944.000000;0.853568
7943.000000;0.853267
7942.000000;0.853111
7941.000000;0.853123
7940.000000;0.853182
7939.000000;0.853098
7938.000000;0.852764
7937.000000;0.852235
7936.000000;0.851671
7935.000000;0.851198
7934.000000;0.850821
7933.000000;0.850446
7932.000000;0.850019
7931.000000;0.849617
7930.000000;0.849369
7929.000000;0.849269
7928.000000;0.849137
7927.000000;0.848809
7926.000000;0.848343
7925.000000;0.847942
7924.000000;0.847680
7923.000000;0.847390
7922.000000;0.846877
7921.000000;0.846196
7920.000000;0.845621
7919.000000;0.845331
7918.000000;0.845198
7917.000000;0.844945
7916.000000;0.844482
7915.000000;0.844000
7914.000000;0.843731
7913.000000;0.843686
7912.000000;0.843674
7911.000000;0.843542
7910.000000;0.843305
7909.000000;0.843047
7908.000000;0.842788
7907.000000;0.842496
7906.000000;0.842182
7905.000000;0.841907
7904.000000;0.841688
7903.000000;0.841454
7902.000000;0.841129
7901.000000;0.840713
7900.000000;0.840282
7899.000000;0.839925
7898.000000;0.839683
7897.000000;0.839529
7896.000000;0.839365
7895.000000;0.839077
7894.000000;0.838634
7893.000000;0.838132
7892.000000;0.837694
7891.000000;0.837332
7890.000000;0.836942
7889.000000;0.836451
7888.000000;0.835927
7887.000000;0.835511
7886.000000;0.835258
7885.000000;0.835111
7884.000000;0.835004
7883.000000;0.834925
7882.000000;0.834844
7881.000000;0.834684
7880.000000;0.834413
7879.000000;0.834116
7878.000000;0.833895
7877.000000;0.833714
7876.000000;0.833457
7875.000000;0.833094
7874.000000;0.832724
7873.000000;0.832436
7872.000000;0.832209
7871.000000;0.831981
7870.000000;0.831701
7869.000000;0.831289
7868.000000;0.830667
7867.000000;0.829894
7866.000000;0.829184
7865.000000;0.828695
7864.000000;0.828354
7863.000000;0.828010
7862.000000;0.827664
7861.000000;0.827440
7860.000000;0.827351
7859.000000;0.827267
7858.000000;0.827105
7857.000000;0.826913
7856.000000;0.826715
7855.000000;0.826442
7854.000000;0.826071
7853.000000;0.825714
7852.000000;0.825466
7851.000000;0.825254
7850.000000;0.824942
7849.000000;0.824529
7848.000000;0.824122
7847.000000;0.823777
7846.000000;0.823468
7845.000000;0.823186
7844.000000;0.822946
7843.000000;0.822717
7842.000000;0.822427
7841.000000;0.822075
7840.000000;0.821741
7839.000000;0.821468
7838.000000;0.821224
7837.000000;0.820980
7836.000000;0.820768
7835.000000;0.820603
7834.000000;0.820431
7833.000000;0.820199
7832.000000;0.819926
7831.000000;0.819656
7830.000000;0.819401
7829.000000;0.819168
7828.000000;0.818983
7827.000000;0.818809
7826.000000;0.818493
7825.000000;0.817922
7824.000000;0.817206
7823.000000;0.816619
7822.000000;0.816313
7821.000000;0.816178
7820.000000;0.816004
7819.000000;0.815736
7818.000000;0.815476
7817.000000;0.815287
7816.000000;0.815089
7815.000000;0.814781
7814.000000;0.814385
7813.000000;0.814036
7812.000000;0.813838
7811.000000;0.813759
7810.000000;0.813651
7809.000000;0.813346
7808.000000;0.812782
7807.000000;0.812063
7806.000000;0.811411
7805.000000;0.811015
7804.000000;0.810889
7803.000000;0.810885
7802.000000;0.810835
7801.000000;0.810694
7800.000000;0.810553
7799.000000;0.810517
7798.000000;0.810578
7797.000000;0.810576
7796.000000;0.810314
7795.000000;0.809731
7794.000000;0.808976
7793.000000;0.808305
7792.000000;0.807885
7791.000000;0.807684
7790.000000;0.807539
7789.000000;0.807312
7788.000000;0.806976
7787.000000;0.806595
7786.000000;0.806225
7785.000000;0.805860
7784.000000;0.805473
7783.000000;0.805089
7782.000000;0.804809
7781.000000;0.804728
7780.000000;0.804822
7779.000000;0.804946
7778.000000;0.804946
7777.000000;0.804791
7776.000000;0.804584
7775.000000;0.804450
7774.000000;0.804418
7773.000000;0.804402
7772.000000;0.804299
7771.000000;0.804079
7770.000000;0.803785
7769.000000;0.803442
7768.000000;0.803014
7767.000000;0.802470
7766.000000;0.801856
7765.000000;0.801279
7764.000000;0.800814
7763.000000;0.800450
7762.000000;0.800127
7761.000000;0.799812
7760.000000;0.799516
7759.000000;0.799267
7758.000000;0.799062
7757.000000;0.798859
7756.000000;0.798634
7755.000000;0.798422
7754.000000;0.798286
7753.000000;0.798241
7752.000000;0.798220
7751.000000;0.798138
7750.000000;0.797951
7749.000000;0.797661
7748.000000;0.797276
7747.000000;0.796833
7746.000000;0.796442
7745.000000;0.796258
7744.000000;0.796373
7743.000000;0.796708
7742.000000;0.797006
7741.000000;0.796993
7740.000000;0.796585
7739.000000;0.795979
7738.000000;0.795472
7737.000000;0.795172
7736.000000;0.794912
7735.000000;0.794488
7734.000000;0.793925
7733.000000;0.793456
7732.000000;0.793263
7731.000000;0.793293
7730.000000;0.793340
7729.000000;0.793258
7728.000000;0.793087
7727.000000;0.792989
7726.000000;0.793054
7725.000000;0.793133
7724.000000;0.792939
7723.000000;0.792353
7722.000000;0.791622
7721.000000;0.791167
7720.000000;0.791184
7719.000000;0.791498
7718.000000;0.791778
7717.000000;0.791802
7716.000000;0.791510
7715.000000;0.790958
7714.000000;0.790291
7713.000000;0.789716
7712.000000;0.789356
7711.000000;0.789157
7710.000000;0.788974
7709.000000;0.788745
7708.000000;0.788514
7707.000000;0.788302
7706.000000;0.788032
7705.000000;0.787627
7704.000000;0.787146
7703.000000;0.786770
7702.000000;0.786643
7701.000000;0.786726
7700.000000;0.786820
7699.000000;0.786733
7698.000000;0.786428
7697.000000;0.786031
7696.000000;0.785698
7695.000000;0.785488
7694.000000;0.785346
7693.000000;0.785175
7692.000000;0.784949
7691.000000;0.784756
7690.000000;0.784724
7689.000000;0.784891
7688.000000;0.785155
7687.000000;0.785379
7686.000000;0.785484
7685.000000;0.785428
7684.000000;0.785155
7683.000000;0.784671
7682.000000;0.784129
7681.000000;0.783736
7680.000000;0.783574
7679.000000;0.783559
7678.000000;0.783574
7677.000000;0.783544
7676.000000;0.783410
7675.000000;0.783122
7674.000000;0.782720
7673.000000;0.782328
7672.000000;0.782025
7671.000000;0.781785
7670.000000;0.781565
7669.000000;0.781371
7668.000000;0.781203
7667.000000;0.781028
7666.000000;0.780843
7665.000000;0.780718
7664.000000;0.780705
7663.000000;0.780768
7662.000000;0.780839
7661.000000;0.780882
7660.000000;0.780848
7659.000000;0.780670
7658.000000;0.780354
7657.000000;0.780021
7656.000000;0.779767
7655.000000;0.779570
7654.000000;0.779395
7653.000000;0.779287
7652.000000;0.779282
7651.000000;0.779283
7650.000000;0.779174
7649.000000;0.778979
7648.000000;0.778794
7647.000000;0.778614
7646.000000;0.778359
7645.000000;0.778047
7644.000000;0.777796
7643.000000;0.777642
7642.000000;0.777515
7641.000000;0.777407
7640.000000;0.777394
7639.000000;0.777467
7638.000000;0.777459
7637.000000;0.777240
7636.000000;0.776874
7635.000000;0.776516
7634.000000;0.776226
7633.000000;0.775987
7632.000000;0.775812
7631.000000;0.775743
7630.000000;0.775770
7629.000000;0.775826
7628.000000;0.775847
7627.000000;0.775794
7626.000000;0.775665
7625.000000;0.775528
7624.000000;0.775492
7623.000000;0.775578
7622.000000;0.775654
7621.000000;0.775552
7620.000000;0.775272
7619.000000;0.774994
7618.000000;0.774903
7617.000000;0.775027
7616.000000;0.775237
7615.000000;0.775365
7614.000000;0.775323
7613.000000;0.775145
7612.000000;0.774937
7611.000000;0.774759
7610.000000;0.774573
7609.000000;0.774309
7608.000000;0.773971
7607.000000;0.773648
7606.000000;0.773437
7605.000000;0.773371
7604.000000;0.773422
7603.000000;0.773536
7602.000000;0.773657
7601.000000;0.773742
7600.000000;0.773760
7599.000000;0.773676
7598.000000;0.773456
7597.000000;0.773107
7596.000000;0.772719
7595.000000;0.772434
7594.000000;0.772349
7593.000000;0.772448
7592.000000;0.772603
7591.000000;0.772665
7590.000000;0.772564
7589.000000;0.772366
7588.000000;0.772205
7587.000000;0.772161
7586.000000;0.772210
7585.000000;0.772286
7584.000000;0.772369
7583.000000;0.772481
7582.000000;0.772621
7581.000000;0.772751
7580.000000;0.772834
7579.000000;0.772859
7578.000000;0.772833
7577.000000;0.772785
7576.000000;0.772769
7575.000000;0.772796
7574.000000;0.772777
7573.000000;0.772578
7572.000000;0.772179
7571.000000;0.771740
7570.000000;0.771482
7569.000000;0.771505
7568.000000;0.771752
7567.000000;0.772083
7566.000000;0.772357
7565.000000;0.772476
7564.000000;0.772423
7563.000000;0.772285
7562.000000;0.772188
7561.000000;0.772180
7560.000000;0.772192
7559.000000;0.772125
7558.000000;0.771957
7557.000000;0.771760
7556.000000;0.771620
7555.000000;0.771565
7554.000000;0.771546
7553.000000;0.771491
7552.000000;0.771391
7551.000000;0.771348
7550.000000;0.771486
7549.000000;0.771794
7548.000000;0.772085
7547.000000;0.772162
7546.000000;0.772006
7545.000000;0.771767
7544.000000;0.771592
7543.000000;0.771504
7542.000000;0.771460
7541.000000;0.771454
7540.000000;0.771518
7539.000000;0.771637
7538.000000;0.771716
7537.000000;0.771667
7536.000000;0.771517
7535.000000;0.771406
7534.000000;0.771457
7533.000000;0.771664
7532.000000;0.771910
7531.000000;0.772099
7530.000000;0.772221
7529.000000;0.772310
7528.000000;0.772383
7527.000000;0.772458
7526.000000;0.772584
7525.000000;0.772795
7524.000000;0.773036
7523.000000;0.773199
7522.000000;0.773226
7521.000000;0.773167
7520.000000;0.773119
7519.000000;0.773136
7518.000000;0.773197
7517.000000;0.773234
7516.000000;0.773193
7515.000000;0.773093
7514.000000;0.773029
7513.000000;0.773092
7512.000000;0.773276
7511.000000;0.773482
7510.000000;0.773615
7509.000000;0.773642
7508.000000;0.773585
7507.000000;0.773486
7506.000000;0.773401
7505.000000;0.773375
7504.000000;0.773415
7503.000000;0.773510
7502.000000;0.773688
7501.000000;0.774005
7500.000000;0.774437
7499.000000;0.774817
7498.000000;0.774962
7497.000000;0.774861
7496.000000;0.774691
7495.000000;0.774612
7494.000000;0.774609
7493.000000;0.774579
7492.000000;0.774524
7491.000000;0.774548
7490.000000;0.774850
7489.000000;0.775059
7488.000000;0.775142
7487.000000;0.775100
7486.000000;0.775055
7485.000000;0.775122
7484.000000;0.775318
7483.000000;0.775604
7482.000000;0.775925
7481.000000;0.776196
7480.000000;0.776327
7479.000000;0.776300
7478.000000;0.776192
7477.000000;0.776091
7476.000000;0.776039
7475.000000;0.776057
7474.000000;0.776143
7473.000000;0.776236
7472.000000;0.776259
7471.000000;0.776243
7470.000000;0.776334
7469.000000;0.776612
7468.000000;0.776957
7467.000000;0.777166
7466.000000;0.777163
7465.000000;0.777046
7464.000000;0.776958
7463.000000;0.776989
7462.000000;0.777152
7461.000000;0.777387
7460.000000;0.777605
7459.000000;0.777772
7458.000000;0.777941
7457.000000;0.778140
7456.000000;0.778281
7455.000000;0.778254
7454.000000;0.778091
7453.000000;0.777964
7452.000000;0.778003
7451.000000;0.778180
7450.000000;0.778362
7449.000000;0.778433
7448.000000;0.778376
7447.000000;0.778269
7446.000000;0.778217
7445.000000;0.778273
7444.000000;0.778435
7443.000000;0.778702
7442.000000;0.779069
7441.000000;0.779426
7440.000000;0.779572
7439.000000;0.779419
7438.000000;0.779127
7437.000000;0.778946
7436.000000;0.778964
7435.000000;0.779107
7434.000000;0.779304
7433.000000;0.779530
7432.000000;0.779716
7431.000000;0.779765
7430.000000;0.779701
7429.000000;0.779670
7428.000000;0.779774
7427.000000;0.779961
7426.000000;0.780125
7425.000000;0.780248
7424.000000;0.780408
7423.000000;0.780694
7422.000000;0.781125
7421.000000;0.781613
7420.000000;0.781983
7419.000000;0.782138
7418.000000;0.782204
7417.000000;0.782423
7416.000000;0.782863
7415.000000;0.783335
7414.000000;0.783606
7413.000000;0.783636
7412.000000;0.783584
7411.000000;0.783634
7410.000000;0.783824
7409.000000;0.784028
7408.000000;0.784095
7407.000000;0.784006
7406.000000;0.783853
7405.000000;0.783703
7404.000000;0.783587
7403.000000;0.783618
7402.000000;0.783957
7401.000000;0.784592
7400.000000;0.785241
7399.000000;0.785609
7398.000000;0.785699
7397.000000;0.785753
7396.000000;0.785992
7395.000000;0.786430
7394.000000;0.786850
7393.000000;0.786989
7392.000000;0.786907
7391.000000;0.786995
7390.000000;0.787527
7389.000000;0.788350
7388.000000;0.789145
7387.000000;0.789881
7386.000000;0.790753
7385.000000;0.791729
7384.000000;0.792516
7383.000000;0.793042
7382.000000;0.793545
7381.000000;0.794055
7380.000000;0.794251
7379.000000;0.794151
7378.000000;0.794572
7377.000000;0.796177
7376.000000;0.798253
7375.000000;0.799237
7374.000000;0.798596
7373.000000;0.797545
7372.000000;0.797549
7371.000000;0.798612
7370.000000;0.799433
7369.000000;0.798901
7368.000000;0.797121
7367.000000;0.795244
7366.000000;0.794484
7365.000000;0.795075
7364.000000;0.796119
7363.000000;0.796570
7362.000000;0.796225
7361.000000;0.795625
7360.000000;0.795301
7359.000000;0.795458
7358.000000;0.796348
7357.000000;0.798120
7356.000000;0.800013
7355.000000;0.800639
7354.000000;0.799680
7353.000000;0.798615
7352.000000;0.799060
7351.000000;0.800956
7350.000000;0.802834
7349.000000;0.803413
7348.000000;0.802670
7347.000000;0.801781
7346.000000;0.802330
7345.000000;0.804922
7344.000000;0.808402
7343.000000;0.811104
7342.000000;0.813033
7341.000000;0.815698
7340.000000;0.819447
7339.000000;0.822353
7338.000000;0.822638
7337.000000;0.821100
7336.000000;0.819744
7335.000000;0.818936
7334.000000;0.817284
7333.000000;0.814028
7332.000000;0.810191
7331.000000;0.807362
7330.000000;0.806452
7329.000000;0.807291
7328.000000;0.808491
7327.000000;0.808377
7326.000000;0.807159
7325.000000;0.807241
7324.000000;0.810091
7323.000000;0.813778
7322.000000;0.815175
7321.000000;0.813905
7320.000000;0.812437
7319.000000;0.812567
7318.000000;0.813361
7317.000000;0.812881
7316.000000;0.810599
7315.000000;0.807593
7314.000000;0.805235
7313.000000;0.804290
7312.000000;0.804585
7311.000000;0.805118
7310.000000;0.805286
7309.000000;0.806102
7308.000000;0.808903
7307.000000;0.812865
7306.000000;0.815395
7305.000000;0.815442
7304.000000;0.814947
7303.000000;0.816103
7302.000000;0.818436
7301.000000;0.819642
7300.000000;0.818443
7299.000000;0.815741
7298.000000;0.813456
7297.000000;0.813129
7296.000000;0.815163
7295.000000;0.818188
7294.000000;0.819672
7293.000000;0.818425
7292.000000;0.816367
7291.000000;0.816590
7290.000000;0.819631
7289.000000;0.822858
7288.000000;0.823505
7287.000000;0.821387
7286.000000;0.818519
7285.000000;0.816832
7284.000000;0.816634
7283.000000;0.816838
7282.000000;0.816306
7281.000000;0.814972
7280.000000;0.813728
7279.000000;0.813388
7278.000000;0.813893
7277.000000;0.814563
7276.000000;0.815064
7275.000000;0.815645
7274.000000;0.816533
7273.000000;0.817596
7272.000000;0.818623
7271.000000;0.819596
7270.000000;0.820633
7269.000000;0.821802
7268.000000;0.823004
7267.000000;0.824076
7266.000000;0.825028
7265.000000;0.826205
7264.000000;0.828026
7263.000000;0.830391
7262.000000;0.832512
7261.000000;0.833657
7260.000000;0.834011
7259.000000;0.834455
7258.000000;0.835558
7257.000000;0.837123
7256.000000;0.838755
7255.000000;0.840471
7254.000000;0.842458
7253.000000;0.844503
7252.000000;0.846141
7251.000000;0.847292
7250.000000;0.848379
7249.000000;0.849741
7248.000000;0.851257
7247.000000;0.852761
7246.000000;0.854718
7245.000000;0.858271
7244.000000;0.863924
7243.000000;0.870260
7242.000000;0.874975
7241.000000;0.877450
7240.000000;0.879435
7239.000000;0.882618
7238.000000;0.886338
7237.000000;0.888623
7236.000000;0.889173
7235.000000;0.890211
7234.000000;0.893951
7233.000000;0.899766
7232.000000;0.904587
7231.000000;0.906205
7230.000000;0.905663
7229.000000;0.905990
7228.000000;0.908881
7227.000000;0.912977
7226.000000;0.915537
7225.000000;0.915701
7224.000000;0.915315
7223.000000;0.916471
7222.000000;0.919195
7221.000000;0.921780
7220.000000;0.922798
7219.000000;0.922475
7218.000000;0.922374
7217.000000;0.923938
7216.000000;0.927212
7215.000000;0.930847
7214.000000;0.933447
7213.000000;0.934873
7212.000000;0.936187
7211.000000;0.938337
7210.000000;0.941134
7209.000000;0.943724
7208.000000;0.945905
7207.000000;0.948434
7206.000000;0.951962
7205.000000;0.956212
7204.000000;0.960388
7203.000000;0.964077
7202.000000;0.967551
7201.000000;0.971218
7200.000000;0.974968
7199.000000;0.978281
7198.000000;0.980966
7197.000000;0.983570
7196.000000;0.986813
7195.000000;0.990661
7194.000000;0.994223
7193.000000;0.996740
7192.000000;0.998503
7191.000000;1.000448
7190.000000;1.003043
7189.000000;1.006020
7188.000000;1.009156
7187.000000;1.012730
7186.000000;1.017054
7185.000000;1.022100
7184.000000;1.027786
7183.000000;1.034162
7182.000000;1.040873
7181.000000;1.047050
7180.000000;1.052398
7179.000000;1.057869
7178.000000;1.064424
7177.000000;1.071410
7176.000000;1.076985
7175.000000;1.080213
7174.000000;1.082134
7173.000000;1.084530
7172.000000;1.088158
7171.000000;1.092532
7170.000000;1.096906
7169.000000;1.100920
7168.000000;1.104728
7167.000000;1.108837
7166.000000;1.113689
7165.000000;1.119318
7164.000000;1.125577
7163.000000;1.132551
7162.000000;1.140060
7161.000000;1.147087
7160.000000;1.152640
7159.000000;1.157152
7158.000000;1.162060
7157.000000;1.167703
7156.000000;1.172561
7155.000000;1.175166
7154.000000;1.176197
7153.000000;1.177789
7152.000000;1.180976
7151.000000;1.184734
7150.000000;1.187605
7149.000000;1.189384
7148.000000;1.191157
7147.000000;1.194187
7146.000000;1.198883
7145.000000;1.204656
7144.000000;1.210683
7143.000000;1.216749
7142.000000;1.223300
7141.000000;1.230613
7140.000000;1.237910
7139.000000;1.243858
7138.000000;1.248328
7137.000000;1.253015
7136.000000;1.259494
7135.000000;1.266983
7134.000000;1.272946
7133.000000;1.275990
7132.000000;1.277391
7131.000000;1.279395
7130.000000;1.282760
7129.000000;1.286493
7128.000000;1.289475
7127.000000;1.291638
7126.000000;1.293624
7125.000000;1.296052
7124.000000;1.299244
7123.000000;1.303124
7122.000000;1.307312
7121.000000;1.311681
7120.000000;1.316728
7119.000000;1.322963
7118.000000;1.329917
7117.000000;1.336365
7116.000000;1.341744
7115.000000;1.346799
7114.000000;1.352366
7113.000000;1.357886
7112.000000;1.361835
7111.000000;1.363698
7110.000000;1.364937
7109.000000;1.367555
7108.000000;1.372007
7107.000000;1.376964
7106.000000;1.380960
7105.000000;1.383848
7104.000000;1.386560
7103.000000;1.389925
7102.000000;1.394001
7101.000000;1.398307
7100.000000;1.402432
7099.000000;1.406273
7098.000000;1.409909
7097.000000;1.413526
7096.000000;1.417199
7095.000000;1.420587
7094.000000;1.423374
7093.000000;1.426062
7092.000000;1.429647
7091.000000;1.434262
7090.000000;1.438678
7089.000000;1.441653
7088.000000;1.443429
7087.000000;1.445335
7086.000000;1.448112
7085.000000;1.451241
7084.000000;1.453856
7083.000000;1.455763
7082.000000;1.457395
7081.000000;1.459188
7080.000000;1.461288
7079.000000;1.463691
7078.000000;1.466443
7077.000000;1.469603
7076.000000;1.472903
7075.000000;1.475666
7074.000000;1.477577
7073.000000;1.479462
7072.000000;1.482588
7071.000000;1.487129
7070.000000;1.491944
7069.000000;1.496000
7068.000000;1.499382
7067.000000;1.502519
7066.000000;1.505183
7065.000000;1.507037
7064.000000;1.508592
7063.000000;1.510691
7062.000000;1.513325
7061.000000;1.515761
7060.000000;1.517718
7059.000000;1.519541
7058.000000;1.521219
7057.000000;1.522183
7056.000000;1.522350
7055.000000;1.522557
7054.000000;1.523725
7053.000000;1.526096
7052.000000;1.529319
7051.000000;1.532849
7050.000000;1.536109
7049.000000;1.538603
7048.000000;1.540218
7047.000000;1.541352
7046.000000;1.542634
7045.000000;1.544592
7044.000000;1.547419
7043.000000;1.550761
7042.000000;1.553882
7041.000000;1.556384
7040.000000;1.558585
7039.000000;1.560838
7038.000000;1.562783
7037.000000;1.563862
7036.000000;1.564365
7035.000000;1.565222
7034.000000;1.566761
7033.000000;1.568365
7032.000000;1.569456
7031.000000;1.570227
7030.000000;1.571252
7029.000000;1.572908
7028.000000;1.575331
7027.000000;1.578462
7026.000000;1.581884
7025.000000;1.584966
7024.000000;1.587392
7023.000000;1.589301
7022.000000;1.590865
7021.000000;1.592102
7020.000000;1.593169
7019.000000;1.594378
7018.000000;1.595840
7017.000000;1.597453
7016.000000;1.599211
7015.000000;1.601041
7014.000000;1.602408
7013.000000;1.602692
7012.000000;1.602078
7011.000000;1.601544
7010.000000;1.601797
7009.000000;1.602727
7008.000000;1.604053
7007.000000;1.605889
7006.000000;1.608327
7005.000000;1.610930
7004.000000;1.613047
7003.000000;1.614419
7002.000000;1.615231
7001.000000;1.615735
7000.000000;1.616024
6999.000000;1.616052
6998.000000;1.615760
6997.000000;1.615354
6996.000000;1.615433
6995.000000;1.616501
6994.000000;1.618322
6993.000000;1.620134
6992.000000;1.621549
6991.000000;1.622860
6990.000000;1.624448
6989.000000;1.626378
6988.000000;1.628597
6987.000000;1.630946
6986.000000;1.632795
6985.000000;1.633276
6984.000000;1.632286
6983.000000;1.630830
6982.000000;1.630030
6981.000000;1.630195
6980.000000;1.631098
6979.000000;1.632680
6978.000000;1.635040
6977.000000;1.637969
6976.000000;1.640883
6975.000000;1.643187
6974.000000;1.644617
6973.000000;1.645378
6972.000000;1.646048
6971.000000;1.647060
6970.000000;1.648149
6969.000000;1.648558
6968.000000;1.647966
6967.000000;1.646964
6966.000000;1.646458
6965.000000;1.646823
6964.000000;1.647712
6963.000000;1.648399
6962.000000;1.648239
6961.000000;1.647272
6960.000000;1.646554
6959.000000;1.647392
6958.000000;1.649958
6957.000000;1.652903
6956.000000;1.654624
6955.000000;1.654666
6954.000000;1.653647
6953.000000;1.652184
6952.000000;1.650510
6951.000000;1.649095
6950.000000;1.648993
6949.000000;1.651150
6948.000000;1.655317
6947.000000;1.659763
6946.000000;1.662401
6945.000000;1.662530
6944.000000;1.661354
6943.000000;1.660556
6942.000000;1.660627
6941.000000;1.660873
6940.000000;1.660716
6939.000000;1.660271
6938.000000;1.659616
6937.000000;1.658409
6936.000000;1.656750
6935.000000;1.655752
6934.000000;1.656479
6933.000000;1.658577
6932.000000;1.660557
6931.000000;1.661424
6930.000000;1.661535
6929.000000;1.661768
6928.000000;1.662292
6927.000000;1.662451
6926.000000;1.661609
6925.000000;1.659856
6924.000000;1.657993
6923.000000;1.656980
6922.000000;1.657345
6921.000000;1.658896
6920.000000;1.660876
6919.000000;1.662426
6918.000000;1.663066
6917.000000;1.662996
6916.000000;1.662980
6915.000000;1.663725
6914.000000;1.665259
6913.000000;1.667005
6912.000000;1.668441
6911.000000;1.669424
6910.000000;1.669806
6909.000000;1.669105
6908.000000;1.666979
6907.000000;1.664012
6906.000000;1.661586
6905.000000;1.660777
6904.000000;1.661437
6903.000000;1.662429
6902.000000;1.662719
6901.000000;1.662225
6900.000000;1.661577
6899.000000;1.661241
6898.000000;1.661050
6897.000000;1.660599
6896.000000;1.659896
6895.000000;1.659404
6894.000000;1.659519
6893.000000;1.660239
6892.000000;1.661243
6891.000000;1.662079
6890.000000;1.662353
6889.000000;1.661967
6888.000000;1.661242
6887.000000;1.660646
6886.000000;1.660281
6885.000000;1.659742
6884.000000;1.658632
6883.000000;1.657136
6882.000000;1.656006
6881.000000;1.655970
6880.000000;1.657134
6879.000000;1.658825
6878.000000;1.659990
6877.000000;1.659931
6876.000000;1.658801
6875.000000;1.657339
6874.000000;1.656170
6873.000000;1.655440
6872.000000;1.655034
6871.000000;1.654951
6870.000000;1.655358
6869.000000;1.656282
6868.000000;1.657355
6867.000000;1.657953
6866.000000;1.657695
6865.000000;1.656772
6864.000000;1.655696
6863.000000;1.654796
6862.000000;1.654083
6861.000000;1.653434
6860.000000;1.652625
6859.000000;1.651255
6858.000000;1.649125
6857.000000;1.646865
6856.000000;1.645602
6855.000000;1.645758
6854.000000;1.646615
6853.000000;1.647258
6852.000000;1.647543
6851.000000;1.647748
6850.000000;1.647675
6849.000000;1.646792
6848.000000;1.645155
6847.000000;1.643550
6846.000000;1.642608
6845.000000;1.642214
6844.000000;1.641790
6843.000000;1.640843
6842.000000;1.639234
6841.000000;1.637267
6840.000000;1.635588
6839.000000;1.634717
6838.000000;1.634596
6837.000000;1.634794
6836.000000;1.635056
6835.000000;1.635323
6834.000000;1.635350
6833.000000;1.634814
6832.000000;1.633852
6831.000000;1.632983
6830.000000;1.632362
6829.000000;1.631518
6828.000000;1.629996
6827.000000;1.627912
6826.000000;1.625658
6825.000000;1.623439
6824.000000;1.621360
6823.000000;1.619625
6822.000000;1.618385
6821.000000;1.617597
6820.000000;1.617141
6819.000000;1.616849
6818.000000;1.616285
6817.000000;1.614908
6816.000000;1.612777
6815.000000;1.610808
6814.000000;1.609867
6813.000000;1.609715
6812.000000;1.609231
6811.000000;1.607696
6810.000000;1.605594
6809.000000;1.604027
6808.000000;1.603537
6807.000000;1.603585
6806.000000;1.603045
6805.000000;1.601170
6804.000000;1.598230
6803.000000;1.595241
6802.000000;1.593087
6801.000000;1.591862
6800.000000;1.590983
6799.000000;1.589767
6798.000000;1.587902
6797.000000;1.585545
6796.000000;1.583197
6795.000000;1.581460
6794.000000;1.580614
6793.000000;1.580277
6792.000000;1.579623
6791.000000;1.578144
6790.000000;1.576121
6789.000000;1.574194
6788.000000;1.572539
6787.000000;1.570727
6786.000000;1.568389
6785.000000;1.565787
6784.000000;1.563528
6783.000000;1.561859
6782.000000;1.560464
6781.000000;1.558888
6780.000000;1.556948
6779.000000;1.554696
6778.000000;1.552273
6777.000000;1.549913
6776.000000;1.547843
6775.000000;1.546001
6774.000000;1.544029
6773.000000;1.541739
6772.000000;1.539392
6771.000000;1.537344
6770.000000;1.535565
6769.000000;1.533762
6768.000000;1.531845
6767.000000;1.529969
6766.000000;1.528120
6765.000000;1.526009
6764.000000;1.523502
6763.000000;1.520908
6762.000000;1.518660
6761.000000;1.516781
6760.000000;1.514859
6759.000000;1.512563
6758.000000;1.510094
6757.000000;1.508029
6756.000000;1.506710
6755.000000;1.505859
6754.000000;1.504823
6753.000000;1.503117
6752.000000;1.500629
6751.000000;1.497441
6750.000000;1.493800
6749.000000;1.490346
6748.000000;1.487946
6747.000000;1.486946
6746.000000;1.486674
6745.000000;1.485959
6744.000000;1.484138
6743.000000;1.481438
6742.000000;1.478505
6741.000000;1.475863
6740.000000;1.473728
6739.000000;1.471949
6738.000000;1.470027
6737.000000;1.467441
6736.000000;1.464175
6735.000000;1.460797
6734.000000;1.457921
6733.000000;1.455651
6732.000000;1.453597
6731.000000;1.451363
6730.000000;1.448920
6729.000000;1.446526
6728.000000;1.444335
6727.000000;1.442170
6726.000000;1.439802
6725.000000;1.437455
6724.000000;1.435794
6723.000000;1.435140
6722.000000;1.434821
6721.000000;1.433641
6720.000000;1.431091
6719.000000;1.427838
6718.000000;1.424897
6717.000000;1.422608
6716.000000;1.420562
6715.000000;1.418287
6714.000000;1.415699
6713.000000;1.412911
6712.000000;1.409951
6711.000000;1.406887
6710.000000;1.404094
6709.000000;1.402090
6708.000000;1.400939
6707.000000;1.399886
6706.000000;1.397914
6705.000000;1.394637
6704.000000;1.390718
6703.000000;1.387322
6702.000000;1.385044
6701.000000;1.383569
6700.000000;1.382267
6699.000000;1.380734
6698.000000;1.379141
6697.000000;1.377382
6696.000000;1.375520
6695.000000;1.373064
6694.000000;1.369748
6693.000000;1.366222
6692.000000;1.363199
6691.000000;1.360856
6690.000000;1.358696
6689.000000;1.356313
6688.000000;1.353859
6687.000000;1.351678
6686.000000;1.349714
6685.000000;1.347586
6684.000000;1.345149
6683.000000;1.342663
6682.000000;1.340419
6681.000000;1.338435
6680.000000;1.336557
6679.000000;1.334635
6678.000000;1.332510
6677.000000;1.330001
6676.000000;1.327052
6675.000000;1.323849
6674.000000;1.320758
6673.000000;1.318137
6672.000000;1.316115
6671.000000;1.314450
6670.000000;1.312649
6669.000000;1.310355
6668.000000;1.307680
6667.000000;1.305056
6666.000000;1.302772
6665.000000;1.300738
6664.000000;1.298691
6663.000000;1.296503
6662.000000;1.294255
6661.000000;1.292094
6660.000000;1.290083
6659.000000;1.288123
6658.000000;1.285975
6657.000000;1.283441
6656.000000;1.280566
6655.000000;1.277636
6654.000000;1.274983
6653.000000;1.272802
6652.000000;1.271073
6651.000000;1.269543
6650.000000;1.267796
6649.000000;1.265506
6648.000000;1.262707
6647.000000;1.259773
6646.000000;1.257088
6645.000000;1.254756
6644.000000;1.252631
6643.000000;1.250520
6642.000000;1.248318
6641.000000;1.246001
6640.000000;1.243569
6639.000000;1.241015
6638.000000;1.238372
6637.000000;1.235780
6636.000000;1.233438
6635.000000;1.231418
6634.000000;1.229534
6633.000000;1.227497
6632.000000;1.225187
6631.000000;1.222680
6630.000000;1.220052
6629.000000;1.217298
6628.000000;1.214508
6627.000000;1.211944
6626.000000;1.209782
6625.000000;1.207850
6624.000000;1.205773
6623.000000;1.203402
6622.000000;1.200963
6621.000000;1.198769
6620.000000;1.196869
6619.000000;1.195050
6618.000000;1.193101
6617.000000;1.190975
6616.000000;1.188741
6615.000000;1.186466
6614.000000;1.184178
6613.000000;1.181871
6612.000000;1.179503
6611.000000;1.177045
6610.000000;1.174569
6609.000000;1.172245
6608.000000;1.170172
6607.000000;1.168229
6606.000000;1.166129
6605.000000;1.163675
6604.000000;1.160943
6603.000000;1.158247
6602.000000;1.155919
6601.000000;1.154093
6600.000000;1.152618
6599.000000;1.151170
6598.000000;1.149466
6597.000000;1.147383
6596.000000;1.144933
6595.000000;1.142211
6594.000000;1.139447
6593.000000;1.136993
6592.000000;1.135108
6591.000000;1.133700
6590.000000;1.132325
6589.000000;1.130482
6588.000000;1.127961
6587.000000;1.124981
6586.000000;1.122048
6585.000000;1.119610
6584.000000;1.117732
6583.000000;1.116114
6582.000000;1.114447
6581.000000;1.112682
6580.000000;1.110899
6579.000000;1.109043
6578.000000;1.106983
6577.000000;1.104767
6576.000000;1.102582
6575.000000;1.100467
6574.000000;1.098269
6573.000000;1.095920
6572.000000;1.093567
6571.000000;1.091352
6570.000000;1.089251
6569.000000;1.087219
6568.000000;1.085321
6567.000000;1.083612
6566.000000;1.082000
6565.000000;1.080349
6564.000000;1.078573
6563.000000;1.076576
6562.000000;1.074250
6561.000000;1.071678
6560.000000;1.069191
6559.000000;1.067044
6558.000000;1.065127
6557.000000;1.063150
6556.000000;1.061042
6555.000000;1.058981
6554.000000;1.057111
6553.000000;1.055411
6552.000000;1.053821
6551.000000;1.052300
6550.000000;1.050731
6549.000000;1.048920
6548.000000;1.046795
6547.000000;1.044511
6546.000000;1.042327
6545.000000;1.040383
6544.000000;1.038590
6543.000000;1.036702
6542.000000;1.034545
6541.000000;1.032228
6540.000000;1.030085
6539.000000;1.028347
6538.000000;1.026917
6537.000000;1.025524
6536.000000;1.024006
6535.000000;1.022343
6534.000000;1.020501
6533.000000;1.018429
6532.000000;1.016202
6531.000000;1.014004
6530.000000;1.011933
6529.000000;1.009949
6528.000000;1.008019
6527.000000;1.006188
6526.000000;1.004459
6525.000000;1.002704
6524.000000;1.000797
6523.000000;0.998779
6522.000000;0.996841
6521.000000;0.995155
6520.000000;0.993702
6519.000000;0.992272
6518.000000;0.990630
6517.000000;0.988734
6516.000000;0.986768
6515.000000;0.984914
6514.000000;0.983146
6513.000000;0.981320
6512.000000;0.979405
6511.000000;0.977530
6510.000000;0.975799
6509.000000;0.974165
6508.000000;0.972504
6507.000000;0.970757
6506.000000;0.968957
6505.000000;0.967168
6504.000000;0.965432
6503.000000;0.963739
6502.000000;0.962058
6501.000000;0.960411
6500.000000;0.958863
6499.000000;0.957400
6498.000000;0.955863
6497.000000;0.954109
6496.000000;0.952206
6495.000000;0.950367
6494.000000;0.948692
6493.000000;0.947080
6492.000000;0.945394
6491.000000;0.943612
6490.000000;0.941789
6489.000000;0.939996
6488.000000;0.938334
6487.000000;0.936901
6486.000000;0.935659
6485.000000;0.934392
6484.000000;0.932889
6483.000000;0.931138
6482.000000;0.929298
6481.000000;0.927519
6480.000000;0.925839
6479.000000;0.924231
6478.000000;0.922681
6477.000000;0.921199
6476.000000;0.919802
6475.000000;0.918475
6474.000000;0.917123
6473.000000;0.915593
6472.000000;0.913792
6471.000000;0.911802
6470.000000;0.909833
6469.000000;0.908060
6468.000000;0.906497
6467.000000;0.905050
6466.000000;0.903615
6465.000000;0.902120
6464.000000;0.900510
6463.000000;0.898776
6462.000000;0.897020
6461.000000;0.895425
6460.000000;0.894070
6459.000000;0.892810
6458.000000;0.891382
6457.000000;0.889666
6456.000000;0.887792
6455.000000;0.885981
6454.000000;0.884330
6453.000000;0.882790
6452.000000;0.881299
6451.000000;0.879882
6450.000000;0.878605
6449.000000;0.877458
6448.000000;0.876307
6447.000000;0.874998
6446.000000;0.873493
6445.000000;0.871916
6444.000000;0.870420
6443.000000;0.869039
6442.000000;0.867685
6441.000000;0.866268
6440.000000;0.864789
6439.000000;0.863340
6438.000000;0.862058
6437.000000;0.861033
6436.000000;0.860167
6435.000000;0.859160
6434.000000;0.857754
6433.000000;0.856016
6432.000000;0.854275
6431.000000;0.852761
6430.000000;0.851401
6429.000000;0.850006
6428.000000;0.848528
6427.000000;0.847056
6426.000000;0.845656
6425.000000;0.844325
6424.000000;0.843053
6423.000000;0.841812
6422.000000;0.840535
6421.000000;0.839181
6420.000000;0.837796
6419.000000;0.836432
6418.000000;0.835050
6417.000000;0.833584
6416.000000;0.832081
6415.000000;0.830680
6414.000000;0.829444
6413.000000;0.828278
6412.000000;0.827036
6411.000000;0.825655
6410.000000;0.824181
6409.000000;0.822719
6408.000000;0.821348
6407.000000;0.820076
6406.000000;0.818855
6405.000000;0.817661
6404.000000;0.816507
6403.000000;0.815359
6402.000000;0.814111
6401.000000;0.812696
6400.000000;0.811173
6399.000000;0.809660
6398.000000;0.808213
6397.000000;0.806840
6396.000000;0.805558
6395.000000;0.804364
6394.000000;0.803189
6393.000000;0.801982
6392.000000;0.800800
6391.000000;0.799744
6390.000000;0.798805
6389.000000;0.797877
6388.000000;0.796887
6387.000000;0.795838
6386.000000;0.794722
6385.000000;0.793489
6384.000000;0.792114
6383.000000;0.790632
6382.000000;0.789102
6381.000000;0.787606
6380.000000;0.786240
6379.000000;0.785025
6378.000000;0.783855
6377.000000;0.782618
6376.000000;0.781359
6375.000000;0.780236
6374.000000;0.779308
6373.000000;0.778472
6372.000000;0.777607
6371.000000;0.776666
6370.000000;0.775598
6369.000000;0.774324
6368.000000;0.772861
6367.000000;0.771391
6366.000000;0.770085
6365.000000;0.768930
6364.000000;0.767792
6363.000000;0.766622
6362.000000;0.765502
6361.000000;0.764513
6360.000000;0.763627
6359.000000;0.762724
6358.000000;0.761690
6357.000000;0.760487
6356.000000;0.759167
6355.000000;0.757820
6354.000000;0.756514
6353.000000;0.755287
6352.000000;0.754179
6351.000000;0.753228
6350.000000;0.752392
6349.000000;0.751536
6348.000000;0.750526
6347.000000;0.749349
6346.000000;0.748121
6345.000000;0.746974
6344.000000;0.745949
6343.000000;0.744990
6342.000000;0.744028
6341.000000;0.743071
6340.000000;0.742193
6339.000000;0.741423
6338.000000;0.740672
6337.000000;0.739805
6336.000000;0.738776
6335.000000;0.737661
6334.000000;0.736541
6333.000000;0.735413
6332.000000;0.734231
6331.000000;0.732994
6330.000000;0.731773
6329.000000;0.730656
6328.000000;0.729671
6327.000000;0.728760
6326.000000;0.727822
6325.000000;0.726820
6324.000000;0.725824
6323.000000;0.724928
6322.000000;0.724138
6321.000000;0.723377
6320.000000;0.722596
6319.000000;0.721803
6318.000000;0.720981
6317.000000;0.720020
6316.000000;0.718806
6315.000000;0.717352
6314.000000;0.715822
6313.000000;0.714430
6312.000000;0.713334
6311.000000;0.712556
6310.000000;0.711965
6309.000000;0.711342
6308.000000;0.710525
6307.000000;0.709528
6306.000000;0.708489
6305.000000;0.707518
6304.000000;0.706611
6303.000000;0.705717
6302.000000;0.704860
6301.000000;0.704118
6300.000000;0.703496
6299.000000;0.702862
6298.000000;0.702064
6297.000000;0.701100
6296.000000;0.700126
6295.000000;0.699269
6294.000000;0.698494
6293.000000;0.697664
6292.000000;0.696702
6291.000000;0.695655
6290.000000;0.694623
6289.000000;0.693667
6288.000000;0.692771
6287.000000;0.691863
6286.000000;0.690874
6285.000000;0.689814
6284.000000;0.688793
6283.000000;0.687924
6282.000000;0.687220
6281.000000;0.686592
6280.000000;0.685927
6279.000000;0.685152
6278.000000;0.684253
6277.000000;0.683272
6276.000000;0.682279
6275.000000;0.681308
6274.000000;0.680334
6273.000000;0.679342
6272.000000;0.678388
6271.000000;0.677551
6270.000000;0.676840
6269.000000;0.676201
6268.000000;0.675586
6267.000000;0.674958
6266.000000;0.674250
6265.000000;0.673392
6264.000000;0.672428
6263.000000;0.671499
6262.000000;0.670693
6261.000000;0.669943
6260.000000;0.669136
6259.000000;0.668279
6258.000000;0.667492
6257.000000;0.666859
6256.000000;0.666311
6255.000000;0.665676
6254.000000;0.664824
6253.000000;0.663775
6252.000000;0.662680
6251.000000;0.661702
6250.000000;0.660892
6249.000000;0.660177
6248.000000;0.659463
6247.000000;0.658726
6246.000000;0.658003
6245.000000;0.657314
6244.000000;0.656621
6243.000000;0.655860
6242.000000;0.655004
6241.000000;0.654093
6240.000000;0.653213
6239.000000;0.652417
6238.000000;0.651686
6237.000000;0.650959
6236.000000;0.650209
6235.000000;0.649456
6234.000000;0.648715
6233.000000;0.647973
6232.000000;0.647222
6231.000000;0.646515
6230.000000;0.645930
6229.000000;0.645482
6228.000000;0.645095
6227.000000;0.644653
6226.000000;0.644089
6225.000000;0.643399
6224.000000;0.642608
6223.000000;0.641753
6222.000000;0.640895
6221.000000;0.640095
6220.000000;0.639349
6219.000000;0.638584
6218.000000;0.637766
6217.000000;0.636968
6216.000000;0.636277
6215.000000;0.635654
6214.000000;0.634968
6213.000000;0.634181
6212.000000;0.633412
6211.000000;0.632773
6210.000000;0.632243
6209.000000;0.631744
6208.000000;0.631255
6207.000000;0.630780
6206.000000;0.630247
6205.000000;0.629565
6204.000000;0.628763
6203.000000;0.627967
6202.000000;0.627249
6201.000000;0.626566
6200.000000;0.625866
6199.000000;0.625161
6198.000000;0.624482
6197.000000;0.623817
6196.000000;0.623148
6195.000000;0.622479
6194.000000;0.621802
6193.000000;0.621073
6192.000000;0.620281
6191.000000;0.619509
6190.000000;0.618877
6189.000000;0.618426
6188.000000;0.618058
6187.000000;0.617594
6186.000000;0.616907
6185.000000;0.616017
6184.000000;0.615056
6183.000000;0.614140
6182.000000;0.613286
6181.000000;0.612474
6180.000000;0.611752
6179.000000;0.611206
6178.000000;0.610825
6177.000000;0.610478
6176.000000;0.610047
6175.000000;0.609537
6174.000000;0.609026
6173.000000;0.608540
6172.000000;0.608030
6171.000000;0.607423
6170.000000;0.606675
6169.000000;0.605814
6168.000000;0.604951
6167.000000;0.604228
6166.000000;0.603706
6165.000000;0.603311
6164.000000;0.602915
6163.000000;0.602465
6162.000000;0.601990
6161.000000;0.601522
6160.000000;0.601049
6159.000000;0.600544
6158.000000;0.600010
6157.000000;0.599473
6156.000000;0.598936
6155.000000;0.598364
6154.000000;0.597714
6153.000000;0.596998
6152.000000;0.596279
6151.000000;0.595605
6150.000000;0.594938
6149.000000;0.594214
6148.000000;0.593426
6147.000000;0.592639
6146.000000;0.591884
6145.000000;0.591125
6144.000000;0.590345
6143.000000;0.589610
6142.000000;0.589003
6141.000000;0.588527
6140.000000;0.588106
6139.000000;0.587671
6138.000000;0.587195
6137.000000;0.586660
6136.000000;0.586062
6135.000000;0.585443
6134.000000;0.584882
6133.000000;0.584410
6132.000000;0.583966
6131.000000;0.583446
6130.000000;0.582794
6129.000000;0.582054
6128.000000;0.581341
6127.000000;0.580755
6126.000000;0.580301
6125.000000;0.579888
6124.000000;0.579426
6123.000000;0.578912
6122.000000;0.578426
6121.000000;0.578034
6120.000000;0.577719
6119.000000;0.577396
6118.000000;0.576979
6117.000000;0.576438
6116.000000;0.575815
6115.000000;0.575200
6114.000000;0.574663
6113.000000;0.574207
6112.000000;0.573778
6111.000000;0.573335
6110.000000;0.572886
6109.000000;0.572458
6108.000000;0.572049
6107.000000;0.571627
6106.000000;0.571171
6105.000000;0.570677
6104.000000;0.570139
6103.000000;0.569540
6102.000000;0.568887
6101.000000;0.568221
6100.000000;0.567590
6099.000000;0.567001
6098.000000;0.566428
6097.000000;0.565851
6096.000000;0.565273
6095.000000;0.564711
6094.000000;0.564185
6093.000000;0.563723
6092.000000;0.563337
6091.000000;0.562980
6090.000000;0.562549
6089.000000;0.561990
6088.000000;0.561375
6087.000000;0.560843
6086.000000;0.560458
6085.000000;0.560169
6084.000000;0.559909
6083.000000;0.559668
6082.000000;0.559440
6081.000000;0.559136
6080.000000;0.558645
6079.000000;0.557963
6078.000000;0.557221
6077.000000;0.556546
6076.000000;0.555960
6075.000000;0.555411
6074.000000;0.554880
6073.000000;0.554390
6072.000000;0.553953
6071.000000;0.553549
6070.000000;0.553164
6069.000000;0.552800
6068.000000;0.552442
6067.000000;0.552045
6066.000000;0.551563
6065.000000;0.550976
6064.000000;0.550300
6063.000000;0.549597
6062.000000;0.548977
6061.000000;0.548535
6060.000000;0.548262
6059.000000;0.548029
6058.000000;0.547702
6057.000000;0.547251
6056.000000;0.546747
6055.000000;0.546260
6054.000000;0.545798
6053.000000;0.545345
6052.000000;0.544906
6051.000000;0.544504
6050.000000;0.544147
6049.000000;0.543806
6048.000000;0.543425
6047.000000;0.542984
6046.000000;0.542526
6045.000000;0.542115
6044.000000;0.541745
6043.000000;0.541329
6042.000000;0.540825
6041.000000;0.540323
6040.000000;0.539948
6039.000000;0.539708
6038.000000;0.539479
6037.000000;0.539147
6036.000000;0.538698
6035.000000;0.538161
6034.000000;0.537553
6033.000000;0.536923
6032.000000;0.536379
6031.000000;0.536001
6030.000000;0.535754
6029.000000;0.535526
6028.000000;0.535233
6027.000000;0.534856
6026.000000;0.534400
6025.000000;0.533878
6024.000000;0.533324
6023.000000;0.532770
6022.000000;0.532228
6021.000000;0.531719
6020.000000;0.531289
6019.000000;0.530967
6018.000000;0.530716
6017.000000;0.530473
6016.000000;0.530228
6015.000000;0.530006
6014.000000;0.529782
6013.000000;0.529475
6012.000000;0.529048
6011.000000;0.528556
6010.000000;0.528093
6009.000000;0.527702
6008.000000;0.527375
6007.000000;0.527110
6006.000000;0.526930
6005.000000;0.526835
6004.000000;0.526767
6003.000000;0.526616
6002.000000;0.526294
6001.000000;0.525829
6000.000000;0.525352
5999.000000;0.524980
5998.000000;0.524694
5997.000000;0.524372
5996.000000;0.523942
5995.000000;0.523452
5994.000000;0.522993
5993.000000;0.522589
5992.000000;0.522198
5991.000000;0.521788
5990.000000;0.521370
5989.000000;0.520965
5988.000000;0.520575
5987.000000;0.520195
5986.000000;0.519837
5985.000000;0.519520
5984.000000;0.519245
5983.000000;0.518993
5982.000000;0.518736
5981.000000;0.518458
5980.000000;0.518158
5979.000000;0.517825
5978.000000;0.517440
5977.000000;0.517006
5976.000000;0.516576
5975.000000;0.516225
5974.000000;0.515989
5973.000000;0.515838
5972.000000;0.515720
5971.000000;0.515605
5970.000000;0.515476
5969.000000;0.515299
5968.000000;0.515037
5967.000000;0.514708
5966.000000;0.514397
5965.000000;0.514198
5964.000000;0.514136
5963.000000;0.514132
5962.000000;0.514058
5961.000000;0.513840
5960.000000;0.513501
5959.000000;0.513128
5958.000000;0.512782
5957.000000;0.512465
5956.000000;0.512162
5955.000000;0.511862
5954.000000;0.511549
5953.000000;0.511202
5952.000000;0.510823
5951.000000;0.510469
5950.000000;0.510195
5949.000000;0.509982
5948.000000;0.509750
5947.000000;0.509454
5946.000000;0.509134
5945.000000;0.508850
5944.000000;0.508596
5943.000000;0.508309
5942.000000;0.507960
5941.000000;0.507593
5940.000000;0.507282
5939.000000;0.507075
5938.000000;0.506983
5937.000000;0.506994
5936.000000;0.507073
5935.000000;0.507150
5934.000000;0.507151
5933.000000;0.507047
5932.000000;0.506857
5931.000000;0.506614
5930.000000;0.506338
5929.000000;0.506034
5928.000000;0.505716
5927.000000;0.505406
5926.000000;0.505133
5925.000000;0.504917
5924.000000;0.504751
5923.000000;0.504597
5922.000000;0.504412
5921.000000;0.504181
5920.000000;0.503926
5919.000000;0.503679
5918.000000;0.503465
5917.000000;0.503286
5916.000000;0.503105
5915.000000;0.502864
5914.000000;0.502524
5913.000000;0.502104
5912.000000;0.501682
5911.000000;0.501339
5910.000000;0.501116
5909.000000;0.501008
5908.000000;0.500984
5907.000000;0.501007
5906.000000;0.501042
5905.000000;0.501060
5904.000000;0.501037
5903.000000;0.500946
5902.000000;0.500773
5901.000000;0.500537
5900.000000;0.500281
5899.000000;0.500052
5898.000000;0.499874
5897.000000;0.499742
5896.000000;0.499628
5895.000000;0.499499
5894.000000;0.499340
5893.000000;0.499174
5892.000000;0.499045
5891.000000;0.498985
5890.000000;0.498990
5889.000000;0.499018
5888.000000;0.498998
5887.000000;0.498860
5886.000000;0.498581
5885.000000;0.498229
5884.000000;0.497922
5883.000000;0.497745
5882.000000;0.497680
5881.000000;0.497639
5880.000000;0.497541
5879.000000;0.497378
5878.000000;0.497214
5877.000000;0.497123
5876.000000;0.497138
5875.000000;0.497223
5874.000000;0.497293
5873.000000;0.497258
5872.000000;0.497060
5871.000000;0.496731
5870.000000;0.496390
5869.000000;0.496162
5868.000000;0.496079
5867.000000;0.496067
5866.000000;0.496037
5865.000000;0.495960
5864.000000;0.495849
5863.000000;0.495725
5862.000000;0.495631
5861.000000;0.495636
5860.000000;0.495758
5859.000000;0.495905
5858.000000;0.495949
5857.000000;0.495850
5856.000000;0.495657
5855.000000;0.495407
5854.000000;0.495109
5853.000000;0.494812
5852.000000;0.494628
5851.000000;0.494615
5850.000000;0.494700
5849.000000;0.494742
5848.000000;0.494652
5847.000000;0.494433
5846.000000;0.494142
5845.000000;0.493861
5844.000000;0.493674
5843.000000;0.493629
5842.000000;0.493707
5841.000000;0.493844
5840.000000;0.493978
5839.000000;0.494092
5838.000000;0.494222
5837.000000;0.494413
5836.000000;0.494663
5835.000000;0.494905
5834.000000;0.495078
5833.000000;0.495198
5832.000000;0.495315
5831.000000;0.495416
5830.000000;0.495433
5829.000000;0.495345
5828.000000;0.495227
5827.000000;0.495186
5826.000000;0.495268
5825.000000;0.495451
5824.000000;0.495685
5823.000000;0.495911
5822.000000;0.496081
5821.000000;0.496187
5820.000000;0.496253
5819.000000;0.496291
5818.000000;0.496304
5817.000000;0.496330
5816.000000;0.496426
5815.000000;0.496576
5814.000000;0.496670
5813.000000;0.496616
5812.000000;0.496448
5811.000000;0.496286
5810.000000;0.496220
5809.000000;0.496262
5808.000000;0.496366
5807.000000;0.496460
5806.000000;0.496498
5805.000000;0.496498
5804.000000;0.496529
5803.000000;0.496614
5802.000000;0.496695
5801.000000;0.496712
5800.000000;0.496687
5799.000000;0.496700
5798.000000;0.496812
5797.000000;0.497045
5796.000000;0.497395
5795.000000;0.497819
5794.000000;0.498231
5793.000000;0.498576
5792.000000;0.498892
5791.000000;0.499258
5790.000000;0.499680
5789.000000;0.500084
5788.000000;0.500399
5787.000000;0.500633
5786.000000;0.500851
5785.000000;0.501121
5784.000000;0.501458
5783.000000;0.501816
5782.000000;0.502106
5781.000000;0.502260
5780.000000;0.502263
5779.000000;0.502142
5778.000000;0.501944
5777.000000;0.501761
5776.000000;0.501706
5775.000000;0.501839
5774.000000;0.502123
5773.000000;0.502488
5772.000000;0.502878
5771.000000;0.503237
5770.000000;0.503497
5769.000000;0.503637
5768.000000;0.503730
5767.000000;0.503877
5766.000000;0.504114
5765.000000;0.504414
5764.000000;0.504748
5763.000000;0.505086
5762.000000;0.505381
5761.000000;0.505614
5760.000000;0.505837
5759.000000;0.506118
5758.000000;0.506451
5757.000000;0.506788
5756.000000;0.507130
5755.000000;0.507521
5754.000000;0.507962
5753.000000;0.508396
5752.000000;0.508776
5751.000000;0.509104
5750.000000;0.509398
5749.000000;0.509681
5748.000000;0.509999
5747.000000;0.510396
5746.000000;0.510862
5745.000000;0.511344
5744.000000;0.511802
5743.000000;0.512221
5742.000000;0.512564
5741.000000;0.512797
5740.000000;0.512949
5739.000000;0.513095
5738.000000;0.513260
5737.000000;0.513404
5736.000000;0.513526
5735.000000;0.513705
5734.000000;0.514003
5733.000000;0.514385
5732.000000;0.514782
5731.000000;0.515179
5730.000000;0.515608
5729.000000;0.516075
5728.000000;0.516573
5727.000000;0.517130
5726.000000;0.517791
5725.000000;0.518532
5724.000000;0.519238
5723.000000;0.519793
5722.000000;0.520187
5721.000000;0.520507
5720.000000;0.520846
5719.000000;0.521232
5718.000000;0.521659
5717.000000;0.522146
5716.000000;0.522719
5715.000000;0.523340
5714.000000;0.523896
5713.000000;0.524314
5712.000000;0.524651
5711.000000;0.525034
5710.000000;0.525527
5709.000000;0.526091
5708.000000;0.526665
5707.000000;0.527227
5706.000000;0.527781
5705.000000;0.528335
5704.000000;0.528909
5703.000000;0.529523
5702.000000;0.530152
5701.000000;0.530722
5700.000000;0.531180
5699.000000;0.531548
5698.000000;0.531880
5697.000000;0.532219
5696.000000;0.532578
5695.000000;0.533005
5694.000000;0.533514
5693.000000;0.534213
5692.000000;0.534956
5691.000000;0.535618
5690.000000;0.536193
5689.000000;0.536662
5688.000000;0.537131
5687.000000;0.537686
5686.000000;0.538347
5685.000000;0.539053
5684.000000;0.539735
5683.000000;0.540361
5682.000000;0.540936
5681.000000;0.541479
5680.000000;0.542012
5679.000000;0.542545
5678.000000;0.543082
5677.000000;0.543645
5676.000000;0.544271
5675.000000;0.544965
5674.000000;0.545664
5673.000000;0.546290
5672.000000;0.546826
5671.000000;0.547312
5670.000000;0.547780
5669.000000;0.548224
5668.000000;0.548633
5667.000000;0.549032
5666.000000;0.549469
5665.000000;0.549978
5664.000000;0.550553
5663.000000;0.551160
5662.000000;0.551772
5661.000000;0.552398
5660.000000;0.553049
5659.000000;0.553671
5658.000000;0.554148
5657.000000;0.554397
5656.000000;0.554451
5655.000000;0.554434
5654.000000;0.554465
5653.000000;0.554599
5652.000000;0.554852
5651.000000;0.555220
5650.000000;0.555703
5649.000000;0.556302
5648.000000;0.556991
5647.000000;0.557671
5646.000000;0.558203
5645.000000;0.558526
5644.000000;0.558716
5643.000000;0.558901
5642.000000;0.559146
5641.000000;0.559459
5640.000000;0.559863
5639.000000;0.560389
5638.000000;0.561002
5637.000000;0.561606
5636.000000;0.562129
5635.000000;0.562570
5634.000000;0.562954
5633.000000;0.563282
5632.000000;0.563554
5631.000000;0.563782
5630.000000;0.563989
5629.000000;0.564198
5628.000000;0.564427
5627.000000;0.564670
5626.000000;0.564878
5625.000000;0.565018
5624.000000;0.565131
5623.000000;0.565287
5622.000000;0.565486
5621.000000;0.565642
5620.000000;0.565689
5619.000000;0.565667
5618.000000;0.565672
5617.000000;0.565764
5616.000000;0.565931
5615.000000;0.566133
5614.000000;0.566345
5613.000000;0.566570
5612.000000;0.566806
5611.000000;0.567020
5610.000000;0.567184
5609.000000;0.567325
5608.000000;0.567517
5607.000000;0.567786
5606.000000;0.568064
5605.000000;0.568240
5604.000000;0.568256
5603.000000;0.568137
5602.000000;0.567954
5601.000000;0.567784
5600.000000;0.567683
5599.000000;0.567680
5598.000000;0.567775
5597.000000;0.567950
5596.000000;0.568130
5595.000000;0.568184
5594.000000;0.568036
5593.000000;0.567769
5592.000000;0.567552
5591.000000;0.567443
5590.000000;0.567348
5589.000000;0.567191
5588.000000;0.567022
5587.000000;0.566899
5586.000000;0.566765
5585.000000;0.566544
5584.000000;0.566286
5583.000000;0.566117
5582.000000;0.566062
5581.000000;0.566012
5580.000000;0.565858
5579.000000;0.565597
5578.000000;0.565314
5577.000000;0.565104
5576.000000;0.565007
5575.000000;0.564959
5574.000000;0.564847
5573.000000;0.564652
5572.000000;0.564473
5571.000000;0.564385
5570.000000;0.564316
5569.000000;0.564150
5568.000000;0.563899
5567.000000;0.563667
5566.000000;0.563482
5565.000000;0.563286
5564.000000;0.563058
5563.000000;0.562825
5562.000000;0.562540
5561.000000;0.562084
5560.000000;0.561431
5559.000000;0.560721
5558.000000;0.560135
5557.000000;0.559767
5556.000000;0.559629
5555.000000;0.559700
5554.000000;0.559901
5553.000000;0.560113
5552.000000;0.560283
5551.000000;0.560464
5550.000000;0.560697
5549.000000;0.560899
5548.000000;0.560937
5547.000000;0.560780
5546.000000;0.560491
5545.000000;0.560102
5544.000000;0.559582
5543.000000;0.558912
5542.000000;0.558154
5541.000000;0.557441
5540.000000;0.556921
5539.000000;0.556676
5538.000000;0.556648
5537.000000;0.556691
5536.000000;0.556734
5535.000000;0.556851
5534.000000;0.557076
5533.000000;0.557267
5532.000000;0.557240
5531.000000;0.556996
5530.000000;0.556681
5529.000000;0.556345
5528.000000;0.555889
5527.000000;0.555243
5526.000000;0.554518
5525.000000;0.553942
5524.000000;0.553677
5523.000000;0.553672
5522.000000;0.553713
5521.000000;0.553641
5520.000000;0.553538
5519.000000;0.553618
5518.000000;0.553888
5517.000000;0.554065
5516.000000;0.553929
5515.000000;0.553560
5514.000000;0.553148
5513.000000;0.552699
5512.000000;0.552167
5511.000000;0.551808
5510.000000;0.552009
5509.000000;0.552739
5508.000000;0.553477
5507.000000;0.553830
5506.000000;0.553941
5505.000000;0.554135
5504.000000;0.554369
5503.000000;0.554321
5502.000000;0.553928
5501.000000;0.553456
5500.000000;0.553006
5499.000000;0.552310
5498.000000;0.551175
5497.000000;0.550034
5496.000000;0.549837
5495.000000;0.551093
5494.000000;0.553308
5493.000000;0.555588
5492.000000;0.557652
5491.000000;0.559914
5490.000000;0.562452
5489.000000;0.564464
5488.000000;0.565146
5487.000000;0.564656
5486.000000;0.563671
5485.000000;0.562284
5484.000000;0.560037
5483.000000;0.556974
5482.000000;0.553918
5481.000000;0.551512
5480.000000;0.549609
5479.000000;0.548189
5478.000000;0.548093
5477.000000;0.550030
5476.000000;0.553375
5475.000000;0.556552
5474.000000;0.558662
5473.000000;0.560070
5472.000000;0.561171
5471.000000;0.561587
5470.000000;0.561020
5469.000000;0.560058
5468.000000;0.559489
5467.000000;0.559333
5466.000000;0.559020
5465.000000;0.558451
5464.000000;0.558450
5463.000000;0.559828
5462.000000;0.562305
5461.000000;0.564692
5460.000000;0.566054
5459.000000;0.566518
5458.000000;0.566703
5457.000000;0.566668
5456.000000;0.565973
5455.000000;0.564527
5454.000000;0.562825
5453.000000;0.561471
5452.000000;0.560747
5451.000000;0.560562
5450.000000;0.560809
5449.000000;0.561864
5448.000000;0.564435
5447.000000;0.568570
5446.000000;0.573001
5445.000000;0.576425
5444.000000;0.579292
5443.000000;0.582933
5442.000000;0.587035
5441.000000;0.589609
5440.000000;0.589585
5439.000000;0.588246
5438.000000;0.587489
5437.000000;0.587560
5436.000000;0.587467
5435.000000;0.586825
5434.000000;0.586186
5433.000000;0.586324
5432.000000;0.587791
5431.000000;0.590557
5430.000000;0.593926
5429.000000;0.597084
5428.000000;0.599613
5427.000000;0.601369
5426.000000;0.601994
5425.000000;0.601033
5424.000000;0.598643
5423.000000;0.595664
5422.000000;0.592787
5421.000000;0.589971
5420.000000;0.586782
5419.000000;0.583201
5418.000000;0.580262
5417.000000;0.579840
5416.000000;0.583121
5415.000000;0.589407
5414.000000;0.596854
5413.000000;0.604454
5412.000000;0.612639
5411.000000;0.621399
5410.000000;0.629002
5409.000000;0.633691
5408.000000;0.635709
5407.000000;0.636327
5406.000000;0.635542
5405.000000;0.632433
5404.000000;0.627439
5403.000000;0.622572
5402.000000;0.619272
5401.000000;0.617347
5400.000000;0.616439
5399.000000;0.616925
5398.000000;0.619108
5397.000000;0.622968
5396.000000;0.628484
5395.000000;0.635453
5394.000000;0.642913
5393.000000;0.649517
5392.000000;0.654854
5391.000000;0.659383
5390.000000;0.663133
5389.000000;0.665668
5388.000000;0.667279
5387.000000;0.669093
5386.000000;0.671603
5385.000000;0.674126
5384.000000;0.676206
5383.000000;0.678528
5382.000000;0.681593
5381.000000;0.684913
5380.000000;0.688517
5379.000000;0.693435
5378.000000;0.700021
5377.000000;0.707139
5376.000000;0.713644
5375.000000;0.719846
5374.000000;0.726499
5373.000000;0.733029
5372.000000;0.738269
5371.000000;0.742163
5370.000000;0.745458
5369.000000;0.748251
5368.000000;0.750099
5367.000000;0.751550
5366.000000;0.754188
5365.000000;0.758897
5364.000000;0.765077
5363.000000;0.771927
5362.000000;0.779375
5361.000000;0.787378
5360.000000;0.795336
5359.000000;0.802678
5358.000000;0.809789
5357.000000;0.817826
5356.000000;0.827656
5355.000000;0.839301
5354.000000;0.852078
5353.000000;0.865114
5352.000000;0.877945
5351.000000;0.890693
5350.000000;0.903251
5349.000000;0.914941
5348.000000;0.925829
5347.000000;0.937439
5346.000000;0.951006
5345.000000;0.965550
5344.000000;0.978811
5343.000000;0.990285
5342.000000;1.002159
5341.000000;1.016162
5340.000000;1.031322
5339.000000;1.045928
5338.000000;1.059842
5337.000000;1.073648
5336.000000;1.086960
5335.000000;1.099059
5334.000000;1.110380
5333.000000;1.122048
5332.000000;1.134206
5331.000000;1.146165
5330.000000;1.157936
5329.000000;1.170281
5328.000000;1.183469
5327.000000;1.197130
5326.000000;1.211428
5325.000000;1.227013
5324.000000;1.243387
5323.000000;1.258909
5322.000000;1.273071
5321.000000;1.287006
5320.000000;1.301446
5319.000000;1.315861
5318.000000;1.329991
5317.000000;1.344633
5316.000000;1.360338
5315.000000;1.376765
5314.000000;1.393724
5313.000000;1.411532
5312.000000;1.429879
5311.000000;1.447865
5310.000000;1.465378
5309.000000;1.482950
5308.000000;1.500184
5307.000000;1.515844
5306.000000;1.529834
5305.000000;1.543437
5304.000000;1.557226
5303.000000;1.570447
5302.000000;1.582778
5301.000000;1.594875
5300.000000;1.606685
5299.000000;1.617016
5298.000000;1.625515
5297.000000;1.633465
5296.000000;1.641792
5295.000000;1.649730
5294.000000;1.656539
5293.000000;1.663092
5292.000000;1.670536
5291.000000;1.678710
5290.000000;1.686692
5289.000000;1.693945
5288.000000;1.700233
5287.000000;1.705092
5286.000000;1.708239
5285.000000;1.710153
5284.000000;1.711795
5283.000000;1.713853
5282.000000;1.716220
5281.000000;1.718020
5280.000000;1.718344
5279.000000;1.717352
5278.000000;1.716328
5277.000000;1.716152
5276.000000;1.716392
5275.000000;1.716508
5274.000000;1.717200
5273.000000;1.719461
5272.000000;1.722720
5271.000000;1.725176
5270.000000;1.725998
5269.000000;1.726053
5268.000000;1.726756
5267.000000;1.729100
5266.000000;1.733346
5265.000000;1.738891
5264.000000;1.744555
5263.000000;1.749590
5262.000000;1.753972
5261.000000;1.757235
5260.000000;1.757982
5259.000000;1.755795
5258.000000;1.752622
5257.000000;1.750561
5256.000000;1.749117
5255.000000;1.746339
5254.000000;1.742161
5253.000000;1.738816
5252.000000;1.738079
5251.000000;1.739562
5250.000000;1.741814
5249.000000;1.743636
5248.000000;1.744600
5247.000000;1.745485
5246.000000;1.747580
5245.000000;1.750861
5244.000000;1.753363
5243.000000;1.753408
5242.000000;1.751766
5241.000000;1.750193
5240.000000;1.748645
5239.000000;1.745845
5238.000000;1.741930
5237.000000;1.738435
5236.000000;1.735960
5235.000000;1.733864
5234.000000;1.732251
5233.000000;1.732113
5232.000000;1.733294
5231.000000;1.734102
5230.000000;1.733680
5229.000000;1.733510
5228.000000;1.735620
5227.000000;1.740115
5226.000000;1.745138
5225.000000;1.748776
5224.000000;1.750352
5223.000000;1.750405
5222.000000;1.750124
5221.000000;1.750549
5220.000000;1.751697
5219.000000;1.752343
5218.000000;1.751079
5217.000000;1.747744
5216.000000;1.743508
5215.000000;1.739854
5214.000000;1.737626
5213.000000;1.736673
5212.000000;1.736173
5211.000000;1.735517
5210.000000;1.735298
5209.000000;1.737046
5208.000000;1.741411
5207.000000;1.746980
5206.000000;1.751558
5205.000000;1.754315
5204.000000;1.755898
5203.000000;1.756728
5202.000000;1.756171
5201.000000;1.753552
5200.000000;1.749378
5199.000000;1.745084
5198.000000;1.741803
5197.000000;1.739692
5196.000000;1.738216
5195.000000;1.736775
5194.000000;1.735117
5193.000000;1.733502
5192.000000;1.732619
5191.000000;1.733005
5190.000000;1.734365
5189.000000;1.735734
5188.000000;1.736603
5187.000000;1.737547
5186.000000;1.739371
5185.000000;1.741913
5184.000000;1.744179
5183.000000;1.745490
5182.000000;1.745775
5181.000000;1.744844
5180.000000;1.742473
5179.000000;1.739357
5178.000000;1.737018
5177.000000;1.736327
5176.000000;1.736718
5175.000000;1.737097
5174.000000;1.736865
5173.000000;1.735849
5172.000000;1.734198
5171.000000;1.732910
5170.000000;1.733493
5169.000000;1.736178
5168.000000;1.739125
5167.000000;1.740317
5166.000000;1.739821
5165.000000;1.739184
5164.000000;1.739158
5163.000000;1.739156
5162.000000;1.738666
5161.000000;1.738087
5160.000000;1.738029
5159.000000;1.738615
5158.000000;1.739577
5157.000000;1.740502
5156.000000;1.740998
5155.000000;1.741113
5154.000000;1.741418
5153.000000;1.742187
5152.000000;1.742764
5151.000000;1.742358
5150.000000;1.741107
5149.000000;1.739653
5148.000000;1.738090
5147.000000;1.736199
5146.000000;1.734341
5145.000000;1.733261
5144.000000;1.733223
5143.000000;1.734092
5142.000000;1.735906
5141.000000;1.738499
5140.000000;1.740721
5139.000000;1.741134
5138.000000;1.739695
5137.000000;1.737865
5136.000000;1.736902
5135.000000;1.736750
5134.000000;1.736691
5133.000000;1.736392
5132.000000;1.736068
5131.000000;1.736044
5130.000000;1.736345
5129.000000;1.736544
5128.000000;1.736070
5127.000000;1.734922
5126.000000;1.733906
5125.000000;1.733819
5124.000000;1.734585
5123.000000;1.735605
5122.000000;1.736547
5121.000000;1.737296
5120.000000;1.737587
5119.000000;1.737372
5118.000000;1.737214
5117.000000;1.737613
5116.000000;1.738271
5115.000000;1.738726
5114.000000;1.739375
5113.000000;1.740926
5112.000000;1.743053
5111.000000;1.744605
5110.000000;1.745152
5109.000000;1.745290
5108.000000;1.745329
5107.000000;1.744721
5106.000000;1.743132
5105.000000;1.741201
5104.000000;1.739822
5103.000000;1.739297
5102.000000;1.739463
5101.000000;1.740063
5100.000000;1.740859
5099.000000;1.741823
5098.000000;1.743221
5097.000000;1.745075
5096.000000;1.746486
5095.000000;1.746181
5094.000000;1.744142
5093.000000;1.741927
5092.000000;1.740972
5091.000000;1.741187
5090.000000;1.741653
5089.000000;1.742120
5088.000000;1.743098
5087.000000;1.744625
5086.000000;1.745612
5085.000000;1.744764
5084.000000;1.742064
5083.000000;1.739077
5082.000000;1.737684
5081.000000;1.738512
5080.000000;1.740613
5079.000000;1.742583
5078.000000;1.743805
5077.000000;1.744491
5076.000000;1.744892
5075.000000;1.745039
5074.000000;1.745105
5073.000000;1.745392
5072.000000;1.745906
5071.000000;1.746272
5070.000000;1.746157
5069.000000;1.745595
5068.000000;1.744925
5067.000000;1.744569
5066.000000;1.744779
5065.000000;1.745417
5064.000000;1.746036
5063.000000;1.746246
5062.000000;1.745890
5061.000000;1.744895
5060.000000;1.743331
5059.000000;1.741789
5058.000000;1.741300
5057.000000;1.742436
5056.000000;1.744618
5055.000000;1.746658
5054.000000;1.747932
5053.000000;1.748682
5052.000000;1.749268
5051.000000;1.749641
5050.000000;1.749473
5049.000000;1.748533
5048.000000;1.747034
5047.000000;1.745704
5046.000000;1.745249
5045.000000;1.745619
5044.000000;1.746119
5043.000000;1.746380
5042.000000;1.746746
5041.000000;1.747474
5040.000000;1.748135
5039.000000;1.748224
5038.000000;1.747848
5037.000000;1.747308
5036.000000;1.746474
5035.000000;1.745301
5034.000000;1.744515
5033.000000;1.744995
5032.000000;1.746625
5031.000000;1.748362
5030.000000;1.749310
5029.000000;1.749185
5028.000000;1.748021
5027.000000;1.746213
5026.000000;1.744772
5025.000000;1.744749
5024.000000;1.746228
5023.000000;1.748293
5022.000000;1.749955
5021.000000;1.750780
5020.000000;1.750755
5019.000000;1.750120
5018.000000;1.749328
5017.000000;1.748753
5016.000000;1.748368
5015.000000;1.747910
5014.000000;1.747228
5013.000000;1.746270
5012.000000;1.745112
5011.000000;1.744344
5010.000000;1.744893
5009.000000;1.746818
5008.000000;1.748549
5007.000000;1.748145
5006.000000;1.745432
5005.000000;1.742271
5004.000000;1.740657
5003.000000;1.741057
5002.000000;1.742399
5001.000000;1.743152
5000.000000;1.742531
4999.000000;1.741285
4998.000000;1.740966
4997.000000;1.742237
4996.000000;1.743925
4995.000000;1.744145
4994.000000;1.742807
4993.000000;1.741469
4992.000000;1.741211
4991.000000;1.741355
4990.000000;1.740637
4989.000000;1.738852
4988.000000;1.737027
4987.000000;1.736311
4986.000000;1.736905
4985.000000;1.737883
4984.000000;1.738000
4983.000000;1.736898
4982.000000;1.735529
4981.000000;1.735095
4980.000000;1.735735
4979.000000;1.736569
4978.000000;1.736836
4977.000000;1.736490
4976.000000;1.735744
4975.000000;1.734677
4974.000000;1.733561
4973.000000;1.733077
4972.000000;1.733858
4971.000000;1.735873
4970.000000;1.738441
4969.000000;1.740722
4968.000000;1.742190
4967.000000;1.742754
4966.000000;1.742403
4965.000000;1.740896
4964.000000;1.738136
4963.000000;1.734831
4962.000000;1.732122
4961.000000;1.730466
4960.000000;1.729431
4959.000000;1.728756
4958.000000;1.728911
4957.000000;1.730113
4956.000000;1.731446
4955.000000;1.731681
4954.000000;1.730616
4953.000000;1.728931
4952.000000;1.727193
4951.000000;1.725746
4950.000000;1.725153
4949.000000;1.725680
4948.000000;1.726504
4947.000000;1.726349
4946.000000;1.725012
4945.000000;1.723526
4944.000000;1.722693
4943.000000;1.722242
4942.000000;1.721533
4941.000000;1.720365
4940.000000;1.718784
4939.000000;1.716726
4938.000000;1.714283
4937.000000;1.711965
4936.000000;1.710368
4935.000000;1.709669
4934.000000;1.709534
4933.000000;1.709360
4932.000000;1.708709
4931.000000;1.707717
4930.000000;1.706962
4929.000000;1.706738
4928.000000;1.706699
4927.000000;1.706377
4926.000000;1.705660
4925.000000;1.704528
4924.000000;1.702796
4923.000000;1.700638
4922.000000;1.698913
4921.000000;1.698268
4920.000000;1.698215
4919.000000;1.697691
4918.000000;1.696298
4917.000000;1.694287
4916.000000;1.691754
4915.000000;1.688840
4914.000000;1.686464
4913.000000;1.685750
4912.000000;1.686625
4911.000000;1.687815
4910.000000;1.688380
4909.000000;1.688477
4908.000000;1.688339
4907.000000;1.687343
4906.000000;1.684747
4905.000000;1.680918
4904.000000;1.677169
4903.000000;1.674585
4902.000000;1.673341
4901.000000;1.672879
4900.000000;1.672461
4899.000000;1.671719
4898.000000;1.670795
4897.000000;1.669909
4896.000000;1.668950
4895.000000;1.667714
4894.000000;1.666277
4893.000000;1.664664
4892.000000;1.662391
4891.000000;1.659011
4890.000000;1.655042
4889.000000;1.651663
4888.000000;1.649492
4887.000000;1.648257
4886.000000;1.647540
4885.000000;1.646975
4884.000000;1.645722
4883.000000;1.642805
4882.000000;1.638544
4881.000000;1.634848
4880.000000;1.633421
4879.000000;1.634040
4878.000000;1.634943
4877.000000;1.634605
4876.000000;1.632791
4875.000000;1.630222
4874.000000;1.627761
4873.000000;1.625819
4872.000000;1.624158
4871.000000;1.622288
4870.000000;1.620205
4869.000000;1.618494
4868.000000;1.617545
4867.000000;1.616961
4866.000000;1.616017
4865.000000;1.614451
4864.000000;1.612531
4863.000000;1.610512
4862.000000;1.608308
4861.000000;1.605668
4860.000000;1.602565
4859.000000;1.599418
4858.000000;1.596823
4857.000000;1.594853
4856.000000;1.592755
4855.000000;1.589739
4854.000000;1.586056
4853.000000;1.582852
4852.000000;1.580828
4851.000000;1.579488
4850.000000;1.577827
4849.000000;1.575339
4848.000000;1.572193
4847.000000;1.568909
4846.000000;1.566241
4845.000000;1.564866
4844.000000;1.564633
4843.000000;1.564327
4842.000000;1.562646
4841.000000;1.559388
4840.000000;1.555344
4839.000000;1.551307
4838.000000;1.547641
4837.000000;1.544589
4836.000000;1.542386
4835.000000;1.540924
4834.000000;1.539713
4833.000000;1.538380
4832.000000;1.536963
4831.000000;1.535609
4830.000000;1.534234
4829.000000;1.532623
4828.000000;1.530659
4827.000000;1.528242
4826.000000;1.525153
4825.000000;1.521249
4824.000000;1.516817
4823.000000;1.512571
4822.000000;1.509214
4821.000000;1.507031
4820.000000;1.505814
4819.000000;1.505046
4818.000000;1.504122
4817.000000;1.502492
4816.000000;1.499838
4815.000000;1.496238
4814.000000;1.492170
4813.000000;1.488314
4812.000000;1.485302
4811.000000;1.483414
4810.000000;1.482314
4809.000000;1.481100
4808.000000;1.478936
4807.000000;1.475808
4806.000000;1.472487
4805.000000;1.469666
4804.000000;1.467273
4803.000000;1.464795
4802.000000;1.461978
4801.000000;1.458988
4800.000000;1.456057
4799.000000;1.453260
4798.000000;1.450658
4797.000000;1.448289
4796.000000;1.446022
4795.000000;1.443618
4794.000000;1.440992
4793.000000;1.438261
4792.000000;1.435551
4791.000000;1.432954
4790.000000;1.430554
4789.000000;1.428274
4788.000000;1.425799
4787.000000;1.422956
4786.000000;1.420113
4785.000000;1.417820
4784.000000;1.416012
4783.000000;1.413946
4782.000000;1.411069
4781.000000;1.407598
4780.000000;1.404050
4779.000000;1.400583
4778.000000;1.397125
4777.000000;1.393860
4776.000000;1.391131
4775.000000;1.388937
4774.000000;1.386860
4773.000000;1.384556
4772.000000;1.382082
4771.000000;1.379666
4770.000000;1.377333
4769.000000;1.374862
4768.000000;1.372056
4767.000000;1.369003
4766.000000;1.366081
4765.000000;1.363640
4764.000000;1.361618
4763.000000;1.359535
4762.000000;1.356996
4761.000000;1.354152
4760.000000;1.351530
4759.000000;1.349389
4758.000000;1.347391
4757.000000;1.344980
4756.000000;1.341994
4755.000000;1.338795
4754.000000;1.335831
4753.000000;1.333194
4752.000000;1.330655
4751.000000;1.328014
4750.000000;1.325311
4749.000000;1.322719
4748.000000;1.320361
4747.000000;1.318265
4746.000000;1.316373
4745.000000;1.314525
4744.000000;1.312515
4743.000000;1.310296
4742.000000;1.308051
4741.000000;1.305959
4740.000000;1.303942
4739.000000;1.301792
4738.000000;1.299510
4737.000000;1.297342
4736.000000;1.295429
4735.000000;1.293579
4734.000000;1.291485
4733.000000;1.289120
4732.000000;1.286775
4731.000000;1.284701
4730.000000;1.282753
4729.000000;1.280493
4728.000000;1.277707
4727.000000;1.274772
4726.000000;1.272352
4725.000000;1.270673
4724.000000;1.269236
4723.000000;1.267367
4722.000000;1.264912
4721.000000;1.262229
4720.000000;1.259618
4719.000000;1.257043
4718.000000;1.254368
4717.000000;1.251602
4716.000000;1.248823
4715.000000;1.246122
4714.000000;1.243699
4713.000000;1.241801
4712.000000;1.240393
4711.000000;1.239027
4710.000000;1.237226
4709.000000;1.234927
4708.000000;1.232439
4707.000000;1.230072
4706.000000;1.227944
4705.000000;1.226047
4704.000000;1.224326
4703.000000;1.222685
4702.000000;1.221025
4701.000000;1.219300
4700.000000;1.217450
4699.000000;1.215364
4698.000000;1.213027
4697.000000;1.210687
4696.000000;1.208725
4695.000000;1.207289
4694.000000;1.206084
4693.000000;1.204601
4692.000000;1.202555
4691.000000;1.200134
4690.000000;1.197833
4689.000000;1.196031
4688.000000;1.194695
4687.000000;1.193445
4686.000000;1.191899
4685.000000;1.189929
4684.000000;1.187648
4683.000000;1.185268
4682.000000;1.183035
4681.000000;1.181185
4680.000000;1.179817
4679.000000;1.178782
4678.000000;1.177776
4677.000000;1.176573
4676.000000;1.175152
4675.000000;1.173604
4674.000000;1.171981
4673.000000;1.170263
4672.000000;1.168452
4671.000000;1.166634
4670.000000;1.164948
4669.000000;1.163503
4668.000000;1.162309
4667.000000;1.161240
4666.000000;1.160075
4665.000000;1.158651
4664.000000;1.157027
4663.000000;1.155462
4662.000000;1.154155
4661.000000;1.153030
4660.000000;1.151843
4659.000000;1.150509
4658.000000;1.149203
4657.000000;1.148116
4656.000000;1.147202
4655.000000;1.146228
4654.000000;1.145010
4653.000000;1.143533
4652.000000;1.141915
4651.000000;1.140309
4650.000000;1.138801
4649.000000;1.137330
4648.000000;1.135777
4647.000000;1.134181
4646.000000;1.132778
4645.000000;1.131724
4644.000000;1.130849
4643.000000;1.129822
4642.000000;1.128521
4641.000000;1.127099
4640.000000;1.125742
4639.000000;1.124520
4638.000000;1.123471
4637.000000;1.122622
4636.000000;1.121919
4635.000000;1.121249
4634.000000;1.120602
4633.000000;1.120062
4632.000000;1.119610
4631.000000;1.119072
4630.000000;1.118313
4629.000000;1.117344
4628.000000;1.116162
4627.000000;1.114692
4626.000000;1.113014
4625.000000;1.111527
4624.000000;1.110630
4623.000000;1.110259
4622.000000;1.109918
4621.000000;1.109197
4620.000000;1.108143
4619.000000;1.107093
4618.000000;1.106269
4617.000000;1.105623
4616.000000;1.105010
4615.000000;1.104370
4614.000000;1.103722
4613.000000;1.103026
4612.000000;1.102128
4611.000000;1.100915
4610.000000;1.099527
4609.000000;1.098358
4608.000000;1.097747
4607.000000;1.097621
4606.000000;1.097488
4605.000000;1.096854
4604.000000;1.095712
4603.000000;1.094579
4602.000000;1.093983
4601.000000;1.093901
4600.000000;1.093782
4599.000000;1.093161
4598.000000;1.092163
4597.000000;1.091319
4596.000000;1.090983
4595.000000;1.091055
4594.000000;1.091220
4593.000000;1.091267
4592.000000;1.091131
4591.000000;1.090798
4590.000000;1.090282
4589.000000;1.089657
4588.000000;1.089032
4587.000000;1.088516
4586.000000;1.088184
4585.000000;1.088011
4584.000000;1.087823
4583.000000;1.087445
4582.000000;1.086942
4581.000000;1.086613
4580.000000;1.086646
4579.000000;1.086869
4578.000000;1.086940
4577.000000;1.086740
4576.000000;1.086454
4575.000000;1.086310
4574.000000;1.086332
4573.000000;1.086344
4572.000000;1.086135
4571.000000;1.085624
4570.000000;1.084973
4569.000000;1.084536
4568.000000;1.084598
4567.000000;1.085134
4566.000000;1.085839
4565.000000;1.086400
4564.000000;1.086710
4563.000000;1.086841
4562.000000;1.086919
4561.000000;1.087068
4560.000000;1.087387
4559.000000;1.087863
4558.000000;1.088337
4557.000000;1.088620
4556.000000;1.088696
4555.000000;1.088759
4554.000000;1.089016
4553.000000;1.089498
4552.000000;1.090065
4551.000000;1.090601
4550.000000;1.091119
4549.000000;1.091676
4548.000000;1.092264
4547.000000;1.092866
4546.000000;1.093575
4545.000000;1.094515
4544.000000;1.095613
4543.000000;1.096530
4542.000000;1.096958
4541.000000;1.096948
4540.000000;1.096877
4539.000000;1.097057
4538.000000;1.097471
4537.000000;1.097918
4536.000000;1.098350
4535.000000;1.098972
4534.000000;1.099959
4533.000000;1.101178
4532.000000;1.102273
4531.000000;1.103025
4530.000000;1.103541
4529.000000;1.104066
4528.000000;1.104704
4527.000000;1.105391
4526.000000;1.106067
4525.000000;1.106732
4524.000000;1.107347
4523.000000;1.107830
4522.000000;1.108210
4521.000000;1.108701
4520.000000;1.109504
4519.000000;1.110591
4518.000000;1.111729
4517.000000;1.112684
4516.000000;1.113343
4515.000000;1.113690
4514.000000;1.113781
4513.000000;1.113791
4512.000000;1.113999
4511.000000;1.114618
4510.000000;1.115613
4509.000000;1.116721
4508.000000;1.117681
4507.000000;1.118442
4506.000000;1.119149
4505.000000;1.119950
4504.000000;1.120870
4503.000000;1.121849
4502.000000;1.122841
4501.000000;1.123807
4500.000000;1.124669
4499.000000;1.125335
4498.000000;1.125832
4497.000000;1.126344
4496.000000;1.127089
4495.000000;1.128126
4494.000000;1.129305
4493.000000;1.130430
4492.000000;1.131459
4491.000000;1.132530
4490.000000;1.133764
4489.000000;1.135080
4488.000000;1.136264
4487.000000;1.137254
4486.000000;1.138253
4485.000000;1.139501
4484.000000;1.140985
4483.000000;1.142463
4482.000000;1.143777
4481.000000;1.145046
4480.000000;1.146506
4479.000000;1.148203
4478.000000;1.149891
4477.000000;1.151255
4476.000000;1.152227
4475.000000;1.153083
4474.000000;1.154208
4473.000000;1.155753
4472.000000;1.157561
4471.000000;1.159410
4470.000000;1.161254
4469.000000;1.163178
4468.000000;1.165209
4467.000000;1.167297
4466.000000;1.169433
4465.000000;1.171642
4464.000000;1.173837
4463.000000;1.175814
4462.000000;1.177476
4461.000000;1.178947
4460.000000;1.180406
4459.000000;1.181868
4458.000000;1.183257
4457.000000;1.184634
4456.000000;1.186228
4455.000000;1.188227
4454.000000;1.190592
4453.000000;1.193120
4452.000000;1.195605
4451.000000;1.197941
4450.000000;1.200110
4449.000000;1.202177
4448.000000;1.204245
4447.000000;1.206331
4446.000000;1.208265
4445.000000;1.209844
4444.000000;1.211170
4443.000000;1.212728
4442.000000;1.214966
4441.000000;1.217806
4440.000000;1.220696
4439.000000;1.223196
4438.000000;1.225374
4437.000000;1.227595
4436.000000;1.230081
4435.000000;1.232785
4434.000000;1.235571
4433.000000;1.238308
4432.000000;1.240865
4431.000000;1.243173
4430.000000;1.245311
4429.000000;1.247423
4428.000000;1.249559
4427.000000;1.251707
4426.000000;1.253939
4425.000000;1.256375
4424.000000;1.259017
4423.000000;1.261750
4422.000000;1.264509
4421.000000;1.267295
4420.000000;1.270064
4419.000000;1.272778
4418.000000;1.275593
4417.000000;1.278801
4416.000000;1.282479
4415.000000;1.286339
4414.000000;1.289969
4413.000000;1.293124
4412.000000;1.295748
4411.000000;1.297925
4410.000000;1.299938
4409.000000;1.302174
4408.000000;1.304760
4407.000000;1.307363
4406.000000;1.309601
4405.000000;1.311602
4404.000000;1.313940
4403.000000;1.316971
4402.000000;1.320395
4401.000000;1.323565
4400.000000;1.326197
4399.000000;1.328706
4398.000000;1.331830
4397.000000;1.335907
4396.000000;1.340472
4395.000000;1.344600
4394.000000;1.347724
4393.000000;1.350086
4392.000000;1.352348
4391.000000;1.354875
4390.000000;1.357556
4389.000000;1.360234
4388.000000;1.363013
4387.000000;1.366060
4386.000000;1.369319
4385.000000;1.372607
4384.000000;1.375875
4383.000000;1.379213
4382.000000;1.382666
4381.000000;1.386170
4380.000000;1.389632
4379.000000;1.392959
4378.000000;1.396086
4377.000000;1.399106
4376.000000;1.402302
4375.000000;1.405878
4374.000000;1.409703
4373.000000;1.413507
4372.000000;1.417277
4371.000000;1.421218
4370.000000;1.425354
4369.000000;1.429462
4368.000000;1.433452
4367.000000;1.437445
4366.000000;1.441364
4365.000000;1.444820
4364.000000;1.447683
4363.000000;1.450489
4362.000000;1.453942
4361.000000;1.458215
4360.000000;1.463042
4359.000000;1.468263
4358.000000;1.473781
4357.000000;1.479096
4356.000000;1.483461
4355.000000;1.486635
4354.000000;1.489158
4353.000000;1.491757
4352.000000;1.494832
4351.000000;1.498487
4350.000000;1.502627
4349.000000;1.506895
4348.000000;1.510915
4347.000000;1.514770
4346.000000;1.518868
4345.000000;1.523171
4344.000000;1.527092
4343.000000;1.530464
4342.000000;1.534115
4341.000000;1.538948
4340.000000;1.544683
4339.000000;1.550070
4338.000000;1.554351
4337.000000;1.558039
4336.000000;1.562140
4335.000000;1.567032
4334.000000;1.572266
4333.000000;1.577242
4332.000000;1.581896
4331.000000;1.586744
4330.000000;1.592256
4329.000000;1.598231
4328.000000;1.603960
4327.000000;1.609042
4326.000000;1.613846
4325.000000;1.618989
4324.000000;1.624523
4323.000000;1.629866
4322.000000;1.634437
4321.000000;1.638141
4320.000000;1.641322
4319.000000;1.644467
4318.000000;1.647974
4317.000000;1.652045
4316.000000;1.656689
4315.000000;1.661816
4314.000000;1.667381
4313.000000;1.673438
4312.000000;1.680085
4311.000000;1.687277
4310.000000;1.694484
4309.000000;1.700743
4308.000000;1.705519
4307.000000;1.709506
4306.000000;1.714012
4305.000000;1.719412
4304.000000;1.724774
4303.000000;1.729293
4302.000000;1.733459
4301.000000;1.738253
4300.000000;1.743790
4299.000000;1.749381
4298.000000;1.754553
4297.000000;1.759410
4296.000000;1.764166
4295.000000;1.768858
4294.000000;1.773532
4293.000000;1.778294
4292.000000;1.783160
4291.000000;1.788251
4290.000000;1.793915
4289.000000;1.800266
4288.000000;1.806849
4287.000000;1.813084
4286.000000;1.818777
4285.000000;1.823903
4284.000000;1.828487
4283.000000;1.833323
4282.000000;1.839837
4281.000000;1.848120
4280.000000;1.855741
4279.000000;1.859985
4278.000000;1.861122
4277.000000;1.861963
4276.000000;1.864393
4275.000000;1.867959
4274.000000;1.871808
4273.000000;1.876211
4272.000000;1.881365
4271.000000;1.886199
4270.000000;1.889758
4269.000000;1.893165
4268.000000;1.898919
4267.000000;1.908225
4266.000000;1.919515
4265.000000;1.929471
4264.000000;1.935560
4263.000000;1.938177
4262.000000;1.940530
4261.000000;1.946071
4260.000000;1.955526
4259.000000;1.966101
4258.000000;1.973949
4257.000000;1.977871
4256.000000;1.980212
4255.000000;1.984242
4254.000000;1.991271
4253.000000;1.999889
4252.000000;2.007474
4251.000000;2.012671
4250.000000;2.016559
4249.000000;2.021363
4248.000000;2.028389
4247.000000;2.037029
4246.000000;2.045074
4245.000000;2.050176
4244.000000;2.051626
4243.000000;2.050854
4242.000000;2.050001
4241.000000;2.050354
4240.000000;2.052190
4239.000000;2.055964
4238.000000;2.062563
4237.000000;2.071641
4236.000000;2.080585
4235.000000;2.086731
4234.000000;2.090663
4233.000000;2.095694
4232.000000;2.103551
4231.000000;2.111868
4230.000000;2.116749
4229.000000;2.116937
4228.000000;2.114799
4227.000000;2.114151
4226.000000;2.117705
4225.000000;2.125658
4224.000000;2.135688
4223.000000;2.144743
4222.000000;2.151483
4221.000000;2.156627
4220.000000;2.160983
4219.000000;2.164322
4218.000000;2.166574
4217.000000;2.168866
4216.000000;2.172550
4215.000000;2.177947
4214.000000;2.184637
4213.000000;2.192315
4212.000000;2.200531
4211.000000;2.208268
4210.000000;2.215120
4209.000000;2.222576
4208.000000;2.232738
4207.000000;2.245313
4206.000000;2.256406
4205.000000;2.261397
4204.000000;2.259819
4203.000000;2.256622
4202.000000;2.257615
4201.000000;2.264114
4200.000000;2.272521
4199.000000;2.279412
4198.000000;2.286072
4197.000000;2.295826
4196.000000;2.308286
4195.000000;2.319099
4194.000000;2.325445
4193.000000;2.329684
4192.000000;2.335389
4191.000000;2.341876
4190.000000;2.344864
4189.000000;2.341413
4188.000000;2.333458
4187.000000;2.326998
4186.000000;2.327889
4185.000000;2.337286
4184.000000;2.350679
4183.000000;2.363010
4182.000000;2.374722
4181.000000;2.389557
4180.000000;2.405921
4179.000000;2.415243
4178.000000;2.412600
4177.000000;2.403805
4176.000000;2.397308
4175.000000;2.394817
4174.000000;2.393288
4173.000000;2.392315
4172.000000;2.395205
4171.000000;2.403507
4170.000000;2.414618
4169.000000;2.426342
4168.000000;2.439752
4167.000000;2.454816
4166.000000;2.467827
4165.000000;2.475748
4164.000000;2.479463
4163.000000;2.480004
4162.000000;2.476003
4161.000000;2.468210
4160.000000;2.462002
4159.000000;2.462284
4158.000000;2.468565
4157.000000;2.477067
4156.000000;2.485615
4155.000000;2.493720
4154.000000;2.500030
4153.000000;2.503321
4152.000000;2.505363
4151.000000;2.509967
4150.000000;2.518899
4149.000000;2.530557
4148.000000;2.542099
4147.000000;2.550699
4146.000000;2.552961
4145.000000;2.546967
4144.000000;2.535427
4143.000000;2.524942
4142.000000;2.522230
4141.000000;2.531041
4140.000000;2.550420
4139.000000;2.573187
4138.000000;2.589004
4137.000000;2.593634
4136.000000;2.592355
4135.000000;2.590867
4134.000000;2.587918
4133.000000;2.580627
4132.000000;2.573122
4131.000000;2.573984
4130.000000;2.586321
4129.000000;2.604290
4128.000000;2.619409
4127.000000;2.628056
4126.000000;2.630873
4125.000000;2.628650
4124.000000;2.624793
4123.000000;2.627532
4122.000000;2.642788
4121.000000;2.666458
4120.000000;2.685862
4119.000000;2.690389
4118.000000;2.681583
4117.000000;2.671841
4116.000000;2.674691
4115.000000;2.695133
4114.000000;2.724465
4113.000000;2.746146
4112.000000;2.751832
4111.000000;2.746125
4110.000000;2.735660
4109.000000;2.721695
4108.000000;2.705254
4107.000000;2.694462
4106.000000;2.698025
4105.000000;2.714133
4104.000000;2.733821
4103.000000;2.753453
4102.000000;2.772626
4101.000000;2.783234
4100.000000;2.775884
4099.000000;2.756736
4098.000000;2.745871
4097.000000;2.754790
4096.000000;2.771597
4095.000000;2.773218
4094.000000;2.754880
4093.000000;2.735638
4092.000000;2.734281
4091.000000;2.753095
4090.000000;2.780038
4089.000000;2.800753
4088.000000;2.807804
4087.000000;2.800175
4086.000000;2.780311
4085.000000;2.754946
4084.000000;2.736927
4083.000000;2.738521
4082.000000;2.758780
4081.000000;2.779579
4080.000000;2.783562
4079.000000;2.778302
4078.000000;2.785259
4077.000000;2.810037
4076.000000;2.836007
4075.000000;2.846847
4074.000000;2.849446
4073.000000;2.859853
4072.000000;2.876674
4071.000000;2.883196
4070.000000;2.872790
4069.000000;2.858752
4068.000000;2.855863
4067.000000;2.866642
4066.000000;2.884814
4065.000000;2.901568
4064.000000;2.908835
4063.000000;2.905549
4062.000000;2.898573
4061.000000;2.890770
4060.000000;2.875056
4059.000000;2.847253
4058.000000;2.817124
4057.000000;2.798915
4056.000000;2.798901
4055.000000;2.815433
4054.000000;2.845262
4053.000000;2.884811
4052.000000;2.926083
4051.000000;2.958680
4050.000000;2.979859
4049.000000;2.994253
4048.000000;3.000595
4047.000000;2.990688
4046.000000;2.965850
4045.000000;2.945212
4044.000000;2.950937
4043.000000;2.988624
4042.000000;3.032350
4041.000000;3.039500
4040.000000;3.010020
4039.000000;2.968280
4038.000000;2.922920
4037.000000;2.880079
4036.000000;2.846594
4035.000000;2.828369
4034.000000;2.831437
4033.000000;2.857996
4032.000000;2.902021
4031.000000;2.949464
4030.000000;2.984612
4029.000000;3.000298
4028.000000;3.002261
4027.000000;3.005202
4026.000000;3.021546
4025.000000;3.044619
4024.000000;3.047881
4023.000000;3.016644
4022.000000;2.970561
4021.000000;2.939284
4020.000000;2.938510
4019.000000;2.968433
4018.000000;3.018579
4017.000000;3.070707
4016.000000;3.103212
4015.000000;3.102311
4014.000000;3.070055
4013.000000;3.018225
4012.000000;2.964944
4011.000000;2.934231
4010.000000;2.940491
4009.000000;2.972819
4008.000000;2.999158
4007.000000;2.997567
4006.000000;2.976552
4005.000000;2.952555
4004.000000;2.932267
4003.000000;2.914803
4002.000000;2.904739
4001.000000;2.918279
4000.000000;2.961451
3999.000000;3.015218
3998.000000;3.050408
3997.000000;3.055192
3996.000000;3.042980
3995.000000;3.035320
3994.000000;3.042615
3993.000000;3.060410
3992.000000;3.081366
3991.000000;3.099605
3990.000000;3.109663
3989.000000;3.119163
3988.000000;3.140453
3987.000000;3.165075
3986.000000;3.169932
3985.000000;3.148980
3984.000000;3.115746
3983.000000;3.081802
3982.000000;3.053674
3981.000000;3.039639
3980.000000;3.048689
3979.000000;3.081958
3978.000000;3.127176
3977.000000;3.166915
3976.000000;3.194575
3975.000000;3.219297
3974.000000;3.251402
3973.000000;3.277613
3972.000000;3.268031
3971.000000;3.226544
3970.000000;3.193418
3969.000000;3.198792
3968.000000;3.244505
3967.000000;3.307171
3966.000000;3.354187
3965.000000;3.372536
3964.000000;3.374518
3963.000000;3.380557
3962.000000;3.408864
3961.000000;3.448266
3960.000000;3.442339
3959.000000;3.378796
3958.000000;3.313938
3957.000000;3.286110
3956.000000;3.296411
3955.000000;3.316348
3954.000000;3.316447
3953.000000;3.287366
3952.000000;3.235773
3951.000000;3.190503
3950.000000;3.184660
3949.000000;3.236644
3948.000000;3.344535
3947.000000;3.477319
3946.000000;3.571159
3945.000000;3.572142
3944.000000;3.493136
3943.000000;3.388199
3942.000000;3.305255
3941.000000;3.265662
3940.000000;3.267965
3939.000000;3.297219
3938.000000;3.342853
3937.000000;3.408836
3936.000000;3.503053
3935.000000;3.664190
3934.000000;3.795046
3933.000000;3.725697
3932.000000;3.596418
3931.000000;3.430749
3930.000000;3.321785
3929.000000;3.309636
3928.000000;3.372324
3927.000000;3.460670
3926.000000;3.432853
3925.000000;3.316074
3924.000000;3.255564
3923.000000;3.274326
3922.000000;3.338472
3921.000000;3.374422
3920.000000;3.349590
3919.000000;3.325373
3918.000000;3.335022
3917.000000;3.373215
3916.000000;3.434801
3915.000000;3.506475
3914.000000;3.589122
3913.000000;3.713832
3912.000000;3.993615
3911.000000;4.393057
3910.000000;4.465618
3909.000000;4.590110
3908.000000;4.318540
3907.000000;4.275498
3906.000000;4.056869
3905.000000;3.694011
3904.000000;3.553312
3903.000000;3.560115
3902.000000;3.655021
3901.000000;3.750161
3900.000000;3.760940
3899.000000;3.728378
3898.000000;3.722208
3897.000000;3.779294
3896.000000;3.898574
3895.000000;4.008116
3894.000000;4.025956
3893.000000;3.939491
3892.000000;3.755876
3891.000000;3.635767
3890.000000;3.656366
3889.000000;3.791613
3888.000000;4.117569
3887.000000;4.409429
3886.000000;3.938882
3885.000000;3.661510
3884.000000;3.582340
3883.000000;3.616571
3882.000000;3.712963
3881.000000;3.798268
3880.000000;3.785210
3879.000000;3.695244
3878.000000;3.654998
3877.000000;3.703929
3876.000000;3.806482
3875.000000;3.888225
3874.000000;3.853765
3873.000000;3.746124
3872.000000;3.681114
3871.000000;3.677019
3870.000000;3.696484
3869.000000;3.728397
3868.000000;3.805857
3867.000000;3.964918
3866.000000;4.126347
3865.000000;4.139060
3864.000000;4.213049
3863.000000;4.397112
3862.000000;4.358403
3861.000000;4.170995
3860.000000;4.034745
3859.000000;3.918505
3858.000000;3.763238
3857.000000;3.658678
3856.000000;3.608672
3855.000000;3.548555
3854.000000;3.499376
3853.000000;3.486106
3852.000000;3.517131
3851.000000;3.559149
3850.000000;3.563986
3849.000000;3.543711
3848.000000;3.643641
3847.000000;3.812692
3846.000000;3.682795
3845.000000;3.625234
3844.000000;3.751524
3843.000000;3.854645
3842.000000;3.814442
3841.000000;3.837214
3840.000000;4.021720
3839.000000;4.301767
3838.000000;4.317289
3837.000000;4.114723
3836.000000;4.190403
3835.000000;4.520842
3834.000000;4.096888
3833.000000;3.856422
3832.000000;3.913893
3831.000000;4.110083
3830.000000;4.459490
3829.000000;4.520124
3828.000000;4.377252
3827.000000;4.188559
3826.000000;3.929933
3825.000000;3.805963
3824.000000;3.856841
3823.000000;3.953020
3822.000000;3.829442
3821.000000;3.698503
3820.000000;3.658191
3819.000000;3.716276
3818.000000;3.803942
3817.000000;4.109791
3816.000000;4.722835
3815.000000;3.820534
3814.000000;3.648169
3813.000000;3.819551
3812.000000;3.788689
3811.000000;3.531694
3810.000000;3.447644
3809.000000;3.483305
3808.000000;3.528105
3807.000000;3.579925
3806.000000;3.642438
3805.000000;3.758059
3804.000000;3.862960
3803.000000;3.857883
3802.000000;3.744952
3801.000000;3.604199
3800.000000;3.514496
3799.000000;3.544633
3798.000000;3.682324
3797.000000;3.903671
3796.000000;3.893254
3795.000000;3.668058
3794.000000;3.635319
3793.000000;3.763502
3792.000000;3.895149
3791.000000;3.915138
3790.000000;3.886292
3789.000000;3.826868
3788.000000;3.771707
3787.000000;3.789031
3786.000000;3.801189
3785.000000;3.783378
3784.000000;3.910898
3783.000000;4.240549
3782.000000;4.660274
3781.000000;4.231444
3780.000000;3.719725
3779.000000;3.497882
3778.000000;3.434028
3777.000000;3.452844
3776.000000;3.501706
3775.000000;3.536534
3774.000000;3.580282
3773.000000;3.639319
3772.000000;3.656517
3771.000000;3.658429
3770.000000;3.634482
3769.000000;3.597806
3768.000000;3.665305
3767.000000;3.860473
3766.000000;4.233676
3765.000000;4.327997
3764.000000;3.942049
3763.000000;3.856143
3762.000000;3.967535
3761.000000;4.149087
3760.000000;4.494870
3759.000000;4.197838
3758.000000;3.766384
3757.000000;3.591304
3756.000000;3.518187
3755.000000;3.513491
3754.000000;3.560955
3753.000000;3.610914
3752.000000;3.725549
3751.000000;3.908960
3750.000000;3.959008
3749.000000;3.947564
3748.000000;3.859707
3747.000000;3.635897
3746.000000;3.626652
3745.000000;3.840832
3744.000000;3.803416
3743.000000;3.735789
3742.000000;3.984468
3741.000000;4.505923
3740.000000;4.220519
3739.000000;3.886789
3738.000000;3.743832
3737.000000;3.698812
3736.000000;3.741887
3735.000000;3.874536
3734.000000;4.148260
3733.000000;4.507024
3732.000000;4.043074
3731.000000;3.691992
3730.000000;3.589359
3729.000000;3.633036
3728.000000;3.990584
3727.000000;4.127451
3726.000000;3.724482
3725.000000;3.637247
3724.000000;3.641278
3723.000000;3.722713
3722.000000;3.921258
3721.000000;4.196735
3720.000000;3.980220
3719.000000;3.705214
3718.000000;3.601979
3717.000000;3.673322
3716.000000;4.132711
3715.000000;4.117001
3714.000000;3.755147
3713.000000;3.738695
3712.000000;3.842755
3711.000000;3.866639
3710.000000;3.798189
3709.000000;3.847417
3708.000000;3.921917
3707.000000;3.837674
3706.000000;3.832240
3705.000000;3.983459
3704.000000;4.175192
3703.000000;4.196375
3702.000000;4.032560
3701.000000;3.917807
3700.000000;3.920964
3699.000000;4.132342
3698.000000;4.185146
3697.000000;4.019876
3696.000000;4.108543
3695.000000;3.932468
3694.000000;3.647966
3693.000000;3.596639
3692.000000;3.806583
3691.000000;3.857067
3690.000000;3.588578
3689.000000;3.529012
3688.000000;3.568332
3687.000000;3.595799
3686.000000;3.603493
3685.000000;3.811243
3684.000000;4.208449
3683.000000;3.783053
3682.000000;3.555766
3681.000000;3.470515
3680.000000;3.386452
3679.000000;3.318763
3678.000000;3.299766
3677.000000;3.397086
3676.000000;3.750149
3675.000000;4.226019
3674.000000;4.022584
3673.000000;4.054630
3672.000000;4.594028
3671.000000;4.345231
3670.000000;3.731813
3669.000000;3.587562
3668.000000;3.646957
3667.000000;3.902424
3666.000000;4.347731
3665.000000;4.117072
3664.000000;3.812500
3663.000000;3.588070
3662.000000;3.486288
3661.000000;3.517646
3660.000000;3.741536
3659.000000;4.008245
3658.000000;3.722206
3657.000000;3.574568
3656.000000;3.597211
3655.000000;3.675167
3654.000000;3.745163
3653.000000;3.737592
3652.000000;3.723414
3651.000000;3.759063
3650.000000;3.916239
3649.000000;4.183365
3648.000000;4.442422
3647.000000;4.918331
3646.000000;4.516772
3645.000000;3.921759
3644.000000;3.690435
3643.000000;3.609463
3642.000000;3.647022
3641.000000;3.767543
3640.000000;3.781041
3639.000000;3.736478
3638.000000;3.852697
3637.000000;4.156665
3636.000000;4.082707
3635.000000;3.751194
3634.000000;3.549835
3633.000000;3.481716
3632.000000;3.561418
3631.000000;3.692354
3630.000000;3.663295
3629.000000;3.638982
3628.000000;3.744945
3627.000000;3.919366
3626.000000;4.047289
3625.000000;4.043048
3624.000000;4.016757
3623.000000;3.918903
3622.000000;3.788638
3621.000000;3.837434
3620.000000;4.026017
3619.000000;4.103728
3618.000000;4.019375
3617.000000;3.965137
3616.000000;3.958844
3615.000000;4.080895
3614.000000;4.378136
3613.000000;4.380336
3612.000000;4.757603
3611.000000;4.272097
3610.000000;3.851208
3609.000000;3.801474
3608.000000;3.934144
3607.000000;4.117646
3606.000000;4.209920
3605.000000;4.536558
3604.000000;4.444648
3603.000000;4.117257
3602.000000;4.057678
3601.000000;3.926985
3600.000000;3.692174
3599.000000;3.543058
3598.000000;3.543570
3597.000000;3.713189
3596.000000;3.775779
3595.000000;3.660283
3594.000000;3.756814
3593.000000;3.975020
3592.000000;3.885080
3591.000000;3.726664
3590.000000;3.677526
3589.000000;3.685097
3588.000000;3.727713
3587.000000;3.808573
3586.000000;3.918706
3585.000000;4.002441
3584.000000;3.971671
3583.000000;3.893105
3582.000000;3.808029
3581.000000;3.767961
3580.000000;3.838933
3579.000000;4.146731
3578.000000;4.942330
3577.000000;4.803734
3576.000000;4.500508
3575.000000;4.206916
3574.000000;3.971474
3573.000000;3.838726
3572.000000;3.807628
3571.000000;3.836541
3570.000000;4.018811
3569.000000;4.252329
3568.000000;3.984418
3567.000000;3.826651
3566.000000;3.831425
3565.000000;3.943127
3564.000000;4.149904
3563.000000;4.093326
3562.000000;3.997355
3561.000000;4.273394
3560.000000;4.203338
3559.000000;3.911442
3558.000000;3.925067
3557.000000;4.008936
3556.000000;4.097484
3555.000000;4.209489
3554.000000;4.325262
3553.000000;4.511883
3552.000000;4.049216
3551.000000;3.721545
3550.000000;3.598359
3549.000000;3.610637
3548.000000;3.738595
3547.000000;3.887053
3546.000000;4.031319
3545.000000;3.990486
3544.000000;3.818465
3543.000000;3.920033
3542.000000;4.071470
3541.000000;3.823488
3540.000000;3.713487
3539.000000;3.759656
3538.000000;3.920535
3537.000000;3.895654
3536.000000;3.632307
3535.000000;3.514090
3534.000000;3.551999
3533.000000;3.762954
3532.000000;4.202312
3531.000000;4.049399
3530.000000;3.649645
3529.000000;3.447580
3528.000000;3.408315
3527.000000;3.515166
3526.000000;3.816563
3525.000000;4.363056
3524.000000;4.102626
3523.000000;3.913599
3522.000000;3.819993
3521.000000;3.740174
3520.000000;3.721575
3519.000000;3.723237
3518.000000;3.726575
3517.000000;3.751908
3516.000000;3.785398
3515.000000;3.779472
3514.000000;3.762846
3513.000000;3.777392
3512.000000;4.137461
3511.000000;4.345684
3510.000000;3.789686
3509.000000;3.627757
3508.000000;3.589769
3507.000000;3.593860
3506.000000;3.599919
3505.000000;3.625839
3504.000000;3.710407
3503.000000;3.821924
3502.000000;3.921797
3501.000000;4.012286
3500.000000;4.104985
3499.000000;3.981037
3498.000000;3.710402
3497.000000;3.522841
3496.000000;3.493803
3495.000000;3.668391
3494.000000;3.861998
3493.000000;3.760167
3492.000000;3.728320
3491.000000;3.663598
3490.000000;3.556412
3489.000000;3.520198
3488.000000;3.559306
3487.000000;3.679886
3486.000000;3.993005
3485.000000;4.247598
3484.000000;3.922591
3483.000000;3.783302
3482.000000;3.770730
3481.000000;3.914584
3480.000000;4.207075
3479.000000;4.046386
3478.000000;3.846929
3477.000000;3.745156
3476.000000;3.649992
3475.000000;3.591791
3474.000000;3.555236
3473.000000;3.521790
3472.000000;3.502059
3471.000000;3.478645
3470.000000;3.457931
3469.000000;3.505131
3468.000000;3.641674
3467.000000;3.728355
3466.000000;3.656024
3465.000000;3.573847
3464.000000;3.504342
3463.000000;3.440054
3462.000000;3.413685
3461.000000;3.479773
3460.000000;3.651053
3459.000000;3.774514
3458.000000;3.785583
3457.000000;3.869859
3456.000000;4.192975
3455.000000;4.093794
3454.000000;3.702866
3453.000000;3.566182
3452.000000;3.593271
3451.000000;3.763720
3450.000000;3.971385
3449.000000;3.968414
3448.000000;3.842280
3447.000000;3.724611
3446.000000;3.645773
3445.000000;3.620517
3444.000000;3.705719
3443.000000;3.946522
3442.000000;3.834895
3441.000000;3.611697
3440.000000;3.580049
3439.000000;3.577941
3438.000000;3.537911
3437.000000;3.572893
3436.000000;3.933392
3435.000000;4.097319
3434.000000;3.555993
3433.000000;3.435802
3432.000000;3.462176
3431.000000;3.601216
3430.000000;3.817098
3429.000000;4.052530
3428.000000;4.080874
3427.000000;3.783992
3426.000000;3.534974
3425.000000;3.405634
3424.000000;3.332580
3423.000000;3.297344
3422.000000;3.332194
3421.000000;3.515163
3420.000000;4.061673
3419.000000;3.852154
3418.000000;3.624896
3417.000000;3.613834
3416.000000;3.686532
3415.000000;3.839076
3414.000000;3.795695
3413.000000;3.627549
3412.000000;3.520041
3411.000000;3.457612
3410.000000;3.454612
3409.000000;3.538892
3408.000000;3.667109
3407.000000;3.705231
3406.000000;3.628554
3405.000000;3.524971
3404.000000;3.442758
3403.000000;3.382586
3402.000000;3.351380
3401.000000;3.348838
3400.000000;3.355283
3399.000000;3.375652
3398.000000;3.458381
3397.000000;3.631549
3396.000000;3.718595
3395.000000;3.661196
3394.000000;3.767329
3393.000000;4.390156
3392.000000;4.054362
3391.000000;3.963656
3390.000000;3.963188
3389.000000;3.689913
3388.000000;3.594553
3387.000000;3.709873
3386.000000;4.131931
3385.000000;3.874577
3384.000000;3.514764
3383.000000;3.393592
3382.000000;3.395122
3381.000000;3.537214
3380.000000;3.974480
3379.000000;4.307286
3378.000000;3.856955
3377.000000;3.732647
3376.000000;3.686806
3375.000000;3.711583
3374.000000;3.723368
3373.000000;3.662403
3372.000000;3.582170
3371.000000;3.553667
3370.000000;3.579923
3369.000000;3.649801
3368.000000;3.778830
3367.000000;4.081429
3366.000000;4.404203
3365.000000;3.997656
3364.000000;3.872592
3363.000000;3.904063
3362.000000;3.972022
3361.000000;4.014519
3360.000000;4.033229
3359.000000;4.008497
3358.000000;3.887262
3357.000000;3.720568
3356.000000;3.595534
3355.000000;3.571093
3354.000000;3.770600
3353.000000;4.071700
3352.000000;3.859699
3351.000000;3.860488
3350.000000;4.171898
3349.000000;4.129210
3348.000000;3.850805
3347.000000;3.725298
3346.000000;3.657141
3345.000000;3.671136
3344.000000;3.784412
3343.000000;3.983614
3342.000000;3.846106
3341.000000;3.612146
3340.000000;3.481386
3339.000000;3.421268
3338.000000;3.423214
3337.000000;3.471715
3336.000000;3.531537
3335.000000;3.557371
3334.000000;3.552174
3333.000000;3.581567
3332.000000;3.764182
3331.000000;4.139064
3330.000000;3.808639
3329.000000;3.517664
3328.000000;3.409769
3327.000000;3.419324
3326.000000;3.508470
3325.000000;3.602050
3324.000000;3.648304
3323.000000;3.605374
3322.000000;3.529707
3321.000000;3.541098
3320.000000;3.678577
3319.000000;4.100423
3318.000000;4.105806
3317.000000;3.892794
3316.000000;4.060424
3315.000000;4.494190
3314.000000;4.138220
3313.000000;4.004993
3312.000000;4.066684
3311.000000;4.220698
3310.000000;4.486443
3309.000000;4.419063
3308.000000;4.069743
3307.000000;3.848562
3306.000000;3.709828
3305.000000;3.665037
3304.000000;3.714172
3303.000000;3.724216
3302.000000;3.721986
3301.000000;3.880660
3300.000000;3.854234
3299.000000;3.607364
3298.000000;3.540976
3297.000000;3.612156
3296.000000;3.778492
3295.000000;3.772712
3294.000000;3.651849
3293.000000;3.620521
3292.000000;3.685672
3291.000000;3.831317
3290.000000;4.292513
3289.000000;4.194281
3288.000000;3.855834
3287.000000;3.816950
3286.000000;3.883694
3285.000000;3.951680
3284.000000;3.952940
3283.000000;3.766885
3282.000000;3.640474
3281.000000;3.632087
3280.000000;3.693655
3279.000000;3.746344
3278.000000;3.756547
3277.000000;3.770530
3276.000000;3.804239
3275.000000;3.886574
3274.000000;4.091354
3273.000000;3.907280
3272.000000;3.667809
3271.000000;3.712003
3270.000000;3.883585
3269.000000;3.813001
3268.000000;3.656061
3267.000000;3.621138
3266.000000;3.652161
3265.000000;3.743763
3264.000000;3.876110
3263.000000;3.974003
3262.000000;3.901684
3261.000000;3.692654
3260.000000;3.516895
3259.000000;3.437778
3258.000000;3.455250
3257.000000;3.538999
3256.000000;3.608547
3255.000000;3.589463
3254.000000;3.517172
3253.000000;3.449957
3252.000000;3.436915
3251.000000;3.514573
3250.000000;3.699737
3249.000000;3.919686
3248.000000;3.925573
3247.000000;3.788307
3246.000000;3.720868
3245.000000;3.761324
3244.000000;4.048991
3243.000000;4.439484
3242.000000;3.903018
3241.000000;3.602497
3240.000000;3.446355
3239.000000;3.400383
3238.000000;3.464273
3237.000000;3.736066
3236.000000;3.877182
3235.000000;3.682402
3234.000000;3.744828
3233.000000;4.300511
3232.000000;3.848101
3231.000000;3.699202
3230.000000;3.771380
3229.000000;3.849050
3228.000000;3.826060
3227.000000;3.728280
3226.000000;3.595428
3225.000000;3.465662
3224.000000;3.415629
3223.000000;3.482430
3222.000000;3.622242
3221.000000;3.662399
3220.000000;3.570172
3219.000000;3.503449
3218.000000;3.502892
3217.000000;3.541511
3216.000000;3.601882
3215.000000;3.669700
3214.000000;3.706572
3213.000000;3.743024
3212.000000;3.854452
3211.000000;4.002442
3210.000000;3.974009
3209.000000;3.790817
3208.000000;3.625625
3207.000000;3.527229
3206.000000;3.505011
3205.000000;3.557156
3204.000000;3.684833
3203.000000;3.902322
3202.000000;4.247355
3201.000000;3.867664
3200.000000;3.672030
3199.000000;3.723493
3198.000000;3.970827
3197.000000;3.865289
3196.000000;3.853681
3195.000000;4.231516
3194.000000;4.076711
3193.000000;3.744593
3192.000000;3.706173
3191.000000;3.733524
3190.000000;3.797523
3189.000000;3.751173
3188.000000;3.563721
3187.000000;3.418124
3186.000000;3.385104
3185.000000;3.471054
3184.000000;3.629074
3183.000000;3.685586
3182.000000;3.645574
3181.000000;3.592315
3180.000000;3.538226
3179.000000;3.538302
3178.000000;3.635297
3177.000000;3.789757
3176.000000;3.849004
3175.000000;3.901307
3174.000000;4.242467
3173.000000;4.212007
3172.000000;3.754394
3171.000000;3.691274
3170.000000;3.814437
3169.000000;3.938679
3168.000000;3.849062
3167.000000;3.823080
3166.000000;3.926251
3165.000000;4.274256
3164.000000;4.537729
3163.000000;4.340460
3162.000000;4.080219
3161.000000;3.700363
3160.000000;3.501380
3159.000000;3.404703
3158.000000;3.355190
3157.000000;3.329180
3156.000000;3.325533
3155.000000;3.374525
3154.000000;3.505977
3153.000000;3.654168
3152.000000;3.661553
3151.000000;3.658193
3150.000000;3.771354
3149.000000;3.959466
3148.000000;3.982978
3147.000000;4.072328
3146.000000;3.951888
3145.000000;3.689320
3144.000000;3.556180
3143.000000;3.473926
3142.000000;3.409350
3141.000000;3.385049
3140.000000;3.427116
3139.000000;3.527757
3138.000000;3.714131
3137.000000;4.041490
3136.000000;3.989439
3135.000000;3.755016
3134.000000;3.672964
3133.000000;3.640026
3132.000000;3.660203
3131.000000;3.723207
3130.000000;3.846342
3129.000000;4.027470
3128.000000;4.109631
3127.000000;3.997072
3126.000000;3.849787
3125.000000;3.700804
3124.000000;3.556514
3123.000000;3.469113
3122.000000;3.487840
3121.000000;3.630209
3120.000000;3.755443
3119.000000;3.707401
3118.000000;3.768516
3117.000000;4.149381
3116.000000;4.386586
3115.000000;3.980359
3114.000000;4.196207
3113.000000;4.107028
3112.000000;3.843053
3111.000000;3.786800
3110.000000;3.686078
3109.000000;3.517319
3108.000000;3.407953
3107.000000;3.436825
3106.000000;3.638329
3105.000000;3.906696
3104.000000;3.798489
3103.000000;3.622432
3102.000000;3.592748
3101.000000;3.722124
3100.000000;4.173196
3099.000000;4.579668
3098.000000;4.272123
3097.000000;3.993863
3096.000000;3.916433
3095.000000;4.248743
3094.000000;4.126700
3093.000000;3.836064
3092.000000;3.689981
3091.000000;3.514320
3090.000000;3.420030
3089.000000;3.431449
3088.000000;3.524396
3087.000000;3.569383
3086.000000;3.473694
3085.000000;3.414153
3084.000000;3.473595
3083.000000;3.695511
3082.000000;4.291949
3081.000000;4.281808
3080.000000;4.051847
3079.000000;4.319951
3078.000000;4.119299
3077.000000;3.981387
3076.000000;4.011039
3075.000000;4.130241
3074.000000;4.514462
3073.000000;4.375312
3072.000000;4.106886
3071.000000;3.983528
3070.000000;3.999355
3069.000000;4.308141
3068.000000;3.988089
3067.000000;3.754461
3066.000000;3.696691
3065.000000;3.688050
3064.000000;3.677754
3063.000000;3.707067
3062.000000;3.851889
3061.000000;4.070610
3060.000000;4.060190
3059.000000;4.018314
3058.000000;4.125483
3057.000000;4.265967
3056.000000;4.161251
3055.000000;3.948075
3054.000000;3.776871
3053.000000;3.633903
3052.000000;3.533077
3051.000000;3.542975
3050.000000;3.661593
3049.000000;4.418843
3048.000000;4.032987
3047.000000;3.638695
3046.000000;3.627108
3045.000000;3.745688
3044.000000;3.875825
3043.000000;3.843007
3042.000000;3.807846
3041.000000;3.744125
3040.000000;3.688694
3039.000000;3.800130
3038.000000;4.291720
3037.000000;3.890311
3036.000000;3.584568
3035.000000;3.500379
3034.000000;3.536196
3033.000000;3.659465
3032.000000;3.807838
3031.000000;3.845397
3030.000000;3.754714
3029.000000;3.662007
3028.000000;3.631538
3027.000000;3.681603
3026.000000;3.598706
3025.000000;3.454631
3024.000000;3.466653
3023.000000;3.719748
3022.000000;4.006188
3021.000000;3.860422
3020.000000;3.896965
3019.000000;4.337980
3018.000000;3.960156
3017.000000;3.684483
3016.000000;3.614872
3015.000000;3.551578
3014.000000;3.481405
3013.000000;3.509698
3012.000000;3.704669
3011.000000;3.911747
3010.000000;3.741265
3009.000000;3.640932
3008.000000;3.653087
3007.000000;3.801117
3006.000000;4.218218
3005.000000;4.123564
3004.000000;3.773348
3003.000000;3.794195
3002.000000;3.759377
3001.000000;3.570146
3000.000000;3.498920
2999.000000;3.585407
2998.000000;3.891154
2997.000000;3.902907
2996.000000;3.634768
2995.000000;3.515901
2994.000000;3.448627
2993.000000;3.426206
2992.000000;3.463637
2991.000000;3.583529
2990.000000;3.794217
2989.000000;4.095590
2988.000000;4.258040
2987.000000;3.947747
2986.000000;3.786632
2985.000000;3.797894
2984.000000;3.796808
2983.000000;3.700764
2982.000000;3.641157
2981.000000;3.632258
2980.000000;3.673184
2979.000000;3.867726
2978.000000;4.364450
2977.000000;4.192239
2976.000000;3.916366
2975.000000;3.901501
2974.000000;3.903365
2973.000000;3.874131
2972.000000;3.812358
2971.000000;3.767983
2970.000000;3.760404
2969.000000;3.699465
2968.000000;3.574835
2967.000000;3.514336
2966.000000;3.622599
2965.000000;3.827720
2964.000000;3.547875
2963.000000;3.358807
2962.000000;3.347413
2961.000000;3.429133
2960.000000;3.563290
2959.000000;3.753937
2958.000000;4.171124
2957.000000;4.085760
2956.000000;3.676649
2955.000000;3.521502
2954.000000;3.475351
2953.000000;3.513082
2952.000000;3.620846
2951.000000;3.863357
2950.000000;4.013276
2949.000000;3.773459
2948.000000;3.651802
2947.000000;3.586101
2946.000000;3.534218
2945.000000;3.526722
2944.000000;3.592288
2943.000000;3.800293
2942.000000;4.026621
2941.000000;3.830524
2940.000000;3.676965
2939.000000;3.641600
2938.000000;3.625383
2937.000000;3.626948
2936.000000;3.679266
2935.000000;3.820503
2934.000000;3.911317
2933.000000;3.823413
2932.000000;3.764051
2931.000000;3.869709
2930.000000;4.300811
2929.000000;4.197204
2928.000000;3.920508
2927.000000;3.961117
2926.000000;3.952289
2925.000000;3.831044
2924.000000;4.047962
2923.000000;4.214098
2922.000000;3.693606
2921.000000;3.548824
2920.000000;3.621049
2919.000000;3.949756
2918.000000;4.112645
2917.000000;3.843194
2916.000000;3.717624
2915.000000;3.653728
2914.000000;3.695264
2913.000000;3.862529
2912.000000;4.020494
2911.000000;3.955841
2910.000000;3.735122
2909.000000;3.502078
2908.000000;3.369822
2907.000000;3.353479
2906.000000;3.426045
2905.000000;3.534561
2904.000000;3.606991
2903.000000;3.647675
2902.000000;3.694838
2901.000000;3.683320
2900.000000;3.603464
2899.000000;3.682162
2898.000000;3.959558
2897.000000;3.752570
2896.000000;3.526340
2895.000000;3.492628
2894.000000;3.503295
2893.000000;3.564266
2892.000000;3.657933
2891.000000;3.717218
2890.000000;3.789945
2889.000000;3.901057
2888.000000;3.923378
2887.000000;3.894682
2886.000000;3.873813
2885.000000;3.761119
2884.000000;3.610141
2883.000000;3.519908
2882.000000;3.525954
2881.000000;3.618575
2880.000000;3.806779
2879.000000;4.245469
2878.000000;4.322691
2877.000000;3.969787
2876.000000;3.973169
2875.000000;3.924300
2874.000000;3.684597
2873.000000;3.545241
2872.000000;3.524302
2871.000000;3.574675
2870.000000;3.582077
2869.000000;3.533859
2868.000000;3.546409
2867.000000;3.758802
2866.000000;4.140686
2865.000000;4.170319
2864.000000;4.212314
2863.000000;3.975695
2862.000000;3.746004
2861.000000;3.640952
2860.000000;3.548051
2859.000000;3.522105
2858.000000;3.591608
2857.000000;3.799109
2856.000000;3.995948
2855.000000;3.968259
2854.000000;3.849242
2853.000000;3.720203
2852.000000;3.731974
2851.000000;3.972586
2850.000000;4.169288
2849.000000;3.938991
2848.000000;3.885429
2847.000000;3.931477
2846.000000;3.863642
2845.000000;3.738965
2844.000000;3.670358
2843.000000;3.709429
2842.000000;4.099179
2841.000000;4.303557
2840.000000;3.900399
2839.000000;4.039300
2838.000000;4.567143
2837.000000;4.616287
2836.000000;4.201113
2835.000000;4.269451
2834.000000;4.154040
2833.000000;3.786234
2832.000000;3.649291
2831.000000;3.656980
2830.000000;3.770732
2829.000000;3.913142
2828.000000;3.929604
2827.000000;3.890704
2826.000000;4.015418
2825.000000;4.033470
2824.000000;3.715289
2823.000000;3.569917
2822.000000;3.631358
2821.000000;3.789973
2820.000000;3.736192
2819.000000;3.634664
2818.000000;3.726943
2817.000000;4.157672
2816.000000;4.072265
2815.000000;3.715181
2814.000000;3.779818
2813.000000;3.987072
2812.000000;3.877809
2811.000000;3.652823
2810.000000;3.522270
2809.000000;3.454437
2808.000000;3.444047
2807.000000;3.533674
2806.000000;3.826925
2805.000000;3.990783
2804.000000;3.805368
2803.000000;3.881999
2802.000000;4.050817
2801.000000;3.909777
2800.000000;3.785359
2799.000000;3.722919
2798.000000;3.653780
2797.000000;3.629099
2796.000000;3.721675
2795.000000;3.959353
2794.000000;4.014828
2793.000000;3.910617
2792.000000;4.054144
2791.000000;4.168150
2790.000000;4.220537
2789.000000;4.495618
2788.000000;4.150773
2787.000000;3.996583
2786.000000;4.255761
2785.000000;4.731691
2784.000000;4.446060
2783.000000;4.230035
2782.000000;4.240465
2781.000000;4.348369
2780.000000;4.245280
2779.000000;4.032299
2778.000000;3.948725
2777.000000;4.011699
2776.000000;4.043449
2775.000000;3.808053
2774.000000;3.609586
2773.000000;3.531473
2772.000000;3.537591
2771.000000;3.598573
2770.000000;3.705318
2769.000000;3.788926
2768.000000;3.789493
2767.000000;3.756293
2766.000000;3.718921
2765.000000;3.712390
2764.000000;3.658648
2763.000000;3.604157
2762.000000;3.671498
2761.000000;4.018118
2760.000000;4.322718
2759.000000;3.934217
2758.000000;3.744441
2757.000000;3.697010
2756.000000;3.707244
2755.000000;3.821554
2754.000000;4.380897
2753.000000;4.087447
2752.000000;3.719690
2751.000000;3.727386
2750.000000;3.765984
2749.000000;3.694973
2748.000000;3.575038
2747.000000;3.528795
2746.000000;3.557337
2745.000000;3.577526
2744.000000;3.518568
2743.000000;3.463629
2742.000000;3.484382
2741.000000;3.578789
2740.000000;3.749224
2739.000000;4.003349
2738.000000;4.291510
2737.000000;4.327908
2736.000000;4.096352
2735.000000;3.831235
2734.000000;3.620240
2733.000000;3.484879
2732.000000;3.445112
2731.000000;3.505393
2730.000000;3.681589
2729.000000;4.079610
2728.000000;4.241436
2727.000000;3.959454
2726.000000;3.937040
2725.000000;4.155499
2724.000000;4.271752
2723.000000;4.015968
2722.000000;3.890527
2721.000000;3.732536
2720.000000;3.525789
2719.000000;3.417155
2718.000000;3.417612
2717.000000;3.488340
2716.000000;3.527534
2715.000000;3.507624
2714.000000;3.538718
2713.000000;3.678919
2712.000000;3.960995
2711.000000;4.139472
2710.000000;3.942538
2709.000000;3.846549
2708.000000;3.786746
2707.000000;3.714641
2706.000000;3.708637
2705.000000;3.728720
2704.000000;3.723354
2703.000000;3.724922
2702.000000;3.827778
2701.000000;3.965717
2700.000000;4.160969
2699.000000;4.286095
2698.000000;3.870481
2697.000000;3.676396
2696.000000;3.726053
2695.000000;4.011359
2694.000000;4.171566
2693.000000;3.861759
2692.000000;3.747917
2691.000000;3.769766
2690.000000;3.902387
2689.000000;4.143399
2688.000000;4.542512
2687.000000;5.232092
2686.000000;5.118216
2685.000000;4.836405
2684.000000;4.449441
2683.000000;4.549558
2682.000000;4.262630
2681.000000;3.906013
2680.000000;3.825100
2679.000000;3.903641
2678.000000;4.238519
2677.000000;4.184426
2676.000000;3.855957
2675.000000;3.760936
2674.000000;3.828280
2673.000000;4.013515
2672.000000;3.884555
2671.000000;3.707810
2670.000000;3.682496
2669.000000;3.755286
2668.000000;4.089198
2667.000000;4.238426
2666.000000;3.783684
2665.000000;3.611373
2664.000000;3.611219
2663.000000;3.724939
2662.000000;3.915431
2661.000000;4.046635
2660.000000;4.270194
2659.000000;4.799728
2658.000000;4.560222
2657.000000;4.324067
2656.000000;4.312942
2655.000000;3.972894
2654.000000;3.678145
2653.000000;3.570347
2652.000000;3.613113
2651.000000;3.949564
2650.000000;4.321851
2649.000000;3.913193
2648.000000;3.762784
2647.000000;3.751411
2646.000000;3.736393
2645.000000;3.733804
2644.000000;3.743066
2643.000000;3.875531
2642.000000;4.370797
2641.000000;4.219675
2640.000000;3.861325
2639.000000;3.827470
2638.000000;3.876153
2637.000000;4.076150
2636.000000;4.561213
2635.000000;4.132725
2634.000000;3.798646
2633.000000;3.709453
2632.000000;3.709117
2631.000000;3.733998
2630.000000;3.749010
2629.000000;3.798343
2628.000000;3.874909
2627.000000;3.983226
2626.000000;4.149055
2625.000000;4.169670
2624.000000;3.969761
2623.000000;3.860793
2622.000000;3.785365
2621.000000;3.761585
2620.000000;3.822135
2619.000000;4.008645
2618.000000;4.512895
2617.000000;4.163714
2616.000000;3.798740
2615.000000;3.735687
2614.000000;3.817596
2613.000000;3.846256
2612.000000;3.732253
2611.000000;3.737592
2610.000000;3.833801
2609.000000;3.803296
2608.000000;3.711982
2607.000000;3.777549
2606.000000;4.106755
2605.000000;4.053509
2604.000000;3.812902
2603.000000;3.874483
2602.000000;3.833921
2601.000000;3.626480
2600.000000;3.584961
2599.000000;3.685510
2598.000000;3.904575
2597.000000;4.033100
2596.000000;4.008594
2595.000000;4.585347
2594.000000;4.384755
2593.000000;3.860023
2592.000000;3.777456
2591.000000;3.658406
2590.000000;3.570521
2589.000000;3.558205
2588.000000;3.669424
2587.000000;3.934885
2586.000000;3.855983
2585.000000;3.706066
2584.000000;3.778207
2583.000000;3.948630
2582.000000;3.908919
2581.000000;3.752965
2580.000000;3.722861
2579.000000;3.761101
2578.000000;4.115080
2577.000000;4.459811
2576.000000;3.748361
2575.000000;3.543713
2574.000000;3.490189
2573.000000;3.556508
2572.000000;3.746834
2571.000000;3.853018
2570.000000;3.871630
2569.000000;3.832602
2568.000000;3.821670
2567.000000;3.973728
2566.000000;4.069977
2565.000000;3.902113
2564.000000;3.766892
2563.000000;3.689980
2562.000000;3.681133
2561.000000;3.740677
2560.000000;3.804327
2559.000000;3.772672
2558.000000;3.660654
2557.000000;3.584602
2556.000000;3.598456
2555.000000;3.768190
2554.000000;4.069685
2553.000000;3.980825
2552.000000;3.766503
2551.000000;3.645506
2550.000000;3.593636
2549.000000;3.668463
2548.000000;3.793796
2547.000000;3.720665
2546.000000;3.617472
2545.000000;3.616641
2544.000000;3.623361
2543.000000;3.603320
2542.000000;3.613574
2541.000000;3.693839
2540.000000;3.810782
2539.000000;3.891425
2538.000000;3.904781
2537.000000;3.942834
2536.000000;4.039876
2535.000000;3.914482
2534.000000;3.692899
2533.000000;3.567050
2532.000000;3.539175
2531.000000;3.608763
2530.000000;3.707200
2529.000000;3.637976
2528.000000;3.492624
2527.000000;3.470778
2526.000000;3.647872
2525.000000;4.081364
2524.000000;4.611223
2523.000000;4.430279
2522.000000;3.998109
2521.000000;3.784108
2520.000000;3.746800
2519.000000;3.888526
2518.000000;4.205359
2517.000000;4.139019
2516.000000;3.976679
2515.000000;3.989704
2514.000000;3.993441
2513.000000;4.006715
2512.000000;3.895997
2511.000000;3.805491
2510.000000;3.777448
2509.000000;3.715735
2508.000000;3.622964
2507.000000;3.717855
2506.000000;4.368211
2505.000000;3.982809
2504.000000;3.652351
2503.000000;3.613045
2502.000000;3.591065
2501.000000;3.587801
2500.000000;3.638990
2499.000000;3.873102
2498.000000;3.975277
2497.000000;3.969111
2496.000000;4.282614
2495.000000;3.763888
2494.000000;3.420652
2493.000000;3.326727
2492.000000;3.366044
2491.000000;3.548821
2490.000000;3.986155
2489.000000;4.351446
2488.000000;4.119739
2487.000000;4.222300
2486.000000;4.222756
2485.000000;4.012225
2484.000000;3.824681
2483.000000;3.697003
2482.000000;3.615169
2481.000000;3.523061
2480.000000;3.453463
2479.000000;3.471497
2478.000000;3.612066
2477.000000;3.963893
2476.000000;4.116086
2475.000000;3.804002
2474.000000;3.760199
2473.000000;3.923168
2472.000000;4.171130
2471.000000;4.164462
2470.000000;4.054131
2469.000000;4.140575
2468.000000;4.308719
2467.000000;4.014025
2466.000000;3.718989
2465.000000;3.597468
2464.000000;3.620009
2463.000000;3.756710
2462.000000;3.904776
2461.000000;4.238099
2460.000000;4.059231
2459.000000;3.818512
2458.000000;4.088644
2457.000000;3.863565
2456.000000;3.541302
2455.000000;3.488084
2454.000000;3.597007
2453.000000;3.969433
2452.000000;4.289578
2451.000000;3.990610
2450.000000;3.933191
2449.000000;3.980869
2448.000000;3.977736
2447.000000;3.872933
2446.000000;3.717234
2445.000000;3.607734
2444.000000;3.571916
2443.000000;3.594367
2442.000000;3.643594
2441.000000;3.713382
2440.000000;3.820514
2439.000000;3.969864
2438.000000;4.103303
2437.000000;4.364006
2436.000000;4.170301
2435.000000;3.811119
2434.000000;3.706111
2433.000000;3.810807
2432.000000;4.396053
2431.000000;4.028094
2430.000000;3.674545
2429.000000;3.656048
2428.000000;3.770332
2427.000000;4.202711
2426.000000;4.347195
2425.000000;4.089886
2424.000000;4.196252
2423.000000;4.235013
2422.000000;4.034013
2421.000000;3.949629
2420.000000;3.944756
2419.000000;3.913060
2418.000000;3.943173
2417.000000;4.112115
2416.000000;4.017143
2415.000000;3.781602
2414.000000;3.718666
2413.000000;3.763684
2412.000000;3.797039
2411.000000;3.719475
2410.000000;3.674721
2409.000000;3.710768
2408.000000;3.731013
2407.000000;3.681611
2406.000000;3.730544
2405.000000;4.130751
2404.000000;4.034294
2403.000000;3.761200
2402.000000;3.947943
2401.000000;4.336488
2400.000000;3.867004
2399.000000;3.675910
2398.000000;3.744545
2397.000000;4.103093
2396.000000;4.360958
2395.000000;3.899551
2394.000000;3.681498
2393.000000;3.548623
2392.000000;3.538985
2391.000000;3.695570
2390.000000;3.852266
2389.000000;3.779674
2388.000000;3.726530
2387.000000;3.668317
2386.000000;3.604408
2385.000000;3.571972
2384.000000;3.566376
2383.000000;3.623037
2382.000000;3.774679
2381.000000;4.041902
2380.000000;4.129708
2379.000000;3.851066
2378.000000;3.677756
2377.000000;3.677394
2376.000000;3.846487
2375.000000;3.860006
2374.000000;3.720002
2373.000000;3.730734
2372.000000;3.810036
2371.000000;3.871937
2370.000000;3.914395
2369.000000;3.768344
2368.000000;3.585109
2367.000000;3.538133
2366.000000;3.577975
2365.000000;3.608737
2364.000000;3.667457
2363.000000;3.835858
2362.000000;4.107358
2361.000000;4.072429
2360.000000;3.801434
2359.000000;3.650311
2358.000000;3.591031
2357.000000;3.603445
2356.000000;3.681114
2355.000000;3.763913
2354.000000;3.783408
2353.000000;3.713776
2352.000000;3.635698
2351.000000;3.589061
2350.000000;3.701675
2349.000000;4.163182
2348.000000;3.858522
2347.000000;3.649205
2346.000000;3.606556
2345.000000;3.552411
2344.000000;3.602038
2343.000000;3.722269
2342.000000;3.729693
2341.000000;3.771142
2340.000000;4.039675
2339.000000;4.140415
2338.000000;3.724036
2337.000000;3.592887
2336.000000;3.618348
2335.000000;3.774854
2334.000000;4.066930
2333.000000;4.344531
2332.000000;4.315370
2331.000000;4.000702
2330.000000;3.635321
2329.000000;3.426818
2328.000000;3.349292
2327.000000;3.406080
2326.000000;3.592541
2325.000000;3.928110
2324.000000;4.432715
2323.000000;4.203897
2322.000000;3.826338
2321.000000;3.610401
2320.000000;3.507130
2319.000000;3.503340
2318.000000;3.548695
2317.000000;3.673454
2316.000000;3.936640
2315.000000;3.771754
2314.000000;3.550442
2313.000000;3.511749
2312.000000;3.562394
2311.000000;3.596711
2310.000000;3.525962
2309.000000;3.437033
2308.000000;3.366435
2307.000000;3.327159
2306.000000;3.369576
2305.000000;3.533571
2304.000000;3.694894
2303.000000;3.720113
2302.000000;3.976631
2301.000000;4.276917
2300.000000;3.736121
2299.000000;3.439096
2298.000000;3.290875
2297.000000;3.225445
2296.000000;3.237029
2295.000000;3.341966
2294.000000;3.580677
2293.000000;4.071984
2292.000000;4.976593
2291.000000;4.347740
2290.000000;3.887824
2289.000000;3.692005
2288.000000;3.624293
2287.000000;3.598111
2286.000000;3.597300
2285.000000;3.637660
2284.000000;3.856223
2283.000000;4.327452
2282.000000;3.716963
2281.000000;3.513869
2280.000000;3.487986
2279.000000;3.561624
2278.000000;3.626003
2277.000000;3.637225
2276.000000;3.688693
2275.000000;3.854178
2274.000000;4.051350
2273.000000;4.034933
2272.000000;4.490981
2271.000000;4.365793
2270.000000;3.938445
2269.000000;4.138565
2268.000000;4.371435
2267.000000;4.008084
2266.000000;3.914977
2265.000000;4.475669
2264.000000;4.061557
2263.000000;3.637845
2262.000000;3.514776
2261.000000;3.551139
2260.000000;3.688150
2259.000000;3.735366
2258.000000;3.669067
2257.000000;3.639480
2256.000000;3.717553
2255.000000;3.960628
2254.000000;3.946759
2253.000000;3.724889
2252.000000;3.697483
2251.000000;3.766157
2250.000000;3.863246
2249.000000;3.886896
2248.000000;3.796084
2247.000000;3.646499
2246.000000;3.548325
2245.000000;3.542794
2244.000000;3.562505
2243.000000;3.542361
2242.000000;3.569676
2241.000000;3.653470
2240.000000;3.563363
2239.000000;3.499590
2238.000000;3.738576
2237.000000;3.708402
2236.000000;3.474519
2235.000000;3.487611
2234.000000;3.616542
2233.000000;3.586028
2232.000000;3.525164
2231.000000;3.581376
2230.000000;3.775609
2229.000000;3.952581
2228.000000;3.815917
2227.000000;3.659902
2226.000000;3.533719
2225.000000;3.465005
2224.000000;3.444673
2223.000000;3.469323
2222.000000;3.563234
2221.000000;3.792487
2220.000000;4.212257
2219.000000;4.056527
2218.000000;3.759902
2217.000000;3.612110
2216.000000;3.551648
2215.000000;3.612552
2214.000000;3.935844
2213.000000;3.961553
2212.000000;3.689212
2211.000000;3.655279
2210.000000;3.784707
2209.000000;4.031741
2208.000000;4.001181
2207.000000;3.891238
2206.000000;3.844795
2205.000000;3.808602
2204.000000;3.784176
2203.000000;3.732004
2202.000000;3.675143
2201.000000;3.657460
2200.000000;3.698730
2199.000000;3.786565
2198.000000;3.810275
2197.000000;3.771247
2196.000000;3.861910
2195.000000;4.041274
2194.000000;3.925410
2193.000000;3.813365
2192.000000;3.881260
2191.000000;4.184318
2190.000000;4.402731
2189.000000;4.462071
2188.000000;4.304285
2187.000000;3.868773
2186.000000;3.679774
2185.000000;3.684143
2184.000000;3.843163
2183.000000;4.522069
2182.000000;4.238484
2181.000000;3.921303
2180.000000;3.858336
2179.000000;3.924253
2178.000000;4.063939
2177.000000;3.818001
2176.000000;3.599037
2175.000000;3.595172
2174.000000;3.848652
2173.000000;3.827717
2172.000000;3.587585
2171.000000;3.708072
2170.000000;3.970782
2169.000000;4.067010
2168.000000;4.168821
2167.000000;3.775191
2166.000000;3.504458
2165.000000;3.444586
2164.000000;3.502705
2163.000000;3.651066
2162.000000;3.787275
2161.000000;3.858447
2160.000000;3.837215
2159.000000;3.784208
2158.000000;3.777749
2157.000000;3.746953
2156.000000;3.688642
2155.000000;3.659019
2154.000000;3.662074
2153.000000;3.704980
2152.000000;3.796336
2151.000000;3.878478
2150.000000;3.863933
2149.000000;3.843503
2148.000000;3.858933
2147.000000;3.896057
2146.000000;3.938538
2145.000000;3.970148
2144.000000;4.214501
2143.000000;4.624923
2142.000000;4.175987
2141.000000;3.955453
2140.000000;3.728777
2139.000000;3.522073
2138.000000;3.414878
2137.000000;3.412019
2136.000000;3.499276
2135.000000;3.663246
2134.000000;3.807611
2133.000000;3.752097
2132.000000;3.690987
2131.000000;3.767339
2130.000000;4.034645
2129.000000;4.165526
2128.000000;4.055346
2127.000000;3.943405
2126.000000;3.822972
2125.000000;3.800434
2124.000000;3.925784
2123.000000;4.265893
2122.000000;4.424525
2121.000000;4.075499
2120.000000;3.858387
2119.000000;3.758787
2118.000000;3.775765
2117.000000;3.857773
2116.000000;3.935048
2115.000000;4.022581
2114.000000;4.072573
2113.000000;3.916631
2112.000000;3.742898
2111.000000;3.712794
2110.000000;3.681708
2109.000000;3.546273
2108.000000;3.509143
2107.000000;3.704707
2106.000000;3.962785
2105.000000;4.185600
2104.000000;4.096015
2103.000000;3.586822
2102.000000;3.472208
2101.000000;3.628106
2100.000000;4.768081
2099.000000;3.674844
2098.000000;3.531382
2097.000000;3.582031
2096.000000;3.672943
2095.000000;3.727800
2094.000000;3.935198
2093.000000;4.478028
2092.000000;4.549209
2091.000000;4.535277
2090.000000;4.204149
2089.000000;3.890807
2088.000000;3.696997
2087.000000;3.610735
2086.000000;3.651760
2085.000000;4.244478
2084.000000;4.159759
2083.000000;3.720175
2082.000000;3.840888
2081.000000;4.380818
2080.000000;4.093223
2079.000000;3.731149
2078.000000;3.599592
2077.000000;3.525772
2076.000000;3.543799
2075.000000;3.602092
2074.000000;3.610650
2073.000000;3.551046
2072.000000;3.472591
2071.000000;3.432390
2070.000000;3.471807
2069.000000;3.600085
2068.000000;3.705609
2067.000000;3.639788
2066.000000;3.597545
2065.000000;3.642742
2064.000000;3.816013
2063.000000;4.087199
2062.000000;3.894894
2061.000000;3.726781
2060.000000;3.765393
2059.000000;3.887695
2058.000000;3.965957
2057.000000;3.971632
2056.000000;3.837402
2055.000000;3.682951
2054.000000;3.678925
2053.000000;3.996598
2052.000000;4.258666
2051.000000;3.960502
2050.000000;3.798234
2049.000000;3.649950
2048.000000;3.595828
2047.000000;3.638234
2046.000000;3.654559
2045.000000;3.620092
2044.000000;3.638538
2043.000000;3.730216
2042.000000;3.773796
2041.000000;3.734657
2040.000000;3.782772
2039.000000;3.930723
2038.000000;4.004296
2037.000000;3.953931
2036.000000;3.881220
2035.000000;3.729338
2034.000000;3.606249
2033.000000;3.594950
2032.000000;3.876229
2031.000000;4.102255
2030.000000;3.762635
2029.000000;3.726581
2028.000000;3.835655
2027.000000;3.923666
2026.000000;3.952415
2025.000000;3.866533
2024.000000;3.735735
2023.000000;3.699513
2022.000000;3.828549
2021.000000;4.095804
2020.000000;3.933853
2019.000000;3.922062
2018.000000;4.359624
2017.000000;4.287095
2016.000000;3.970363
2015.000000;3.976452
2014.000000;4.046297
2013.000000;4.016764
2012.000000;3.922449
2011.000000;3.789078
2010.000000;3.701241
2009.000000;3.755340
2008.000000;4.229183
2007.000000;4.282770
2006.000000;4.032580
2005.000000;4.414246
2004.000000;3.939216
2003.000000;3.729607
2002.000000;3.683326
2001.000000;3.643626
2000.000000;3.612784
1999.000000;3.605276
1998.000000;3.653291
1997.000000;3.729442
1996.000000;3.737219
1995.000000;3.683940
1994.000000;3.676204
1993.000000;3.740090
1992.000000;3.781290
1991.000000;3.702357
1990.000000;3.624064
1989.000000;3.646290
1988.000000;3.759981
1987.000000;3.917345
1986.000000;3.922486
1985.000000;3.744009
1984.000000;3.694124
1983.000000;3.804601
1982.000000;3.851719
1981.000000;3.733296
1980.000000;3.695628
1979.000000;3.727630
1978.000000;3.824213
1977.000000;4.078586
1976.000000;4.473393
1975.000000;4.417827
1974.000000;4.273741
1973.000000;4.051706
1972.000000;3.850384
1971.000000;3.740026
1970.000000;3.740194
1969.000000;3.852966
1968.000000;4.009249
1967.000000;3.890945
1966.000000;3.671843
1965.000000;3.598002
1964.000000;3.647496
1963.000000;3.745759
1962.000000;3.914822
1961.000000;4.346814
1960.000000;4.018840
1959.000000;3.761744
1958.000000;3.724659
1957.000000;3.696792
1956.000000;3.801165
1955.000000;3.894327
1954.000000;3.632773
1953.000000;3.544869
1952.000000;3.619903
1951.000000;4.033982
1950.000000;4.166965
1949.000000;3.715504
1948.000000;3.638993
1947.000000;3.728329
1946.000000;4.024499
1945.000000;4.312500
1944.000000;4.016972
1943.000000;3.754716
1942.000000;3.681444
1941.000000;3.714732
1940.000000;3.676189
1939.000000;3.599175
1938.000000;3.574946
1937.000000;3.619365
1936.000000;3.778767
1935.000000;4.017302
1934.000000;3.940690
1933.000000;3.968214
1932.000000;4.185502
1931.000000;4.001904
1930.000000;3.864064
1929.000000;3.737284
1928.000000;3.581648
1927.000000;3.539547
1926.000000;3.567618
1925.000000;3.499075
1924.000000;3.375438
1923.000000;3.313693
1922.000000;3.324365
1921.000000;3.414270
1920.000000;3.592201
1919.000000;3.915197
1918.000000;3.920319
1917.000000;3.785608
1916.000000;3.901909
1915.000000;3.739271
1914.000000;3.582769
1913.000000;3.569888
1912.000000;3.609100
1911.000000;3.617697
1910.000000;3.584710
1909.000000;3.587144
1908.000000;3.669904
1907.000000;3.802590
1906.000000;3.864515
1905.000000;3.858738
1904.000000;3.942444
1903.000000;4.201312
1902.000000;4.111078
1901.000000;3.811104
1900.000000;3.696992
1899.000000;3.657983
1898.000000;3.653099
1897.000000;3.660292
1896.000000;3.700189
1895.000000;3.879424
1894.000000;4.193805
1893.000000;3.925501
1892.000000;3.686464
1891.000000;3.592697
1890.000000;3.558409
1889.000000;3.624111
1888.000000;3.875534
1887.000000;4.521191
1886.000000;4.245465
1885.000000;4.204510
1884.000000;4.034334
1883.000000;3.707770
1882.000000;3.609687
1881.000000;3.669567
1880.000000;3.848944
1879.000000;4.082499
1878.000000;3.874351
1877.000000;3.635885
1876.000000;3.645510
1875.000000;3.988399
1874.000000;3.982290
1873.000000;3.610334
1872.000000;3.586693
1871.000000;3.743333
1870.000000;4.075588
1869.000000;4.047037
1868.000000;3.915531
1867.000000;4.186549
1866.000000;4.588463
1865.000000;4.137965
1864.000000;3.878372
1863.000000;3.780303
1862.000000;3.660744
1861.000000;3.556093
1860.000000;3.593242
1859.000000;3.919868
1858.000000;4.363042
1857.000000;4.058149
1856.000000;3.974647
1855.000000;3.898521
1854.000000;3.811608
1853.000000;3.712802
1852.000000;3.685823
1851.000000;3.773806
1850.000000;3.953239
1849.000000;4.013101
1848.000000;3.758364
1847.000000;3.575749
1846.000000;3.532255
1845.000000;3.585485
1844.000000;3.669171
1843.000000;3.726175
1842.000000;3.792859
1841.000000;3.834225
1840.000000;3.797165
1839.000000;3.759529
1838.000000;3.680065
1837.000000;3.561322
1836.000000;3.525938
1835.000000;3.589699
1834.000000;3.696049
1833.000000;3.811220
1832.000000;3.897328
1831.000000;3.867828
1830.000000;3.748001
1829.000000;3.680358
1828.000000;3.730466
1827.000000;3.844419
1826.000000;3.902652
1825.000000;3.885250
1824.000000;3.897028
1823.000000;3.981024
1822.000000;4.010918
1821.000000;3.898225
1820.000000;3.809071
1819.000000;3.855163
1818.000000;4.024987
1817.000000;4.038206
1816.000000;3.977114
1815.000000;4.156106
1814.000000;4.056847
1813.000000;3.865852
1812.000000;3.937782
1811.000000;4.255999
1810.000000;4.696340
1809.000000;4.602350
1808.000000;5.061012
1807.000000;4.232870
1806.000000;3.861627
1805.000000;3.774530
1804.000000;3.960393
1803.000000;4.208561
1802.000000;3.768373
1801.000000;3.668949
1800.000000;3.889910
1799.000000;4.130166
1798.000000;3.970769
1797.000000;3.951407
1796.000000;4.003224
1795.000000;4.004511
1794.000000;4.020994
1793.000000;4.044406
1792.000000;3.961275
1791.000000;3.771818
1790.000000;3.672374
1789.000000;3.682360
1788.000000;3.843324
1787.000000;4.086775
1786.000000;3.777117
1785.000000;3.542301
1784.000000;3.547454
1783.000000;3.664212
1782.000000;3.874740
1781.000000;4.154329
1780.000000;4.164711
1779.000000;4.048687
1778.000000;3.959336
1777.000000;3.889964
1776.000000;3.787351
1775.000000;3.726588
1774.000000;3.768360
1773.000000;4.040344
1772.000000;4.414895
1771.000000;3.981370
1770.000000;3.876778
1769.000000;3.957313
1768.000000;4.127948
1767.000000;4.038682
1766.000000;3.808612
1765.000000;3.763071
1764.000000;3.756900
1763.000000;3.707154
1762.000000;3.678274
1761.000000;3.772009
1760.000000;4.060536
1759.000000;4.812185
1758.000000;4.792696
1757.000000;4.312021
1756.000000;4.106936
1755.000000;3.927559
1754.000000;3.912766
1753.000000;4.060608
1752.000000;4.316091
1751.000000;4.377257
1750.000000;3.973432
1749.000000;3.806702
1748.000000;3.852010
1747.000000;3.947697
1746.000000;4.050448
1745.000000;4.185936
1744.000000;4.420415
1743.000000;4.652242
1742.000000;4.265156
1741.000000;3.892271
1740.000000;3.721762
1739.000000;3.693890
1738.000000;3.801036
1737.000000;4.032409
1736.000000;4.216213
1735.000000;4.076181
1734.000000;3.732426
1733.000000;3.547251
1732.000000;3.607791
1731.000000;3.792374
1730.000000;3.903587
1729.000000;3.935686
1728.000000;3.944648
1727.000000;3.861807
1726.000000;3.679876
1725.000000;3.582055
1724.000000;3.607039
1723.000000;3.864220
1722.000000;4.071586
1721.000000;3.720640
1720.000000;3.593243
1719.000000;3.609736
1718.000000;3.694034
1717.000000;3.994703
1716.000000;4.617558
1715.000000;4.294582
1714.000000;4.013407
1713.000000;3.908031
1712.000000;3.928590
1711.000000;4.059302
1710.000000;4.151113
1709.000000;3.927791
1708.000000;3.695821
1707.000000;3.614785
1706.000000;3.689277
1705.000000;3.908189
1704.000000;3.911434
1703.000000;3.811685
1702.000000;3.852467
1701.000000;3.863142
1700.000000;4.063349
1699.000000;4.491188
1698.000000;4.331019
1697.000000;4.321441
1696.000000;4.240183
1695.000000;4.051005
1694.000000;3.903007
1693.000000;3.851067
1692.000000;3.848892
1691.000000;3.861143
1690.000000;4.006334
1689.000000;4.208362
1688.000000;4.167172
1687.000000;4.124215
1686.000000;4.065677
1685.000000;3.956744
1684.000000;3.873258
1683.000000;3.810614
1682.000000;3.776738
1681.000000;3.765112
1680.000000;3.786311
1679.000000;3.936752
1678.000000;3.873637
1677.000000;3.623549
1676.000000;3.473875
1675.000000;3.375762
1674.000000;3.429181
1673.000000;3.720177
1672.000000;4.298291
1671.000000;4.722160
1670.000000;4.184627
1669.000000;3.861946
1668.000000;3.740499
1667.000000;3.799904
1666.000000;4.044646
1665.000000;4.286306
1664.000000;4.133935
1663.000000;4.029497
1662.000000;3.945258
1661.000000;3.853849
1660.000000;3.842876
1659.000000;3.836093
1658.000000;3.849698
1657.000000;3.960092
1656.000000;4.042456
1655.000000;3.925361
1654.000000;3.908045
1653.000000;4.273911
1652.000000;4.652042
1651.000000;4.464151
1650.000000;4.638775
1649.000000;4.449348
1648.000000;4.244210
1647.000000;4.455682
1646.000000;4.075646
1645.000000;3.810077
1644.000000;3.866094
1643.000000;4.136310
1642.000000;4.810025
1641.000000;4.418316
1640.000000;4.185821
1639.000000;3.850720
1638.000000;3.670188
1637.000000;3.662052
1636.000000;3.684518
1635.000000;3.756193
1634.000000;3.958256
1633.000000;4.181923
1632.000000;3.938067
1631.000000;3.729897
1630.000000;3.631853
1629.000000;3.732877
1628.000000;4.149485
1627.000000;4.025942
1626.000000;3.846804
1625.000000;3.990757
1624.000000;4.142022
1623.000000;4.116426
1622.000000;3.901082
1621.000000;3.840299
1620.000000;4.019480
1619.000000;4.142746
1618.000000;3.892765
1617.000000;3.759936
1616.000000;3.825698
1615.000000;3.987592
1614.000000;4.041899
1613.000000;3.960750
1612.000000;3.904334
1611.000000;4.004426
1610.000000;4.163988
1609.000000;4.030609
1608.000000;3.947892
1607.000000;3.872659
1606.000000;3.756827
1605.000000;3.779364
1604.000000;3.837259
1603.000000;3.909994
1602.000000;4.235995
1601.000000;4.130428
1600.000000;3.882135
1599.000000;4.066721
1598.000000;4.497024
1597.000000;4.171482
1596.000000;4.019188
1595.000000;4.007894
1594.000000;3.898866
1593.000000;3.839057
1592.000000;3.946903
1591.000000;4.460485
1590.000000;4.210818
1589.000000;3.799599
1588.000000;3.660250
1587.000000;3.664060
1586.000000;3.763841
1585.000000;4.120890
1584.000000;4.711652
1583.000000;3.959704
1582.000000;3.814864
1581.000000;3.876886
1580.000000;3.959406
1579.000000;4.052521
1578.000000;4.418821
1577.000000;4.976103
1576.000000;4.385865
1575.000000;4.201750
1574.000000;4.030067
1573.000000;3.947667
1572.000000;3.908342
1571.000000;3.900182
1570.000000;3.918830
1569.000000;3.938090
1568.000000;3.975853
1567.000000;3.992450
1566.000000;3.963610
1565.000000;3.928826
1564.000000;3.907830
1563.000000;3.968275
1562.000000;4.155691
1561.000000;4.345401
1560.000000;4.438213
1559.000000;4.486977
1558.000000;4.338640
1557.000000;4.259289
1556.000000;4.324829
1555.000000;4.339691
1554.000000;4.288932
1553.000000;4.419866
1552.000000;4.311618
1551.000000;4.098036
1550.000000;4.440910
1549.000000;4.332010
1548.000000;3.977991
1547.000000;4.114554
1546.000000;4.305263
1545.000000;4.468953
1544.000000;4.375609
1543.000000;4.134350
1542.000000;4.116983
1541.000000;4.118267
1540.000000;4.131374
1539.000000;4.325212
1538.000000;4.517577
1537.000000;4.345951
1536.000000;4.208472
1535.000000;4.281871
1534.000000;4.787658
1533.000000;4.469525
1532.000000;4.384807
1531.000000;4.294690
1530.000000;4.072102
1529.000000;3.992809
1528.000000;4.183748
1527.000000;4.662332
1526.000000;4.106406
1525.000000;3.969595
1524.000000;4.088443
1523.000000;4.451645
1522.000000;4.772996
1521.000000;4.378557
1520.000000;4.526559
1519.000000;4.998596
1518.000000;4.551131
1517.000000;4.058208
1516.000000;3.768958
1515.000000;3.709355
1514.000000;3.851758
1513.000000;4.146569
1512.000000;4.706613
1511.000000;4.461681
1510.000000;4.185830
1509.000000;4.205810
1508.000000;4.174570
1507.000000;4.109123
1506.000000;4.077116
1505.000000;4.053046
1504.000000;4.030458
1503.000000;3.981656
1502.000000;3.862265
1501.000000;3.743841
1500.000000;3.776963
1499.000000;4.053213
1498.000000;4.550166
1497.000000;4.494368
1496.000000;4.011776
1495.000000;3.777952
1494.000000;3.747936
1493.000000;3.798419
1492.000000;3.861602
1491.000000;3.856847
1490.000000;3.875117
1489.000000;4.215111
1488.000000;4.163413
1487.000000;3.964960
1486.000000;4.038867
1485.000000;3.845117
1484.000000;3.701926
1483.000000;3.779414
1482.000000;4.027932
1481.000000;4.139457
1480.000000;3.883793
1479.000000;3.673036
1478.000000;3.575450
1477.000000;3.538018
1476.000000;3.518637
1475.000000;3.538819
1474.000000;3.618004
1473.000000;3.717652
1472.000000;3.835009
1471.000000;4.053454
1470.000000;4.255123
1469.000000;4.105691
1468.000000;3.899027
1467.000000;3.777644
1466.000000;3.770383
1465.000000;3.892131
1464.000000;4.115298
1463.000000;4.336877
1462.000000;4.366277
1461.000000;4.219865
1460.000000;4.020970
1459.000000;3.927675
1458.000000;3.947698
1457.000000;3.869640
1456.000000;3.792929
1455.000000;3.892835
1454.000000;4.105334
1453.000000;4.106628
1452.000000;3.974452
1451.000000;3.906013
1450.000000;4.084818
1449.000000;4.615985
1448.000000;4.024827
1447.000000;3.725629
1446.000000;3.665253
1445.000000;3.704526
1444.000000;3.783019
1443.000000;3.807218
1442.000000;3.792339
1441.000000;3.766222
1440.000000;3.783279
1439.000000;3.781195
1438.000000;3.681374
1437.000000;3.557185
1436.000000;3.563629
1435.000000;3.907671
1434.000000;4.283087
1433.000000;4.046530
1432.000000;4.063341
1431.000000;4.205585
1430.000000;4.296951
1429.000000;4.092937
1428.000000;3.864310
1427.000000;3.752582
1426.000000;3.740714
1425.000000;3.830930
1424.000000;3.989483
1423.000000;3.980830
1422.000000;3.923531
1421.000000;3.944405
1420.000000;3.830851
1419.000000;3.663478
1418.000000;3.637392
1417.000000;3.743896
1416.000000;3.870910
1415.000000;3.936326
1414.000000;3.940176
1413.000000;3.955853
1412.000000;3.966724
1411.000000;3.998943
1410.000000;4.103092
1409.000000;4.015555
1408.000000;3.973621
1407.000000;3.983650
1406.000000;3.856468
1405.000000;3.827101
1404.000000;4.074839
1403.000000;4.689961
1402.000000;4.754892
1401.000000;4.527336
1400.000000;4.084394
1399.000000;3.933229
1398.000000;4.011388
1397.000000;4.099899
1396.000000;4.005057
1395.000000;3.864469
1394.000000;3.821696
1393.000000;4.055205
1392.000000;4.589902
1391.000000;4.185162
1390.000000;3.989765
1389.000000;4.060574
1388.000000;4.227716
1387.000000;4.110527
1386.000000;4.125435
1385.000000;4.296781
1384.000000;4.086613
1383.000000;3.989647
1382.000000;4.125684
1381.000000;4.087998
1380.000000;3.885542
1379.000000;3.800016
1378.000000;3.846360
1377.000000;4.077043
1376.000000;4.304840
1375.000000;4.164478
1374.000000;3.952125
1373.000000;3.832241
1372.000000;3.791447
1371.000000;3.669644
1370.000000;3.530724
1369.000000;3.477592
1368.000000;3.518978
1367.000000;3.638170
1366.000000;3.768066
1365.000000;3.791651
1364.000000;3.682531
1363.000000;3.563341
1362.000000;3.538806
1361.000000;3.648699
1360.000000;3.882348
1359.000000;4.155517
1358.000000;4.245054
1357.000000;4.154786
1356.000000;4.089871
1355.000000;4.113382
1354.000000;4.291643
1353.000000;4.179820
1352.000000;3.846585
1351.000000;3.697317
1350.000000;3.696359
1349.000000;3.822525
1348.000000;4.036860
1347.000000;4.004101
1346.000000;3.888936
1345.000000;3.968221
1344.000000;4.150593
1343.000000;4.114688
1342.000000;4.130001
1341.000000;4.153059
1340.000000;4.020224
1339.000000;3.934562
1338.000000;4.110328
1337.000000;4.311358
1336.000000;3.857622
1335.000000;3.690546
1334.000000;3.748076
1333.000000;4.025338
1332.000000;4.177772
1331.000000;4.131060
1330.000000;4.169338
1329.000000;3.913132
1328.000000;3.740686
1327.000000;3.801350
1326.000000;4.595419
1325.000000;4.113925
1324.000000;3.764785
1323.000000;3.859237
1322.000000;4.185708
1321.000000;4.184889
1320.000000;4.215947
1319.000000;4.694314
1318.000000;4.193941
1317.000000;4.071967
1316.000000;4.152104
1315.000000;4.483212
1314.000000;4.284977
1313.000000;3.889561
1312.000000;3.891675
1311.000000;4.014616
1310.000000;3.935519
1309.000000;3.911635
1308.000000;4.130395
1307.000000;4.349127
1306.000000;4.246490
1305.000000;4.303920
1304.000000;4.451996
1303.000000;4.092191
1302.000000;3.854322
1301.000000;3.863473
1300.000000;4.007721
1299.000000;4.130114
1298.000000;4.158087
1297.000000;4.009011
1296.000000;3.945617
1295.000000;4.142157
1294.000000;4.112541
1293.000000;3.976352
1292.000000;4.221053
1291.000000;4.358716
1290.000000;3.916276
1289.000000;3.882257
1288.000000;4.112986
1287.000000;4.208280
1286.000000;4.069250
1285.000000;4.017287
1284.000000;3.925498
1283.000000;3.923370
1282.000000;3.914034
1281.000000;3.775157
1280.000000;3.650377
1279.000000;3.586318
1278.000000;3.567180
1277.000000;3.569370
1276.000000;3.603184
1275.000000;3.688522
1274.000000;3.725307
1273.000000;3.588965
1272.000000;3.450912
1271.000000;3.416116
1270.000000;3.486166
1269.000000;3.605006
1268.000000;3.622352
1267.000000;3.545472
1266.000000;3.509216
1265.000000;3.540135
1264.000000;3.583350
1263.000000;3.584632
1262.000000;3.569128
1261.000000;3.594625
1260.000000;3.700654
1259.000000;3.910546
1258.000000;4.115348
1257.000000;4.098933
1256.000000;4.108823
1255.000000;4.450782
1254.000000;4.594681
1253.000000;4.096847
1252.000000;3.915789
1251.000000;3.813251
1250.000000;3.809829
1249.000000;3.929245
1248.000000;4.238684
1247.000000;4.609027
1246.000000;4.281491
1245.000000;4.060394
1244.000000;3.990944
1243.000000;4.069926
1242.000000;4.433110
1241.000000;3.983304
1240.000000;3.787963
1239.000000;3.900668
1238.000000;4.202976
1237.000000;3.988240
1236.000000;3.842745
1235.000000;3.844113
1234.000000;3.893756
1233.000000;4.066756
1232.000000;4.416465
1231.000000;4.010022
1230.000000;3.696181
1229.000000;3.557277
1228.000000;3.513030
1227.000000;3.560385
1226.000000;3.691175
1225.000000;3.825663
1224.000000;3.811231
1223.000000;3.658124
1222.000000;3.569815
1221.000000;3.645526
1220.000000;4.022652
1219.000000;4.295567
1218.000000;3.995063
1217.000000;3.887562
1216.000000;3.894978
1215.000000;4.045233
1214.000000;4.537628
1213.000000;4.071052
1212.000000;3.809457
1211.000000;3.780682
1210.000000;3.847570
1209.000000;3.826252
1208.000000;3.791591
1207.000000;3.871572
1206.000000;4.091548
1205.000000;4.444556
1204.000000;4.386984
1203.000000;4.142414
1202.000000;3.955810
1201.000000;3.791111
1200.000000;3.698573
