Criado como novo conjunto de dados;"Jao_teste_celulas.spp","3182.4 Secs"
cm-1;Abs
10000.000000;0.925457
9999.000000;0.924787
9998.000000;0.924118
9997.000000;0.923450
9996.000000;0.922784
9995.000000;0.922118
9994.000000;0.921453
9993.000000;0.920788
9992.000000;0.920127
9991.000000;0.919462
9990.000000;0.918811
9989.000000;0.918088
9988.000000;0.917217
9987.000000;0.916392
9986.000000;0.915973
9985.000000;0.916102
9984.000000;0.916389
9983.000000;0.916199
9982.000000;0.915338
9981.000000;0.914310
9980.000000;0.913780
9979.000000;0.913875
9978.000000;0.914139
9977.000000;0.914070
9976.000000;0.913546
9975.000000;0.912717
9974.000000;0.911742
9973.000000;0.910781
9972.000000;0.910079
9971.000000;0.909760
9970.000000;0.909587
9969.000000;0.909177
9968.000000;0.908520
9967.000000;0.908029
9966.000000;0.907948
9965.000000;0.907981
9964.000000;0.907694
9963.000000;0.907068
9962.000000;0.906356
9961.000000;0.905607
9960.000000;0.904731
9959.000000;0.903945
9958.000000;0.903688
9957.000000;0.903989
9956.000000;0.904276
9955.000000;0.904030
9954.000000;0.903360
9953.000000;0.902726
9952.000000;0.902321
9951.000000;0.901964
9950.000000;0.901432
9949.000000;0.900661
9948.000000;0.899729
9947.000000;0.898856
9946.000000;0.898320
9945.000000;0.898163
9944.000000;0.898028
9943.000000;0.897524
9942.000000;0.896700
9941.000000;0.895953
9940.000000;0.895494
9939.000000;0.895120
9938.000000;0.894551
9937.000000;0.893804
9936.000000;0.893141
9935.000000;0.892772
9934.000000;0.892716
9933.000000;0.892844
9932.000000;0.892993
9931.000000;0.893055
9930.000000;0.893026
9929.000000;0.892936
9928.000000;0.892741
9927.000000;0.892317
9926.000000;0.891602
9925.000000;0.890706
9924.000000;0.889866
9923.000000;0.889284
9922.000000;0.888980
9921.000000;0.888737
9920.000000;0.888260
9919.000000;0.887446
9918.000000;0.886503
9917.000000;0.885788
9916.000000;0.885526
9915.000000;0.885668
9914.000000;0.885929
9913.000000;0.885942
9912.000000;0.885487
9911.000000;0.884660
9910.000000;0.883764
9909.000000;0.882998
9908.000000;0.882344
9907.000000;0.881767
9906.000000;0.881361
9905.000000;0.881127
9904.000000;0.880809
9903.000000;0.880202
9902.000000;0.879555
9901.000000;0.879363
9900.000000;0.879725
9899.000000;0.880169
9898.000000;0.880200
9897.000000;0.879797
9896.000000;0.879242
9895.000000;0.878688
9894.000000;0.878069
9893.000000;0.877319
9892.000000;0.876476
9891.000000;0.875629
9890.000000;0.874898
9889.000000;0.874406
9888.000000;0.874145
9887.000000;0.873916
9886.000000;0.873534
9885.000000;0.873037
9884.000000;0.872589
9883.000000;0.872237
9882.000000;0.871901
9881.000000;0.871546
9880.000000;0.871190
9879.000000;0.870778
9878.000000;0.870224
9877.000000;0.869615
9876.000000;0.869190
9875.000000;0.869041
9874.000000;0.868973
9873.000000;0.868764
9872.000000;0.868444
9871.000000;0.868206
9870.000000;0.868097
9869.000000;0.867926
9868.000000;0.867484
9867.000000;0.866753
9866.000000;0.865883
9865.000000;0.865025
9864.000000;0.864226
9863.000000;0.863483
9862.000000;0.862842
9861.000000;0.862406
9860.000000;0.862211
9859.000000;0.862152
9858.000000;0.862057
9857.000000;0.861821
9856.000000;0.861445
9855.000000;0.860986
9854.000000;0.860531
9853.000000;0.860190
9852.000000;0.860040
9851.000000;0.860049
9850.000000;0.860099
9849.000000;0.860071
9848.000000;0.859858
9847.000000;0.859337
9846.000000;0.858477
9845.000000;0.857486
9844.000000;0.856709
9843.000000;0.856282
9842.000000;0.855981
9841.000000;0.855477
9840.000000;0.854691
9839.000000;0.853846
9838.000000;0.853237
9837.000000;0.853021
9836.000000;0.853130
9835.000000;0.853283
9834.000000;0.853155
9833.000000;0.852631
9832.000000;0.851906
9831.000000;0.851240
9830.000000;0.850671
9829.000000;0.850038
9828.000000;0.849244
9827.000000;0.848421
9826.000000;0.847841
9825.000000;0.847706
9824.000000;0.847953
9823.000000;0.848223
9822.000000;0.848110
9821.000000;0.847551
9820.000000;0.846882
9819.000000;0.846421
9818.000000;0.846120
9817.000000;0.845771
9816.000000;0.845382
9815.000000;0.845070
9814.000000;0.844698
9813.000000;0.843980
9812.000000;0.843004
9811.000000;0.842291
9810.000000;0.842166
9809.000000;0.842319
9808.000000;0.842211
9807.000000;0.841709
9806.000000;0.841079
9805.000000;0.840506
9804.000000;0.839935
9803.000000;0.839317
9802.000000;0.838729
9801.000000;0.838229
9800.000000;0.837802
9799.000000;0.837480
9798.000000;0.837346
9797.000000;0.837361
9796.000000;0.837336
9795.000000;0.837142
9794.000000;0.836838
9793.000000;0.836541
9792.000000;0.836260
9791.000000;0.835897
9790.000000;0.835335
9789.000000;0.834519
9788.000000;0.833534
9787.000000;0.832631
9786.000000;0.832053
9785.000000;0.831810
9784.000000;0.831695
9783.000000;0.831506
9782.000000;0.831184
9781.000000;0.830732
9780.000000;0.830162
9779.000000;0.829557
9778.000000;0.829040
9777.000000;0.828631
9776.000000;0.828207
9775.000000;0.827681
9774.000000;0.827099
9773.000000;0.826534
9772.000000;0.825991
9771.000000;0.825485
9770.000000;0.825088
9769.000000;0.824783
9768.000000;0.824385
9767.000000;0.823737
9766.000000;0.822903
9765.000000;0.822083
9764.000000;0.821402
9763.000000;0.820924
9762.000000;0.820740
9761.000000;0.820843
9760.000000;0.820949
9759.000000;0.820670
9758.000000;0.819937
9757.000000;0.819123
9756.000000;0.818656
9755.000000;0.818618
9754.000000;0.818748
9753.000000;0.818723
9752.000000;0.818368
9751.000000;0.817701
9750.000000;0.816913
9749.000000;0.816264
9748.000000;0.815889
9747.000000;0.815670
9746.000000;0.815358
9745.000000;0.814849
9744.000000;0.814300
9743.000000;0.813946
9742.000000;0.813812
9741.000000;0.813621
9740.000000;0.813051
9739.000000;0.812107
9738.000000;0.811197
9737.000000;0.810776
9736.000000;0.810909
9735.000000;0.811208
9734.000000;0.811178
9733.000000;0.810592
9732.000000;0.809577
9731.000000;0.808467
9730.000000;0.807634
9729.000000;0.807336
9728.000000;0.807560
9727.000000;0.807975
9726.000000;0.808115
9725.000000;0.807703
9724.000000;0.806832
9723.000000;0.805858
9722.000000;0.805128
9721.000000;0.804748
9720.000000;0.804558
9719.000000;0.804307
9718.000000;0.803858
9717.000000;0.803268
9716.000000;0.802706
9715.000000;0.802318
9714.000000;0.802144
9713.000000;0.802069
9712.000000;0.801844
9711.000000;0.801254
9710.000000;0.800328
9709.000000;0.799377
9708.000000;0.798758
9707.000000;0.798578
9706.000000;0.798608
9705.000000;0.798476
9704.000000;0.797938
9703.000000;0.797059
9702.000000;0.796184
9701.000000;0.795687
9700.000000;0.795654
9699.000000;0.795782
9698.000000;0.795652
9697.000000;0.795138
9696.000000;0.794500
9695.000000;0.794088
9694.000000;0.793980
9693.000000;0.793936
9692.000000;0.793673
9691.000000;0.793147
9690.000000;0.792555
9689.000000;0.792099
9688.000000;0.791803
9687.000000;0.791558
9686.000000;0.791264
9685.000000;0.790876
9684.000000;0.790373
9683.000000;0.789802
9682.000000;0.789350
9681.000000;0.789208
9680.000000;0.789306
9679.000000;0.789299
9678.000000;0.788925
9677.000000;0.788270
9676.000000;0.787555
9675.000000;0.786762
9674.000000;0.785700
9673.000000;0.784417
9672.000000;0.783331
9671.000000;0.782828
9670.000000;0.782884
9669.000000;0.783153
9668.000000;0.783330
9667.000000;0.783316
9666.000000;0.783143
9665.000000;0.782868
9664.000000;0.782559
9663.000000;0.782248
9662.000000;0.781892
9661.000000;0.781429
9660.000000;0.780849
9659.000000;0.780194
9658.000000;0.779510
9657.000000;0.778888
9656.000000;0.778481
9655.000000;0.778371
9654.000000;0.778395
9653.000000;0.778230
9652.000000;0.777692
9651.000000;0.776910
9650.000000;0.776173
9649.000000;0.775667
9648.000000;0.775400
9647.000000;0.775280
9646.000000;0.775185
9645.000000;0.774983
9644.000000;0.774601
9643.000000;0.774090
9642.000000;0.773562
9641.000000;0.773041
9640.000000;0.772451
9639.000000;0.771782
9638.000000;0.771201
9637.000000;0.770912
9636.000000;0.770932
9635.000000;0.771073
9634.000000;0.771134
9633.000000;0.771026
9632.000000;0.770729
9631.000000;0.770227
9630.000000;0.769560
9629.000000;0.768846
9628.000000;0.768185
9627.000000;0.767602
9626.000000;0.767133
9625.000000;0.766864
9624.000000;0.766777
9623.000000;0.766653
9622.000000;0.766268
9621.000000;0.765669
9620.000000;0.765093
9619.000000;0.764628
9618.000000;0.764142
9617.000000;0.763521
9616.000000;0.762823
9615.000000;0.762128
9614.000000;0.761443
9613.000000;0.760826
9612.000000;0.760437
9611.000000;0.760304
9610.000000;0.760200
9609.000000;0.759896
9608.000000;0.759430
9607.000000;0.759011
9606.000000;0.758733
9605.000000;0.758551
9604.000000;0.758424
9603.000000;0.758302
9602.000000;0.758055
9601.000000;0.757601
9600.000000;0.757067
9599.000000;0.756646
9598.000000;0.756333
9597.000000;0.755989
9596.000000;0.755629
9595.000000;0.755399
9594.000000;0.755275
9593.000000;0.755012
9592.000000;0.754472
9591.000000;0.753787
9590.000000;0.753145
9589.000000;0.752591
9588.000000;0.752115
9587.000000;0.751743
9586.000000;0.751408
9585.000000;0.750949
9584.000000;0.750392
9583.000000;0.750054
9582.000000;0.750147
9581.000000;0.750389
9580.000000;0.750262
9579.000000;0.749614
9578.000000;0.748803
9577.000000;0.748239
9576.000000;0.747996
9575.000000;0.747896
9574.000000;0.747770
9573.000000;0.747538
9572.000000;0.747137
9571.000000;0.746527
9570.000000;0.745751
9569.000000;0.744935
9568.000000;0.744219
9567.000000;0.743695
9566.000000;0.743353
9565.000000;0.743068
9564.000000;0.742692
9563.000000;0.742188
9562.000000;0.741679
9561.000000;0.741332
9560.000000;0.741176
9559.000000;0.741044
9558.000000;0.740736
9557.000000;0.740263
9556.000000;0.739873
9555.000000;0.739781
9554.000000;0.739915
9553.000000;0.740026
9552.000000;0.739998
9551.000000;0.739878
9550.000000;0.739602
9549.000000;0.738939
9548.000000;0.737879
9547.000000;0.736880
9546.000000;0.736456
9545.000000;0.736584
9544.000000;0.736733
9543.000000;0.736508
9542.000000;0.736040
9541.000000;0.735699
9540.000000;0.735594
9539.000000;0.735500
9538.000000;0.735135
9537.000000;0.734419
9536.000000;0.733513
9535.000000;0.732716
9534.000000;0.732280
9533.000000;0.732244
9532.000000;0.732393
9531.000000;0.732405
9530.000000;0.732009
9529.000000;0.731108
9528.000000;0.729882
9527.000000;0.728797
9526.000000;0.728348
9525.000000;0.728620
9524.000000;0.729151
9523.000000;0.729331
9522.000000;0.728962
9521.000000;0.728347
9520.000000;0.727866
9519.000000;0.727558
9518.000000;0.727161
9517.000000;0.726492
9516.000000;0.725700
9515.000000;0.725124
9514.000000;0.724936
9513.000000;0.724966
9512.000000;0.724876
9511.000000;0.724480
9510.000000;0.723891
9509.000000;0.723394
9508.000000;0.723185
9507.000000;0.723178
9506.000000;0.723032
9505.000000;0.722447
9504.000000;0.721515
9503.000000;0.720696
9502.000000;0.720329
9501.000000;0.720228
9500.000000;0.719919
9499.000000;0.719250
9498.000000;0.718544
9497.000000;0.718116
9496.000000;0.717853
9495.000000;0.717432
9494.000000;0.716797
9493.000000;0.716232
9492.000000;0.715991
9491.000000;0.716031
9490.000000;0.716077
9489.000000;0.715837
9488.000000;0.715202
9487.000000;0.714356
9486.000000;0.713678
9485.000000;0.713419
9484.000000;0.713438
9483.000000;0.713374
9482.000000;0.713057
9481.000000;0.712638
9480.000000;0.712337
9479.000000;0.712180
9478.000000;0.712056
9477.000000;0.711866
9476.000000;0.711574
9475.000000;0.711178
9474.000000;0.710736
9473.000000;0.710332
9472.000000;0.709985
9471.000000;0.709625
9470.000000;0.709224
9469.000000;0.708868
9468.000000;0.708630
9467.000000;0.708449
9466.000000;0.708194
9465.000000;0.707814
9464.000000;0.707349
9463.000000;0.706857
9462.000000;0.706414
9461.000000;0.706132
9460.000000;0.706068
9459.000000;0.706112
9458.000000;0.706043
9457.000000;0.705730
9456.000000;0.705207
9455.000000;0.704588
9454.000000;0.703986
9453.000000;0.703494
9452.000000;0.703130
9451.000000;0.702753
9450.000000;0.702139
9449.000000;0.701216
9448.000000;0.700226
9447.000000;0.699558
9446.000000;0.699423
9445.000000;0.699667
9444.000000;0.699886
9443.000000;0.699730
9442.000000;0.699181
9441.000000;0.698555
9440.000000;0.698195
9439.000000;0.698124
9438.000000;0.698056
9437.000000;0.697743
9436.000000;0.697235
9435.000000;0.696731
9434.000000;0.696286
9433.000000;0.695810
9432.000000;0.695304
9431.000000;0.694930
9430.000000;0.694789
9429.000000;0.694759
9428.000000;0.694623
9427.000000;0.694287
9426.000000;0.693827
9425.000000;0.693376
9424.000000;0.693033
9423.000000;0.692841
9422.000000;0.692749
9421.000000;0.692624
9420.000000;0.692342
9419.000000;0.691872
9418.000000;0.691247
9417.000000;0.690519
9416.000000;0.689778
9415.000000;0.689170
9414.000000;0.688785
9413.000000;0.688547
9412.000000;0.688295
9411.000000;0.687959
9410.000000;0.687573
9409.000000;0.687124
9408.000000;0.686528
9407.000000;0.685811
9406.000000;0.685211
9405.000000;0.684984
9404.000000;0.685132
9403.000000;0.685385
9402.000000;0.685442
9401.000000;0.685201
9400.000000;0.684782
9399.000000;0.684384
9398.000000;0.684115
9397.000000;0.683930
9396.000000;0.683709
9395.000000;0.683390
9394.000000;0.683017
9393.000000;0.682642
9392.000000;0.682251
9391.000000;0.681793
9390.000000;0.681248
9389.000000;0.680664
9388.000000;0.680175
9387.000000;0.679964
9386.000000;0.680090
9385.000000;0.680297
9384.000000;0.680132
9383.000000;0.679366
9382.000000;0.678262
9381.000000;0.677327
9380.000000;0.676842
9379.000000;0.676724
9378.000000;0.676741
9377.000000;0.676691
9376.000000;0.676416
9375.000000;0.675865
9374.000000;0.675200
9373.000000;0.674710
9372.000000;0.674512
9371.000000;0.674443
9370.000000;0.674287
9369.000000;0.673996
9368.000000;0.673663
9367.000000;0.673383
9366.000000;0.673215
9365.000000;0.673152
9364.000000;0.673042
9363.000000;0.672659
9362.000000;0.671982
9361.000000;0.671303
9360.000000;0.670942
9359.000000;0.670901
9358.000000;0.670916
9357.000000;0.670761
9356.000000;0.670389
9355.000000;0.669849
9354.000000;0.669253
9353.000000;0.668775
9352.000000;0.668523
9351.000000;0.668380
9350.000000;0.668121
9349.000000;0.667680
9348.000000;0.667181
9347.000000;0.666708
9346.000000;0.666228
9345.000000;0.665751
9344.000000;0.665393
9343.000000;0.665170
9342.000000;0.664909
9341.000000;0.664473
9340.000000;0.663973
9339.000000;0.663619
9338.000000;0.663450
9337.000000;0.663323
9336.000000;0.663112
9335.000000;0.662806
9334.000000;0.662448
9333.000000;0.662093
9332.000000;0.661814
9331.000000;0.661633
9330.000000;0.661460
9329.000000;0.661176
9328.000000;0.660790
9327.000000;0.660414
9326.000000;0.660101
9325.000000;0.659783
9324.000000;0.659393
9323.000000;0.658956
9322.000000;0.658542
9321.000000;0.658169
9320.000000;0.657816
9319.000000;0.657492
9318.000000;0.657249
9317.000000;0.657110
9316.000000;0.657012
9315.000000;0.656834
9314.000000;0.656502
9313.000000;0.656051
9312.000000;0.655558
9311.000000;0.655032
9310.000000;0.654441
9309.000000;0.653855
9308.000000;0.653463
9307.000000;0.653360
9306.000000;0.653381
9305.000000;0.653241
9304.000000;0.652831
9303.000000;0.652304
9302.000000;0.651861
9301.000000;0.651569
9300.000000;0.651378
9299.000000;0.651235
9298.000000;0.651107
9297.000000;0.650932
9296.000000;0.650609
9295.000000;0.650059
9294.000000;0.649308
9293.000000;0.648526
9292.000000;0.647951
9291.000000;0.647717
9290.000000;0.647735
9289.000000;0.647784
9288.000000;0.647722
9287.000000;0.647552
9286.000000;0.647300
9285.000000;0.646919
9284.000000;0.646355
9283.000000;0.645691
9282.000000;0.645141
9281.000000;0.644893
9280.000000;0.644947
9279.000000;0.645086
9278.000000;0.645016
9277.000000;0.644588
9276.000000;0.643905
9275.000000;0.643203
9274.000000;0.642625
9273.000000;0.642142
9272.000000;0.641677
9271.000000;0.641248
9270.000000;0.640955
9269.000000;0.640874
9268.000000;0.640991
9267.000000;0.641197
9266.000000;0.641324
9265.000000;0.641249
9264.000000;0.640996
9263.000000;0.640703
9262.000000;0.640442
9261.000000;0.640131
9260.000000;0.639671
9259.000000;0.639120
9258.000000;0.638609
9257.000000;0.638145
9256.000000;0.637609
9255.000000;0.636974
9254.000000;0.636405
9253.000000;0.636047
9252.000000;0.635822
9251.000000;0.635514
9250.000000;0.635046
9249.000000;0.634573
9248.000000;0.634298
9247.000000;0.634262
9246.000000;0.634321
9245.000000;0.634282
9244.000000;0.634051
9243.000000;0.633681
9242.000000;0.633299
9241.000000;0.632967
9240.000000;0.632631
9239.000000;0.632240
9238.000000;0.631871
9237.000000;0.631671
9236.000000;0.631655
9235.000000;0.631654
9234.000000;0.631473
9233.000000;0.631051
9232.000000;0.630433
9231.000000;0.629679
9230.000000;0.628882
9229.000000;0.628204
9228.000000;0.627773
9227.000000;0.627569
9226.000000;0.627471
9225.000000;0.627398
9224.000000;0.627328
9223.000000;0.627223
9222.000000;0.627039
9221.000000;0.626829
9220.000000;0.626701
9219.000000;0.626632
9218.000000;0.626437
9217.000000;0.625980
9216.000000;0.625345
9215.000000;0.624745
9214.000000;0.624326
9213.000000;0.624088
9212.000000;0.623939
9211.000000;0.623738
9210.000000;0.623375
9209.000000;0.622901
9208.000000;0.622523
9207.000000;0.622394
9206.000000;0.622418
9205.000000;0.622349
9204.000000;0.622078
9203.000000;0.621725
9202.000000;0.621443
9201.000000;0.621232
9200.000000;0.620982
9199.000000;0.620640
9198.000000;0.620258
9197.000000;0.619896
9196.000000;0.619519
9195.000000;0.619036
9194.000000;0.618425
9193.000000;0.617810
9192.000000;0.617354
9191.000000;0.617089
9190.000000;0.616883
9189.000000;0.616607
9188.000000;0.616275
9187.000000;0.615987
9186.000000;0.615796
9185.000000;0.615668
9184.000000;0.615534
9183.000000;0.615319
9182.000000;0.614963
9181.000000;0.614472
9180.000000;0.613944
9179.000000;0.613499
9178.000000;0.613191
9177.000000;0.613021
9176.000000;0.612979
9175.000000;0.613012
9174.000000;0.612991
9173.000000;0.612787
9172.000000;0.612384
9171.000000;0.611872
9170.000000;0.611375
9169.000000;0.611025
9168.000000;0.610912
9167.000000;0.610955
9166.000000;0.610891
9165.000000;0.610512
9164.000000;0.609901
9163.000000;0.609293
9162.000000;0.608776
9161.000000;0.608269
9160.000000;0.607795
9159.000000;0.607531
9158.000000;0.607501
9157.000000;0.607437
9156.000000;0.607098
9155.000000;0.606599
9154.000000;0.606258
9153.000000;0.606156
9152.000000;0.606039
9151.000000;0.605640
9150.000000;0.604987
9149.000000;0.604339
9148.000000;0.603935
9147.000000;0.603820
9146.000000;0.603861
9145.000000;0.603859
9144.000000;0.603694
9143.000000;0.603404
9142.000000;0.603141
9141.000000;0.603038
9140.000000;0.603094
9139.000000;0.603162
9138.000000;0.603058
9137.000000;0.602716
9136.000000;0.602246
9135.000000;0.601810
9134.000000;0.601464
9133.000000;0.601147
9132.000000;0.600810
9131.000000;0.600486
9130.000000;0.600215
9129.000000;0.599970
9128.000000;0.599699
9127.000000;0.599374
9126.000000;0.598978
9125.000000;0.598509
9124.000000;0.598035
9123.000000;0.597678
9122.000000;0.597476
9121.000000;0.597328
9120.000000;0.597134
9119.000000;0.596951
9118.000000;0.596903
9117.000000;0.596983
9116.000000;0.597006
9115.000000;0.596769
9114.000000;0.596211
9113.000000;0.595453
9112.000000;0.594732
9111.000000;0.594279
9110.000000;0.594169
9109.000000;0.594247
9108.000000;0.594251
9107.000000;0.594032
9106.000000;0.593643
9105.000000;0.593226
9104.000000;0.592860
9103.000000;0.592537
9102.000000;0.592245
9101.000000;0.592021
9100.000000;0.591894
9099.000000;0.591784
9098.000000;0.591516
9097.000000;0.591012
9096.000000;0.590433
9095.000000;0.590049
9094.000000;0.589926
9093.000000;0.589854
9092.000000;0.589609
9091.000000;0.589220
9090.000000;0.588867
9089.000000;0.588606
9088.000000;0.588314
9087.000000;0.587913
9086.000000;0.587489
9085.000000;0.587179
9084.000000;0.586997
9083.000000;0.586838
9082.000000;0.586584
9081.000000;0.586182
9080.000000;0.585669
9079.000000;0.585160
9078.000000;0.584778
9077.000000;0.584571
9076.000000;0.584487
9075.000000;0.584440
9074.000000;0.584374
9073.000000;0.584260
9072.000000;0.584086
9071.000000;0.583859
9070.000000;0.583587
9069.000000;0.583252
9068.000000;0.582827
9067.000000;0.582322
9066.000000;0.581807
9065.000000;0.581366
9064.000000;0.581063
9063.000000;0.580924
9062.000000;0.580909
9061.000000;0.580879
9060.000000;0.580678
9059.000000;0.580276
9058.000000;0.579827
9057.000000;0.579557
9056.000000;0.579561
9055.000000;0.579722
9054.000000;0.579812
9053.000000;0.579676
9052.000000;0.579335
9051.000000;0.578932
9050.000000;0.578585
9049.000000;0.578295
9048.000000;0.577988
9047.000000;0.577617
9046.000000;0.577215
9045.000000;0.576873
9044.000000;0.576676
9043.000000;0.576611
9042.000000;0.576539
9041.000000;0.576284
9040.000000;0.575812
9039.000000;0.575277
9038.000000;0.574876
9037.000000;0.574677
9036.000000;0.574610
9035.000000;0.574579
9034.000000;0.574504
9033.000000;0.574318
9032.000000;0.573973
9031.000000;0.573485
9030.000000;0.572915
9029.000000;0.572341
9028.000000;0.571867
9027.000000;0.571611
9026.000000;0.571590
9025.000000;0.571649
9024.000000;0.571581
9023.000000;0.571319
9022.000000;0.570943
9021.000000;0.570535
9020.000000;0.570119
9019.000000;0.569746
9018.000000;0.569512
9017.000000;0.569423
9016.000000;0.569347
9015.000000;0.569146
9014.000000;0.568813
9013.000000;0.568420
9012.000000;0.568012
9011.000000;0.567609
9010.000000;0.567269
9009.000000;0.567038
9008.000000;0.566854
9007.000000;0.566565
9006.000000;0.566080
9005.000000;0.565486
9004.000000;0.564988
9003.000000;0.564729
9002.000000;0.564679
9001.000000;0.564696
9000.000000;0.564709
8999.000000;0.564774
8998.000000;0.564917
8997.000000;0.564979
8996.000000;0.564722
8995.000000;0.564119
8994.000000;0.563427
8993.000000;0.562932
8992.000000;0.562680
8991.000000;0.562505
8990.000000;0.562268
8989.000000;0.561966
8988.000000;0.561648
8987.000000;0.561330
8986.000000;0.561019
8985.000000;0.560744
8984.000000;0.560530
8983.000000;0.560349
8982.000000;0.560138
8981.000000;0.559865
8980.000000;0.559567
8979.000000;0.559327
8978.000000;0.559187
8977.000000;0.559088
8976.000000;0.558917
8975.000000;0.558621
8974.000000;0.558252
8973.000000;0.557883
8972.000000;0.557513
8971.000000;0.557094
8970.000000;0.556638
8969.000000;0.556243
8968.000000;0.556018
8967.000000;0.555974
8966.000000;0.555992
8965.000000;0.555911
8964.000000;0.555645
8963.000000;0.555242
8962.000000;0.554835
8961.000000;0.554535
8960.000000;0.554372
8959.000000;0.554298
8958.000000;0.554223
8957.000000;0.554061
8956.000000;0.553787
8955.000000;0.553467
8954.000000;0.553187
8953.000000;0.552953
8952.000000;0.552685
8951.000000;0.552316
8950.000000;0.551875
8949.000000;0.551444
8948.000000;0.551082
8947.000000;0.550806
8946.000000;0.550624
8945.000000;0.550551
8944.000000;0.550581
8943.000000;0.550637
8942.000000;0.550566
8941.000000;0.550232
8940.000000;0.549685
8939.000000;0.549178
8938.000000;0.548924
8937.000000;0.548842
8936.000000;0.548637
8935.000000;0.548152
8934.000000;0.547539
8933.000000;0.547054
8932.000000;0.546776
8931.000000;0.546613
8930.000000;0.546469
8929.000000;0.546311
8928.000000;0.546110
8927.000000;0.545874
8926.000000;0.545684
8925.000000;0.545611
8924.000000;0.545577
8923.000000;0.545423
8922.000000;0.545130
8921.000000;0.544866
8920.000000;0.544762
8919.000000;0.544701
8918.000000;0.544431
8917.000000;0.543851
8916.000000;0.543155
8915.000000;0.542678
8914.000000;0.542614
8913.000000;0.542864
8912.000000;0.543146
8911.000000;0.543229
8910.000000;0.543091
8909.000000;0.542855
8908.000000;0.542616
8907.000000;0.542338
8906.000000;0.541917
8905.000000;0.541300
8904.000000;0.540593
8903.000000;0.540030
8902.000000;0.539812
8901.000000;0.539909
8900.000000;0.540060
8899.000000;0.540002
8898.000000;0.539687
8897.000000;0.539265
8896.000000;0.538905
8895.000000;0.538673
8894.000000;0.538527
8893.000000;0.538357
8892.000000;0.538061
8891.000000;0.537645
8890.000000;0.537256
8889.000000;0.537051
8888.000000;0.537027
8887.000000;0.537051
8886.000000;0.537013
8885.000000;0.536877
8884.000000;0.536617
8883.000000;0.536211
8882.000000;0.535722
8881.000000;0.535288
8880.000000;0.534987
8879.000000;0.534791
8878.000000;0.534646
8877.000000;0.534522
8876.000000;0.534357
8875.000000;0.534057
8874.000000;0.533626
8873.000000;0.533217
8872.000000;0.532997
8871.000000;0.532997
8870.000000;0.533128
8869.000000;0.533277
8868.000000;0.533319
8867.000000;0.533123
8866.000000;0.532657
8865.000000;0.532081
8864.000000;0.531639
8863.000000;0.531442
8862.000000;0.531403
8861.000000;0.531361
8860.000000;0.531216
8859.000000;0.530968
8858.000000;0.530669
8857.000000;0.530360
8856.000000;0.530038
8855.000000;0.529702
8854.000000;0.529416
8853.000000;0.529261
8852.000000;0.529198
8851.000000;0.529048
8850.000000;0.528701
8849.000000;0.528283
8848.000000;0.528051
8847.000000;0.528121
8846.000000;0.528363
8845.000000;0.528544
8844.000000;0.528494
8843.000000;0.528183
8842.000000;0.527733
8841.000000;0.527359
8840.000000;0.527202
8839.000000;0.527179
8838.000000;0.527083
8837.000000;0.526839
8836.000000;0.526581
8835.000000;0.526454
8834.000000;0.526446
8833.000000;0.526448
8832.000000;0.526390
8831.000000;0.526243
8830.000000;0.525979
8829.000000;0.525629
8828.000000;0.525338
8827.000000;0.525254
8826.000000;0.525365
8825.000000;0.525496
8824.000000;0.525465
8823.000000;0.525205
8822.000000;0.524773
8821.000000;0.524314
8820.000000;0.524005
8819.000000;0.523930
8818.000000;0.524006
8817.000000;0.524076
8816.000000;0.524102
8815.000000;0.524196
8814.000000;0.524442
8813.000000;0.524738
8812.000000;0.524881
8811.000000;0.524757
8810.000000;0.524420
8809.000000;0.523986
8808.000000;0.523518
8807.000000;0.523014
8806.000000;0.522479
8805.000000;0.522010
8804.000000;0.521780
8803.000000;0.521904
8802.000000;0.522288
8801.000000;0.522631
8800.000000;0.522639
8799.000000;0.522259
8798.000000;0.521693
8797.000000;0.521182
8796.000000;0.520824
8795.000000;0.520592
8794.000000;0.520446
8793.000000;0.520372
8792.000000;0.520346
8791.000000;0.520315
8790.000000;0.520250
8789.000000;0.520173
8788.000000;0.520122
8787.000000;0.520127
8786.000000;0.520215
8785.000000;0.520382
8784.000000;0.520541
8783.000000;0.520547
8782.000000;0.520340
8781.000000;0.520025
8780.000000;0.519764
8779.000000;0.519598
8778.000000;0.519451
8777.000000;0.519255
8776.000000;0.519041
8775.000000;0.518881
8774.000000;0.518832
8773.000000;0.518923
8772.000000;0.519127
8771.000000;0.519298
8770.000000;0.519250
8769.000000;0.518951
8768.000000;0.518607
8767.000000;0.518470
8766.000000;0.518575
8765.000000;0.518750
8764.000000;0.518849
8763.000000;0.518899
8762.000000;0.518997
8761.000000;0.519137
8760.000000;0.519192
8759.000000;0.519054
8758.000000;0.518767
8757.000000;0.518523
8756.000000;0.518504
8755.000000;0.518721
8754.000000;0.519003
8753.000000;0.519139
8752.000000;0.519046
8751.000000;0.518794
8750.000000;0.518508
8749.000000;0.518282
8748.000000;0.518161
8747.000000;0.518144
8746.000000;0.518191
8745.000000;0.518239
8744.000000;0.518224
8743.000000;0.518116
8742.000000;0.517967
8741.000000;0.517935
8740.000000;0.518165
8739.000000;0.518607
8738.000000;0.518997
8737.000000;0.519115
8736.000000;0.519009
8735.000000;0.518879
8734.000000;0.518775
8733.000000;0.518572
8732.000000;0.518229
8731.000000;0.517931
8730.000000;0.517869
8729.000000;0.517987
8728.000000;0.518057
8727.000000;0.517939
8726.000000;0.517686
8725.000000;0.517437
8724.000000;0.517300
8723.000000;0.517331
8722.000000;0.517513
8721.000000;0.517730
8720.000000;0.517816
8719.000000;0.517688
8718.000000;0.517415
8717.000000;0.517146
8716.000000;0.517007
8715.000000;0.517013
8714.000000;0.517075
8713.000000;0.517084
8712.000000;0.517009
8711.000000;0.516910
8710.000000;0.516823
8709.000000;0.516677
8708.000000;0.516383
8707.000000;0.515977
8706.000000;0.515632
8705.000000;0.515497
8704.000000;0.515556
8703.000000;0.515664
8702.000000;0.515691
8701.000000;0.515633
8700.000000;0.515599
8699.000000;0.515687
8698.000000;0.515861
8697.000000;0.515970
8696.000000;0.515888
8695.000000;0.515618
8694.000000;0.515247
8693.000000;0.514860
8692.000000;0.514543
8691.000000;0.514398
8690.000000;0.514472
8689.000000;0.514660
8688.000000;0.514757
8687.000000;0.514631
8686.000000;0.514317
8685.000000;0.513965
8684.000000;0.513738
8683.000000;0.513730
8682.000000;0.513905
8681.000000;0.514091
8680.000000;0.514106
8679.000000;0.513953
8678.000000;0.513833
8677.000000;0.513926
8676.000000;0.514168
8675.000000;0.514279
8674.000000;0.514033
8673.000000;0.513467
8672.000000;0.512833
8671.000000;0.512375
8670.000000;0.512157
8669.000000;0.512111
8668.000000;0.512168
8667.000000;0.512293
8666.000000;0.512400
8665.000000;0.512353
8664.000000;0.512090
8663.000000;0.511708
8662.000000;0.511351
8661.000000;0.511074
8660.000000;0.510863
8659.000000;0.510730
8658.000000;0.510693
8657.000000;0.510702
8656.000000;0.510672
8655.000000;0.510597
8654.000000;0.510535
8653.000000;0.510485
8652.000000;0.510366
8651.000000;0.510142
8650.000000;0.509867
8649.000000;0.509591
8648.000000;0.509308
8647.000000;0.509029
8646.000000;0.508812
8645.000000;0.508666
8644.000000;0.508512
8643.000000;0.508292
8642.000000;0.508061
8641.000000;0.507902
8640.000000;0.507805
8639.000000;0.507689
8638.000000;0.507516
8637.000000;0.507303
8636.000000;0.507068
8635.000000;0.506810
8634.000000;0.506540
8633.000000;0.506277
8632.000000;0.506032
8631.000000;0.505819
8630.000000;0.505652
8629.000000;0.505507
8628.000000;0.505331
8627.000000;0.505118
8626.000000;0.504936
8625.000000;0.504823
8624.000000;0.504716
8623.000000;0.504532
8622.000000;0.504287
8621.000000;0.504066
8620.000000;0.503895
8619.000000;0.503721
8618.000000;0.503511
8617.000000;0.503307
8616.000000;0.503184
8615.000000;0.503172
8614.000000;0.503222
8613.000000;0.503219
8612.000000;0.503041
8611.000000;0.502664
8610.000000;0.502196
8609.000000;0.501765
8608.000000;0.501414
8607.000000;0.501120
8606.000000;0.500897
8605.000000;0.500783
8604.000000;0.500751
8603.000000;0.500691
8602.000000;0.500507
8601.000000;0.500200
8600.000000;0.499856
8599.000000;0.499592
8598.000000;0.499481
8597.000000;0.499472
8596.000000;0.499390
8595.000000;0.499092
8594.000000;0.498648
8593.000000;0.498298
8592.000000;0.498204
8591.000000;0.498261
8590.000000;0.498201
8589.000000;0.497854
8588.000000;0.497312
8587.000000;0.496852
8586.000000;0.496683
8585.000000;0.496744
8584.000000;0.496751
8583.000000;0.496474
8582.000000;0.495959
8581.000000;0.495469
8580.000000;0.495211
8579.000000;0.495168
8578.000000;0.495168
8577.000000;0.495050
8576.000000;0.494765
8575.000000;0.494384
8574.000000;0.494043
8573.000000;0.493834
8572.000000;0.493717
8571.000000;0.493563
8570.000000;0.493302
8569.000000;0.492984
8568.000000;0.492685
8567.000000;0.492398
8566.000000;0.492060
8565.000000;0.491657
8564.000000;0.491268
8563.000000;0.490998
8562.000000;0.490884
8561.000000;0.490868
8560.000000;0.490857
8559.000000;0.490797
8558.000000;0.490671
8557.000000;0.490448
8556.000000;0.490075
8555.000000;0.489589
8554.000000;0.489170
8553.000000;0.489001
8552.000000;0.489059
8551.000000;0.489128
8550.000000;0.489042
8549.000000;0.488852
8548.000000;0.488711
8547.000000;0.488628
8546.000000;0.488432
8545.000000;0.487953
8544.000000;0.487225
8543.000000;0.486479
8542.000000;0.485964
8541.000000;0.485747
8540.000000;0.485684
8539.000000;0.485566
8538.000000;0.485311
8537.000000;0.484989
8536.000000;0.484708
8535.000000;0.484513
8534.000000;0.484403
8533.000000;0.484360
8532.000000;0.484333
8531.000000;0.484248
8530.000000;0.484077
8529.000000;0.483865
8528.000000;0.483642
8527.000000;0.483375
8526.000000;0.483034
8525.000000;0.482669
8524.000000;0.482356
8523.000000;0.482097
8522.000000;0.481847
8521.000000;0.481610
8520.000000;0.481440
8519.000000;0.481342
8518.000000;0.481234
8517.000000;0.481035
8516.000000;0.480747
8515.000000;0.480422
8514.000000;0.480102
8513.000000;0.479790
8512.000000;0.479470
8511.000000;0.479130
8510.000000;0.478803
8509.000000;0.478581
8508.000000;0.478536
8507.000000;0.478614
8506.000000;0.478636
8505.000000;0.478455
8504.000000;0.478097
8503.000000;0.477707
8502.000000;0.477386
8501.000000;0.477124
8500.000000;0.476856
8499.000000;0.476543
8498.000000;0.476180
8497.000000;0.475791
8496.000000;0.475437
8495.000000;0.475186
8494.000000;0.475033
8493.000000;0.474877
8492.000000;0.474621
8491.000000;0.474296
8490.000000;0.474034
8489.000000;0.473916
8488.000000;0.473875
8487.000000;0.473777
8486.000000;0.473560
8485.000000;0.473257
8484.000000;0.472910
8483.000000;0.472524
8482.000000;0.472106
8481.000000;0.471711
8480.000000;0.471404
8479.000000;0.471198
8478.000000;0.471051
8477.000000;0.470907
8476.000000;0.470747
8475.000000;0.470582
8474.000000;0.470427
8473.000000;0.470272
8472.000000;0.470082
8471.000000;0.469828
8470.000000;0.469543
8469.000000;0.469311
8468.000000;0.469181
8467.000000;0.469093
8466.000000;0.468916
8465.000000;0.468586
8464.000000;0.468187
8463.000000;0.467877
8462.000000;0.467729
8461.000000;0.467672
8460.000000;0.467568
8459.000000;0.467335
8458.000000;0.466990
8457.000000;0.466602
8456.000000;0.466238
8455.000000;0.465946
8454.000000;0.465747
8453.000000;0.465602
8452.000000;0.465405
8451.000000;0.465034
8450.000000;0.464460
8449.000000;0.463816
8448.000000;0.463336
8447.000000;0.463174
8446.000000;0.463265
8445.000000;0.463362
8444.000000;0.463256
8443.000000;0.462953
8442.000000;0.462616
8441.000000;0.462344
8440.000000;0.462079
8439.000000;0.461735
8438.000000;0.461339
8437.000000;0.460992
8436.000000;0.460729
8435.000000;0.460505
8434.000000;0.460316
8433.000000;0.460217
8432.000000;0.460200
8431.000000;0.460120
8430.000000;0.459844
8429.000000;0.459427
8428.000000;0.459073
8427.000000;0.458899
8426.000000;0.458811
8425.000000;0.458636
8424.000000;0.458328
8423.000000;0.457995
8422.000000;0.457748
8421.000000;0.457588
8420.000000;0.457437
8419.000000;0.457222
8418.000000;0.456924
8417.000000;0.456577
8416.000000;0.456277
8415.000000;0.456138
8414.000000;0.456178
8413.000000;0.456255
8412.000000;0.456175
8411.000000;0.455876
8410.000000;0.455484
8409.000000;0.455169
8408.000000;0.454995
8407.000000;0.454920
8406.000000;0.454864
8405.000000;0.454735
8404.000000;0.454437
8403.000000;0.453963
8402.000000;0.453446
8401.000000;0.453055
8400.000000;0.452821
8399.000000;0.452622
8398.000000;0.452340
8397.000000;0.451991
8396.000000;0.451656
8395.000000;0.451362
8394.000000;0.451085
8393.000000;0.450827
8392.000000;0.450632
8391.000000;0.450518
8390.000000;0.450440
8389.000000;0.450333
8388.000000;0.450167
8387.000000;0.449950
8386.000000;0.449713
8385.000000;0.449492
8384.000000;0.449310
8383.000000;0.449135
8382.000000;0.448889
8381.000000;0.448526
8380.000000;0.448100
8379.000000;0.447734
8378.000000;0.447494
8377.000000;0.447318
8376.000000;0.447089
8375.000000;0.446764
8374.000000;0.446418
8373.000000;0.446141
8372.000000;0.445940
8371.000000;0.445742
8370.000000;0.445482
8369.000000;0.445166
8368.000000;0.444857
8367.000000;0.444618
8366.000000;0.444457
8365.000000;0.444316
8364.000000;0.444105
8363.000000;0.443783
8362.000000;0.443394
8361.000000;0.443025
8360.000000;0.442747
8359.000000;0.442574
8358.000000;0.442480
8357.000000;0.442403
8356.000000;0.442265
8355.000000;0.442013
8354.000000;0.441656
8353.000000;0.441249
8352.000000;0.440843
8351.000000;0.440469
8350.000000;0.440143
8349.000000;0.439884
8348.000000;0.439685
8347.000000;0.439493
8346.000000;0.439222
8345.000000;0.438818
8344.000000;0.438322
8343.000000;0.437859
8342.000000;0.437538
8341.000000;0.437354
8340.000000;0.437207
8339.000000;0.437013
8338.000000;0.436764
8337.000000;0.436480
8336.000000;0.436159
8335.000000;0.435817
8334.000000;0.435513
8333.000000;0.435290
8332.000000;0.435109
8331.000000;0.434902
8330.000000;0.434658
8329.000000;0.434410
8328.000000;0.434150
8327.000000;0.433835
8326.000000;0.433469
8325.000000;0.433121
8324.000000;0.432845
8323.000000;0.432643
8322.000000;0.432493
8321.000000;0.432353
8320.000000;0.432145
8319.000000;0.431803
8318.000000;0.431373
8317.000000;0.431004
8316.000000;0.430784
8315.000000;0.430656
8314.000000;0.430497
8313.000000;0.430252
8312.000000;0.429957
8311.000000;0.429680
8310.000000;0.429463
8309.000000;0.429294
8308.000000;0.429095
8307.000000;0.428790
8306.000000;0.428400
8305.000000;0.428014
8304.000000;0.427644
8303.000000;0.427200
8302.000000;0.426652
8301.000000;0.426131
8300.000000;0.425793
8299.000000;0.425628
8298.000000;0.425497
8297.000000;0.425315
8296.000000;0.425107
8295.000000;0.424888
8294.000000;0.424614
8293.000000;0.424258
8292.000000;0.423870
8291.000000;0.423512
8290.000000;0.423203
8289.000000;0.422939
8288.000000;0.422723
8287.000000;0.422534
8286.000000;0.422329
8285.000000;0.422086
8284.000000;0.421819
8283.000000;0.421535
8282.000000;0.421217
8281.000000;0.420870
8280.000000;0.420554
8279.000000;0.420313
8278.000000;0.420116
8277.000000;0.419885
8276.000000;0.419581
8275.000000;0.419231
8274.000000;0.418901
8273.000000;0.418645
8272.000000;0.418477
8271.000000;0.418352
8270.000000;0.418172
8269.000000;0.417868
8268.000000;0.417467
8267.000000;0.417075
8266.000000;0.416790
8265.000000;0.416617
8264.000000;0.416495
8263.000000;0.416355
8262.000000;0.416163
8261.000000;0.415891
8260.000000;0.415513
8259.000000;0.415052
8258.000000;0.414615
8257.000000;0.414328
8256.000000;0.414194
8255.000000;0.414065
8254.000000;0.413783
8253.000000;0.413341
8252.000000;0.412886
8251.000000;0.412557
8250.000000;0.412358
8249.000000;0.412179
8248.000000;0.411904
8247.000000;0.411511
8246.000000;0.411079
8245.000000;0.410716
8244.000000;0.410454
8243.000000;0.410233
8242.000000;0.409991
8241.000000;0.409741
8240.000000;0.409524
8239.000000;0.409325
8238.000000;0.409089
8237.000000;0.408811
8236.000000;0.408534
8235.000000;0.408258
8234.000000;0.407919
8233.000000;0.407485
8232.000000;0.407020
8231.000000;0.406601
8230.000000;0.406235
8229.000000;0.405893
8228.000000;0.405585
8227.000000;0.405332
8226.000000;0.405097
8225.000000;0.404825
8224.000000;0.404524
8223.000000;0.404252
8222.000000;0.404021
8221.000000;0.403780
8220.000000;0.403478
8219.000000;0.403116
8218.000000;0.402724
8217.000000;0.402350
8216.000000;0.402069
8215.000000;0.401939
8214.000000;0.401909
8213.000000;0.401840
8212.000000;0.401628
8211.000000;0.401291
8210.000000;0.400899
8209.000000;0.400493
8208.000000;0.400091
8207.000000;0.399734
8206.000000;0.399444
8205.000000;0.399178
8204.000000;0.398876
8203.000000;0.398548
8202.000000;0.398256
8201.000000;0.398011
8200.000000;0.397764
8199.000000;0.397505
8198.000000;0.397302
8197.000000;0.397195
8196.000000;0.397107
8195.000000;0.396914
8194.000000;0.396570
8193.000000;0.396141
8192.000000;0.395722
8191.000000;0.395354
8190.000000;0.395018
8189.000000;0.394666
8188.000000;0.394267
8187.000000;0.393842
8186.000000;0.393463
8185.000000;0.393188
8184.000000;0.392990
8183.000000;0.392772
8182.000000;0.392446
8181.000000;0.392004
8180.000000;0.391514
8179.000000;0.391079
8178.000000;0.390790
8177.000000;0.390657
8176.000000;0.390578
8175.000000;0.390412
8174.000000;0.390098
8173.000000;0.389718
8172.000000;0.389399
8171.000000;0.389186
8170.000000;0.389012
8169.000000;0.388768
8168.000000;0.388397
8167.000000;0.387937
8166.000000;0.387490
8165.000000;0.387154
8164.000000;0.386944
8163.000000;0.386777
8162.000000;0.386544
8161.000000;0.386202
8160.000000;0.385805
8159.000000;0.385444
8158.000000;0.385169
8157.000000;0.384955
8156.000000;0.384740
8155.000000;0.384491
8154.000000;0.384225
8153.000000;0.383955
8152.000000;0.383646
8151.000000;0.383264
8150.000000;0.382860
8149.000000;0.382569
8148.000000;0.382459
8147.000000;0.382426
8146.000000;0.382293
8145.000000;0.382001
8144.000000;0.381638
8143.000000;0.381290
8142.000000;0.380938
8141.000000;0.380528
8140.000000;0.380085
8139.000000;0.379680
8138.000000;0.379323
8137.000000;0.378954
8136.000000;0.378536
8135.000000;0.378122
8134.000000;0.377802
8133.000000;0.377607
8132.000000;0.377466
8131.000000;0.377247
8130.000000;0.376866
8129.000000;0.376382
8128.000000;0.375968
8127.000000;0.375757
8126.000000;0.375699
8125.000000;0.375609
8124.000000;0.375359
8123.000000;0.374977
8122.000000;0.374568
8121.000000;0.374188
8120.000000;0.373846
8119.000000;0.373553
8118.000000;0.373319
8117.000000;0.373101
8116.000000;0.372837
8115.000000;0.372528
8114.000000;0.372239
8113.000000;0.372003
8112.000000;0.371762
8111.000000;0.371443
8110.000000;0.371070
8109.000000;0.370749
8108.000000;0.370554
8107.000000;0.370444
8106.000000;0.370290
8105.000000;0.369981
8104.000000;0.369511
8103.000000;0.368973
8102.000000;0.368482
8101.000000;0.368090
8100.000000;0.367764
8099.000000;0.367445
8098.000000;0.367102
8097.000000;0.366739
8096.000000;0.366366
8095.000000;0.365995
8094.000000;0.365662
8093.000000;0.365402
8092.000000;0.365200
8091.000000;0.364988
8090.000000;0.364716
8089.000000;0.364415
8088.000000;0.364162
8087.000000;0.363984
8086.000000;0.363821
8085.000000;0.363598
8084.000000;0.363312
8083.000000;0.363010
8082.000000;0.362716
8081.000000;0.362411
8080.000000;0.362085
8079.000000;0.361753
8078.000000;0.361419
8077.000000;0.361046
8076.000000;0.360629
8075.000000;0.360235
8074.000000;0.359942
8073.000000;0.359746
8072.000000;0.359573
8071.000000;0.359380
8070.000000;0.359180
8069.000000;0.358961
8068.000000;0.358648
8067.000000;0.358201
8066.000000;0.357707
8065.000000;0.357313
8064.000000;0.357085
8063.000000;0.356946
8062.000000;0.356761
8061.000000;0.356445
8060.000000;0.356021
8059.000000;0.355589
8058.000000;0.355243
8057.000000;0.354978
8056.000000;0.354696
8055.000000;0.354332
8054.000000;0.353941
8053.000000;0.353624
8052.000000;0.353386
8051.000000;0.353131
8050.000000;0.352786
8049.000000;0.352380
8048.000000;0.351990
8047.000000;0.351661
8046.000000;0.351402
8045.000000;0.351220
8044.000000;0.351090
8043.000000;0.350926
8042.000000;0.350638
8041.000000;0.350222
8040.000000;0.349769
8039.000000;0.349368
8038.000000;0.349034
8037.000000;0.348725
8036.000000;0.348413
8035.000000;0.348120
8034.000000;0.347872
8033.000000;0.347642
8032.000000;0.347352
8031.000000;0.346957
8030.000000;0.346508
8029.000000;0.346109
8028.000000;0.345806
8027.000000;0.345546
8026.000000;0.345256
8025.000000;0.344932
8024.000000;0.344630
8023.000000;0.344377
8022.000000;0.344138
8021.000000;0.343868
8020.000000;0.343566
8019.000000;0.343263
8018.000000;0.342975
8017.000000;0.342678
8016.000000;0.342333
8015.000000;0.341929
8014.000000;0.341515
8013.000000;0.341162
8012.000000;0.340910
8011.000000;0.340721
8010.000000;0.340507
8009.000000;0.340200
8008.000000;0.339794
8007.000000;0.339349
8006.000000;0.338951
8005.000000;0.338649
8004.000000;0.338421
8003.000000;0.338182
8002.000000;0.337867
8001.000000;0.337488
8000.000000;0.337105
7999.000000;0.336756
7998.000000;0.336423
7997.000000;0.336082
7996.000000;0.335744
7995.000000;0.335435
7994.000000;0.335158
7993.000000;0.334888
7992.000000;0.334600
7991.000000;0.334293
7990.000000;0.333971
7989.000000;0.333626
7988.000000;0.333251
7987.000000;0.332859
7986.000000;0.332497
7985.000000;0.332223
7984.000000;0.332052
7983.000000;0.331920
7982.000000;0.331726
7981.000000;0.331425
7980.000000;0.331059
7979.000000;0.330682
7978.000000;0.330298
7977.000000;0.329881
7976.000000;0.329468
7975.000000;0.329145
7974.000000;0.328950
7973.000000;0.328803
7972.000000;0.328584
7971.000000;0.328256
7970.000000;0.327876
7969.000000;0.327519
7968.000000;0.327224
7967.000000;0.326996
7966.000000;0.326815
7965.000000;0.326621
7964.000000;0.326341
7963.000000;0.325961
7962.000000;0.325561
7961.000000;0.325241
7960.000000;0.325014
7959.000000;0.324782
7958.000000;0.324435
7957.000000;0.323956
7956.000000;0.323433
7955.000000;0.322968
7954.000000;0.322594
7953.000000;0.322284
7952.000000;0.322020
7951.000000;0.321812
7950.000000;0.321640
7949.000000;0.321439
7948.000000;0.321156
7947.000000;0.320822
7946.000000;0.320522
7945.000000;0.320283
7944.000000;0.320044
7943.000000;0.319745
7942.000000;0.319398
7941.000000;0.319046
7940.000000;0.318688
7939.000000;0.318294
7938.000000;0.317880
7937.000000;0.317510
7936.000000;0.317213
7935.000000;0.316928
7934.000000;0.316561
7933.000000;0.316101
7932.000000;0.315634
7931.000000;0.315258
7930.000000;0.314993
7929.000000;0.314781
7928.000000;0.314576
7927.000000;0.314384
7926.000000;0.314216
7925.000000;0.314029
7924.000000;0.313736
7923.000000;0.313307
7922.000000;0.312823
7921.000000;0.312414
7920.000000;0.312141
7919.000000;0.311943
7918.000000;0.311707
7917.000000;0.311379
7916.000000;0.311020
7915.000000;0.310746
7914.000000;0.310598
7913.000000;0.310479
7912.000000;0.310247
7911.000000;0.309866
7910.000000;0.309438
7909.000000;0.309074
7908.000000;0.308782
7907.000000;0.308487
7906.000000;0.308140
7905.000000;0.307765
7904.000000;0.307419
7903.000000;0.307146
7902.000000;0.306936
7901.000000;0.306724
7900.000000;0.306432
7899.000000;0.306059
7898.000000;0.305715
7897.000000;0.305501
7896.000000;0.305383
7895.000000;0.305211
7894.000000;0.304889
7893.000000;0.304454
7892.000000;0.303993
7891.000000;0.303549
7890.000000;0.303138
7889.000000;0.302812
7888.000000;0.302611
7887.000000;0.302484
7886.000000;0.302302
7885.000000;0.301990
7884.000000;0.301604
7883.000000;0.301252
7882.000000;0.300974
7881.000000;0.300729
7880.000000;0.300477
7879.000000;0.300226
7878.000000;0.299988
7877.000000;0.299721
7876.000000;0.299353
7875.000000;0.298874
7874.000000;0.298365
7873.000000;0.297930
7872.000000;0.297619
7871.000000;0.297419
7870.000000;0.297278
7869.000000;0.297124
7868.000000;0.296891
7867.000000;0.296566
7866.000000;0.296213
7865.000000;0.295909
7864.000000;0.295660
7863.000000;0.295416
7862.000000;0.295152
7861.000000;0.294893
7860.000000;0.294650
7859.000000;0.294383
7858.000000;0.294060
7857.000000;0.293716
7856.000000;0.293412
7855.000000;0.293158
7854.000000;0.292912
7853.000000;0.292637
7852.000000;0.292329
7851.000000;0.291990
7850.000000;0.291616
7849.000000;0.291223
7848.000000;0.290855
7847.000000;0.290551
7846.000000;0.290311
7845.000000;0.290111
7844.000000;0.289941
7843.000000;0.289797
7842.000000;0.289655
7841.000000;0.289462
7840.000000;0.289168
7839.000000;0.288760
7838.000000;0.288286
7837.000000;0.287833
7836.000000;0.287489
7835.000000;0.287280
7834.000000;0.287145
7833.000000;0.286986
7832.000000;0.286756
7831.000000;0.286490
7830.000000;0.286240
7829.000000;0.285990
7828.000000;0.285672
7827.000000;0.285247
7826.000000;0.284773
7825.000000;0.284358
7824.000000;0.284077
7823.000000;0.283913
7822.000000;0.283785
7821.000000;0.283615
7820.000000;0.283392
7819.000000;0.283163
7818.000000;0.282968
7817.000000;0.282785
7816.000000;0.282562
7815.000000;0.282279
7814.000000;0.281962
7813.000000;0.281633
7812.000000;0.281295
7811.000000;0.280981
7810.000000;0.280752
7809.000000;0.280621
7808.000000;0.280498
7807.000000;0.280269
7806.000000;0.279915
7805.000000;0.279529
7804.000000;0.279210
7803.000000;0.278970
7802.000000;0.278741
7801.000000;0.278447
7800.000000;0.278076
7799.000000;0.277699
7798.000000;0.277413
7797.000000;0.277249
7796.000000;0.277141
7795.000000;0.277003
7794.000000;0.276820
7793.000000;0.276626
7792.000000;0.276435
7791.000000;0.276217
7790.000000;0.275962
7789.000000;0.275698
7788.000000;0.275457
7787.000000;0.275245
7786.000000;0.275052
7785.000000;0.274869
7784.000000;0.274666
7783.000000;0.274418
7782.000000;0.274148
7781.000000;0.273915
7780.000000;0.273733
7779.000000;0.273526
7778.000000;0.273214
7777.000000;0.272807
7776.000000;0.272389
7775.000000;0.272024
7774.000000;0.271720
7773.000000;0.271461
7772.000000;0.271239
7771.000000;0.271030
7770.000000;0.270790
7769.000000;0.270493
7768.000000;0.270166
7767.000000;0.269869
7766.000000;0.269634
7765.000000;0.269434
7764.000000;0.269213
7763.000000;0.268957
7762.000000;0.268711
7761.000000;0.268537
7760.000000;0.268454
7759.000000;0.268414
7758.000000;0.268346
7757.000000;0.268201
7756.000000;0.267985
7755.000000;0.267746
7754.000000;0.267539
7753.000000;0.267374
7752.000000;0.267213
7751.000000;0.267009
7750.000000;0.266756
7749.000000;0.266478
7748.000000;0.266194
7747.000000;0.265905
7746.000000;0.265621
7745.000000;0.265359
7744.000000;0.265119
7743.000000;0.264884
7742.000000;0.264651
7741.000000;0.264438
7740.000000;0.264249
7739.000000;0.264055
7738.000000;0.263832
7737.000000;0.263595
7736.000000;0.263386
7735.000000;0.263229
7734.000000;0.263106
7733.000000;0.262976
7732.000000;0.262799
7731.000000;0.262564
7730.000000;0.262314
7729.000000;0.262126
7728.000000;0.262036
7727.000000;0.261985
7726.000000;0.261876
7725.000000;0.261673
7724.000000;0.261426
7723.000000;0.261198
7722.000000;0.261001
7721.000000;0.260808
7720.000000;0.260603
7719.000000;0.260390
7718.000000;0.260166
7717.000000;0.259928
7716.000000;0.259699
7715.000000;0.259532
7714.000000;0.259466
7713.000000;0.259485
7712.000000;0.259510
7711.000000;0.259451
7710.000000;0.259253
7709.000000;0.258931
7708.000000;0.258559
7707.000000;0.258221
7706.000000;0.257948
7705.000000;0.257708
7704.000000;0.257460
7703.000000;0.257200
7702.000000;0.256949
7701.000000;0.256712
7700.000000;0.256480
7699.000000;0.256264
7698.000000;0.256093
7697.000000;0.255962
7696.000000;0.255826
7695.000000;0.255662
7694.000000;0.255507
7693.000000;0.255400
7692.000000;0.255316
7691.000000;0.255192
7690.000000;0.255018
7689.000000;0.254861
7688.000000;0.254778
7687.000000;0.254751
7686.000000;0.254711
7685.000000;0.254611
7684.000000;0.254452
7683.000000;0.254265
7682.000000;0.254079
7681.000000;0.253894
7680.000000;0.253687
7679.000000;0.253447
7678.000000;0.253221
7677.000000;0.253090
7676.000000;0.253078
7675.000000;0.253106
7674.000000;0.253054
7673.000000;0.252877
7672.000000;0.252628
7671.000000;0.252391
7670.000000;0.252192
7669.000000;0.251991
7668.000000;0.251750
7667.000000;0.251472
7666.000000;0.251194
7665.000000;0.250943
7664.000000;0.250733
7663.000000;0.250566
7662.000000;0.250455
7661.000000;0.250405
7660.000000;0.250404
7659.000000;0.250422
7658.000000;0.250426
7657.000000;0.250395
7656.000000;0.250325
7655.000000;0.250230
7654.000000;0.250119
7653.000000;0.249983
7652.000000;0.249810
7651.000000;0.249623
7650.000000;0.249475
7649.000000;0.249400
7648.000000;0.249358
7647.000000;0.249267
7646.000000;0.249071
7645.000000;0.248788
7644.000000;0.248503
7643.000000;0.248314
7642.000000;0.248270
7641.000000;0.248336
7640.000000;0.248397
7639.000000;0.248346
7638.000000;0.248160
7637.000000;0.247903
7636.000000;0.247657
7635.000000;0.247464
7634.000000;0.247337
7633.000000;0.247276
7632.000000;0.247259
7631.000000;0.247231
7630.000000;0.247153
7629.000000;0.247058
7628.000000;0.247018
7627.000000;0.247052
7626.000000;0.247088
7625.000000;0.247044
7624.000000;0.246931
7623.000000;0.246834
7622.000000;0.246796
7621.000000;0.246763
7620.000000;0.246654
7619.000000;0.246471
7618.000000;0.246301
7617.000000;0.246221
7616.000000;0.246233
7615.000000;0.246286
7614.000000;0.246320
7613.000000;0.246284
7612.000000;0.246147
7611.000000;0.245923
7610.000000;0.245682
7609.000000;0.245506
7608.000000;0.245429
7607.000000;0.245411
7606.000000;0.245386
7605.000000;0.245321
7604.000000;0.245245
7603.000000;0.245219
7602.000000;0.245266
7601.000000;0.245333
7600.000000;0.245328
7599.000000;0.245208
7598.000000;0.245014
7597.000000;0.244847
7596.000000;0.244788
7595.000000;0.244863
7594.000000;0.245028
7593.000000;0.245181
7592.000000;0.245215
7591.000000;0.245092
7590.000000;0.244883
7589.000000;0.244715
7588.000000;0.244664
7587.000000;0.244698
7586.000000;0.244714
7585.000000;0.244638
7584.000000;0.244490
7583.000000;0.244362
7582.000000;0.244325
7581.000000;0.244363
7580.000000;0.244414
7579.000000;0.244452
7578.000000;0.244510
7577.000000;0.244611
7576.000000;0.244710
7575.000000;0.244730
7574.000000;0.244642
7573.000000;0.244496
7572.000000;0.244370
7571.000000;0.244326
7570.000000;0.244379
7569.000000;0.244491
7568.000000;0.244576
7567.000000;0.244556
7566.000000;0.244437
7565.000000;0.244317
7564.000000;0.244301
7563.000000;0.244406
7562.000000;0.244548
7561.000000;0.244638
7560.000000;0.244659
7559.000000;0.244655
7558.000000;0.244655
7557.000000;0.244636
7556.000000;0.244573
7555.000000;0.244496
7554.000000;0.244455
7553.000000;0.244459
7552.000000;0.244472
7551.000000;0.244476
7550.000000;0.244512
7549.000000;0.244619
7548.000000;0.244777
7547.000000;0.244907
7546.000000;0.244957
7545.000000;0.244945
7544.000000;0.244932
7543.000000;0.244949
7542.000000;0.244966
7541.000000;0.244940
7540.000000;0.244887
7539.000000;0.244880
7538.000000;0.244966
7537.000000;0.245115
7536.000000;0.245258
7535.000000;0.245366
7534.000000;0.245444
7533.000000;0.245488
7532.000000;0.245488
7531.000000;0.245490
7530.000000;0.245580
7529.000000;0.245779
7528.000000;0.246001
7527.000000;0.246129
7526.000000;0.246141
7525.000000;0.246108
7524.000000;0.246115
7523.000000;0.246186
7522.000000;0.246303
7521.000000;0.246441
7520.000000;0.246580
7519.000000;0.246686
7518.000000;0.246721
7517.000000;0.246683
7516.000000;0.246633
7515.000000;0.246661
7514.000000;0.246804
7513.000000;0.247019
7512.000000;0.247223
7511.000000;0.247344
7510.000000;0.247340
7509.000000;0.247222
7508.000000;0.247081
7507.000000;0.247049
7506.000000;0.247188
7505.000000;0.247419
7504.000000;0.247614
7503.000000;0.247725
7502.000000;0.247795
7501.000000;0.247873
7500.000000;0.247975
7499.000000;0.248113
7498.000000;0.248297
7497.000000;0.248494
7496.000000;0.248650
7495.000000;0.248744
7494.000000;0.248794
7493.000000;0.248807
7492.000000;0.248786
7491.000000;0.248764
7490.000000;0.248933
7489.000000;0.249095
7488.000000;0.249328
7487.000000;0.249598
7486.000000;0.249837
7485.000000;0.249968
7484.000000;0.249962
7483.000000;0.249914
7482.000000;0.249946
7481.000000;0.250063
7480.000000;0.250173
7479.000000;0.250255
7478.000000;0.250403
7477.000000;0.250661
7476.000000;0.250928
7475.000000;0.251078
7474.000000;0.251105
7473.000000;0.251089
7472.000000;0.251091
7471.000000;0.251146
7470.000000;0.251289
7469.000000;0.251508
7468.000000;0.251727
7467.000000;0.251875
7466.000000;0.251957
7465.000000;0.252018
7464.000000;0.252088
7463.000000;0.252186
7462.000000;0.252329
7461.000000;0.252488
7460.000000;0.252593
7459.000000;0.252617
7458.000000;0.252617
7457.000000;0.252659
7456.000000;0.252745
7455.000000;0.252843
7454.000000;0.252933
7453.000000;0.253006
7452.000000;0.253062
7451.000000;0.253135
7450.000000;0.253262
7449.000000;0.253413
7448.000000;0.253502
7447.000000;0.253512
7446.000000;0.253524
7445.000000;0.253611
7444.000000;0.253759
7443.000000;0.253937
7442.000000;0.254160
7441.000000;0.254419
7440.000000;0.254640
7439.000000;0.254768
7438.000000;0.254831
7437.000000;0.254869
7436.000000;0.254861
7435.000000;0.254804
7434.000000;0.254786
7433.000000;0.254902
7432.000000;0.255129
7431.000000;0.255353
7430.000000;0.255506
7429.000000;0.255602
7428.000000;0.255680
7427.000000;0.255753
7426.000000;0.255810
7425.000000;0.255858
7424.000000;0.255958
7423.000000;0.256208
7422.000000;0.256652
7421.000000;0.257184
7420.000000;0.257602
7419.000000;0.257819
7418.000000;0.257961
7417.000000;0.258204
7416.000000;0.258568
7415.000000;0.258935
7414.000000;0.259199
7413.000000;0.259318
7412.000000;0.259294
7411.000000;0.259169
7410.000000;0.259022
7409.000000;0.258929
7408.000000;0.258948
7407.000000;0.259125
7406.000000;0.259415
7405.000000;0.259658
7404.000000;0.259756
7403.000000;0.259860
7402.000000;0.260235
7401.000000;0.260912
7400.000000;0.261590
7399.000000;0.261929
7398.000000;0.261877
7397.000000;0.261664
7396.000000;0.261637
7395.000000;0.261998
7394.000000;0.262554
7393.000000;0.262873
7392.000000;0.262880
7391.000000;0.262989
7390.000000;0.263512
7389.000000;0.264256
7388.000000;0.264916
7387.000000;0.265607
7386.000000;0.266587
7385.000000;0.267664
7384.000000;0.268424
7383.000000;0.268922
7382.000000;0.269581
7381.000000;0.270374
7380.000000;0.270824
7379.000000;0.270993
7378.000000;0.271817
7377.000000;0.273786
7376.000000;0.275808
7375.000000;0.276251
7374.000000;0.274996
7373.000000;0.273733
7372.000000;0.274041
7371.000000;0.275725
7370.000000;0.277189
7369.000000;0.277051
7368.000000;0.275319
7367.000000;0.273376
7366.000000;0.272776
7365.000000;0.273759
7364.000000;0.275092
7363.000000;0.275475
7362.000000;0.274720
7361.000000;0.273530
7360.000000;0.272672
7359.000000;0.272699
7358.000000;0.274044
7357.000000;0.276465
7356.000000;0.278461
7355.000000;0.278419
7354.000000;0.276670
7353.000000;0.275457
7352.000000;0.276446
7351.000000;0.279076
7350.000000;0.281445
7349.000000;0.282168
7348.000000;0.281318
7347.000000;0.280326
7346.000000;0.281029
7345.000000;0.283969
7344.000000;0.287643
7343.000000;0.290262
7342.000000;0.292139
7341.000000;0.294989
7340.000000;0.298882
7339.000000;0.301629
7338.000000;0.301771
7337.000000;0.300604
7336.000000;0.300049
7335.000000;0.299869
7334.000000;0.298274
7333.000000;0.294674
7332.000000;0.290501
7331.000000;0.287574
7330.000000;0.286736
7329.000000;0.287473
7328.000000;0.288019
7327.000000;0.286871
7326.000000;0.285059
7325.000000;0.285559
7324.000000;0.289367
7323.000000;0.293602
7322.000000;0.294867
7321.000000;0.293358
7320.000000;0.292040
7319.000000;0.292501
7318.000000;0.293291
7317.000000;0.292275
7316.000000;0.289156
7315.000000;0.285431
7314.000000;0.282829
7313.000000;0.282136
7312.000000;0.282776
7311.000000;0.283333
7310.000000;0.283364
7309.000000;0.284385
7308.000000;0.287703
7307.000000;0.291837
7306.000000;0.293883
7305.000000;0.293397
7304.000000;0.293085
7303.000000;0.295142
7302.000000;0.298512
7301.000000;0.300451
7300.000000;0.299590
7299.000000;0.296904
7298.000000;0.294539
7297.000000;0.294415
7296.000000;0.297054
7295.000000;0.300627
7294.000000;0.302028
7293.000000;0.300166
7292.000000;0.297736
7291.000000;0.298376
7290.000000;0.302311
7289.000000;0.306154
7288.000000;0.306743
7287.000000;0.304146
7286.000000;0.300875
7285.000000;0.299040
7284.000000;0.298677
7283.000000;0.298371
7282.000000;0.297031
7281.000000;0.294957
7280.000000;0.293299
7279.000000;0.292826
7278.000000;0.293299
7277.000000;0.293960
7276.000000;0.294508
7275.000000;0.295214
7274.000000;0.296255
7273.000000;0.297420
7272.000000;0.298448
7271.000000;0.299376
7270.000000;0.300476
7269.000000;0.301870
7268.000000;0.303251
7267.000000;0.304205
7266.000000;0.304833
7265.000000;0.305849
7264.000000;0.307817
7263.000000;0.310338
7262.000000;0.312295
7261.000000;0.313094
7260.000000;0.313339
7259.000000;0.314060
7258.000000;0.315545
7257.000000;0.317300
7256.000000;0.318958
7255.000000;0.320758
7254.000000;0.322956
7253.000000;0.325182
7252.000000;0.326814
7251.000000;0.327807
7250.000000;0.328763
7249.000000;0.330151
7248.000000;0.331866
7247.000000;0.333742
7246.000000;0.336311
7245.000000;0.340679
7244.000000;0.346985
7243.000000;0.353311
7242.000000;0.357317
7241.000000;0.359058
7240.000000;0.361051
7239.000000;0.365094
7238.000000;0.369972
7237.000000;0.373125
7236.000000;0.374191
7235.000000;0.375745
7234.000000;0.380128
7233.000000;0.386271
7232.000000;0.390567
7231.000000;0.390975
7230.000000;0.389508
7229.000000;0.390019
7228.000000;0.394032
7227.000000;0.399235
7226.000000;0.402149
7225.000000;0.402078
7224.000000;0.401499
7223.000000;0.402804
7222.000000;0.405815
7221.000000;0.408443
7220.000000;0.409009
7219.000000;0.407850
7218.000000;0.407019
7217.000000;0.408440
7216.000000;0.412123
7215.000000;0.416234
7214.000000;0.418995
7213.000000;0.420334
7212.000000;0.421577
7211.000000;0.423795
7210.000000;0.426806
7209.000000;0.429806
7208.000000;0.432594
7207.000000;0.435724
7206.000000;0.439585
7205.000000;0.443842
7204.000000;0.447826
7203.000000;0.451246
7202.000000;0.454498
7201.000000;0.458172
7200.000000;0.462268
7199.000000;0.466129
7198.000000;0.469309
7197.000000;0.472201
7196.000000;0.475485
7195.000000;0.479148
7194.000000;0.482487
7193.000000;0.485119
7192.000000;0.487553
7191.000000;0.490481
7190.000000;0.493918
7189.000000;0.497447
7188.000000;0.501035
7187.000000;0.505045
7186.000000;0.509624
7185.000000;0.514698
7184.000000;0.520467
7183.000000;0.527219
7182.000000;0.534439
7181.000000;0.540946
7180.000000;0.546424
7179.000000;0.552060
7178.000000;0.558946
7177.000000;0.566363
7176.000000;0.572393
7175.000000;0.576096
7174.000000;0.578507
7173.000000;0.581370
7172.000000;0.585411
7171.000000;0.590104
7170.000000;0.594622
7169.000000;0.598606
7168.000000;0.602401
7167.000000;0.606718
7166.000000;0.612020
7165.000000;0.618213
7164.000000;0.625072
7163.000000;0.632670
7162.000000;0.640725
7161.000000;0.648079
7160.000000;0.653834
7159.000000;0.658757
7158.000000;0.664465
7157.000000;0.671081
7156.000000;0.676673
7155.000000;0.679567
7154.000000;0.680595
7153.000000;0.682194
7152.000000;0.685559
7151.000000;0.689607
7150.000000;0.692738
7149.000000;0.694764
7148.000000;0.697012
7147.000000;0.700914
7146.000000;0.706624
7145.000000;0.713078
7144.000000;0.719364
7143.000000;0.725756
7142.000000;0.733199
7141.000000;0.741876
7140.000000;0.750449
7139.000000;0.757235
7138.000000;0.762259
7137.000000;0.767446
7136.000000;0.774237
7135.000000;0.781620
7134.000000;0.787302
7133.000000;0.790521
7132.000000;0.792814
7131.000000;0.795900
7130.000000;0.799795
7129.000000;0.803389
7128.000000;0.806172
7127.000000;0.808719
7126.000000;0.811713
7125.000000;0.815305
7124.000000;0.819386
7123.000000;0.823814
7122.000000;0.828486
7121.000000;0.833636
7120.000000;0.839918
7119.000000;0.847555
7118.000000;0.855460
7117.000000;0.862053
7116.000000;0.867206
7115.000000;0.872591
7114.000000;0.879544
7113.000000;0.887140
7112.000000;0.893116
7111.000000;0.896535
7110.000000;0.898810
7109.000000;0.901962
7108.000000;0.906512
7107.000000;0.911346
7106.000000;0.915152
7105.000000;0.917635
7104.000000;0.919588
7103.000000;0.922127
7102.000000;0.925810
7101.000000;0.930281
7100.000000;0.934887
7099.000000;0.939483
7098.000000;0.944428
7097.000000;0.949990
7096.000000;0.955767
7095.000000;0.960834
7094.000000;0.964702
7093.000000;0.968018
7092.000000;0.971949
7091.000000;0.976869
7090.000000;0.981951
7089.000000;0.986140
7088.000000;0.989315
7087.000000;0.992203
7086.000000;0.995319
7085.000000;0.998395
7084.000000;1.000939
7083.000000;1.003009
7082.000000;1.005145
7081.000000;1.007703
7080.000000;1.010604
7079.000000;1.013718
7078.000000;1.017130
7077.000000;1.020879
7076.000000;1.024678
7075.000000;1.028222
7074.000000;1.031818
7073.000000;1.036190
7072.000000;1.041426
7071.000000;1.046628
7070.000000;1.050903
7069.000000;1.054301
7068.000000;1.057466
7067.000000;1.060740
7066.000000;1.064048
7065.000000;1.067408
7064.000000;1.070948
7063.000000;1.074468
7062.000000;1.077491
7061.000000;1.079870
7060.000000;1.081935
7059.000000;1.083942
7058.000000;1.085766
7057.000000;1.087335
7056.000000;1.088996
7055.000000;1.091101
7054.000000;1.093622
7053.000000;1.096416
7052.000000;1.099514
7051.000000;1.102971
7050.000000;1.106622
7049.000000;1.110143
7048.000000;1.113334
7047.000000;1.116315
7046.000000;1.119426
7045.000000;1.122908
7044.000000;1.126564
7043.000000;1.129782
7042.000000;1.132118
7041.000000;1.133862
7040.000000;1.135767
7039.000000;1.138213
7038.000000;1.140906
7037.000000;1.143401
7036.000000;1.145584
7035.000000;1.147525
7034.000000;1.149270
7033.000000;1.150987
7032.000000;1.152986
7031.000000;1.155377
7030.000000;1.157897
7029.000000;1.160208
7028.000000;1.162254
7027.000000;1.164264
7026.000000;1.166556
7025.000000;1.169340
7024.000000;1.172453
7023.000000;1.175251
7022.000000;1.177135
7021.000000;1.178282
7020.000000;1.179523
7019.000000;1.181404
7018.000000;1.183728
7017.000000;1.186108
7016.000000;1.188522
7015.000000;1.191057
7014.000000;1.193495
7013.000000;1.195539
7012.000000;1.197239
7011.000000;1.198842
7010.000000;1.200352
7009.000000;1.201611
7008.000000;1.202715
7007.000000;1.204018
7006.000000;1.205750
7005.000000;1.207827
7004.000000;1.210009
7003.000000;1.212092
7002.000000;1.214012
7001.000000;1.215879
7000.000000;1.217870
6999.000000;1.219996
6998.000000;1.222068
6997.000000;1.223902
6996.000000;1.225461
6995.000000;1.226799
6994.000000;1.228019
6993.000000;1.229297
6992.000000;1.230748
6991.000000;1.232216
6990.000000;1.233426
6989.000000;1.234408
6988.000000;1.235498
6987.000000;1.236868
6986.000000;1.238370
6985.000000;1.239890
6984.000000;1.241564
6983.000000;1.243446
6982.000000;1.245225
6981.000000;1.246572
6980.000000;1.247594
6979.000000;1.248660
6978.000000;1.249908
6977.000000;1.251149
6976.000000;1.252181
6975.000000;1.253015
6974.000000;1.253861
6973.000000;1.254949
6972.000000;1.256305
6971.000000;1.257725
6970.000000;1.259079
6969.000000;1.260570
6968.000000;1.262406
6967.000000;1.264300
6966.000000;1.265664
6965.000000;1.266365
6964.000000;1.266897
6963.000000;1.267633
6962.000000;1.268257
6961.000000;1.268261
6960.000000;1.267768
6959.000000;1.267504
6958.000000;1.268054
6957.000000;1.269352
6956.000000;1.270840
6955.000000;1.271999
6954.000000;1.272836
6953.000000;1.273855
6952.000000;1.275429
6951.000000;1.277255
6950.000000;1.278641
6949.000000;1.279358
6948.000000;1.279877
6947.000000;1.280677
6946.000000;1.281648
6945.000000;1.282370
6944.000000;1.282726
6943.000000;1.282989
6942.000000;1.283459
6941.000000;1.284236
6940.000000;1.285258
6939.000000;1.286335
6938.000000;1.287168
6937.000000;1.287511
6936.000000;1.287333
6935.000000;1.286809
6934.000000;1.286276
6933.000000;1.286191
6932.000000;1.286924
6931.000000;1.288449
6930.000000;1.290292
6929.000000;1.291824
6928.000000;1.292567
6927.000000;1.292338
6926.000000;1.291363
6925.000000;1.290303
6924.000000;1.289888
6923.000000;1.290332
6922.000000;1.291162
6921.000000;1.291722
6920.000000;1.291812
6919.000000;1.291742
6918.000000;1.291820
6917.000000;1.292009
6916.000000;1.292164
6915.000000;1.292435
6914.000000;1.293199
6913.000000;1.294522
6912.000000;1.295839
6911.000000;1.296412
6910.000000;1.296110
6909.000000;1.295489
6908.000000;1.295054
6907.000000;1.294752
6906.000000;1.294323
6905.000000;1.293772
6904.000000;1.293251
6903.000000;1.292752
6902.000000;1.292247
6901.000000;1.291920
6900.000000;1.291937
6899.000000;1.292153
6898.000000;1.292320
6897.000000;1.292493
6896.000000;1.292928
6895.000000;1.293663
6894.000000;1.294458
6893.000000;1.295079
6892.000000;1.295395
6891.000000;1.295384
6890.000000;1.295294
6889.000000;1.295505
6888.000000;1.295890
6887.000000;1.295634
6886.000000;1.294286
6885.000000;1.292729
6884.000000;1.292426
6883.000000;1.293726
6882.000000;1.295489
6881.000000;1.296369
6880.000000;1.295962
6879.000000;1.294687
6878.000000;1.293185
6877.000000;1.292047
6876.000000;1.291652
6875.000000;1.291903
6874.000000;1.292320
6873.000000;1.292542
6872.000000;1.292498
6871.000000;1.292131
6870.000000;1.291414
6869.000000;1.290647
6868.000000;1.290324
6867.000000;1.290608
6866.000000;1.291257
6865.000000;1.292011
6864.000000;1.292609
6863.000000;1.292458
6862.000000;1.290942
6861.000000;1.288276
6860.000000;1.285601
6859.000000;1.283982
6858.000000;1.283579
6857.000000;1.283806
6856.000000;1.283919
6855.000000;1.283411
6854.000000;1.282274
6853.000000;1.281069
6852.000000;1.280382
6851.000000;1.280148
6850.000000;1.279767
6849.000000;1.278877
6848.000000;1.277650
6847.000000;1.276383
6846.000000;1.275286
6845.000000;1.274672
6844.000000;1.274749
6843.000000;1.275011
6842.000000;1.274411
6841.000000;1.272479
6840.000000;1.269899
6839.000000;1.267698
6838.000000;1.266253
6837.000000;1.265297
6836.000000;1.264468
6835.000000;1.263503
6834.000000;1.262219
6833.000000;1.260684
6832.000000;1.259278
6831.000000;1.258329
6830.000000;1.257744
6829.000000;1.257104
6828.000000;1.256068
6827.000000;1.254636
6826.000000;1.253094
6825.000000;1.251720
6824.000000;1.250479
6823.000000;1.249116
6822.000000;1.247587
6821.000000;1.246136
6820.000000;1.244688
6819.000000;1.242623
6818.000000;1.239640
6817.000000;1.236567
6816.000000;1.234593
6815.000000;1.233773
6814.000000;1.232939
6813.000000;1.231165
6812.000000;1.228700
6811.000000;1.226343
6810.000000;1.224528
6809.000000;1.223266
6808.000000;1.222380
6807.000000;1.221484
6806.000000;1.220076
6805.000000;1.217997
6804.000000;1.215546
6803.000000;1.213036
6802.000000;1.210539
6801.000000;1.208174
6800.000000;1.206176
6799.000000;1.204546
6798.000000;1.202966
6797.000000;1.201203
6796.000000;1.199234
6795.000000;1.196960
6794.000000;1.194249
6793.000000;1.191333
6792.000000;1.188650
6791.000000;1.186205
6790.000000;1.183612
6789.000000;1.180894
6788.000000;1.178617
6787.000000;1.176961
6786.000000;1.175260
6785.000000;1.172862
6784.000000;1.169950
6783.000000;1.167089
6782.000000;1.164420
6781.000000;1.161784
6780.000000;1.159218
6779.000000;1.156829
6778.000000;1.154458
6777.000000;1.151954
6776.000000;1.149551
6775.000000;1.147536
6774.000000;1.145746
6773.000000;1.143769
6772.000000;1.141478
6771.000000;1.139004
6770.000000;1.136373
6769.000000;1.133577
6768.000000;1.130866
6767.000000;1.128534
6766.000000;1.126489
6765.000000;1.124366
6764.000000;1.121992
6763.000000;1.119444
6762.000000;1.116747
6761.000000;1.113845
6760.000000;1.110813
6759.000000;1.107836
6758.000000;1.104989
6757.000000;1.102216
6756.000000;1.099477
6755.000000;1.096738
6754.000000;1.093898
6753.000000;1.090910
6752.000000;1.087914
6751.000000;1.085100
6750.000000;1.082532
6749.000000;1.080200
6748.000000;1.078059
6747.000000;1.075876
6746.000000;1.073259
6745.000000;1.070075
6744.000000;1.066682
6743.000000;1.063535
6742.000000;1.060713
6741.000000;1.058031
6740.000000;1.055415
6739.000000;1.052888
6738.000000;1.050326
6737.000000;1.047567
6736.000000;1.044700
6735.000000;1.041962
6734.000000;1.039368
6733.000000;1.036657
6732.000000;1.033646
6731.000000;1.030461
6730.000000;1.027400
6729.000000;1.024723
6728.000000;1.022509
6727.000000;1.020541
6726.000000;1.018366
6725.000000;1.015635
6724.000000;1.012386
6723.000000;1.008923
6722.000000;1.005505
6721.000000;1.002270
6720.000000;0.999328
6719.000000;0.996710
6718.000000;0.994251
6717.000000;0.991725
6716.000000;0.989088
6715.000000;0.986451
6714.000000;0.983833
6713.000000;0.981092
6712.000000;0.978129
6711.000000;0.975036
6710.000000;0.972022
6709.000000;0.969258
6708.000000;0.966756
6707.000000;0.964299
6706.000000;0.961623
6705.000000;0.958604
6704.000000;0.955437
6703.000000;0.952477
6702.000000;0.949796
6701.000000;0.947183
6700.000000;0.944512
6699.000000;0.941797
6698.000000;0.939259
6697.000000;0.936802
6696.000000;0.934558
6695.000000;0.932268
6694.000000;0.929613
6693.000000;0.926686
6692.000000;0.923661
6691.000000;0.920688
6690.000000;0.917724
6689.000000;0.914740
6688.000000;0.911819
6687.000000;0.909021
6686.000000;0.906222
6685.000000;0.903238
6684.000000;0.900065
6683.000000;0.896901
6682.000000;0.893943
6681.000000;0.891223
6680.000000;0.888625
6679.000000;0.886013
6678.000000;0.883352
6677.000000;0.880744
6676.000000;0.878292
6675.000000;0.875943
6674.000000;0.873521
6673.000000;0.870919
6672.000000;0.868143
6671.000000;0.865199
6670.000000;0.862100
6669.000000;0.859026
6668.000000;0.856271
6667.000000;0.853906
6666.000000;0.851643
6665.000000;0.849137
6664.000000;0.846313
6663.000000;0.843274
6662.000000;0.840087
6661.000000;0.836850
6660.000000;0.833819
6659.000000;0.831225
6658.000000;0.828974
6657.000000;0.826735
6656.000000;0.824310
6655.000000;0.821778
6654.000000;0.819274
6653.000000;0.816795
6652.000000;0.814237
6651.000000;0.811518
6650.000000;0.808658
6649.000000;0.805810
6648.000000;0.803182
6647.000000;0.800819
6646.000000;0.798495
6645.000000;0.795945
6644.000000;0.793165
6643.000000;0.790338
6642.000000;0.787518
6641.000000;0.784583
6640.000000;0.781545
6639.000000;0.778675
6638.000000;0.776191
6637.000000;0.773955
6636.000000;0.771619
6635.000000;0.769016
6634.000000;0.766276
6633.000000;0.763598
6632.000000;0.761043
6631.000000;0.758557
6630.000000;0.756086
6629.000000;0.753611
6628.000000;0.751130
6627.000000;0.748656
6626.000000;0.746214
6625.000000;0.743807
6624.000000;0.741383
6623.000000;0.738884
6622.000000;0.736327
6621.000000;0.733785
6620.000000;0.731264
6619.000000;0.728640
6618.000000;0.725796
6617.000000;0.722809
6616.000000;0.719931
6615.000000;0.717370
6614.000000;0.715116
6613.000000;0.712997
6612.000000;0.710842
6611.000000;0.708582
6610.000000;0.706235
6609.000000;0.703864
6608.000000;0.701524
6607.000000;0.699219
6606.000000;0.696919
6605.000000;0.694618
6604.000000;0.692348
6603.000000;0.690099
6602.000000;0.687771
6601.000000;0.685246
6600.000000;0.682518
6599.000000;0.679716
6598.000000;0.677010
6597.000000;0.674483
6596.000000;0.672094
6595.000000;0.669730
6594.000000;0.667322
6593.000000;0.664905
6592.000000;0.662574
6591.000000;0.660371
6590.000000;0.658224
6589.000000;0.655999
6588.000000;0.653612
6587.000000;0.651107
6586.000000;0.648655
6585.000000;0.646426
6584.000000;0.644433
6583.000000;0.642491
6582.000000;0.640375
6581.000000;0.638004
6580.000000;0.635479
6579.000000;0.632965
6578.000000;0.630592
6577.000000;0.628418
6576.000000;0.626389
6575.000000;0.624346
6574.000000;0.622134
6573.000000;0.619731
6572.000000;0.617228
6571.000000;0.614717
6570.000000;0.612260
6569.000000;0.609943
6568.000000;0.607843
6567.000000;0.605904
6566.000000;0.603939
6565.000000;0.601801
6564.000000;0.599507
6563.000000;0.597164
6562.000000;0.594846
6561.000000;0.592593
6560.000000;0.590449
6559.000000;0.588424
6558.000000;0.586450
6557.000000;0.584423
6556.000000;0.582300
6555.000000;0.580118
6554.000000;0.577935
6553.000000;0.575777
6552.000000;0.573624
6551.000000;0.571427
6550.000000;0.569169
6549.000000;0.566923
6548.000000;0.564806
6547.000000;0.562847
6546.000000;0.560921
6545.000000;0.558857
6544.000000;0.556608
6543.000000;0.554317
6542.000000;0.552193
6541.000000;0.550319
6540.000000;0.548551
6539.000000;0.546639
6538.000000;0.544471
6537.000000;0.542187
6536.000000;0.540017
6535.000000;0.538046
6534.000000;0.536180
6533.000000;0.534318
6532.000000;0.532446
6531.000000;0.530567
6530.000000;0.528631
6529.000000;0.526575
6528.000000;0.524397
6527.000000;0.522151
6526.000000;0.519928
6525.000000;0.517844
6524.000000;0.515972
6523.000000;0.514249
6522.000000;0.512514
6521.000000;0.510679
6520.000000;0.508808
6519.000000;0.507000
6518.000000;0.505239
6517.000000;0.503425
6516.000000;0.501482
6515.000000;0.499405
6514.000000;0.497242
6513.000000;0.495104
6512.000000;0.493148
6511.000000;0.491457
6510.000000;0.489926
6509.000000;0.488342
6508.000000;0.486573
6507.000000;0.484661
6506.000000;0.482732
6505.000000;0.480854
6504.000000;0.478994
6503.000000;0.477091
6502.000000;0.475150
6501.000000;0.473261
6500.000000;0.471511
6499.000000;0.469889
6498.000000;0.468282
6497.000000;0.466584
6496.000000;0.464789
6495.000000;0.462960
6494.000000;0.461148
6493.000000;0.459349
6492.000000;0.457527
6491.000000;0.455664
6490.000000;0.453781
6489.000000;0.451914
6488.000000;0.450072
6487.000000;0.448224
6486.000000;0.446346
6485.000000;0.444475
6484.000000;0.442696
6483.000000;0.441047
6482.000000;0.439491
6481.000000;0.437950
6480.000000;0.436372
6479.000000;0.434751
6478.000000;0.433098
6477.000000;0.431420
6476.000000;0.429704
6475.000000;0.427926
6474.000000;0.426094
6473.000000;0.424277
6472.000000;0.422561
6471.000000;0.420974
6470.000000;0.419463
6469.000000;0.417940
6468.000000;0.416334
6467.000000;0.414625
6466.000000;0.412854
6465.000000;0.411093
6464.000000;0.409403
6463.000000;0.407802
6462.000000;0.406291
6461.000000;0.404848
6460.000000;0.403389
6459.000000;0.401783
6458.000000;0.399992
6457.000000;0.398145
6456.000000;0.396430
6455.000000;0.394904
6454.000000;0.393459
6453.000000;0.391976
6452.000000;0.390434
6451.000000;0.388875
6450.000000;0.387335
6449.000000;0.385831
6448.000000;0.384376
6447.000000;0.382965
6446.000000;0.381578
6445.000000;0.380188
6444.000000;0.378763
6443.000000;0.377253
6442.000000;0.375648
6441.000000;0.374001
6440.000000;0.372375
6439.000000;0.370761
6438.000000;0.369114
6437.000000;0.367464
6436.000000;0.365911
6435.000000;0.364510
6434.000000;0.363208
6433.000000;0.361917
6432.000000;0.360591
6431.000000;0.359215
6430.000000;0.357773
6429.000000;0.356271
6428.000000;0.354762
6427.000000;0.353315
6426.000000;0.351964
6425.000000;0.350677
6424.000000;0.349361
6423.000000;0.347925
6422.000000;0.346381
6421.000000;0.344852
6420.000000;0.343445
6419.000000;0.342120
6418.000000;0.340755
6417.000000;0.339315
6416.000000;0.337884
6415.000000;0.336524
6414.000000;0.335204
6413.000000;0.333866
6412.000000;0.332492
6411.000000;0.331083
6410.000000;0.329637
6409.000000;0.328185
6408.000000;0.326795
6407.000000;0.325491
6406.000000;0.324223
6405.000000;0.322929
6404.000000;0.321593
6403.000000;0.320236
6402.000000;0.318884
6401.000000;0.317576
6400.000000;0.316334
6399.000000;0.315116
6398.000000;0.313840
6397.000000;0.312480
6396.000000;0.311084
6395.000000;0.309694
6394.000000;0.308319
6393.000000;0.306992
6392.000000;0.305779
6391.000000;0.304678
6390.000000;0.303583
6389.000000;0.302392
6388.000000;0.301119
6387.000000;0.299839
6386.000000;0.298581
6385.000000;0.297324
6384.000000;0.296060
6383.000000;0.294807
6382.000000;0.293564
6381.000000;0.292317
6380.000000;0.291060
6379.000000;0.289791
6378.000000;0.288497
6377.000000;0.287174
6376.000000;0.285852
6375.000000;0.284577
6374.000000;0.283379
6373.000000;0.282254
6372.000000;0.281161
6371.000000;0.280040
6370.000000;0.278858
6369.000000;0.277650
6368.000000;0.276475
6367.000000;0.275342
6366.000000;0.274208
6365.000000;0.273056
6364.000000;0.271926
6363.000000;0.270844
6362.000000;0.269786
6361.000000;0.268717
6360.000000;0.267636
6359.000000;0.266535
6358.000000;0.265389
6357.000000;0.264191
6356.000000;0.262973
6355.000000;0.261769
6354.000000;0.260585
6353.000000;0.259417
6352.000000;0.258278
6351.000000;0.257177
6350.000000;0.256118
6349.000000;0.255124
6348.000000;0.254210
6347.000000;0.253321
6346.000000;0.252348
6345.000000;0.251235
6344.000000;0.250028
6343.000000;0.248806
6342.000000;0.247609
6341.000000;0.246446
6340.000000;0.245330
6339.000000;0.244263
6338.000000;0.243222
6337.000000;0.242201
6336.000000;0.241219
6335.000000;0.240270
6334.000000;0.239308
6333.000000;0.238297
6332.000000;0.237248
6331.000000;0.236183
6330.000000;0.235104
6329.000000;0.234027
6328.000000;0.232996
6327.000000;0.232021
6326.000000;0.231044
6325.000000;0.230015
6324.000000;0.228953
6323.000000;0.227907
6322.000000;0.226901
6321.000000;0.225930
6320.000000;0.224977
6319.000000;0.224012
6318.000000;0.223004
6317.000000;0.221988
6316.000000;0.221042
6315.000000;0.220178
6314.000000;0.219302
6313.000000;0.218337
6312.000000;0.217337
6311.000000;0.216398
6310.000000;0.215522
6309.000000;0.214634
6308.000000;0.213694
6307.000000;0.212735
6306.000000;0.211779
6305.000000;0.210812
6304.000000;0.209837
6303.000000;0.208884
6302.000000;0.207957
6301.000000;0.207023
6300.000000;0.206069
6299.000000;0.205126
6298.000000;0.204223
6297.000000;0.203338
6296.000000;0.202432
6295.000000;0.201500
6294.000000;0.200578
6293.000000;0.199697
6292.000000;0.198835
6291.000000;0.197923
6290.000000;0.196918
6289.000000;0.195865
6288.000000;0.194870
6287.000000;0.193987
6286.000000;0.193172
6285.000000;0.192335
6284.000000;0.191440
6283.000000;0.190520
6282.000000;0.189627
6281.000000;0.188782
6280.000000;0.187970
6279.000000;0.187158
6278.000000;0.186329
6277.000000;0.185502
6276.000000;0.184702
6275.000000;0.183913
6274.000000;0.183100
6273.000000;0.182258
6272.000000;0.181415
6271.000000;0.180588
6270.000000;0.179768
6269.000000;0.178970
6268.000000;0.178222
6267.000000;0.177497
6266.000000;0.176713
6265.000000;0.175838
6264.000000;0.174936
6263.000000;0.174084
6262.000000;0.173269
6261.000000;0.172435
6260.000000;0.171572
6259.000000;0.170723
6258.000000;0.169911
6257.000000;0.169120
6256.000000;0.168336
6255.000000;0.167564
6254.000000;0.166808
6253.000000;0.166067
6252.000000;0.165348
6251.000000;0.164640
6250.000000;0.163910
6249.000000;0.163135
6248.000000;0.162332
6247.000000;0.161536
6246.000000;0.160750
6245.000000;0.159959
6244.000000;0.159161
6243.000000;0.158368
6242.000000;0.157585
6241.000000;0.156816
6240.000000;0.156084
6239.000000;0.155400
6238.000000;0.154732
6237.000000;0.154030
6236.000000;0.153263
6235.000000;0.152438
6234.000000;0.151585
6233.000000;0.150762
6232.000000;0.150023
6231.000000;0.149369
6230.000000;0.148727
6229.000000;0.148016
6228.000000;0.147232
6227.000000;0.146430
6226.000000;0.145664
6225.000000;0.144957
6224.000000;0.144314
6223.000000;0.143716
6222.000000;0.143108
6221.000000;0.142426
6220.000000;0.141667
6219.000000;0.140891
6218.000000;0.140157
6217.000000;0.139459
6216.000000;0.138743
6215.000000;0.137975
6214.000000;0.137185
6213.000000;0.136441
6212.000000;0.135771
6211.000000;0.135128
6210.000000;0.134442
6209.000000;0.133711
6208.000000;0.132995
6207.000000;0.132331
6206.000000;0.131679
6205.000000;0.130991
6204.000000;0.130288
6203.000000;0.129627
6202.000000;0.129026
6201.000000;0.128437
6200.000000;0.127809
6199.000000;0.127131
6198.000000;0.126428
6197.000000;0.125732
6196.000000;0.125048
6195.000000;0.124366
6194.000000;0.123690
6193.000000;0.123061
6192.000000;0.122507
6191.000000;0.121988
6190.000000;0.121423
6189.000000;0.120784
6188.000000;0.120120
6187.000000;0.119488
6186.000000;0.118884
6185.000000;0.118278
6184.000000;0.117666
6183.000000;0.117042
6182.000000;0.116376
6181.000000;0.115651
6180.000000;0.114916
6179.000000;0.114256
6178.000000;0.113702
6177.000000;0.113204
6176.000000;0.112683
6175.000000;0.112091
6174.000000;0.111429
6173.000000;0.110741
6172.000000;0.110078
6171.000000;0.109463
6170.000000;0.108876
6169.000000;0.108288
6168.000000;0.107697
6167.000000;0.107114
6166.000000;0.106528
6165.000000;0.105926
6164.000000;0.105311
6163.000000;0.104704
6162.000000;0.104115
6161.000000;0.103544
6160.000000;0.102988
6159.000000;0.102441
6158.000000;0.101891
6157.000000;0.101323
6156.000000;0.100731
6155.000000;0.100118
6154.000000;0.099508
6153.000000;0.098943
6152.000000;0.098450
6151.000000;0.097992
6150.000000;0.097488
6149.000000;0.096892
6148.000000;0.096246
6147.000000;0.095620
6146.000000;0.095045
6145.000000;0.094503
6144.000000;0.093970
6143.000000;0.093432
6142.000000;0.092874
6141.000000;0.092279
6140.000000;0.091640
6139.000000;0.090976
6138.000000;0.090327
6137.000000;0.089751
6136.000000;0.089286
6135.000000;0.088905
6134.000000;0.088530
6133.000000;0.088100
6132.000000;0.087608
6131.000000;0.087074
6130.000000;0.086501
6129.000000;0.085900
6128.000000;0.085292
6127.000000;0.084682
6126.000000;0.084049
6125.000000;0.083391
6124.000000;0.082758
6123.000000;0.082204
6122.000000;0.081716
6121.000000;0.081240
6120.000000;0.080739
6119.000000;0.080203
6118.000000;0.079630
6117.000000;0.079030
6116.000000;0.078443
6115.000000;0.077903
6114.000000;0.077395
6113.000000;0.076882
6112.000000;0.076369
6111.000000;0.075891
6110.000000;0.075450
6109.000000;0.074996
6108.000000;0.074486
6107.000000;0.073924
6106.000000;0.073336
6105.000000;0.072748
6104.000000;0.072188
6103.000000;0.071691
6102.000000;0.071267
6101.000000;0.070881
6100.000000;0.070483
6099.000000;0.070049
6098.000000;0.069587
6097.000000;0.069113
6096.000000;0.068640
6095.000000;0.068177
6094.000000;0.067721
6093.000000;0.067252
6092.000000;0.066745
6091.000000;0.066198
6090.000000;0.065645
6089.000000;0.065130
6088.000000;0.064663
6087.000000;0.064213
6086.000000;0.063740
6085.000000;0.063231
6084.000000;0.062698
6083.000000;0.062156
6082.000000;0.061626
6081.000000;0.061140
6080.000000;0.060720
6079.000000;0.060350
6078.000000;0.059986
6077.000000;0.059590
6076.000000;0.059142
6075.000000;0.058637
6074.000000;0.058093
6073.000000;0.057558
6072.000000;0.057074
6071.000000;0.056630
6070.000000;0.056186
6069.000000;0.055729
6068.000000;0.055280
6067.000000;0.054842
6066.000000;0.054384
6065.000000;0.053896
6064.000000;0.053413
6063.000000;0.052965
6062.000000;0.052538
6061.000000;0.052110
6060.000000;0.051694
6059.000000;0.051318
6058.000000;0.050974
6057.000000;0.050618
6056.000000;0.050225
6055.000000;0.049801
6054.000000;0.049373
6053.000000;0.048962
6052.000000;0.048571
6051.000000;0.048180
6050.000000;0.047763
6049.000000;0.047310
6048.000000;0.046832
6047.000000;0.046345
6046.000000;0.045862
6045.000000;0.045400
6044.000000;0.044978
6043.000000;0.044598
6042.000000;0.044237
6041.000000;0.043884
6040.000000;0.043542
6039.000000;0.043204
6038.000000;0.042852
6037.000000;0.042479
6036.000000;0.042102
6035.000000;0.041731
6034.000000;0.041354
6033.000000;0.040974
6032.000000;0.040610
6031.000000;0.040271
6030.000000;0.039932
6029.000000;0.039572
6028.000000;0.039194
6027.000000;0.038810
6026.000000;0.038417
6025.000000;0.038015
6024.000000;0.037624
6023.000000;0.037251
6022.000000;0.036887
6021.000000;0.036534
6020.000000;0.036216
6019.000000;0.035923
6018.000000;0.035593
6017.000000;0.035175
6016.000000;0.034700
6015.000000;0.034253
6014.000000;0.033881
6013.000000;0.033563
6012.000000;0.033254
6011.000000;0.032924
6010.000000;0.032562
6009.000000;0.032174
6008.000000;0.031783
6007.000000;0.031421
6006.000000;0.031109
6005.000000;0.030836
6004.000000;0.030572
6003.000000;0.030283
6002.000000;0.029964
6001.000000;0.029639
6000.000000;0.029330
5999.000000;0.029020
5998.000000;0.028681
5997.000000;0.028332
5996.000000;0.028028
5995.000000;0.027783
5994.000000;0.027534
5993.000000;0.027225
5992.000000;0.026875
5991.000000;0.026548
5990.000000;0.026272
5989.000000;0.026026
5988.000000;0.025773
5987.000000;0.025492
5986.000000;0.025175
5985.000000;0.024835
5984.000000;0.024507
5983.000000;0.024217
5982.000000;0.023956
5981.000000;0.023700
5980.000000;0.023436
5979.000000;0.023153
5978.000000;0.022829
5977.000000;0.022458
5976.000000;0.022079
5975.000000;0.021749
5974.000000;0.021487
5973.000000;0.021270
5972.000000;0.021067
5971.000000;0.020858
5970.000000;0.020625
5969.000000;0.020350
5968.000000;0.020041
5967.000000;0.019723
5966.000000;0.019422
5965.000000;0.019147
5964.000000;0.018889
5963.000000;0.018634
5962.000000;0.018375
5961.000000;0.018123
5960.000000;0.017887
5959.000000;0.017649
5958.000000;0.017384
5957.000000;0.017109
5956.000000;0.016881
5955.000000;0.016732
5954.000000;0.016609
5953.000000;0.016435
5952.000000;0.016187
5951.000000;0.015910
5950.000000;0.015647
5949.000000;0.015401
5948.000000;0.015158
5947.000000;0.014915
5946.000000;0.014691
5945.000000;0.014504
5944.000000;0.014352
5943.000000;0.014216
5942.000000;0.014068
5941.000000;0.013906
5940.000000;0.013754
5939.000000;0.013630
5938.000000;0.013517
5937.000000;0.013384
5936.000000;0.013224
5935.000000;0.013050
5934.000000;0.012865
5933.000000;0.012652
5932.000000;0.012405
5931.000000;0.012145
5930.000000;0.011915
5929.000000;0.011738
5928.000000;0.011598
5927.000000;0.011453
5926.000000;0.011269
5925.000000;0.011042
5924.000000;0.010785
5923.000000;0.010512
5922.000000;0.010252
5921.000000;0.010053
5920.000000;0.009932
5919.000000;0.009845
5918.000000;0.009726
5917.000000;0.009569
5916.000000;0.009433
5915.000000;0.009348
5914.000000;0.009285
5913.000000;0.009193
5912.000000;0.009058
5911.000000;0.008894
5910.000000;0.008710
5909.000000;0.008518
5908.000000;0.008332
5907.000000;0.008148
5906.000000;0.007944
5905.000000;0.007722
5904.000000;0.007522
5903.000000;0.007376
5902.000000;0.007263
5901.000000;0.007145
5900.000000;0.007003
5899.000000;0.006843
5898.000000;0.006668
5897.000000;0.006484
5896.000000;0.006318
5895.000000;0.006192
5894.000000;0.006097
5893.000000;0.006008
5892.000000;0.005900
5891.000000;0.005761
5890.000000;0.005587
5889.000000;0.005395
5888.000000;0.005213
5887.000000;0.005056
5886.000000;0.004905
5885.000000;0.004739
5884.000000;0.004564
5883.000000;0.004407
5882.000000;0.004294
5881.000000;0.004238
5880.000000;0.004235
5879.000000;0.004255
5878.000000;0.004252
5877.000000;0.004208
5876.000000;0.004141
5875.000000;0.004066
5874.000000;0.003978
5873.000000;0.003871
5872.000000;0.003747
5871.000000;0.003600
5870.000000;0.003429
5869.000000;0.003265
5868.000000;0.003158
5867.000000;0.003120
5866.000000;0.003097
5865.000000;0.003037
5864.000000;0.002945
5863.000000;0.002853
5862.000000;0.002772
5861.000000;0.002699
5860.000000;0.002643
5859.000000;0.002612
5858.000000;0.002587
5857.000000;0.002550
5856.000000;0.002519
5855.000000;0.002527
5854.000000;0.002569
5853.000000;0.002615
5852.000000;0.002648
5851.000000;0.002673
5850.000000;0.002680
5849.000000;0.002639
5848.000000;0.002531
5847.000000;0.002386
5846.000000;0.002271
5845.000000;0.002249
5844.000000;0.002337
5843.000000;0.002488
5842.000000;0.002634
5841.000000;0.002737
5840.000000;0.002794
5839.000000;0.002806
5838.000000;0.002763
5837.000000;0.002684
5836.000000;0.002626
5835.000000;0.002641
5834.000000;0.002732
5833.000000;0.002864
5832.000000;0.002999
5831.000000;0.003103
5830.000000;0.003150
5829.000000;0.003149
5828.000000;0.003146
5827.000000;0.003184
5826.000000;0.003266
5825.000000;0.003373
5824.000000;0.003488
5823.000000;0.003601
5822.000000;0.003709
5821.000000;0.003821
5820.000000;0.003945
5819.000000;0.004062
5818.000000;0.004141
5817.000000;0.004186
5816.000000;0.004250
5815.000000;0.004373
5814.000000;0.004545
5813.000000;0.004736
5812.000000;0.004923
5811.000000;0.005078
5810.000000;0.005174
5809.000000;0.005231
5808.000000;0.005319
5807.000000;0.005489
5806.000000;0.005709
5805.000000;0.005902
5804.000000;0.006034
5803.000000;0.006128
5802.000000;0.006223
5801.000000;0.006340
5800.000000;0.006487
5799.000000;0.006651
5798.000000;0.006809
5797.000000;0.006955
5796.000000;0.007115
5795.000000;0.007300
5794.000000;0.007489
5793.000000;0.007659
5792.000000;0.007827
5791.000000;0.008016
5790.000000;0.008212
5789.000000;0.008378
5788.000000;0.008505
5787.000000;0.008615
5786.000000;0.008739
5785.000000;0.008910
5784.000000;0.009152
5783.000000;0.009453
5782.000000;0.009754
5781.000000;0.010005
5780.000000;0.010225
5779.000000;0.010462
5778.000000;0.010734
5777.000000;0.011018
5776.000000;0.011289
5775.000000;0.011556
5774.000000;0.011848
5773.000000;0.012190
5772.000000;0.012582
5771.000000;0.012982
5770.000000;0.013327
5769.000000;0.013596
5768.000000;0.013822
5767.000000;0.014051
5766.000000;0.014298
5765.000000;0.014570
5764.000000;0.014890
5763.000000;0.015269
5762.000000;0.015676
5761.000000;0.016060
5760.000000;0.016387
5759.000000;0.016650
5758.000000;0.016866
5757.000000;0.017083
5756.000000;0.017368
5755.000000;0.017734
5754.000000;0.018122
5753.000000;0.018468
5752.000000;0.018785
5751.000000;0.019126
5750.000000;0.019506
5749.000000;0.019890
5748.000000;0.020255
5747.000000;0.020621
5746.000000;0.021015
5745.000000;0.021449
5744.000000;0.021919
5743.000000;0.022401
5742.000000;0.022846
5741.000000;0.023220
5740.000000;0.023545
5739.000000;0.023881
5738.000000;0.024272
5737.000000;0.024725
5736.000000;0.025229
5735.000000;0.025766
5734.000000;0.026303
5733.000000;0.026804
5732.000000;0.027261
5731.000000;0.027698
5730.000000;0.028144
5729.000000;0.028613
5728.000000;0.029098
5727.000000;0.029577
5726.000000;0.030031
5725.000000;0.030473
5724.000000;0.030936
5723.000000;0.031437
5722.000000;0.031963
5721.000000;0.032504
5720.000000;0.033057
5719.000000;0.033609
5718.000000;0.034126
5717.000000;0.034606
5716.000000;0.035097
5715.000000;0.035644
5714.000000;0.036242
5713.000000;0.036855
5712.000000;0.037454
5711.000000;0.038021
5710.000000;0.038544
5709.000000;0.039044
5708.000000;0.039582
5707.000000;0.040187
5706.000000;0.040812
5705.000000;0.041391
5704.000000;0.041913
5703.000000;0.042421
5702.000000;0.042948
5701.000000;0.043501
5700.000000;0.044093
5699.000000;0.044744
5698.000000;0.045448
5697.000000;0.046168
5696.000000;0.046849
5695.000000;0.047473
5694.000000;0.048005
5693.000000;0.048560
5692.000000;0.049118
5691.000000;0.049704
5690.000000;0.050357
5689.000000;0.050994
5688.000000;0.051584
5687.000000;0.052114
5686.000000;0.052605
5685.000000;0.053089
5684.000000;0.053610
5683.000000;0.054195
5682.000000;0.054835
5681.000000;0.055491
5680.000000;0.056119
5679.000000;0.056682
5678.000000;0.057174
5677.000000;0.057644
5676.000000;0.058177
5675.000000;0.058810
5674.000000;0.059501
5673.000000;0.060181
5672.000000;0.060816
5671.000000;0.061412
5670.000000;0.061985
5669.000000;0.062554
5668.000000;0.063132
5667.000000;0.063709
5666.000000;0.064270
5665.000000;0.064833
5664.000000;0.065445
5663.000000;0.066113
5662.000000;0.066794
5661.000000;0.067436
5660.000000;0.068013
5659.000000;0.068505
5658.000000;0.068899
5657.000000;0.069240
5656.000000;0.069615
5655.000000;0.070066
5654.000000;0.070552
5653.000000;0.071035
5652.000000;0.071540
5651.000000;0.072091
5650.000000;0.072643
5649.000000;0.073141
5648.000000;0.073594
5647.000000;0.074040
5646.000000;0.074477
5645.000000;0.074884
5644.000000;0.075288
5643.000000;0.075741
5642.000000;0.076248
5641.000000;0.076768
5640.000000;0.077261
5639.000000;0.077700
5638.000000;0.078057
5637.000000;0.078324
5636.000000;0.078548
5635.000000;0.078805
5634.000000;0.079139
5633.000000;0.079543
5632.000000;0.079975
5631.000000;0.080372
5630.000000;0.080685
5629.000000;0.080928
5628.000000;0.081167
5627.000000;0.081441
5626.000000;0.081728
5625.000000;0.082010
5624.000000;0.082314
5623.000000;0.082642
5622.000000;0.082924
5621.000000;0.083094
5620.000000;0.083183
5619.000000;0.083271
5618.000000;0.083395
5617.000000;0.083557
5616.000000;0.083773
5615.000000;0.084046
5614.000000;0.084323
5613.000000;0.084549
5612.000000;0.084727
5611.000000;0.084883
5610.000000;0.085002
5609.000000;0.085060
5608.000000;0.085097
5607.000000;0.085183
5606.000000;0.085332
5605.000000;0.085501
5604.000000;0.085647
5603.000000;0.085746
5602.000000;0.085791
5601.000000;0.085793
5600.000000;0.085789
5599.000000;0.085794
5598.000000;0.085785
5597.000000;0.085747
5596.000000;0.085702
5595.000000;0.085650
5594.000000;0.085548
5593.000000;0.085385
5592.000000;0.085230
5591.000000;0.085142
5590.000000;0.085093
5589.000000;0.085035
5588.000000;0.084985
5587.000000;0.084972
5586.000000;0.084948
5585.000000;0.084836
5584.000000;0.084645
5583.000000;0.084457
5582.000000;0.084315
5581.000000;0.084204
5580.000000;0.084101
5579.000000;0.084005
5578.000000;0.083907
5577.000000;0.083802
5576.000000;0.083703
5575.000000;0.083603
5574.000000;0.083460
5573.000000;0.083281
5572.000000;0.083150
5571.000000;0.083115
5570.000000;0.083086
5569.000000;0.082942
5568.000000;0.082701
5567.000000;0.082472
5566.000000;0.082278
5565.000000;0.082041
5564.000000;0.081743
5563.000000;0.081459
5562.000000;0.081218
5561.000000;0.080947
5560.000000;0.080602
5559.000000;0.080261
5558.000000;0.080028
5557.000000;0.079913
5556.000000;0.079871
5555.000000;0.079885
5554.000000;0.079940
5553.000000;0.079969
5552.000000;0.079922
5551.000000;0.079854
5550.000000;0.079854
5549.000000;0.079899
5548.000000;0.079858
5547.000000;0.079640
5546.000000;0.079272
5545.000000;0.078831
5544.000000;0.078342
5543.000000;0.077772
5542.000000;0.077120
5541.000000;0.076492
5540.000000;0.076066
5539.000000;0.075955
5538.000000;0.076080
5537.000000;0.076231
5536.000000;0.076289
5535.000000;0.076321
5534.000000;0.076391
5533.000000;0.076398
5532.000000;0.076199
5531.000000;0.075811
5530.000000;0.075362
5529.000000;0.074880
5528.000000;0.074269
5527.000000;0.073524
5526.000000;0.072840
5525.000000;0.072478
5524.000000;0.072531
5523.000000;0.072833
5522.000000;0.073128
5521.000000;0.073299
5520.000000;0.073462
5519.000000;0.073792
5518.000000;0.074236
5517.000000;0.074516
5516.000000;0.074464
5515.000000;0.074182
5514.000000;0.073837
5513.000000;0.073390
5512.000000;0.072761
5511.000000;0.072187
5510.000000;0.072092
5509.000000;0.072550
5508.000000;0.073155
5507.000000;0.073550
5506.000000;0.073837
5505.000000;0.074251
5504.000000;0.074631
5503.000000;0.074565
5502.000000;0.074041
5501.000000;0.073500
5500.000000;0.073147
5499.000000;0.072626
5498.000000;0.071591
5497.000000;0.070501
5496.000000;0.070471
5495.000000;0.072016
5494.000000;0.074414
5493.000000;0.076620
5492.000000;0.078519
5491.000000;0.080814
5490.000000;0.083601
5489.000000;0.085824
5488.000000;0.086517
5487.000000;0.085934
5486.000000;0.084890
5485.000000;0.083443
5484.000000;0.081019
5483.000000;0.077656
5482.000000;0.074292
5481.000000;0.071666
5480.000000;0.069685
5479.000000;0.068427
5478.000000;0.068779
5477.000000;0.071253
5476.000000;0.074891
5475.000000;0.078055
5474.000000;0.080276
5473.000000;0.082386
5472.000000;0.084693
5471.000000;0.086258
5470.000000;0.086351
5469.000000;0.085528
5468.000000;0.084674
5467.000000;0.083837
5466.000000;0.082590
5465.000000;0.081222
5464.000000;0.080885
5463.000000;0.082332
5462.000000;0.084971
5461.000000;0.087426
5460.000000;0.088855
5459.000000;0.089550
5458.000000;0.090098
5457.000000;0.090329
5456.000000;0.089608
5455.000000;0.087860
5454.000000;0.085785
5453.000000;0.084200
5452.000000;0.083416
5451.000000;0.083201
5450.000000;0.083351
5449.000000;0.084388
5448.000000;0.087241
5447.000000;0.091899
5446.000000;0.096779
5445.000000;0.100497
5444.000000;0.103815
5443.000000;0.108227
5442.000000;0.113018
5441.000000;0.115671
5440.000000;0.115191
5439.000000;0.113523
5438.000000;0.113013
5437.000000;0.113669
5436.000000;0.113966
5435.000000;0.113249
5434.000000;0.112211
5433.000000;0.111975
5432.000000;0.113305
5431.000000;0.116092
5430.000000;0.119434
5429.000000;0.122391
5428.000000;0.124628
5427.000000;0.126182
5426.000000;0.126726
5425.000000;0.125671
5424.000000;0.123073
5423.000000;0.119794
5422.000000;0.116624
5421.000000;0.113601
5420.000000;0.110329
5419.000000;0.106819
5418.000000;0.104191
5417.000000;0.104405
5416.000000;0.108537
5415.000000;0.115525
5414.000000;0.123257
5413.000000;0.130881
5412.000000;0.139157
5411.000000;0.148092
5410.000000;0.155744
5409.000000;0.160327
5408.000000;0.162293
5407.000000;0.162989
5406.000000;0.162274
5405.000000;0.159188
5404.000000;0.154295
5403.000000;0.149581
5402.000000;0.146253
5401.000000;0.144039
5400.000000;0.142823
5399.000000;0.143192
5398.000000;0.145450
5397.000000;0.149570
5396.000000;0.155578
5395.000000;0.163168
5394.000000;0.171095
5393.000000;0.177904
5392.000000;0.183427
5391.000000;0.188354
5390.000000;0.192658
5389.000000;0.195768
5388.000000;0.197972
5387.000000;0.200325
5386.000000;0.203045
5385.000000;0.205396
5384.000000;0.207367
5383.000000;0.210060
5382.000000;0.213860
5381.000000;0.217924
5380.000000;0.222163
5379.000000;0.227619
5378.000000;0.234434
5377.000000;0.241233
5376.000000;0.247163
5375.000000;0.253210
5374.000000;0.260391
5373.000000;0.267754
5372.000000;0.273622
5371.000000;0.277768
5370.000000;0.281042
5369.000000;0.283650
5368.000000;0.285317
5367.000000;0.286890
5366.000000;0.290098
5365.000000;0.295625
5364.000000;0.302596
5363.000000;0.310173
5362.000000;0.318360
5361.000000;0.327108
5360.000000;0.335768
5359.000000;0.343774
5358.000000;0.351562
5357.000000;0.360350
5356.000000;0.371116
5355.000000;0.383943
5354.000000;0.397990
5353.000000;0.412156
5352.000000;0.426069
5351.000000;0.440159
5350.000000;0.454292
5349.000000;0.467415
5348.000000;0.479558
5347.000000;0.492649
5346.000000;0.507994
5345.000000;0.524102
5344.000000;0.538449
5343.000000;0.551154
5342.000000;0.565164
5341.000000;0.581998
5340.000000;0.599737
5339.000000;0.616201
5338.000000;0.631652
5337.000000;0.647137
5336.000000;0.662241
5335.000000;0.676121
5334.000000;0.689300
5333.000000;0.702930
5332.000000;0.717020
5331.000000;0.731025
5330.000000;0.745434
5329.000000;0.761284
5328.000000;0.778664
5327.000000;0.796876
5326.000000;0.815905
5325.000000;0.836210
5324.000000;0.856985
5323.000000;0.876589
5322.000000;0.895049
5321.000000;0.914039
5320.000000;0.934262
5319.000000;0.954774
5318.000000;0.975141
5317.000000;0.996347
5316.000000;1.019071
5315.000000;1.042714
5314.000000;1.066633
5313.000000;1.090988
5312.000000;1.115972
5311.000000;1.141673
5310.000000;1.168535
5309.000000;1.196574
5308.000000;1.224511
5307.000000;1.251118
5306.000000;1.277078
5305.000000;1.303713
5304.000000;1.330501
5303.000000;1.355918
5302.000000;1.380048
5301.000000;1.404021
5300.000000;1.427360
5299.000000;1.448516
5298.000000;1.467769
5297.000000;1.486826
5296.000000;1.505715
5295.000000;1.522925
5294.000000;1.538635
5293.000000;1.554695
5292.000000;1.571307
5291.000000;1.586958
5290.000000;1.601541
5289.000000;1.616558
5288.000000;1.632156
5287.000000;1.646699
5286.000000;1.659314
5285.000000;1.670311
5284.000000;1.679545
5283.000000;1.686744
5282.000000;1.692912
5281.000000;1.699003
5280.000000;1.703931
5279.000000;1.706329
5278.000000;1.707386
5277.000000;1.709227
5276.000000;1.711548
5275.000000;1.712422
5274.000000;1.711631
5273.000000;1.711054
5272.000000;1.712387
5271.000000;1.716213
5270.000000;1.722109
5269.000000;1.727884
5268.000000;1.730584
5267.000000;1.730259
5266.000000;1.730784
5265.000000;1.735500
5264.000000;1.743952
5263.000000;1.753592
5262.000000;1.762140
5261.000000;1.767091
5260.000000;1.766015
5259.000000;1.760140
5258.000000;1.754783
5257.000000;1.753446
5256.000000;1.753856
5255.000000;1.752040
5254.000000;1.748178
5253.000000;1.745469
5252.000000;1.745517
5251.000000;1.747916
5250.000000;1.752376
5249.000000;1.758102
5248.000000;1.762840
5247.000000;1.765314
5246.000000;1.766874
5245.000000;1.768667
5244.000000;1.769444
5243.000000;1.768371
5242.000000;1.766996
5241.000000;1.765770
5240.000000;1.761693
5239.000000;1.752871
5238.000000;1.742838
5237.000000;1.736565
5236.000000;1.734582
5235.000000;1.734396
5234.000000;1.735362
5233.000000;1.738147
5232.000000;1.741138
5231.000000;1.741545
5230.000000;1.739542
5229.000000;1.738058
5228.000000;1.738814
5227.000000;1.741171
5226.000000;1.744132
5225.000000;1.747254
5224.000000;1.749973
5223.000000;1.752038
5222.000000;1.754036
5221.000000;1.755893
5220.000000;1.756041
5219.000000;1.753624
5218.000000;1.750235
5217.000000;1.747573
5216.000000;1.744905
5215.000000;1.741104
5214.000000;1.737568
5213.000000;1.736525
5212.000000;1.737620
5211.000000;1.738647
5210.000000;1.739373
5209.000000;1.742032
5208.000000;1.747605
5207.000000;1.753956
5206.000000;1.758526
5205.000000;1.761157
5204.000000;1.763352
5203.000000;1.765925
5202.000000;1.767907
5201.000000;1.767251
5200.000000;1.762817
5199.000000;1.756075
5198.000000;1.750226
5197.000000;1.747158
5196.000000;1.746105
5195.000000;1.745566
5194.000000;1.745083
5193.000000;1.744520
5192.000000;1.743410
5191.000000;1.742056
5190.000000;1.741761
5189.000000;1.742798
5188.000000;1.743558
5187.000000;1.743009
5186.000000;1.742523
5185.000000;1.743734
5184.000000;1.746018
5183.000000;1.747474
5182.000000;1.747161
5181.000000;1.745339
5180.000000;1.742904
5179.000000;1.741653
5178.000000;1.743209
5177.000000;1.746198
5176.000000;1.746494
5175.000000;1.742324
5174.000000;1.737221
5173.000000;1.735661
5172.000000;1.737833
5171.000000;1.740635
5170.000000;1.741984
5169.000000;1.742082
5168.000000;1.741833
5167.000000;1.742368
5166.000000;1.745065
5165.000000;1.749665
5164.000000;1.753211
5163.000000;1.753388
5162.000000;1.751963
5161.000000;1.751983
5160.000000;1.752978
5159.000000;1.751926
5158.000000;1.748112
5157.000000;1.744164
5156.000000;1.742597
5155.000000;1.743958
5154.000000;1.747827
5153.000000;1.752935
5152.000000;1.756495
5151.000000;1.756081
5150.000000;1.752576
5149.000000;1.749155
5148.000000;1.747452
5147.000000;1.746726
5146.000000;1.746255
5145.000000;1.746358
5144.000000;1.746948
5143.000000;1.746884
5142.000000;1.745422
5141.000000;1.743227
5140.000000;1.741449
5139.000000;1.740622
5138.000000;1.740650
5137.000000;1.741147
5136.000000;1.741669
5135.000000;1.741996
5134.000000;1.742153
5133.000000;1.741998
5132.000000;1.741147
5131.000000;1.739699
5130.000000;1.738489
5129.000000;1.738096
5128.000000;1.738361
5127.000000;1.739206
5126.000000;1.740819
5125.000000;1.742597
5124.000000;1.743171
5123.000000;1.742271
5122.000000;1.741343
5121.000000;1.741479
5120.000000;1.742109
5119.000000;1.742707
5118.000000;1.744293
5117.000000;1.747735
5116.000000;1.751756
5115.000000;1.754212
5114.000000;1.754598
5113.000000;1.753768
5112.000000;1.752135
5111.000000;1.749785
5110.000000;1.747456
5109.000000;1.745769
5108.000000;1.744122
5107.000000;1.741710
5106.000000;1.739075
5105.000000;1.737507
5104.000000;1.737451
5103.000000;1.738493
5102.000000;1.740303
5101.000000;1.742611
5100.000000;1.744802
5099.000000;1.746437
5098.000000;1.747549
5097.000000;1.747987
5096.000000;1.747534
5095.000000;1.747036
5094.000000;1.747827
5093.000000;1.749298
5092.000000;1.748890
5091.000000;1.745715
5090.000000;1.742272
5089.000000;1.741161
5088.000000;1.742110
5087.000000;1.743709
5086.000000;1.746139
5085.000000;1.749961
5084.000000;1.753661
5083.000000;1.754996
5082.000000;1.753982
5081.000000;1.752150
5080.000000;1.749688
5079.000000;1.745848
5078.000000;1.741447
5077.000000;1.738525
5076.000000;1.738088
5075.000000;1.739779
5074.000000;1.743016
5073.000000;1.746970
5072.000000;1.750025
5071.000000;1.751186
5070.000000;1.751719
5069.000000;1.753212
5068.000000;1.754376
5067.000000;1.752293
5066.000000;1.747055
5065.000000;1.742560
5064.000000;1.742112
5063.000000;1.745264
5062.000000;1.749239
5061.000000;1.751910
5060.000000;1.752868
5059.000000;1.752842
5058.000000;1.753002
5057.000000;1.754033
5056.000000;1.755233
5055.000000;1.755045
5054.000000;1.752733
5053.000000;1.749036
5052.000000;1.745303
5051.000000;1.742707
5050.000000;1.742000
5049.000000;1.743061
5048.000000;1.744684
5047.000000;1.745542
5046.000000;1.745289
5045.000000;1.744256
5044.000000;1.742774
5043.000000;1.741636
5042.000000;1.742299
5041.000000;1.745312
5040.000000;1.748880
5039.000000;1.750254
5038.000000;1.748579
5037.000000;1.745342
5036.000000;1.742380
5035.000000;1.740852
5034.000000;1.741679
5033.000000;1.745214
5032.000000;1.750021
5031.000000;1.753340
5030.000000;1.753665
5029.000000;1.752039
5028.000000;1.750310
5027.000000;1.749022
5026.000000;1.747471
5025.000000;1.745212
5024.000000;1.743006
5023.000000;1.742291
5022.000000;1.743650
5021.000000;1.745764
5020.000000;1.746412
5019.000000;1.744959
5018.000000;1.743166
5017.000000;1.742946
5016.000000;1.744120
5015.000000;1.745107
5014.000000;1.745030
5013.000000;1.744090
5012.000000;1.742449
5011.000000;1.740211
5010.000000;1.738300
5009.000000;1.737889
5008.000000;1.738649
5007.000000;1.738667
5006.000000;1.736669
5005.000000;1.733652
5004.000000;1.731823
5003.000000;1.732400
5002.000000;1.734614
5001.000000;1.736493
5000.000000;1.736570
4999.000000;1.735013
4998.000000;1.732979
4997.000000;1.731423
4996.000000;1.730730
4995.000000;1.730820
4994.000000;1.731336
4993.000000;1.731426
4992.000000;1.730459
4991.000000;1.728891
4990.000000;1.727822
4989.000000;1.727528
4988.000000;1.727213
4987.000000;1.726338
4986.000000;1.725252
4985.000000;1.724169
4984.000000;1.722669
4983.000000;1.720763
4982.000000;1.719328
4981.000000;1.718643
4980.000000;1.717518
4979.000000;1.714899
4978.000000;1.711535
4977.000000;1.708949
4976.000000;1.707522
4975.000000;1.706642
4974.000000;1.706014
4973.000000;1.705626
4972.000000;1.704882
4971.000000;1.703113
4970.000000;1.700902
4969.000000;1.699648
4968.000000;1.699637
4967.000000;1.699539
4966.000000;1.698163
4965.000000;1.695985
4964.000000;1.694409
4963.000000;1.694004
4962.000000;1.693957
4961.000000;1.692995
4960.000000;1.690432
4959.000000;1.686307
4958.000000;1.681091
4957.000000;1.675860
4956.000000;1.672464
4955.000000;1.672477
4954.000000;1.675368
4953.000000;1.678223
4952.000000;1.678217
4951.000000;1.675229
4950.000000;1.671168
4949.000000;1.667277
4948.000000;1.663386
4947.000000;1.659374
4946.000000;1.655836
4945.000000;1.653124
4944.000000;1.650987
4943.000000;1.649479
4942.000000;1.649038
4941.000000;1.649170
4940.000000;1.648078
4939.000000;1.644494
4938.000000;1.639275
4937.000000;1.634525
4936.000000;1.631820
4935.000000;1.631526
4934.000000;1.632777
4933.000000;1.633624
4932.000000;1.632214
4931.000000;1.628480
4930.000000;1.623958
4929.000000;1.619604
4928.000000;1.614862
4927.000000;1.609400
4926.000000;1.604506
4925.000000;1.601757
4924.000000;1.601061
4923.000000;1.600780
4922.000000;1.599357
4921.000000;1.596315
4920.000000;1.592177
4919.000000;1.587996
4918.000000;1.584638
4917.000000;1.582042
4916.000000;1.579413
4915.000000;1.576273
4914.000000;1.572865
4913.000000;1.569464
4912.000000;1.566102
4911.000000;1.563145
4910.000000;1.561115
4909.000000;1.559623
4908.000000;1.557417
4907.000000;1.553980
4906.000000;1.550195
4905.000000;1.546897
4904.000000;1.543754
4903.000000;1.540203
4902.000000;1.536548
4901.000000;1.533371
4900.000000;1.530553
4899.000000;1.527594
4898.000000;1.524300
4897.000000;1.520516
4896.000000;1.515940
4895.000000;1.510948
4894.000000;1.506822
4893.000000;1.504298
4892.000000;1.502511
4891.000000;1.500186
4890.000000;1.497218
4889.000000;1.494138
4888.000000;1.490759
4887.000000;1.486511
4886.000000;1.481716
4885.000000;1.477384
4884.000000;1.473902
4883.000000;1.470800
4882.000000;1.467673
4881.000000;1.464464
4880.000000;1.461021
4879.000000;1.457235
4878.000000;1.453604
4877.000000;1.450840
4876.000000;1.448771
4875.000000;1.446273
4874.000000;1.442490
4873.000000;1.437714
4872.000000;1.432905
4871.000000;1.428663
4870.000000;1.424762
4869.000000;1.420515
4868.000000;1.415629
4867.000000;1.410745
4866.000000;1.406822
4865.000000;1.403847
4864.000000;1.400641
4863.000000;1.396307
4862.000000;1.391399
4861.000000;1.387087
4860.000000;1.383654
4859.000000;1.380454
4858.000000;1.377017
4857.000000;1.373508
4856.000000;1.370154
4855.000000;1.366820
4854.000000;1.363286
4853.000000;1.359555
4852.000000;1.355752
4851.000000;1.351959
4850.000000;1.348145
4849.000000;1.344096
4848.000000;1.339531
4847.000000;1.334487
4846.000000;1.329429
4845.000000;1.324797
4844.000000;1.320648
4843.000000;1.316861
4842.000000;1.313335
4841.000000;1.309771
4840.000000;1.305659
4839.000000;1.300911
4838.000000;1.296228
4837.000000;1.292406
4836.000000;1.289446
4835.000000;1.286672
4834.000000;1.283508
4833.000000;1.279798
4832.000000;1.275598
4831.000000;1.271071
4830.000000;1.266487
4829.000000;1.262009
4828.000000;1.257561
4827.000000;1.253138
4826.000000;1.248994
4825.000000;1.245252
4824.000000;1.241591
4823.000000;1.237660
4822.000000;1.233546
4821.000000;1.229465
4820.000000;1.225255
4819.000000;1.220690
4818.000000;1.216096
4817.000000;1.212107
4816.000000;1.208871
4815.000000;1.205899
4814.000000;1.202676
4813.000000;1.199037
4812.000000;1.194992
4811.000000;1.190576
4810.000000;1.185912
4809.000000;1.181137
4808.000000;1.176272
4807.000000;1.171400
4806.000000;1.166913
4805.000000;1.163210
4804.000000;1.160176
4803.000000;1.157281
4802.000000;1.154168
4801.000000;1.150829
4800.000000;1.147242
4799.000000;1.143247
4798.000000;1.138891
4797.000000;1.134549
4796.000000;1.130589
4795.000000;1.127085
4794.000000;1.123867
4793.000000;1.120632
4792.000000;1.117016
4791.000000;1.112841
4790.000000;1.108364
4789.000000;1.104056
4788.000000;1.100118
4787.000000;1.096431
4786.000000;1.092951
4785.000000;1.089839
4784.000000;1.087088
4783.000000;1.084319
4782.000000;1.081127
4781.000000;1.077478
4780.000000;1.073621
4779.000000;1.069773
4778.000000;1.066008
4777.000000;1.062320
4776.000000;1.058638
4775.000000;1.054849
4774.000000;1.050937
4773.000000;1.047077
4772.000000;1.043504
4771.000000;1.040297
4770.000000;1.037294
4769.000000;1.034199
4768.000000;1.030781
4767.000000;1.026994
4766.000000;1.022969
4765.000000;1.018901
4764.000000;1.014988
4763.000000;1.011414
4762.000000;1.008241
4761.000000;1.005267
4760.000000;1.002129
4759.000000;0.998669
4758.000000;0.995085
4757.000000;0.991641
4756.000000;0.988345
4755.000000;0.985055
4754.000000;0.981745
4753.000000;0.978456
4752.000000;0.975128
4751.000000;0.971712
4750.000000;0.968408
4749.000000;0.965498
4748.000000;0.962918
4747.000000;0.960229
4746.000000;0.957095
4745.000000;0.953607
4744.000000;0.950072
4743.000000;0.946686
4742.000000;0.943531
4741.000000;0.940679
4740.000000;0.938078
4739.000000;0.935428
4738.000000;0.932356
4737.000000;0.928779
4736.000000;0.925004
4735.000000;0.921459
4734.000000;0.918346
4733.000000;0.915569
4732.000000;0.912888
4731.000000;0.910119
4730.000000;0.907207
4729.000000;0.904176
4728.000000;0.901090
4727.000000;0.898064
4726.000000;0.895212
4725.000000;0.892533
4724.000000;0.889875
4723.000000;0.887075
4722.000000;0.884113
4721.000000;0.881113
4720.000000;0.878200
4719.000000;0.875432
4718.000000;0.872807
4717.000000;0.870298
4716.000000;0.867860
4715.000000;0.865471
4714.000000;0.863121
4713.000000;0.860772
4712.000000;0.858351
4711.000000;0.855831
4710.000000;0.853260
4709.000000;0.850679
4708.000000;0.848075
4707.000000;0.845471
4706.000000;0.842979
4705.000000;0.840677
4704.000000;0.838476
4703.000000;0.836225
4702.000000;0.833897
4701.000000;0.831578
4700.000000;0.829297
4699.000000;0.826951
4698.000000;0.824425
4697.000000;0.821733
4696.000000;0.819032
4695.000000;0.816536
4694.000000;0.814358
4693.000000;0.812383
4692.000000;0.810342
4691.000000;0.808087
4690.000000;0.805737
4689.000000;0.803487
4688.000000;0.801367
4687.000000;0.799273
4686.000000;0.797167
4685.000000;0.795079
4684.000000;0.792952
4683.000000;0.790685
4682.000000;0.788347
4681.000000;0.786167
4680.000000;0.784258
4679.000000;0.782470
4678.000000;0.780587
4677.000000;0.778562
4676.000000;0.776508
4675.000000;0.774557
4674.000000;0.772793
4673.000000;0.771228
4672.000000;0.769732
4671.000000;0.768078
4670.000000;0.766151
4669.000000;0.764108
4668.000000;0.762218
4667.000000;0.760576
4666.000000;0.759055
4665.000000;0.757491
4664.000000;0.755827
4663.000000;0.754075
4662.000000;0.752245
4661.000000;0.750359
4660.000000;0.748490
4659.000000;0.746718
4658.000000;0.745084
4657.000000;0.743587
4656.000000;0.742180
4655.000000;0.740751
4654.000000;0.739168
4653.000000;0.737391
4652.000000;0.735526
4651.000000;0.733718
4650.000000;0.732020
4649.000000;0.730424
4648.000000;0.728989
4647.000000;0.727823
4646.000000;0.726907
4645.000000;0.726037
4644.000000;0.725007
4643.000000;0.723793
4642.000000;0.722491
4641.000000;0.721160
4640.000000;0.719810
4639.000000;0.718491
4638.000000;0.717255
4637.000000;0.716036
4636.000000;0.714692
4635.000000;0.713202
4634.000000;0.711721
4633.000000;0.710416
4632.000000;0.709312
4631.000000;0.708340
4630.000000;0.707420
4629.000000;0.706453
4628.000000;0.705335
4627.000000;0.704056
4626.000000;0.702745
4625.000000;0.701536
4624.000000;0.700440
4623.000000;0.699403
4622.000000;0.698408
4621.000000;0.697455
4620.000000;0.696496
4619.000000;0.695498
4618.000000;0.694513
4617.000000;0.693599
4616.000000;0.692708
4615.000000;0.691756
4614.000000;0.690772
4613.000000;0.689877
4612.000000;0.689103
4611.000000;0.688340
4610.000000;0.687489
4609.000000;0.686599
4608.000000;0.685766
4607.000000;0.684987
4606.000000;0.684170
4605.000000;0.683297
4604.000000;0.682493
4603.000000;0.681892
4602.000000;0.681469
4601.000000;0.681050
4600.000000;0.680504
4599.000000;0.679882
4598.000000;0.679311
4597.000000;0.678796
4596.000000;0.678207
4595.000000;0.677454
4594.000000;0.676599
4593.000000;0.675806
4592.000000;0.675219
4591.000000;0.674918
4590.000000;0.674861
4589.000000;0.674846
4588.000000;0.674632
4587.000000;0.674165
4586.000000;0.673617
4585.000000;0.673171
4584.000000;0.672822
4583.000000;0.672462
4582.000000;0.672056
4581.000000;0.671636
4580.000000;0.671203
4579.000000;0.670759
4578.000000;0.670376
4577.000000;0.670125
4576.000000;0.669965
4575.000000;0.669804
4574.000000;0.669646
4573.000000;0.669563
4572.000000;0.669533
4571.000000;0.669418
4570.000000;0.669156
4569.000000;0.668861
4568.000000;0.668712
4567.000000;0.668780
4566.000000;0.668992
4565.000000;0.669215
4564.000000;0.669358
4563.000000;0.669432
4562.000000;0.669510
4561.000000;0.669620
4560.000000;0.669700
4559.000000;0.669702
4558.000000;0.669697
4557.000000;0.669807
4556.000000;0.670060
4555.000000;0.670407
4554.000000;0.670832
4553.000000;0.671385
4552.000000;0.672071
4551.000000;0.672796
4550.000000;0.673447
4549.000000;0.673985
4548.000000;0.674456
4547.000000;0.674967
4546.000000;0.675592
4545.000000;0.676265
4544.000000;0.676794
4543.000000;0.677087
4542.000000;0.677327
4541.000000;0.677817
4540.000000;0.678631
4539.000000;0.679509
4538.000000;0.680142
4537.000000;0.680474
4536.000000;0.680692
4535.000000;0.681014
4534.000000;0.681544
4533.000000;0.682267
4532.000000;0.683098
4531.000000;0.683929
4530.000000;0.684688
4529.000000;0.685372
4528.000000;0.686041
4527.000000;0.686770
4526.000000;0.687577
4525.000000;0.688386
4524.000000;0.689076
4523.000000;0.689602
4522.000000;0.690027
4521.000000;0.690414
4520.000000;0.690763
4519.000000;0.691120
4518.000000;0.691660
4517.000000;0.692534
4516.000000;0.693636
4515.000000;0.694658
4514.000000;0.695410
4513.000000;0.695978
4512.000000;0.696547
4511.000000;0.697202
4510.000000;0.697957
4509.000000;0.698868
4508.000000;0.699981
4507.000000;0.701188
4506.000000;0.702234
4505.000000;0.702913
4504.000000;0.703257
4503.000000;0.703539
4502.000000;0.704072
4501.000000;0.704966
4500.000000;0.706043
4499.000000;0.707015
4498.000000;0.707751
4497.000000;0.708362
4496.000000;0.709050
4495.000000;0.709932
4494.000000;0.711010
4493.000000;0.712227
4492.000000;0.713534
4491.000000;0.714929
4490.000000;0.716436
4489.000000;0.718034
4488.000000;0.719615
4487.000000;0.721073
4486.000000;0.722428
4485.000000;0.723795
4484.000000;0.725219
4483.000000;0.726622
4482.000000;0.727934
4481.000000;0.729205
4480.000000;0.730551
4479.000000;0.732029
4478.000000;0.733603
4477.000000;0.735171
4476.000000;0.736609
4475.000000;0.737873
4474.000000;0.739112
4473.000000;0.740594
4472.000000;0.742442
4471.000000;0.744467
4470.000000;0.746348
4469.000000;0.747976
4468.000000;0.749547
4467.000000;0.751321
4466.000000;0.753356
4465.000000;0.755512
4464.000000;0.757631
4463.000000;0.759660
4462.000000;0.761635
4461.000000;0.763620
4460.000000;0.765670
4459.000000;0.767828
4458.000000;0.770094
4457.000000;0.772414
4456.000000;0.774710
4455.000000;0.776928
4454.000000;0.779061
4453.000000;0.781142
4452.000000;0.783234
4451.000000;0.785409
4450.000000;0.787678
4449.000000;0.789963
4448.000000;0.792173
4447.000000;0.794338
4446.000000;0.796603
4445.000000;0.799073
4444.000000;0.801685
4443.000000;0.804253
4442.000000;0.806623
4441.000000;0.808785
4440.000000;0.810858
4439.000000;0.813002
4438.000000;0.815302
4437.000000;0.817720
4436.000000;0.820166
4435.000000;0.822604
4434.000000;0.825058
4433.000000;0.827550
4432.000000;0.830125
4431.000000;0.832923
4430.000000;0.836087
4429.000000;0.839530
4428.000000;0.842896
4427.000000;0.845842
4426.000000;0.848356
4425.000000;0.850703
4424.000000;0.853139
4423.000000;0.855731
4422.000000;0.858406
4421.000000;0.861084
4420.000000;0.863757
4419.000000;0.866512
4418.000000;0.869478
4417.000000;0.872719
4416.000000;0.876175
4415.000000;0.879703
4414.000000;0.883129
4413.000000;0.886294
4412.000000;0.889156
4411.000000;0.891864
4410.000000;0.894660
4409.000000;0.897635
4408.000000;0.900706
4407.000000;0.903825
4406.000000;0.907067
4405.000000;0.910423
4404.000000;0.913681
4403.000000;0.916684
4402.000000;0.919579
4401.000000;0.922662
4400.000000;0.926053
4399.000000;0.929660
4398.000000;0.933368
4397.000000;0.937052
4396.000000;0.940492
4395.000000;0.943532
4394.000000;0.946337
4393.000000;0.949298
4392.000000;0.952635
4391.000000;0.956245
4390.000000;0.959915
4389.000000;0.963539
4388.000000;0.967100
4387.000000;0.970634
4386.000000;0.974263
4385.000000;0.978078
4384.000000;0.981946
4383.000000;0.985590
4382.000000;0.988929
4381.000000;0.992197
4380.000000;0.995645
4379.000000;0.999299
4378.000000;1.003123
4377.000000;1.007246
4376.000000;1.011792
4375.000000;1.016530
4374.000000;1.020900
4373.000000;1.024516
4372.000000;1.027580
4371.000000;1.030710
4370.000000;1.034371
4369.000000;1.038520
4368.000000;1.042770
4367.000000;1.046823
4366.000000;1.050689
4365.000000;1.054567
4364.000000;1.058638
4363.000000;1.062986
4362.000000;1.067543
4361.000000;1.072074
4360.000000;1.076365
4359.000000;1.080554
4358.000000;1.085103
4357.000000;1.090289
4356.000000;1.095854
4355.000000;1.101339
4354.000000;1.106642
4353.000000;1.111990
4352.000000;1.117422
4351.000000;1.122630
4350.000000;1.127363
4349.000000;1.131751
4348.000000;1.136079
4347.000000;1.140468
4346.000000;1.144927
4345.000000;1.149581
4344.000000;1.154666
4343.000000;1.160281
4342.000000;1.166212
4341.000000;1.171997
4340.000000;1.177223
4339.000000;1.181857
4338.000000;1.186300
4337.000000;1.191031
4336.000000;1.196155
4335.000000;1.201374
4334.000000;1.206438
4333.000000;1.211553
4332.000000;1.217245
4331.000000;1.223793
4330.000000;1.230808
4329.000000;1.237408
4328.000000;1.242906
4327.000000;1.247355
4326.000000;1.251415
4325.000000;1.255765
4324.000000;1.260739
4323.000000;1.266387
4322.000000;1.272548
4321.000000;1.278827
4320.000000;1.284830
4319.000000;1.290624
4318.000000;1.296686
4317.000000;1.303182
4316.000000;1.309589
4315.000000;1.315330
4314.000000;1.320600
4313.000000;1.326131
4312.000000;1.332259
4311.000000;1.338624
4310.000000;1.344805
4309.000000;1.350888
4308.000000;1.357248
4307.000000;1.364005
4306.000000;1.370826
4305.000000;1.377167
4304.000000;1.382707
4303.000000;1.387596
4302.000000;1.392291
4301.000000;1.397138
4300.000000;1.402244
4299.000000;1.407691
4298.000000;1.413530
4297.000000;1.419471
4296.000000;1.425050
4295.000000;1.430377
4294.000000;1.436298
4293.000000;1.443353
4292.000000;1.450925
4291.000000;1.457935
4290.000000;1.464153
4289.000000;1.470240
4288.000000;1.476708
4287.000000;1.483518
4286.000000;1.490588
4285.000000;1.497881
4284.000000;1.504954
4283.000000;1.511226
4282.000000;1.516893
4281.000000;1.522803
4280.000000;1.529156
4279.000000;1.535107
4278.000000;1.540041
4277.000000;1.544690
4276.000000;1.550455
4275.000000;1.557964
4274.000000;1.566675
4273.000000;1.575465
4272.000000;1.583197
4271.000000;1.589207
4270.000000;1.593961
4269.000000;1.599063
4268.000000;1.605988
4267.000000;1.614739
4266.000000;1.624044
4265.000000;1.632728
4264.000000;1.640463
4263.000000;1.647234
4262.000000;1.652830
4261.000000;1.657335
4260.000000;1.661731
4259.000000;1.667362
4258.000000;1.674727
4257.000000;1.683072
4256.000000;1.691189
4255.000000;1.698345
4254.000000;1.704478
4253.000000;1.709987
4252.000000;1.715694
4251.000000;1.722527
4250.000000;1.730537
4249.000000;1.738354
4248.000000;1.744288
4247.000000;1.748242
4246.000000;1.751911
4245.000000;1.756878
4244.000000;1.763223
4243.000000;1.770380
4242.000000;1.778152
4241.000000;1.786700
4240.000000;1.795739
4239.000000;1.804612
4238.000000;1.813082
4237.000000;1.821624
4236.000000;1.830993
4235.000000;1.841534
4234.000000;1.852459
4233.000000;1.861528
4232.000000;1.866433
4231.000000;1.867316
4230.000000;1.867236
4229.000000;1.869525
4228.000000;1.875243
4227.000000;1.883458
4226.000000;1.893028
4225.000000;1.903204
4224.000000;1.913047
4223.000000;1.921499
4222.000000;1.928016
4221.000000;1.932625
4220.000000;1.936180
4219.000000;1.940741
4218.000000;1.948450
4217.000000;1.959243
4216.000000;1.970083
4215.000000;1.977644
4214.000000;1.981351
4213.000000;1.982700
4212.000000;1.983356
4211.000000;1.985445
4210.000000;1.991870
4209.000000;2.004153
4208.000000;2.020117
4207.000000;2.035358
4206.000000;2.047660
4205.000000;2.058034
4204.000000;2.067053
4203.000000;2.073365
4202.000000;2.076759
4201.000000;2.079705
4200.000000;2.084365
4199.000000;2.090450
4198.000000;2.097485
4197.000000;2.106740
4196.000000;2.119067
4195.000000;2.132338
4194.000000;2.142432
4193.000000;2.146849
4192.000000;2.146696
4191.000000;2.145728
4190.000000;2.148720
4189.000000;2.159063
4188.000000;2.175804
4187.000000;2.193734
4186.000000;2.207839
4185.000000;2.217329
4184.000000;2.224456
4183.000000;2.230743
4182.000000;2.236200
4181.000000;2.241003
4180.000000;2.245894
4179.000000;2.251491
4178.000000;2.258166
4177.000000;2.265590
4176.000000;2.271780
4175.000000;2.275318
4174.000000;2.278988
4173.000000;2.286932
4172.000000;2.299456
4171.000000;2.313020
4170.000000;2.323769
4169.000000;2.331210
4168.000000;2.337875
4167.000000;2.344878
4166.000000;2.349508
4165.000000;2.349545
4164.000000;2.348917
4163.000000;2.354858
4162.000000;2.370411
4161.000000;2.391413
4160.000000;2.409488
4159.000000;2.417996
4158.000000;2.416220
4157.000000;2.408947
4156.000000;2.403198
4155.000000;2.404261
4154.000000;2.411644
4153.000000;2.419297
4152.000000;2.422190
4151.000000;2.422065
4150.000000;2.425723
4149.000000;2.435814
4148.000000;2.445816
4147.000000;2.448287
4146.000000;2.443350
4145.000000;2.435746
4144.000000;2.430325
4143.000000;2.432192
4142.000000;2.446285
4141.000000;2.472435
4140.000000;2.501210
4139.000000;2.520856
4138.000000;2.529744
4137.000000;2.535498
4136.000000;2.544126
4135.000000;2.555819
4134.000000;2.567243
4133.000000;2.573052
4132.000000;2.569442
4131.000000;2.559600
4130.000000;2.552458
4129.000000;2.555477
4128.000000;2.567305
4127.000000;2.579126
4126.000000;2.586232
4125.000000;2.590837
4124.000000;2.594011
4123.000000;2.595502
4122.000000;2.597371
4121.000000;2.600441
4120.000000;2.600819
4119.000000;2.595398
4118.000000;2.589920
4117.000000;2.593183
4116.000000;2.604026
4115.000000;2.613589
4114.000000;2.620531
4113.000000;2.633183
4112.000000;2.653171
4111.000000;2.667056
4110.000000;2.661642
4109.000000;2.642839
4108.000000;2.630217
4107.000000;2.638644
4106.000000;2.672411
4105.000000;2.727774
4104.000000;2.787048
4103.000000;2.813670
4102.000000;2.783370
4101.000000;2.721571
4100.000000;2.673536
4099.000000;2.662227
4098.000000;2.680898
4097.000000;2.701145
4096.000000;2.695929
4095.000000;2.669357
4094.000000;2.649303
4093.000000;2.655346
4092.000000;2.684904
4091.000000;2.718373
4090.000000;2.736816
4089.000000;2.738431
4088.000000;2.734246
4087.000000;2.732004
4086.000000;2.731265
4085.000000;2.729565
4084.000000;2.726940
4083.000000;2.730489
4082.000000;2.755594
4081.000000;2.805432
4080.000000;2.845670
4079.000000;2.837896
4078.000000;2.793790
4077.000000;2.748004
4076.000000;2.727823
4075.000000;2.739012
4074.000000;2.766603
4073.000000;2.793005
4072.000000;2.811342
4071.000000;2.818432
4070.000000;2.807873
4069.000000;2.780307
4068.000000;2.750623
4067.000000;2.739594
4066.000000;2.758020
4065.000000;2.796824
4064.000000;2.830945
4063.000000;2.840716
4062.000000;2.831484
4061.000000;2.822653
4060.000000;2.827925
4059.000000;2.852171
4058.000000;2.895293
4057.000000;2.950279
4056.000000;2.998518
4055.000000;3.017623
4054.000000;3.003592
4053.000000;2.971840
4052.000000;2.935509
4051.000000;2.905983
4050.000000;2.899202
4049.000000;2.917701
4048.000000;2.937508
4047.000000;2.938493
4046.000000;2.927824
4045.000000;2.913973
4044.000000;2.903235
4043.000000;2.905923
4042.000000;2.923609
4041.000000;2.941521
4040.000000;2.942118
4039.000000;2.926018
4038.000000;2.907986
4037.000000;2.897246
4036.000000;2.891205
4035.000000;2.889544
4034.000000;2.902447
4033.000000;2.934003
4032.000000;2.963963
4031.000000;2.972373
4030.000000;2.970267
4029.000000;2.977745
4028.000000;3.003673
4027.000000;3.021213
4026.000000;2.997236
4025.000000;2.958662
4024.000000;2.941171
4023.000000;2.954420
4022.000000;2.996611
4021.000000;3.045562
4020.000000;3.046909
4019.000000;2.985585
4018.000000;2.919309
4017.000000;2.887890
4016.000000;2.890125
4015.000000;2.904669
4014.000000;2.911595
4013.000000;2.907634
4012.000000;2.898804
4011.000000;2.892890
4010.000000;2.904823
4009.000000;2.950797
4008.000000;3.027442
4007.000000;3.091877
4006.000000;3.088653
4005.000000;3.027549
4004.000000;2.958955
4003.000000;2.910833
4002.000000;2.891971
4001.000000;2.901949
4000.000000;2.930173
3999.000000;2.960976
3998.000000;2.984837
3997.000000;3.006996
3996.000000;3.026379
3995.000000;3.028643
3994.000000;3.021329
3993.000000;3.007356
3992.000000;2.978921
3991.000000;2.957791
3990.000000;2.968822
3989.000000;3.021225
3988.000000;3.104666
3987.000000;3.168947
3986.000000;3.166651
3985.000000;3.131746
3984.000000;3.115835
3983.000000;3.126623
3982.000000;3.145780
3981.000000;3.159238
3980.000000;3.172438
3979.000000;3.179901
3978.000000;3.151385
3977.000000;3.086775
3976.000000;3.027218
3975.000000;3.002594
3974.000000;3.014201
3973.000000;3.040394
3972.000000;3.040643
3971.000000;3.006858
3970.000000;2.981837
3969.000000;2.993454
3968.000000;3.045091
3967.000000;3.127849
3966.000000;3.219792
3965.000000;3.292281
3964.000000;3.331360
3963.000000;3.329109
3962.000000;3.271793
3961.000000;3.202573
3960.000000;3.167780
3959.000000;3.164852
3958.000000;3.169624
3957.000000;3.175113
3956.000000;3.186203
3955.000000;3.178717
3954.000000;3.136110
3953.000000;3.085046
3952.000000;3.052277
3951.000000;3.045215
3950.000000;3.054055
3949.000000;3.064133
3948.000000;3.064591
3947.000000;3.071734
3946.000000;3.110834
3945.000000;3.144706
3944.000000;3.115578
3943.000000;3.054003
3942.000000;3.023635
3941.000000;3.039188
3940.000000;3.076797
3939.000000;3.113820
3938.000000;3.103753
3937.000000;3.057389
3936.000000;3.041341
3935.000000;3.060773
3934.000000;3.100194
3933.000000;3.163728
3932.000000;3.218586
3931.000000;3.214225
3930.000000;3.216428
3929.000000;3.296871
3928.000000;3.371142
3927.000000;3.253434
3926.000000;3.067408
3925.000000;2.957196
3924.000000;2.945041
3923.000000;3.017507
3922.000000;3.143202
3921.000000;3.255317
3920.000000;3.319113
3919.000000;3.326905
3918.000000;3.238120
3917.000000;3.185304
3916.000000;3.265023
3915.000000;3.382766
3914.000000;3.331367
3913.000000;3.202564
3912.000000;3.094718
3911.000000;3.029351
3910.000000;3.035783
3909.000000;3.111548
3908.000000;3.217004
3907.000000;3.287260
3906.000000;3.315765
3905.000000;3.337729
3904.000000;3.332025
3903.000000;3.287302
3902.000000;3.274189
3901.000000;3.307023
3900.000000;3.318586
3899.000000;3.307690
3898.000000;3.326144
3897.000000;3.416360
3896.000000;3.559802
3895.000000;3.553583
3894.000000;3.455045
3893.000000;3.463989
3892.000000;3.412487
3891.000000;3.244511
3890.000000;3.156011
3889.000000;3.160787
3888.000000;3.218970
3887.000000;3.272815
3886.000000;3.294759
3885.000000;3.293848
3884.000000;3.275347
3883.000000;3.298372
3882.000000;3.356755
3881.000000;3.379936
3880.000000;3.381492
3879.000000;3.435418
3878.000000;3.603001
3877.000000;3.713373
3876.000000;3.679579
3875.000000;3.726204
3874.000000;3.620730
3873.000000;3.493210
3872.000000;3.651730
3871.000000;3.656334
3870.000000;3.307265
3869.000000;3.176369
3868.000000;3.229642
3867.000000;3.410297
3866.000000;3.617695
3865.000000;3.661735
3864.000000;3.668557
3863.000000;4.009161
3862.000000;4.241411
3861.000000;3.829425
3860.000000;3.690465
3859.000000;3.559213
3858.000000;3.512612
3857.000000;3.547556
3856.000000;3.571586
3855.000000;3.569968
3854.000000;3.612047
3853.000000;3.746834
3852.000000;4.047607
3851.000000;4.447559
3850.000000;4.489804
3849.000000;4.251744
3848.000000;4.021149
3847.000000;3.774681
3846.000000;3.877843
3845.000000;4.465610
3844.000000;3.990117
3843.000000;3.728763
3842.000000;3.409233
3841.000000;3.179732
3840.000000;3.092499
3839.000000;3.085228
3838.000000;3.128806
3837.000000;3.169330
3836.000000;3.234855
3835.000000;3.343236
3834.000000;3.465574
3833.000000;3.536315
3832.000000;3.503461
3831.000000;3.395724
3830.000000;3.299379
3829.000000;3.261707
3828.000000;3.265682
3827.000000;3.287905
3826.000000;3.342581
3825.000000;3.453836
3824.000000;3.468519
3823.000000;3.449315
3822.000000;3.522862
3821.000000;3.336553
3820.000000;3.167254
3819.000000;3.181872
3818.000000;3.245828
3817.000000;3.252896
3816.000000;3.192594
3815.000000;3.172373
3814.000000;3.302188
3813.000000;3.636182
3812.000000;4.094738
3811.000000;3.935809
3810.000000;3.636294
3809.000000;3.482309
3808.000000;3.362897
3807.000000;3.274781
3806.000000;3.293838
3805.000000;3.452049
3804.000000;3.603432
3803.000000;3.568012
3802.000000;3.477960
3801.000000;3.686731
3800.000000;3.892346
3799.000000;3.530428
3798.000000;3.450123
3797.000000;3.434545
3796.000000;3.454851
3795.000000;3.800246
3794.000000;3.827773
3793.000000;3.485676
3792.000000;3.474003
3791.000000;3.599827
3790.000000;3.837562
3789.000000;3.717326
3788.000000;3.481097
3787.000000;3.400912
3786.000000;3.392045
3785.000000;3.381450
3784.000000;3.317800
3783.000000;3.248829
3782.000000;3.235527
3781.000000;3.293853
3780.000000;3.413396
3779.000000;3.613072
3778.000000;3.651783
3777.000000;3.449887
3776.000000;3.396227
3775.000000;3.459654
3774.000000;3.457526
3773.000000;3.408593
3772.000000;3.334526
3771.000000;3.238608
3770.000000;3.173707
3769.000000;3.170878
3768.000000;3.276544
3767.000000;3.504642
3766.000000;3.717749
3765.000000;3.791304
3764.000000;3.821627
3763.000000;3.625383
3762.000000;3.441694
3761.000000;3.415159
3760.000000;3.630864
3759.000000;3.887853
3758.000000;3.607650
3757.000000;3.417831
3756.000000;3.303512
3755.000000;3.306308
3754.000000;3.389763
3753.000000;3.393036
3752.000000;3.308497
3751.000000;3.263116
3750.000000;3.351659
3749.000000;3.506105
3748.000000;3.610793
3747.000000;3.666994
3746.000000;3.704263
3745.000000;3.767484
3744.000000;3.780038
3743.000000;3.646046
3742.000000;3.645898
3741.000000;3.753049
3740.000000;3.709545
3739.000000;3.517586
3738.000000;3.359024
3737.000000;3.393766
3736.000000;3.547038
3735.000000;3.511794
3734.000000;3.376918
3733.000000;3.315186
3732.000000;3.342577
3731.000000;3.485679
3730.000000;3.606111
3729.000000;3.558694
3728.000000;3.482823
3727.000000;3.388891
3726.000000;3.277528
3725.000000;3.189353
3724.000000;3.157259
3723.000000;3.175728
3722.000000;3.261041
3721.000000;3.206337
3720.000000;3.009132
3719.000000;2.948488
3718.000000;3.064955
3717.000000;3.468031
3716.000000;3.832779
3715.000000;3.445535
3714.000000;3.405651
3713.000000;3.514865
3712.000000;3.557952
3711.000000;3.565597
3710.000000;3.548630
3709.000000;3.470910
3708.000000;3.382165
3707.000000;3.321937
3706.000000;3.281132
3705.000000;3.277083
3704.000000;3.345702
3703.000000;3.506579
3702.000000;3.755294
3701.000000;4.107193
3700.000000;3.909948
3699.000000;3.593727
3698.000000;3.432177
3697.000000;3.317696
3696.000000;3.285835
3695.000000;3.321835
3694.000000;3.367290
3693.000000;3.437023
3692.000000;3.539129
3691.000000;3.745252
3690.000000;4.016003
3689.000000;3.790854
3688.000000;3.549808
3687.000000;3.445106
3686.000000;3.477512
3685.000000;3.721561
3684.000000;4.103746
3683.000000;3.848339
3682.000000;3.753284
3681.000000;4.069595
3680.000000;3.909454
3679.000000;3.721617
3678.000000;3.737213
3677.000000;3.832894
3676.000000;3.801322
3675.000000;3.431828
3674.000000;3.293592
3673.000000;3.378313
3672.000000;3.530179
3671.000000;3.641902
3670.000000;3.774449
3669.000000;3.734628
3668.000000;3.587247
3667.000000;3.666555
3666.000000;3.838694
3665.000000;3.811164
3664.000000;3.657002
3663.000000;3.615485
3662.000000;3.662350
3661.000000;3.569018
3660.000000;3.498839
3659.000000;3.605787
3658.000000;3.768381
3657.000000;3.688577
3656.000000;3.506921
3655.000000;3.396621
3654.000000;3.372961
3653.000000;3.384177
3652.000000;3.368160
3651.000000;3.340013
3650.000000;3.383545
3649.000000;3.537497
3648.000000;3.624529
3647.000000;3.485700
3646.000000;3.258769
3645.000000;3.132271
3644.000000;3.167403
3643.000000;3.307983
3642.000000;3.419809
3641.000000;3.439199
3640.000000;3.418272
3639.000000;3.515902
3638.000000;3.718344
3637.000000;3.977627
3636.000000;4.633124
3635.000000;4.051665
3634.000000;3.790713
3633.000000;3.875088
3632.000000;4.209935
3631.000000;4.000253
3630.000000;3.583818
3629.000000;3.472624
3628.000000;3.551550
3627.000000;3.688955
3626.000000;3.715802
3625.000000;3.692333
3624.000000;3.673672
3623.000000;4.007066
3622.000000;3.902737
3621.000000;3.450446
3620.000000;3.460607
3619.000000;3.526049
3618.000000;3.480904
3617.000000;3.562485
3616.000000;3.588495
3615.000000;3.298783
3614.000000;3.039853
3613.000000;2.947365
3612.000000;3.003543
3611.000000;3.283301
3610.000000;3.846755
3609.000000;3.682519
3608.000000;3.538120
3607.000000;3.631929
3606.000000;3.750879
3605.000000;3.725057
3604.000000;3.432314
3603.000000;3.200522
3602.000000;3.102002
3601.000000;3.141617
3600.000000;3.281122
3599.000000;3.378034
3598.000000;3.403084
3597.000000;3.396313
3596.000000;3.244479
3595.000000;3.216924
3594.000000;3.371670
3593.000000;3.526363
3592.000000;3.983219
3591.000000;3.644395
3590.000000;3.205327
3589.000000;3.114869
3588.000000;3.114778
3587.000000;3.176558
3586.000000;3.278271
3585.000000;3.460510
3584.000000;3.711412
3583.000000;3.581568
3582.000000;3.544291
3581.000000;3.685474
3580.000000;3.751306
3579.000000;3.843839
3578.000000;3.739964
3577.000000;3.713794
3576.000000;3.630382
3575.000000;3.216495
3574.000000;2.997704
3573.000000;2.955938
3572.000000;3.042738
3571.000000;3.226190
3570.000000;3.382270
3569.000000;3.363524
3568.000000;3.289163
3567.000000;3.287181
3566.000000;3.320727
3565.000000;3.264352
3564.000000;3.250078
3563.000000;3.391875
3562.000000;3.278944
3561.000000;3.149790
3560.000000;3.184405
3559.000000;3.233327
3558.000000;3.230547
3557.000000;3.194868
3556.000000;3.217120
3555.000000;3.342311
3554.000000;3.529281
3553.000000;3.606824
3552.000000;3.510557
3551.000000;3.385045
3550.000000;3.338737
3549.000000;3.426500
3548.000000;3.709531
3547.000000;3.896497
3546.000000;3.971637
3545.000000;4.348114
3544.000000;3.950190
3543.000000;3.474656
3542.000000;3.150336
3541.000000;3.032780
3540.000000;3.155530
3539.000000;3.646134
3538.000000;3.822879
3537.000000;3.484182
3536.000000;3.351842
3535.000000;3.218547
3534.000000;3.255866
3533.000000;3.444965
3532.000000;3.584925
3531.000000;3.672068
3530.000000;3.648350
3529.000000;3.452357
3528.000000;3.338168
3527.000000;3.355905
3526.000000;3.516443
3525.000000;3.945388
3524.000000;3.975298
3523.000000;4.036345
3522.000000;4.379289
3521.000000;3.567771
3520.000000;3.327695
3519.000000;3.296270
3518.000000;3.366393
3517.000000;3.329907
3516.000000;3.199808
3515.000000;3.187901
3514.000000;3.298616
3513.000000;3.561348
3512.000000;3.806917
3511.000000;3.676427
3510.000000;3.551121
3509.000000;3.497379
3508.000000;3.463483
3507.000000;3.483032
3506.000000;3.549540
3505.000000;3.490511
3504.000000;3.340998
3503.000000;3.239495
3502.000000;3.202646
3501.000000;3.232869
3500.000000;3.315496
3499.000000;3.343885
3498.000000;3.287446
3497.000000;3.279015
3496.000000;3.405735
3495.000000;3.657830
3494.000000;3.757850
3493.000000;3.926693
3492.000000;4.006218
3491.000000;3.705541
3490.000000;3.769933
3489.000000;3.861594
3488.000000;3.626280
3487.000000;3.447390
3486.000000;3.371579
3485.000000;3.356593
3484.000000;3.321780
3483.000000;3.286632
3482.000000;3.335343
3481.000000;3.543612
3480.000000;3.974281
3479.000000;3.971663
3478.000000;3.836787
3477.000000;3.863726
3476.000000;3.811600
3475.000000;3.759598
3474.000000;3.695376
3473.000000;3.719433
3472.000000;3.771818
3471.000000;3.886079
3470.000000;4.418076
3469.000000;3.676195
3468.000000;3.340132
3467.000000;3.233507
3466.000000;3.215174
3465.000000;3.246444
3464.000000;3.296294
3463.000000;3.355768
3462.000000;3.442888
3461.000000;3.705974
3460.000000;4.140675
3459.000000;3.737130
3458.000000;3.422324
3457.000000;3.303808
3456.000000;3.248174
3455.000000;3.202258
3454.000000;3.184520
3453.000000;3.236399
3452.000000;3.342929
3451.000000;3.468357
3450.000000;3.598888
3449.000000;3.823009
3448.000000;4.537180
3447.000000;4.305517
3446.000000;3.890162
3445.000000;3.697914
3444.000000;3.654911
3443.000000;3.682176
3442.000000;3.635142
3441.000000;3.638038
3440.000000;3.731764
3439.000000;3.760349
3438.000000;3.777386
3437.000000;3.845368
3436.000000;3.757002
3435.000000;3.683583
3434.000000;3.766429
3433.000000;4.023631
3432.000000;4.214464
3431.000000;4.131591
3430.000000;4.054595
3429.000000;3.812440
3428.000000;3.619084
3427.000000;3.568100
3426.000000;3.703300
3425.000000;4.046273
3424.000000;3.860533
3423.000000;3.648403
3422.000000;3.584654
3421.000000;3.540213
3420.000000;3.515292
3419.000000;3.531773
3418.000000;3.586743
3417.000000;3.655989
3416.000000;3.710325
3415.000000;3.625504
3414.000000;3.483721
3413.000000;3.387439
3412.000000;3.342808
3411.000000;3.340861
3410.000000;3.397056
3409.000000;3.572747
3408.000000;3.940906
3407.000000;3.859082
3406.000000;3.564540
3405.000000;3.480481
3404.000000;3.455892
3403.000000;3.473629
3402.000000;3.516930
3401.000000;3.787828
3400.000000;3.904918
3399.000000;3.519769
3398.000000;3.385609
3397.000000;3.454644
3396.000000;3.924908
3395.000000;3.727997
3394.000000;3.451578
3393.000000;3.506966
3392.000000;3.776550
3391.000000;4.041271
3390.000000;3.735682
3389.000000;3.512227
3388.000000;3.475850
3387.000000;3.597389
3386.000000;3.783444
3385.000000;3.932295
3384.000000;4.181265
3383.000000;3.887337
3382.000000;3.454993
3381.000000;3.261149
3380.000000;3.203698
3379.000000;3.259490
3378.000000;3.481232
3377.000000;3.997057
3376.000000;4.006755
3375.000000;4.131254
3374.000000;3.694399
3373.000000;3.292429
3372.000000;3.182074
3371.000000;3.186987
3370.000000;3.289177
3369.000000;3.429538
3368.000000;3.530944
3367.000000;3.623729
3366.000000;3.856740
3365.000000;3.749357
3364.000000;3.442212
3363.000000;3.330663
3362.000000;3.379211
3361.000000;3.596811
3360.000000;3.856291
3359.000000;3.752473
3358.000000;3.628032
3357.000000;3.504049
3356.000000;3.432164
3355.000000;3.411801
3354.000000;3.405694
3353.000000;3.439078
3352.000000;3.567042
3351.000000;3.856604
3350.000000;4.430516
3349.000000;4.986048
3348.000000;4.735549
3347.000000;4.146342
3346.000000;3.837042
3345.000000;3.668518
3344.000000;3.531854
3343.000000;3.519723
3342.000000;3.655395
3341.000000;3.706183
3340.000000;3.685521
3339.000000;3.708362
3338.000000;3.797445
3337.000000;4.082204
3336.000000;3.883724
3335.000000;3.634345
3334.000000;3.497914
3333.000000;3.453940
3332.000000;3.571023
3331.000000;3.846684
3330.000000;3.589757
3329.000000;3.353556
3328.000000;3.321239
3327.000000;3.369477
3326.000000;3.393813
3325.000000;3.429179
3324.000000;3.539751
3323.000000;3.656926
3322.000000;3.785584
3321.000000;3.662403
3320.000000;3.456750
3319.000000;3.430836
3318.000000;3.532206
3317.000000;3.642602
3316.000000;3.617884
3315.000000;3.530803
3314.000000;3.492062
3313.000000;3.473416
3312.000000;3.442808
3311.000000;3.416564
3310.000000;3.388705
3309.000000;3.390145
3308.000000;3.477511
3307.000000;3.707283
3306.000000;3.847921
3305.000000;3.613860
3304.000000;3.548061
3303.000000;3.542749
3302.000000;3.461427
3301.000000;3.380991
3300.000000;3.355424
3299.000000;3.395565
3298.000000;3.473528
3297.000000;3.930805
3296.000000;4.101195
3295.000000;3.493423
3294.000000;3.398424
3293.000000;3.418003
3292.000000;3.426059
3291.000000;3.385854
3290.000000;3.410619
3289.000000;3.530000
3288.000000;3.690981
3287.000000;4.239865
3286.000000;3.805095
3285.000000;3.518517
3284.000000;3.557233
3283.000000;3.813112
3282.000000;3.936539
3281.000000;4.012600
3280.000000;4.180071
3279.000000;3.873128
3278.000000;3.505271
3277.000000;3.311242
3276.000000;3.264922
3275.000000;3.344341
3274.000000;3.755409
3273.000000;3.796126
3272.000000;3.255610
3271.000000;3.178009
3270.000000;3.237259
3269.000000;3.563698
3268.000000;3.880241
3267.000000;3.606809
3266.000000;3.536374
3265.000000;3.590817
3264.000000;3.632675
3263.000000;3.667923
3262.000000;3.803601
3261.000000;4.049557
3260.000000;3.729766
3259.000000;3.567994
3258.000000;3.677454
3257.000000;3.849722
3256.000000;3.580647
3255.000000;3.509693
3254.000000;3.711517
3253.000000;3.956997
3252.000000;3.547596
3251.000000;3.456949
3250.000000;3.528852
3249.000000;3.640786
3248.000000;3.651950
3247.000000;3.756781
3246.000000;4.091568
3245.000000;4.221539
3244.000000;3.825741
3243.000000;3.666701
3242.000000;3.710396
3241.000000;4.071313
3240.000000;3.766888
3239.000000;3.465074
3238.000000;3.441860
3237.000000;3.584746
3236.000000;3.786291
3235.000000;3.677192
3234.000000;3.618521
3233.000000;3.689245
3232.000000;3.625771
3231.000000;3.463916
3230.000000;3.394471
3229.000000;3.451134
3228.000000;3.572114
3227.000000;3.514577
3226.000000;3.441353
3225.000000;3.480215
3224.000000;3.706659
3223.000000;4.225789
3222.000000;3.625335
3221.000000;3.335781
3220.000000;3.210854
3219.000000;3.189173
3218.000000;3.250696
3217.000000;3.394624
3216.000000;3.612019
3215.000000;3.749285
3214.000000;3.712187
3213.000000;3.723543
3212.000000;3.804788
3211.000000;3.889796
3210.000000;4.042531
3209.000000;4.176251
3208.000000;3.885223
3207.000000;3.590492
3206.000000;3.393138
3205.000000;3.347736
3204.000000;3.492854
3203.000000;4.148177
3202.000000;3.798654
3201.000000;3.663262
3200.000000;3.765887
3199.000000;4.071878
3198.000000;4.136950
3197.000000;3.564874
3196.000000;3.358268
3195.000000;3.311934
3194.000000;3.426213
3193.000000;3.745688
3192.000000;4.265638
3191.000000;4.123700
3190.000000;3.759706
3189.000000;3.562338
3188.000000;3.533939
3187.000000;3.522909
3186.000000;3.448556
3185.000000;3.401924
3184.000000;3.394205
3183.000000;3.390637
3182.000000;3.430642
3181.000000;3.557242
3180.000000;3.784617
3179.000000;4.029760
3178.000000;4.121425
3177.000000;3.834151
3176.000000;3.621919
3175.000000;3.556838
3174.000000;3.530048
3173.000000;3.474454
3172.000000;3.434274
3171.000000;3.453346
3170.000000;3.562360
3169.000000;3.700134
3168.000000;3.711014
3167.000000;3.592668
3166.000000;3.492068
3165.000000;3.529744
3164.000000;3.760413
3163.000000;3.683785
3162.000000;3.416005
3161.000000;3.359141
3160.000000;3.425694
3159.000000;3.634793
3158.000000;3.854366
3157.000000;3.766764
3156.000000;3.654673
3155.000000;3.647427
3154.000000;3.733533
3153.000000;3.953298
3152.000000;4.398947
3151.000000;3.876669
3150.000000;3.675509
3149.000000;3.679841
3148.000000;3.764464
3147.000000;3.863949
3146.000000;3.859588
3145.000000;3.714875
3144.000000;3.654531
3143.000000;3.780024
3142.000000;4.116419
3141.000000;3.925692
3140.000000;3.742791
3139.000000;3.932816
3138.000000;4.060216
3137.000000;3.661466
3136.000000;3.558466
3135.000000;3.596574
3134.000000;3.911611
3133.000000;3.904726
3132.000000;3.495771
3131.000000;3.371823
3130.000000;3.435123
3129.000000;3.680615
3128.000000;4.134723
3127.000000;4.415714
3126.000000;4.142874
3125.000000;3.892173
3124.000000;3.683579
3123.000000;3.509860
3122.000000;3.408215
3121.000000;3.424719
3120.000000;3.596689
3119.000000;3.952541
3118.000000;4.231336
3117.000000;3.730261
3116.000000;3.467734
3115.000000;3.364749
3114.000000;3.360744
3113.000000;3.421018
3112.000000;3.527444
3111.000000;3.615628
3110.000000;3.674515
3109.000000;3.758679
3108.000000;4.218370
3107.000000;4.431716
3106.000000;4.085312
3105.000000;4.307443
3104.000000;3.879020
3103.000000;3.649232
3102.000000;3.607938
3101.000000;3.605299
3100.000000;3.608877
3099.000000;3.607962
3098.000000;3.548365
3097.000000;3.468774
3096.000000;3.473502
3095.000000;3.593265
3094.000000;3.742483
3093.000000;3.806662
3092.000000;3.934257
3091.000000;3.908819
3090.000000;3.770598
3089.000000;3.768752
3088.000000;3.968368
3087.000000;4.480984
3086.000000;4.092922
3085.000000;3.903404
3084.000000;4.018165
3083.000000;3.829860
3082.000000;3.595016
3081.000000;3.580538
3080.000000;3.676939
3079.000000;3.800084
3078.000000;3.796364
3077.000000;3.675870
3076.000000;3.577449
3075.000000;3.561027
3074.000000;3.632098
3073.000000;3.771179
3072.000000;3.768380
3071.000000;3.550918
3070.000000;3.440552
3069.000000;3.503909
3068.000000;3.873631
3067.000000;3.965663
3066.000000;3.522296
3065.000000;3.444117
3064.000000;3.539698
3063.000000;3.710591
3062.000000;3.967110
3061.000000;4.134169
3060.000000;3.924284
3059.000000;4.068136
3058.000000;3.879362
3057.000000;3.573079
3056.000000;3.427619
3055.000000;3.339796
3054.000000;3.315127
3053.000000;3.369307
3052.000000;3.502295
3051.000000;3.600352
3050.000000;3.465635
3049.000000;3.291697
3048.000000;3.212339
3047.000000;3.219728
3046.000000;3.311924
3045.000000;3.516596
3044.000000;3.930269
3043.000000;4.457861
3042.000000;4.430849
3041.000000;4.852417
3040.000000;4.181231
3039.000000;4.068554
3038.000000;4.481927
3037.000000;3.838673
3036.000000;3.469959
3035.000000;3.376331
3034.000000;3.507157
3033.000000;3.806019
3032.000000;3.739404
3031.000000;3.650758
3030.000000;3.620040
3029.000000;3.449063
3028.000000;3.307551
3027.000000;3.255299
3026.000000;3.265844
3025.000000;3.299132
3024.000000;3.325339
3023.000000;3.339609
3022.000000;3.357125
3021.000000;3.400084
3020.000000;3.477259
3019.000000;3.550128
3018.000000;3.469628
3017.000000;3.331224
3016.000000;3.288318
3015.000000;3.364733
3014.000000;3.516137
3013.000000;3.574959
3012.000000;3.527003
3011.000000;3.483687
3010.000000;3.441754
3009.000000;3.375738
3008.000000;3.305277
3007.000000;3.282354
3006.000000;3.336245
3005.000000;3.460295
3004.000000;3.680580
3003.000000;3.732497
3002.000000;3.451038
3001.000000;3.290717
3000.000000;3.274147
2999.000000;3.391669
2998.000000;3.620044
2997.000000;4.060442
2996.000000;3.929822
2995.000000;3.607872
2994.000000;3.541648
2993.000000;3.575962
2992.000000;3.662496
2991.000000;3.747033
2990.000000;3.710207
2989.000000;3.533325
2988.000000;3.367973
2987.000000;3.312547
2986.000000;3.386033
2985.000000;3.556211
2984.000000;3.715663
2983.000000;3.687298
2982.000000;3.719418
2981.000000;4.043864
2980.000000;3.834176
2979.000000;3.484869
2978.000000;3.342909
2977.000000;3.277877
2976.000000;3.288422
2975.000000;3.367052
2974.000000;3.489373
2973.000000;3.618771
2972.000000;3.639624
2971.000000;3.539171
2970.000000;3.500295
2969.000000;3.631879
2968.000000;3.823699
2967.000000;3.582852
2966.000000;3.360756
2965.000000;3.269125
2964.000000;3.236148
2963.000000;3.217226
2962.000000;3.182355
2961.000000;3.155001
2960.000000;3.158769
2959.000000;3.182157
2958.000000;3.209102
2957.000000;3.277997
2956.000000;3.418548
2955.000000;3.792240
2954.000000;4.295476
2953.000000;3.594843
2952.000000;3.421129
2951.000000;3.392051
2950.000000;3.454953
2949.000000;3.523709
2948.000000;3.503400
2947.000000;3.467919
2946.000000;3.500685
2945.000000;3.786797
2944.000000;4.150739
2943.000000;3.658936
2942.000000;3.389504
2941.000000;3.292531
2940.000000;3.300154
2939.000000;3.432442
2938.000000;3.595556
2937.000000;3.519670
2936.000000;3.433488
2935.000000;3.480909
2934.000000;3.670786
2933.000000;3.757497
2932.000000;3.524273
2931.000000;3.389890
2930.000000;3.308182
2929.000000;3.242227
2928.000000;3.258748
2927.000000;3.392644
2926.000000;3.581676
2925.000000;3.658057
2924.000000;3.711344
2923.000000;3.759906
2922.000000;3.668364
2921.000000;3.523114
2920.000000;3.419362
2919.000000;3.390508
2918.000000;3.463674
2917.000000;3.879042
2916.000000;4.005755
2915.000000;3.576842
2914.000000;3.496313
2913.000000;3.560668
2912.000000;3.790200
2911.000000;3.978208
2910.000000;3.624710
2909.000000;3.353177
2908.000000;3.221965
2907.000000;3.211311
2906.000000;3.327415
2905.000000;3.575776
2904.000000;3.853932
2903.000000;3.840016
2902.000000;3.989544
2901.000000;4.053258
2900.000000;3.587479
2899.000000;3.422015
2898.000000;3.391381
2897.000000;3.465605
2896.000000;3.589501
2895.000000;3.614674
2894.000000;3.683302
2893.000000;3.646945
2892.000000;3.491150
2891.000000;3.430429
2890.000000;3.404264
2889.000000;3.450678
2888.000000;3.586304
2887.000000;3.674896
2886.000000;3.718829
2885.000000;3.606934
2884.000000;3.384601
2883.000000;3.263161
2882.000000;3.249713
2881.000000;3.316549
2880.000000;3.444890
2879.000000;3.657290
2878.000000;3.975763
2877.000000;4.153382
2876.000000;4.250425
2875.000000;3.918432
2874.000000;3.587419
2873.000000;3.464881
2872.000000;3.406768
2871.000000;3.373209
2870.000000;3.408610
2869.000000;3.525662
2868.000000;3.598246
2867.000000;3.555315
2866.000000;3.534463
2865.000000;3.653461
2864.000000;4.156585
2863.000000;4.131829
2862.000000;3.761200
2861.000000;3.671838
2860.000000;3.516658
2859.000000;3.407451
2858.000000;3.424398
2857.000000;3.653223
2856.000000;3.979024
2855.000000;3.906394
2854.000000;4.067647
2853.000000;3.861232
2852.000000;3.505179
2851.000000;3.341191
2850.000000;3.271013
2849.000000;3.257945
2848.000000;3.278227
2847.000000;3.325980
2846.000000;3.455966
2845.000000;3.696029
2844.000000;3.618967
2843.000000;3.425491
2842.000000;3.415317
2841.000000;3.531968
2840.000000;3.634214
2839.000000;3.559994
2838.000000;3.450421
2837.000000;3.329890
2836.000000;3.258920
2835.000000;3.313065
2834.000000;3.446716
2833.000000;3.513650
2832.000000;3.573904
2831.000000;3.747728
2830.000000;4.008915
2829.000000;4.453899
2828.000000;4.455783
2827.000000;4.076731
2826.000000;3.864249
2825.000000;3.753705
2824.000000;3.993810
2823.000000;4.400954
2822.000000;3.739016
2821.000000;3.560061
2820.000000;3.545047
2819.000000;3.677934
2818.000000;3.954185
2817.000000;3.833692
2816.000000;3.657495
2815.000000;3.621687
2814.000000;3.923932
2813.000000;4.263009
2812.000000;3.757169
2811.000000;3.624054
2810.000000;3.647719
2809.000000;3.706708
2808.000000;3.817709
2807.000000;3.963910
2806.000000;3.948134
2805.000000;3.796121
2804.000000;3.642839
2803.000000;3.543673
2802.000000;3.577500
2801.000000;3.902535
2800.000000;4.163642
2799.000000;3.684670
2798.000000;3.530199
2797.000000;3.527368
2796.000000;3.600873
2795.000000;3.814308
2794.000000;3.999735
2793.000000;3.832974
2792.000000;3.720787
2791.000000;3.835984
2790.000000;3.871946
2789.000000;3.652256
2788.000000;3.535869
2787.000000;3.687373
2786.000000;4.009845
2785.000000;3.663212
2784.000000;3.411983
2783.000000;3.409028
2782.000000;3.699132
2781.000000;3.754449
2780.000000;3.422250
2779.000000;3.355653
2778.000000;3.494244
2777.000000;3.899956
2776.000000;3.844880
2775.000000;3.671406
2774.000000;3.985149
2773.000000;3.949094
2772.000000;3.590302
2771.000000;3.573467
2770.000000;3.788782
2769.000000;4.019689
2768.000000;3.846436
2767.000000;3.610936
2766.000000;3.491375
2765.000000;3.393776
2764.000000;3.317428
2763.000000;3.292341
2762.000000;3.327509
2761.000000;3.373234
2760.000000;3.401266
2759.000000;3.445393
2758.000000;3.615370
2757.000000;4.158909
2756.000000;3.981217
2755.000000;3.566013
2754.000000;3.471822
2753.000000;3.460144
2752.000000;3.623919
2751.000000;4.083368
2750.000000;4.438148
2749.000000;4.315296
2748.000000;3.755751
2747.000000;3.474256
2746.000000;3.407149
2745.000000;3.457358
2744.000000;3.636978
2743.000000;3.705334
2742.000000;3.522072
2741.000000;3.431727
2740.000000;3.485640
2739.000000;3.659394
2738.000000;3.684124
2737.000000;3.577319
2736.000000;3.660504
2735.000000;3.771059
2734.000000;3.964543
2733.000000;4.109794
2732.000000;3.749954
2731.000000;3.675564
2730.000000;3.800108
2729.000000;3.829715
2728.000000;3.651923
2727.000000;3.490039
2726.000000;3.461970
2725.000000;3.530455
2724.000000;3.597494
2723.000000;3.559321
2722.000000;3.456129
2721.000000;3.340737
2720.000000;3.235727
2719.000000;3.179074
2718.000000;3.197248
2717.000000;3.295284
2716.000000;3.433054
2715.000000;3.490698
2714.000000;3.419521
2713.000000;3.340026
2712.000000;3.324996
2711.000000;3.408473
2710.000000;3.562488
2709.000000;3.707809
2708.000000;4.084864
2707.000000;4.035797
2706.000000;3.645757
2705.000000;3.726343
2704.000000;4.009537
2703.000000;3.849153
2702.000000;3.652034
2701.000000;3.612806
2700.000000;3.632365
2699.000000;3.701331
2698.000000;3.851472
2697.000000;3.959958
2696.000000;3.877952
2695.000000;3.756356
2694.000000;3.623239
2693.000000;3.537529
2692.000000;3.551987
2691.000000;3.697168
2690.000000;3.950993
2689.000000;3.744683
2688.000000;3.490016
2687.000000;3.378798
2686.000000;3.292186
2685.000000;3.245097
2684.000000;3.289376
2683.000000;3.433877
2682.000000;3.585214
2681.000000;3.604512
2680.000000;3.545385
2679.000000;3.528492
2678.000000;3.631134
2677.000000;3.817528
2676.000000;3.692063
2675.000000;3.625270
2674.000000;3.865017
2673.000000;3.753201
2672.000000;3.535353
2671.000000;3.607203
2670.000000;3.779446
2669.000000;3.681654
2668.000000;3.520188
2667.000000;3.504519
2666.000000;3.587631
2665.000000;3.819414
2664.000000;4.344813
2663.000000;4.243683
2662.000000;3.942289
2661.000000;3.691983
2660.000000;3.454274
2659.000000;3.341522
2658.000000;3.316521
2657.000000;3.539325
2656.000000;3.950798
2655.000000;3.602080
2654.000000;3.449543
2653.000000;3.525237
2652.000000;3.850609
2651.000000;4.229412
2650.000000;3.853716
2649.000000;3.812289
2648.000000;3.728647
2647.000000;3.688871
2646.000000;4.165237
2645.000000;3.985106
2644.000000;3.583506
2643.000000;3.567159
2642.000000;3.588063
2641.000000;3.499937
2640.000000;3.433640
2639.000000;3.479878
2638.000000;3.733017
2637.000000;4.033368
2636.000000;3.777942
2635.000000;3.765455
2634.000000;4.098757
2633.000000;4.044574
2632.000000;3.726732
2631.000000;3.681084
2630.000000;3.748213
2629.000000;3.635813
2628.000000;3.507342
2627.000000;3.639561
2626.000000;4.019579
2625.000000;4.126389
2624.000000;4.219031
2623.000000;3.741171
2622.000000;3.475342
2621.000000;3.575513
2620.000000;3.658719
2619.000000;3.527474
2618.000000;3.540044
2617.000000;3.754438
2616.000000;3.897853
2615.000000;3.803773
2614.000000;3.731988
2613.000000;3.700577
2612.000000;3.694915
2611.000000;3.770708
2610.000000;3.955460
2609.000000;4.002455
2608.000000;3.807287
2607.000000;3.928907
2606.000000;4.346411
2605.000000;3.998051
2604.000000;3.842273
2603.000000;3.662485
2602.000000;3.494897
2601.000000;3.494994
2600.000000;3.764785
2599.000000;4.064734
2598.000000;3.687868
2597.000000;3.446299
2596.000000;3.324138
2595.000000;3.294509
2594.000000;3.450987
2593.000000;3.805460
2592.000000;3.494628
2591.000000;3.233674
2590.000000;3.214025
2589.000000;3.302307
2588.000000;3.583281
2587.000000;3.764534
2586.000000;3.491441
2585.000000;3.396234
2584.000000;3.398214
2583.000000;3.353865
2582.000000;3.304762
2581.000000;3.300938
2580.000000;3.372307
2579.000000;3.536449
2578.000000;3.893601
2577.000000;4.102115
2576.000000;3.772340
2575.000000;3.640424
2574.000000;3.623390
2573.000000;3.629603
2572.000000;3.507523
2571.000000;3.345900
2570.000000;3.271870
2569.000000;3.286320
2568.000000;3.372706
2567.000000;3.444577
2566.000000;3.406432
2565.000000;3.296792
2564.000000;3.215250
2563.000000;3.211711
2562.000000;3.266524
2561.000000;3.284989
2560.000000;3.261614
2559.000000;3.290685
2558.000000;3.397650
2557.000000;3.540777
2556.000000;3.633284
2555.000000;3.598202
2554.000000;3.501705
2553.000000;3.444519
2552.000000;3.532434
2551.000000;3.628921
2550.000000;3.445351
2549.000000;3.310205
2548.000000;3.280842
2547.000000;3.298407
2546.000000;3.373421
2545.000000;3.557385
2544.000000;3.937549
2543.000000;4.140265
2542.000000;3.768303
2541.000000;3.513428
2540.000000;3.428467
2539.000000;3.418746
2538.000000;3.448299
2537.000000;3.523728
2536.000000;3.698429
2535.000000;4.117715
2534.000000;3.885347
2533.000000;3.530774
2532.000000;3.404586
2531.000000;3.395753
2530.000000;3.434015
2529.000000;3.469061
2528.000000;3.520804
2527.000000;3.843867
2526.000000;4.235173
2525.000000;3.651768
2524.000000;3.581145
2523.000000;3.721923
2522.000000;3.958850
2521.000000;4.446458
2520.000000;4.450169
2519.000000;3.887910
2518.000000;3.509836
2517.000000;3.336358
2516.000000;3.324638
2515.000000;3.468827
2514.000000;3.849875
2513.000000;4.006658
2512.000000;3.649019
2511.000000;3.509181
2510.000000;3.540301
2509.000000;3.694636
2508.000000;3.592123
2507.000000;3.380686
2506.000000;3.317548
2505.000000;3.379131
2504.000000;3.535500
2503.000000;3.781845
2502.000000;4.028941
2501.000000;3.900614
2500.000000;3.870293
2499.000000;3.906548
2498.000000;3.711440
2497.000000;3.576590
2496.000000;3.575693
2495.000000;3.659736
2494.000000;3.890203
2493.000000;4.332886
2492.000000;3.958179
2491.000000;3.677905
2490.000000;3.729418
2489.000000;3.874772
2488.000000;3.738038
2487.000000;3.469901
2486.000000;3.294043
2485.000000;3.246850
2484.000000;3.343744
2483.000000;3.596421
2482.000000;3.906777
2481.000000;3.839026
2480.000000;3.592860
2479.000000;3.486866
2478.000000;3.513399
2477.000000;3.487487
2476.000000;3.374755
2475.000000;3.334518
2474.000000;3.384974
2473.000000;3.471353
2472.000000;3.512839
2471.000000;3.491163
2470.000000;3.442574
2469.000000;3.398316
2468.000000;3.386265
2467.000000;3.389784
2466.000000;3.401864
2465.000000;3.443241
2464.000000;3.507349
2463.000000;3.570799
2462.000000;3.605427
2461.000000;3.661177
2460.000000;3.808487
2459.000000;3.754152
2458.000000;3.650730
2457.000000;3.634911
2456.000000;3.761232
2455.000000;4.261407
2454.000000;3.733732
2453.000000;3.447903
2452.000000;3.404621
2451.000000;3.408539
2450.000000;3.468062
2449.000000;3.529445
2448.000000;3.541738
2447.000000;3.577970
2446.000000;3.698146
2445.000000;3.858744
2444.000000;3.866414
2443.000000;3.628507
2442.000000;3.408800
2441.000000;3.311398
2440.000000;3.331406
2439.000000;3.512356
2438.000000;3.786375
2437.000000;3.654858
2436.000000;3.494215
2435.000000;3.578611
2434.000000;4.054437
2433.000000;4.001917
2432.000000;3.671407
2431.000000;3.632905
2430.000000;3.514938
2429.000000;3.413401
2428.000000;3.406423
2427.000000;3.471357
2426.000000;3.555883
2425.000000;3.640961
2424.000000;3.703459
2423.000000;3.526662
2422.000000;3.346436
2421.000000;3.327896
2420.000000;3.509662
2419.000000;3.984401
2418.000000;4.035565
2417.000000;3.775264
2416.000000;3.726164
2415.000000;3.686639
2414.000000;3.644901
2413.000000;3.647870
2412.000000;3.740362
2411.000000;3.872993
2410.000000;3.814513
2409.000000;3.591190
2408.000000;3.439035
2407.000000;3.413416
2406.000000;3.496721
2405.000000;3.672517
2404.000000;3.968802
2403.000000;4.332183
2402.000000;4.102964
2401.000000;3.683663
2400.000000;3.445474
2399.000000;3.357084
2398.000000;3.362523
2397.000000;3.398334
2396.000000;3.402278
2395.000000;3.377778
2394.000000;3.380333
2393.000000;3.515738
2392.000000;3.968020
2391.000000;3.903259
2390.000000;3.565990
2389.000000;3.568879
2388.000000;3.788506
2387.000000;4.126388
2386.000000;4.007474
2385.000000;3.793003
2384.000000;3.666570
2383.000000;3.666515
2382.000000;3.798235
2381.000000;3.987615
2380.000000;4.172842
2379.000000;4.059231
2378.000000;3.744472
2377.000000;3.561880
2376.000000;3.519100
2375.000000;3.570469
2374.000000;3.665678
2373.000000;3.752315
2372.000000;3.775414
2371.000000;3.721043
2370.000000;3.662672
2369.000000;3.655361
2368.000000;3.687513
2367.000000;3.715007
2366.000000;3.744449
2365.000000;3.763132
2364.000000;3.736642
2363.000000;3.696140
2362.000000;3.654375
2361.000000;3.652503
2360.000000;3.697982
2359.000000;3.751060
2358.000000;3.920896
2357.000000;4.117173
2356.000000;3.837240
2355.000000;3.621000
2354.000000;3.551805
2353.000000;3.574742
2352.000000;3.679586
2351.000000;3.841998
2350.000000;4.170727
2349.000000;4.521049
2348.000000;4.035599
2347.000000;3.823012
2346.000000;3.800212
2345.000000;3.833619
2344.000000;3.856976
2343.000000;3.817021
2342.000000;3.767548
2341.000000;3.762465
2340.000000;3.859330
2339.000000;4.137950
2338.000000;3.965063
2337.000000;3.681566
2336.000000;3.638463
2335.000000;3.836335
2334.000000;3.976619
2333.000000;3.740246
2332.000000;3.700848
2331.000000;3.782297
2330.000000;3.876091
2329.000000;3.868430
2328.000000;4.206574
2327.000000;4.245134
2326.000000;3.683678
2325.000000;3.482166
2324.000000;3.418407
2323.000000;3.472166
2322.000000;3.655357
2321.000000;4.070939
2320.000000;4.672910
2319.000000;4.329830
2318.000000;4.156926
2317.000000;3.972255
2316.000000;3.803084
2315.000000;3.781855
2314.000000;3.940141
2313.000000;4.253366
2312.000000;4.240594
2311.000000;3.950540
2310.000000;3.834466
2309.000000;3.790403
2308.000000;3.760477
2307.000000;3.860327
2306.000000;3.855423
2305.000000;3.730002
2304.000000;3.712508
2303.000000;3.705186
2302.000000;3.697386
2301.000000;3.799498
2300.000000;4.076929
2299.000000;3.955567
2298.000000;4.021925
2297.000000;3.976937
2296.000000;3.557398
2295.000000;3.393358
2294.000000;3.392974
2293.000000;3.528026
2292.000000;3.817253
2291.000000;4.315035
2290.000000;5.000525
2289.000000;4.928501
2288.000000;4.149352
2287.000000;3.873419
2286.000000;3.933525
2285.000000;4.180669
2284.000000;3.697656
2283.000000;3.512965
2282.000000;3.511213
2281.000000;3.630039
2280.000000;3.832752
2279.000000;4.004907
2278.000000;3.938997
2277.000000;3.842005
2276.000000;3.804871
2275.000000;3.734483
2274.000000;3.691261
2273.000000;3.862479
2272.000000;4.284238
2271.000000;3.855437
2270.000000;3.579791
2269.000000;3.546085
2268.000000;3.637719
2267.000000;3.853159
2266.000000;4.069489
2265.000000;4.110381
2264.000000;4.396297
2263.000000;4.159391
2262.000000;3.845782
2261.000000;3.971056
2260.000000;4.220761
2259.000000;3.585326
2258.000000;3.432819
2257.000000;3.502234
2256.000000;3.780507
2255.000000;4.044208
2254.000000;4.066372
2253.000000;4.079380
2252.000000;3.922193
2251.000000;3.850985
2250.000000;3.740262
2249.000000;3.638710
2248.000000;3.597129
2247.000000;3.917665
2246.000000;4.078963
2245.000000;3.587530
2244.000000;3.505335
2243.000000;3.586018
2242.000000;4.143650
2241.000000;3.964900
2240.000000;3.558422
2239.000000;3.488934
2238.000000;3.577969
2237.000000;3.684460
2236.000000;3.510961
2235.000000;3.365498
2234.000000;3.330981
2233.000000;3.433356
2232.000000;3.809336
2231.000000;4.061055
2230.000000;3.699906
2229.000000;3.822689
2228.000000;4.059676
2227.000000;3.801285
2226.000000;3.656871
2225.000000;3.568005
2224.000000;3.543447
2223.000000;3.624367
2222.000000;3.831317
2221.000000;4.021587
2220.000000;3.703397
2219.000000;3.407011
2218.000000;3.273905
2217.000000;3.256830
2216.000000;3.339136
2215.000000;3.464959
2214.000000;3.528653
2213.000000;3.510734
2212.000000;3.501244
2211.000000;3.592396
2210.000000;3.898899
2209.000000;4.513861
2208.000000;3.918463
2207.000000;3.747913
2206.000000;3.710193
2205.000000;3.723215
2204.000000;3.756699
2203.000000;3.780536
2202.000000;3.825145
2201.000000;4.000241
2200.000000;3.972296
2199.000000;3.783442
2198.000000;3.915744
2197.000000;3.819964
2196.000000;3.566303
2195.000000;3.538360
2194.000000;3.668003
2193.000000;3.752047
2192.000000;3.540830
2191.000000;3.396038
2190.000000;3.364890
2189.000000;3.373707
2188.000000;3.413917
2187.000000;3.562482
2186.000000;4.316199
2185.000000;3.808666
2184.000000;3.630126
2183.000000;3.832116
2182.000000;4.047777
2181.000000;3.878494
2180.000000;3.896393
2179.000000;3.949799
2178.000000;3.731846
2177.000000;3.624135
2176.000000;3.589016
2175.000000;3.599250
2174.000000;3.651823
2173.000000;3.684325
2172.000000;3.681524
2171.000000;3.693440
2170.000000;3.710544
2169.000000;3.851113
2168.000000;3.893000
2167.000000;3.586201
2166.000000;3.422307
2165.000000;3.384638
2164.000000;3.435776
2163.000000;3.633520
2162.000000;3.996822
2161.000000;3.584172
2160.000000;3.331424
2159.000000;3.275023
2158.000000;3.301045
2157.000000;3.407237
2156.000000;3.529371
2155.000000;3.526790
2154.000000;3.450817
2153.000000;3.436743
2152.000000;3.563491
2151.000000;3.863643
2150.000000;4.039014
2149.000000;3.943088
2148.000000;3.558421
2147.000000;3.326576
2146.000000;3.238087
2145.000000;3.269184
2144.000000;3.419681
2143.000000;3.685445
2142.000000;3.893543
2141.000000;3.908230
2140.000000;3.992699
2139.000000;4.291932
2138.000000;4.677983
2137.000000;4.295590
2136.000000;3.890358
2135.000000;3.642026
2134.000000;3.477855
2133.000000;3.370231
2132.000000;3.303760
2131.000000;3.327076
2130.000000;3.455686
2129.000000;4.194137
2128.000000;3.700173
2127.000000;3.367265
2126.000000;3.282274
2125.000000;3.320279
2124.000000;3.466820
2123.000000;3.711744
2122.000000;3.791467
2121.000000;3.622582
2120.000000;3.481822
2119.000000;3.404230
2118.000000;3.413797
2117.000000;3.519849
2116.000000;3.707317
2115.000000;3.896672
2114.000000;3.867508
2113.000000;3.734709
2112.000000;3.752530
2111.000000;3.902600
2110.000000;4.158250
2109.000000;3.899422
2108.000000;3.574859
2107.000000;3.483171
2106.000000;3.534490
2105.000000;3.642403
2104.000000;3.749278
2103.000000;4.127833
2102.000000;3.832410
2101.000000;3.480209
2100.000000;3.332942
2099.000000;3.330338
2098.000000;3.493970
2097.000000;3.908557
2096.000000;4.055243
2095.000000;3.825589
2094.000000;3.532208
2093.000000;3.316877
2092.000000;3.252052
2091.000000;3.303363
2090.000000;3.414218
2089.000000;3.502861
2088.000000;3.567435
2087.000000;3.664633
2086.000000;3.836576
2085.000000;4.234502
2084.000000;4.018692
2083.000000;3.714713
2082.000000;3.707577
2081.000000;3.846751
2080.000000;4.186869
2079.000000;4.142291
2078.000000;3.683880
2077.000000;3.436797
2076.000000;3.377414
2075.000000;3.480123
2074.000000;3.762422
2073.000000;4.042263
2072.000000;4.137454
2071.000000;3.552325
2070.000000;3.303603
2069.000000;3.242512
2068.000000;3.307694
2067.000000;3.490674
2066.000000;3.869494
2065.000000;4.279289
2064.000000;4.329227
2063.000000;4.493759
2062.000000;4.136564
2061.000000;4.467258
2060.000000;4.298761
2059.000000;3.762160
2058.000000;3.620933
2057.000000;3.628220
2056.000000;3.937497
2055.000000;4.072284
2054.000000;3.793830
2053.000000;3.814029
2052.000000;4.080449
2051.000000;4.296019
2050.000000;4.125798
2049.000000;4.000085
2048.000000;3.948225
2047.000000;3.842649
2046.000000;3.824765
2045.000000;3.932739
2044.000000;3.958948
2043.000000;3.801064
2042.000000;3.680138
2041.000000;3.696976
2040.000000;3.781987
2039.000000;3.633835
2038.000000;3.460652
2037.000000;3.401376
2036.000000;3.428521
2035.000000;3.505675
2034.000000;3.577118
2033.000000;3.603790
2032.000000;3.663807
2031.000000;3.806889
2030.000000;4.417432
2029.000000;4.355906
2028.000000;3.846581
2027.000000;3.786081
2026.000000;3.781327
2025.000000;3.588621
2024.000000;3.396814
2023.000000;3.328037
2022.000000;3.368969
2021.000000;3.516500
2020.000000;3.754039
2019.000000;3.993851
2018.000000;3.949109
2017.000000;3.851363
2016.000000;3.891328
2015.000000;4.148265
2014.000000;4.303818
2013.000000;3.844580
2012.000000;3.728103
2011.000000;3.768945
2010.000000;3.893058
2009.000000;3.753777
2008.000000;3.504931
2007.000000;3.384908
2006.000000;3.386261
2005.000000;3.513858
2004.000000;3.927377
2003.000000;4.110947
2002.000000;4.074489
2001.000000;3.819028
2000.000000;3.478747
1999.000000;3.416434
1998.000000;3.522510
1997.000000;3.758327
1996.000000;4.008774
1995.000000;4.434796
1994.000000;4.134794
1993.000000;3.667617
1992.000000;3.489381
1991.000000;3.495967
1990.000000;3.730123
1989.000000;4.394191
1988.000000;4.051658
1987.000000;4.141803
1986.000000;3.795357
1985.000000;3.499481
1984.000000;3.392992
1983.000000;3.369700
1982.000000;3.407067
1981.000000;3.512393
1980.000000;3.790311
1979.000000;3.854482
1978.000000;3.547244
1977.000000;3.452788
1976.000000;3.500222
1975.000000;3.782384
1974.000000;3.836577
1973.000000;3.560586
1972.000000;3.499170
1971.000000;3.606346
1970.000000;3.860304
1969.000000;4.156241
1968.000000;4.343792
1967.000000;4.352376
1966.000000;4.097238
1965.000000;3.732126
1964.000000;3.523229
1963.000000;3.460855
1962.000000;3.493917
1961.000000;3.515676
1960.000000;3.464032
1959.000000;3.416966
1958.000000;3.424745
1957.000000;3.515879
1956.000000;3.705621
1955.000000;4.065018
1954.000000;4.414884
1953.000000;4.020885
1952.000000;3.746601
1951.000000;3.590935
1950.000000;3.529378
1949.000000;3.665156
1948.000000;3.986866
1947.000000;3.669283
1946.000000;3.467502
1945.000000;3.510352
1944.000000;3.698073
1943.000000;3.994921
1942.000000;3.959435
1941.000000;3.909469
1940.000000;3.856197
1939.000000;3.642789
1938.000000;3.524166
1937.000000;3.528814
1936.000000;3.646290
1935.000000;3.934681
1934.000000;3.992929
1933.000000;3.628838
1932.000000;3.470152
1931.000000;3.448991
1930.000000;3.605378
1929.000000;4.082923
1928.000000;4.028757
1927.000000;3.697597
1926.000000;3.692720
1925.000000;3.801876
1924.000000;4.013772
1923.000000;4.020613
1922.000000;3.823766
1921.000000;3.660826
1920.000000;3.637219
1919.000000;3.818489
1918.000000;4.218215
1917.000000;4.272781
1916.000000;3.873892
1915.000000;3.664553
1914.000000;3.644580
1913.000000;3.714847
1912.000000;3.674505
1911.000000;3.500258
1910.000000;3.378727
1909.000000;3.378253
1908.000000;3.492518
1907.000000;3.611686
1906.000000;3.591507
1905.000000;3.545050
1904.000000;3.568511
1903.000000;3.677661
1902.000000;3.844695
1901.000000;4.123480
1900.000000;4.071618
1899.000000;3.819609
1898.000000;3.803304
1897.000000;3.828130
1896.000000;3.802617
1895.000000;3.785185
1894.000000;3.942227
1893.000000;4.062112
1892.000000;3.947589
1891.000000;4.014770
1890.000000;4.038606
1889.000000;4.151546
1888.000000;4.036058
1887.000000;3.780498
1886.000000;3.800095
1885.000000;3.930147
1884.000000;3.796744
1883.000000;3.703513
1882.000000;3.811863
1881.000000;3.710094
1880.000000;3.390269
1879.000000;3.231062
1878.000000;3.193465
1877.000000;3.265395
1876.000000;3.495918
1875.000000;3.832633
1874.000000;3.855232
1873.000000;3.903113
1872.000000;4.084376
1871.000000;4.044159
1870.000000;3.869431
1869.000000;3.730837
1868.000000;3.719151
1867.000000;3.837232
1866.000000;4.023506
1865.000000;4.384282
1864.000000;4.147591
1863.000000;3.785005
1862.000000;3.624788
1861.000000;3.529930
1860.000000;3.491121
1859.000000;3.562403
1858.000000;3.708479
1857.000000;3.607600
1856.000000;3.460638
1855.000000;3.402481
1854.000000;3.375569
1853.000000;3.355072
1852.000000;3.351554
1851.000000;3.376560
1850.000000;3.504259
1849.000000;3.660570
1848.000000;3.488225
1847.000000;3.370064
1846.000000;3.447979
1845.000000;3.674900
1844.000000;3.912352
1843.000000;3.992731
1842.000000;4.145440
1841.000000;4.139542
1840.000000;3.814297
1839.000000;3.604123
1838.000000;3.540713
1837.000000;3.589675
1836.000000;3.632032
1835.000000;3.497028
1834.000000;3.324582
1833.000000;3.279475
1832.000000;3.381364
1831.000000;3.434259
1830.000000;3.391883
1829.000000;3.452630
1828.000000;3.592609
1827.000000;3.601148
1826.000000;3.403550
1825.000000;3.248875
1824.000000;3.181462
1823.000000;3.161561
1822.000000;3.179426
1821.000000;3.245828
1820.000000;3.363422
1819.000000;3.465660
1818.000000;3.486912
1817.000000;3.490388
1816.000000;3.603405
1815.000000;3.838773
1814.000000;3.653364
1813.000000;3.441320
1812.000000;3.470854
1811.000000;3.731883
1810.000000;3.929833
1809.000000;3.880093
1808.000000;3.910223
1807.000000;3.993407
1806.000000;4.289203
1805.000000;3.866971
1804.000000;3.603103
1803.000000;3.568653
1802.000000;3.627621
1801.000000;3.837305
1800.000000;4.248689
1799.000000;4.167739
1798.000000;3.954461
1797.000000;3.939531
1796.000000;3.896237
1795.000000;3.752452
1794.000000;3.618092
1793.000000;3.577658
1792.000000;3.787190
1791.000000;4.098316
1790.000000;3.735550
1789.000000;3.646531
1788.000000;3.894998
1787.000000;3.764219
1786.000000;3.559632
1785.000000;3.642138
1784.000000;3.772557
1783.000000;3.662566
1782.000000;3.575257
1781.000000;3.624828
1780.000000;3.760529
1779.000000;3.921322
1778.000000;4.070488
1777.000000;4.167378
1776.000000;3.902325
1775.000000;3.745919
1774.000000;3.772262
1773.000000;3.921613
1772.000000;4.325005
1771.000000;4.168751
1770.000000;3.903434
1769.000000;4.043547
1768.000000;4.128508
1767.000000;3.889385
1766.000000;3.843349
1765.000000;3.885286
1764.000000;3.959784
1763.000000;3.977379
1762.000000;3.974808
1761.000000;4.448031
1760.000000;3.985741
1759.000000;3.536852
1758.000000;3.447046
1757.000000;3.442826
1756.000000;3.430793
1755.000000;3.425686
1754.000000;3.573028
1753.000000;3.963158
1752.000000;3.756439
1751.000000;3.533933
1750.000000;3.505245
1749.000000;3.530373
1748.000000;3.565013
1747.000000;3.573135
1746.000000;3.610340
1745.000000;3.735272
1744.000000;3.882063
1743.000000;3.854932
1742.000000;3.752443
1741.000000;3.651322
1740.000000;3.594256
1739.000000;3.621122
1738.000000;3.723991
1737.000000;3.911644
1736.000000;4.027752
1735.000000;3.961271
1734.000000;3.930956
1733.000000;3.970747
1732.000000;4.104043
1731.000000;3.928055
1730.000000;3.617340
1729.000000;3.467214
1728.000000;3.442591
1727.000000;3.520169
1726.000000;3.651657
1725.000000;3.729422
1724.000000;3.737293
1723.000000;3.813246
1722.000000;3.740994
1721.000000;3.606233
1720.000000;3.601657
1719.000000;3.878872
1718.000000;4.487988
1717.000000;3.836008
1716.000000;3.616775
1715.000000;3.561496
1714.000000;3.565961
1713.000000;3.625011
1712.000000;3.726736
1711.000000;3.755528
1710.000000;3.619741
1709.000000;3.484518
1708.000000;3.448054
1707.000000;3.502413
1706.000000;3.690829
1705.000000;4.344964
1704.000000;4.093703
1703.000000;3.720980
1702.000000;3.829887
1701.000000;4.280143
1700.000000;4.035732
1699.000000;3.784738
1698.000000;3.744444
1697.000000;3.736569
1696.000000;3.774768
1695.000000;3.971506
1694.000000;4.215927
1693.000000;3.906898
1692.000000;3.865765
1691.000000;4.040707
1690.000000;4.069760
1689.000000;3.962262
1688.000000;4.013483
1687.000000;4.298646
1686.000000;4.036282
1685.000000;3.820913
1684.000000;3.831026
1683.000000;3.881269
1682.000000;3.878156
1681.000000;3.816765
1680.000000;3.740990
1679.000000;3.709909
1678.000000;3.741286
1677.000000;3.758800
1676.000000;3.710088
1675.000000;3.639671
1674.000000;3.559163
1673.000000;3.473746
1672.000000;3.417602
1671.000000;3.417093
1670.000000;3.442975
1669.000000;3.444282
1668.000000;3.424727
1667.000000;3.407518
1666.000000;3.402491
1665.000000;3.439737
1664.000000;3.562017
1663.000000;3.819548
1662.000000;4.267024
1661.000000;4.524202
1660.000000;4.234027
1659.000000;4.108806
1658.000000;4.076855
1657.000000;3.817344
1656.000000;3.617742
1655.000000;3.619592
1654.000000;3.877893
1653.000000;4.346410
1652.000000;4.017662
1651.000000;3.757431
1650.000000;3.735244
1649.000000;3.752586
1648.000000;3.717622
1647.000000;3.644175
1646.000000;3.698304
1645.000000;3.858798
1644.000000;3.729589
1643.000000;3.520881
1642.000000;3.619652
1641.000000;4.107208
1640.000000;3.735595
1639.000000;3.472370
1638.000000;3.487557
1637.000000;3.613058
1636.000000;4.085023
1635.000000;4.563277
1634.000000;3.837882
1633.000000;3.647865
1632.000000;3.562038
1631.000000;3.564056
1630.000000;3.583009
1629.000000;3.530071
1628.000000;3.516742
1627.000000;3.535357
1626.000000;3.550578
1625.000000;3.600661
1624.000000;3.919773
1623.000000;3.998198
1622.000000;3.648254
1621.000000;3.568788
1620.000000;3.688787
1619.000000;3.957828
1618.000000;4.215406
1617.000000;4.141036
1616.000000;4.183153
1615.000000;4.363714
1614.000000;3.911598
1613.000000;3.655936
1612.000000;3.584706
1611.000000;3.600800
1610.000000;3.717870
1609.000000;3.871762
1608.000000;4.040035
1607.000000;4.112270
1606.000000;3.890081
1605.000000;3.714435
1604.000000;3.689469
1603.000000;3.757088
1602.000000;3.774259
1601.000000;3.641336
1600.000000;3.495821
1599.000000;3.408058
1598.000000;3.393174
1597.000000;3.416589
1596.000000;3.416493
1595.000000;3.429574
1594.000000;3.504641
1593.000000;3.579977
1592.000000;3.609725
1591.000000;3.644921
1590.000000;3.644819
1589.000000;3.569839
1588.000000;3.579324
1587.000000;3.675555
1586.000000;3.961331
1585.000000;4.066460
1584.000000;3.597917
1583.000000;3.449158
1582.000000;3.599345
1581.000000;4.062995
1580.000000;3.823919
1579.000000;3.543612
1578.000000;3.529696
1577.000000;3.611022
1576.000000;3.932358
1575.000000;4.232801
1574.000000;3.914778
1573.000000;3.758975
1572.000000;3.673354
1571.000000;3.582301
1570.000000;3.528225
1569.000000;3.537387
1568.000000;3.610708
1567.000000;3.699390
1566.000000;3.781873
1565.000000;3.855337
1564.000000;3.915640
1563.000000;3.957099
1562.000000;4.016358
1561.000000;4.052041
1560.000000;3.960745
1559.000000;3.879113
1558.000000;3.875117
1557.000000;3.894860
1556.000000;3.827111
1555.000000;3.641811
1554.000000;3.508717
1553.000000;3.484407
1552.000000;3.767264
1551.000000;4.142119
1550.000000;3.741404
1549.000000;3.666608
1548.000000;3.808767
1547.000000;4.180418
1546.000000;4.053209
1545.000000;3.772495
1544.000000;3.814099
1543.000000;3.960854
1542.000000;4.088533
1541.000000;4.075008
1540.000000;4.046377
1539.000000;4.000553
1538.000000;3.976963
1537.000000;3.963388
1536.000000;3.796870
1535.000000;3.679572
1534.000000;3.698290
1533.000000;3.698227
1532.000000;3.643418
1531.000000;3.661241
1530.000000;3.833107
1529.000000;4.082930
1528.000000;4.043106
1527.000000;3.952327
1526.000000;4.014728
1525.000000;3.840377
1524.000000;3.592585
1523.000000;3.494596
1522.000000;3.522539
1521.000000;3.837644
1520.000000;4.016061
1519.000000;3.592309
1518.000000;3.491236
1517.000000;3.618489
1516.000000;3.744477
1515.000000;3.614080
1514.000000;3.542811
1513.000000;3.664069
1512.000000;3.858063
1511.000000;3.826315
1510.000000;3.757194
1509.000000;3.856363
1508.000000;4.195459
1507.000000;4.543167
1506.000000;4.149919
1505.000000;3.978449
1504.000000;3.880737
1503.000000;3.863024
1502.000000;4.067938
1501.000000;4.324641
1500.000000;4.087532
1499.000000;3.858446
1498.000000;3.734115
1497.000000;3.739206
1496.000000;3.878328
1495.000000;3.813417
1494.000000;3.618122
1493.000000;3.597018
1492.000000;3.723982
1491.000000;3.854551
1490.000000;3.810730
1489.000000;3.671285
1488.000000;3.582968
1487.000000;3.565301
1486.000000;3.615614
1485.000000;3.719096
1484.000000;3.861791
1483.000000;3.962227
1482.000000;3.979024
1481.000000;3.937768
1480.000000;4.053331
1479.000000;4.565141
1478.000000;4.283750
1477.000000;3.841344
1476.000000;3.569015
1475.000000;3.409192
1474.000000;3.360409
1473.000000;3.389664
1472.000000;3.468942
1471.000000;3.556394
1470.000000;3.617359
1469.000000;3.694253
1468.000000;3.890338
1467.000000;3.814956
1466.000000;3.574082
1465.000000;3.519604
1464.000000;3.596008
1463.000000;3.708114
1462.000000;3.676910
1461.000000;3.595190
1460.000000;3.580530
1459.000000;3.607479
1458.000000;3.654057
1457.000000;3.687847
1456.000000;3.700349
1455.000000;3.753613
1454.000000;3.882506
1453.000000;4.227654
1452.000000;4.285348
1451.000000;3.923873
1450.000000;4.046090
1449.000000;3.786963
1448.000000;3.468597
1447.000000;3.433588
1446.000000;3.611800
1445.000000;3.976885
1444.000000;4.112538
1443.000000;4.239220
1442.000000;4.256761
1441.000000;4.213077
1440.000000;4.073284
1439.000000;3.755876
1438.000000;3.701943
1437.000000;3.806200
1436.000000;3.987055
1435.000000;4.042430
1434.000000;3.688207
1433.000000;3.398072
1432.000000;3.261370
1431.000000;3.265772
1430.000000;3.407927
1429.000000;3.714696
1428.000000;4.041099
1427.000000;4.173887
1426.000000;4.224044
1425.000000;3.732341
1424.000000;3.481800
1423.000000;3.425785
1422.000000;3.504310
1421.000000;3.654585
1420.000000;3.670172
1419.000000;3.592534
1418.000000;3.588277
1417.000000;3.698732
1416.000000;3.681809
1415.000000;3.524360
1414.000000;3.452903
1413.000000;3.392190
1412.000000;3.322417
1411.000000;3.302844
1410.000000;3.347933
1409.000000;3.427940
1408.000000;3.463443
1407.000000;3.427656
1406.000000;3.362232
1405.000000;3.302241
1404.000000;3.282488
1403.000000;3.325431
1402.000000;3.429924
1401.000000;3.576229
1400.000000;3.720093
1399.000000;3.797651
1398.000000;3.864797
1397.000000;4.062799
1396.000000;4.049385
1395.000000;3.753924
1394.000000;3.726113
1393.000000;4.077580
1392.000000;3.901353
1391.000000;3.526740
1390.000000;3.493336
1389.000000;3.531324
1388.000000;3.547360
1387.000000;3.600559
1386.000000;3.693992
1385.000000;3.797511
1384.000000;4.048769
1383.000000;4.218556
1382.000000;3.802212
1381.000000;3.588247
1380.000000;3.552670
1379.000000;3.648597
1378.000000;3.911355
1377.000000;4.086138
1376.000000;4.019931
1375.000000;4.007657
1374.000000;4.163299
1373.000000;4.698155
1372.000000;4.274595
1371.000000;4.137456
1370.000000;4.032531
1369.000000;3.955700
1368.000000;4.289614
1367.000000;4.095533
1366.000000;3.726744
1365.000000;3.651132
1364.000000;3.675133
1363.000000;3.730520
1362.000000;3.656960
1361.000000;3.482054
1360.000000;3.379002
1359.000000;3.390589
1358.000000;3.549245
1357.000000;3.830570
1356.000000;3.932927
1355.000000;3.852735
1354.000000;3.766630
1353.000000;3.735090
1352.000000;3.995451
1351.000000;4.146626
1350.000000;3.716714
1349.000000;3.564502
1348.000000;3.634694
1347.000000;4.018520
1346.000000;3.996599
1345.000000;3.616217
1344.000000;3.494281
1343.000000;3.458381
1342.000000;3.460949
1341.000000;3.641693
1340.000000;4.122892
1339.000000;3.851687
1338.000000;3.648245
1337.000000;3.669451
1336.000000;3.558706
1335.000000;3.334428
1334.000000;3.196299
1333.000000;3.166129
1332.000000;3.220950
1331.000000;3.334569
1330.000000;3.589929
1329.000000;3.950457
1328.000000;3.645667
1327.000000;3.477360
1326.000000;3.556543
1325.000000;3.777999
1324.000000;3.762351
1323.000000;3.763392
1322.000000;4.192542
1321.000000;3.741280
1320.000000;3.497590
1319.000000;3.626400
1318.000000;4.116879
1317.000000;3.608423
1316.000000;3.377642
1315.000000;3.328397
1314.000000;3.354855
1313.000000;3.447960
1312.000000;3.465345
1311.000000;3.416456
1310.000000;3.467098
1309.000000;3.728429
1308.000000;4.144985
1307.000000;3.991326
1306.000000;3.751569
1305.000000;3.536342
1304.000000;3.395598
1303.000000;3.396800
1302.000000;3.621536
1301.000000;4.014697
1300.000000;3.939961
1299.000000;3.716596
1298.000000;3.508544
1297.000000;3.450437
1296.000000;3.580552
1295.000000;3.810016
1294.000000;3.724399
1293.000000;3.567982
1292.000000;3.597854
1291.000000;3.780850
1290.000000;3.741539
1289.000000;3.582987
1288.000000;3.549082
1287.000000;3.589456
1286.000000;3.669390
1285.000000;3.828162
1284.000000;4.204762
1283.000000;5.328567
1282.000000;4.599499
1281.000000;3.878430
1280.000000;3.650834
1279.000000;3.660527
1278.000000;3.794594
1277.000000;3.945397
1276.000000;3.775168
1275.000000;3.576523
1274.000000;3.605670
1273.000000;3.861151
1272.000000;3.988192
1271.000000;4.028433
1270.000000;3.895845
1269.000000;3.718614
1268.000000;3.785408
1267.000000;4.125066
1266.000000;4.071151
1265.000000;3.908059
1264.000000;3.927129
1263.000000;3.975724
1262.000000;3.997594
1261.000000;4.012305
1260.000000;3.923335
1259.000000;3.763775
1258.000000;3.684629
1257.000000;3.702205
1256.000000;3.786383
1255.000000;3.778429
1254.000000;3.657219
1253.000000;3.587699
1252.000000;3.601693
1251.000000;3.722303
1250.000000;3.985984
1249.000000;3.911536
1248.000000;3.627633
1247.000000;3.478755
1246.000000;3.415342
1245.000000;3.424492
1244.000000;3.485081
1243.000000;3.586466
1242.000000;3.754154
1241.000000;3.982231
1240.000000;4.062025
1239.000000;3.767969
1238.000000;3.497101
1237.000000;3.394263
1236.000000;3.455544
1235.000000;3.804634
1234.000000;4.090747
1233.000000;3.527960
1232.000000;3.442756
1231.000000;3.506568
1230.000000;3.552111
1229.000000;3.444318
1228.000000;3.387979
1227.000000;3.446844
1226.000000;3.588754
1225.000000;3.711822
1224.000000;3.758617
1223.000000;3.790459
1222.000000;3.811795
1221.000000;3.814996
1220.000000;3.780339
1219.000000;3.741695
1218.000000;3.739004
1217.000000;3.764716
1216.000000;3.839170
1215.000000;3.993256
1214.000000;4.179009
1213.000000;4.220854
1212.000000;3.941862
1211.000000;3.710572
1210.000000;3.644674
1209.000000;3.737280
1208.000000;3.926688
1207.000000;4.003799
1206.000000;3.930656
1205.000000;3.900131
1204.000000;3.861048
1203.000000;3.766904
1202.000000;3.842543
1201.000000;4.176135
1200.000000;4.047103
