Criado como novo conjunto de dados;"Jao_teste_celulas.spp","3423.0 Secs"
cm-1;Abs
10000.000000;0.940943
9999.000000;0.940473
9998.000000;0.940003
9997.000000;0.939534
9996.000000;0.939066
9995.000000;0.938598
9994.000000;0.938131
9993.000000;0.937664
9992.000000;0.937198
9991.000000;0.936731
9990.000000;0.936268
9989.000000;0.935799
9988.000000;0.935370
9987.000000;0.935018
9986.000000;0.934680
9985.000000;0.934242
9984.000000;0.933643
9983.000000;0.933008
9982.000000;0.932540
9981.000000;0.932239
9980.000000;0.931852
9979.000000;0.931183
9978.000000;0.930389
9977.000000;0.929789
9976.000000;0.929440
9975.000000;0.929087
9974.000000;0.928545
9973.000000;0.927952
9972.000000;0.927547
9971.000000;0.927359
9970.000000;0.927230
9969.000000;0.927044
9968.000000;0.926787
9967.000000;0.926420
9966.000000;0.925849
9965.000000;0.925028
9964.000000;0.924043
9963.000000;0.923090
9962.000000;0.922420
9961.000000;0.922203
9960.000000;0.922324
9959.000000;0.922367
9958.000000;0.921987
9957.000000;0.921297
9956.000000;0.920738
9955.000000;0.920538
9954.000000;0.920485
9953.000000;0.920303
9952.000000;0.920024
9951.000000;0.919815
9950.000000;0.919599
9949.000000;0.919103
9948.000000;0.918270
9947.000000;0.917390
9946.000000;0.916769
9945.000000;0.916435
9944.000000;0.916238
9943.000000;0.916077
9942.000000;0.915910
9941.000000;0.915632
9940.000000;0.915111
9939.000000;0.914325
9938.000000;0.913391
9937.000000;0.912464
9936.000000;0.911650
9935.000000;0.911005
9934.000000;0.910524
9933.000000;0.910132
9932.000000;0.909736
9931.000000;0.909340
9930.000000;0.909070
9929.000000;0.909051
9928.000000;0.909210
9927.000000;0.909234
9926.000000;0.908815
9925.000000;0.907992
9924.000000;0.907199
9923.000000;0.906859
9922.000000;0.906966
9921.000000;0.907138
9920.000000;0.907054
9919.000000;0.906703
9918.000000;0.906223
9917.000000;0.905685
9916.000000;0.905115
9915.000000;0.904560
9914.000000;0.904007
9913.000000;0.903338
9912.000000;0.902523
9911.000000;0.901766
9910.000000;0.901327
9909.000000;0.901197
9908.000000;0.901068
9907.000000;0.900628
9906.000000;0.899842
9905.000000;0.898985
9904.000000;0.898479
9903.000000;0.898588
9902.000000;0.899138
9901.000000;0.899541
9900.000000;0.899268
9899.000000;0.898325
9898.000000;0.897178
9897.000000;0.896235
9896.000000;0.895556
9895.000000;0.895067
9894.000000;0.894857
9893.000000;0.895100
9892.000000;0.895701
9891.000000;0.896149
9890.000000;0.895854
9889.000000;0.894704
9888.000000;0.893255
9887.000000;0.892237
9886.000000;0.891871
9885.000000;0.891764
9884.000000;0.891514
9883.000000;0.891167
9882.000000;0.890938
9881.000000;0.890731
9880.000000;0.890276
9879.000000;0.889634
9878.000000;0.889181
9877.000000;0.889045
9876.000000;0.888884
9875.000000;0.888371
9874.000000;0.887629
9873.000000;0.887012
9872.000000;0.886683
9871.000000;0.886575
9870.000000;0.886609
9869.000000;0.886715
9868.000000;0.886709
9867.000000;0.886346
9866.000000;0.885491
9865.000000;0.884205
9864.000000;0.882745
9863.000000;0.881525
9862.000000;0.880882
9861.000000;0.880746
9860.000000;0.880640
9859.000000;0.880183
9858.000000;0.879501
9857.000000;0.879011
9856.000000;0.878887
9855.000000;0.878930
9854.000000;0.878882
9853.000000;0.878670
9852.000000;0.878361
9851.000000;0.878030
9850.000000;0.877705
9849.000000;0.877323
9848.000000;0.876738
9847.000000;0.875866
9846.000000;0.874853
9845.000000;0.874023
9844.000000;0.873675
9843.000000;0.873884
9842.000000;0.874392
9841.000000;0.874631
9840.000000;0.874106
9839.000000;0.872934
9838.000000;0.871858
9837.000000;0.871504
9836.000000;0.871695
9835.000000;0.871729
9834.000000;0.871235
9833.000000;0.870449
9832.000000;0.869699
9831.000000;0.869026
9830.000000;0.868424
9829.000000;0.868072
9828.000000;0.868036
9827.000000;0.867998
9826.000000;0.867595
9825.000000;0.866923
9824.000000;0.866402
9823.000000;0.866179
9822.000000;0.865949
9821.000000;0.865417
9820.000000;0.864693
9819.000000;0.864079
9818.000000;0.863667
9817.000000;0.863335
9816.000000;0.863044
9815.000000;0.862920
9814.000000;0.862985
9813.000000;0.862974
9812.000000;0.862576
9811.000000;0.861780
9810.000000;0.860861
9809.000000;0.860042
9808.000000;0.859338
9807.000000;0.858754
9806.000000;0.858447
9805.000000;0.858510
9804.000000;0.858732
9803.000000;0.858759
9802.000000;0.858492
9801.000000;0.858133
9800.000000;0.857853
9799.000000;0.857580
9798.000000;0.857157
9797.000000;0.856520
9796.000000;0.855656
9795.000000;0.854590
9794.000000;0.853534
9793.000000;0.852854
9792.000000;0.852685
9791.000000;0.852686
9790.000000;0.852392
9789.000000;0.851777
9788.000000;0.851263
9787.000000;0.851179
9786.000000;0.851400
9785.000000;0.851554
9784.000000;0.851388
9783.000000;0.850862
9782.000000;0.850024
9781.000000;0.848985
9780.000000;0.847945
9779.000000;0.847111
9778.000000;0.846562
9777.000000;0.846259
9776.000000;0.846141
9775.000000;0.846171
9774.000000;0.846272
9773.000000;0.846300
9772.000000;0.846091
9771.000000;0.845549
9770.000000;0.844708
9769.000000;0.843741
9768.000000;0.842885
9767.000000;0.842298
9766.000000;0.841968
9765.000000;0.841771
9764.000000;0.841585
9763.000000;0.841345
9762.000000;0.841015
9761.000000;0.840597
9760.000000;0.840147
9759.000000;0.839761
9758.000000;0.839504
9757.000000;0.839368
9756.000000;0.839259
9755.000000;0.839000
9754.000000;0.838385
9753.000000;0.837343
9752.000000;0.836095
9751.000000;0.835057
9750.000000;0.834517
9749.000000;0.834419
9748.000000;0.834489
9747.000000;0.834529
9746.000000;0.834535
9745.000000;0.834547
9744.000000;0.834508
9743.000000;0.834317
9742.000000;0.833952
9741.000000;0.833464
9740.000000;0.832847
9739.000000;0.832017
9738.000000;0.830967
9737.000000;0.829901
9736.000000;0.829127
9735.000000;0.828770
9734.000000;0.828669
9733.000000;0.828569
9732.000000;0.828377
9731.000000;0.828150
9730.000000;0.827887
9729.000000;0.827493
9728.000000;0.826940
9727.000000;0.826349
9726.000000;0.825831
9725.000000;0.825363
9724.000000;0.824900
9723.000000;0.824514
9722.000000;0.824278
9721.000000;0.824092
9720.000000;0.823764
9719.000000;0.823267
9718.000000;0.822752
9717.000000;0.822291
9716.000000;0.821792
9715.000000;0.821211
9714.000000;0.820730
9713.000000;0.820555
9712.000000;0.820606
9711.000000;0.820524
9710.000000;0.820016
9709.000000;0.819140
9708.000000;0.818254
9707.000000;0.817703
9706.000000;0.817545
9705.000000;0.817549
9704.000000;0.817461
9703.000000;0.817248
9702.000000;0.817068
9701.000000;0.817012
9700.000000;0.816981
9699.000000;0.816812
9698.000000;0.816439
9697.000000;0.815879
9696.000000;0.815173
9695.000000;0.814431
9694.000000;0.813842
9693.000000;0.813497
9692.000000;0.813227
9691.000000;0.812733
9690.000000;0.811915
9689.000000;0.811013
9688.000000;0.810376
9687.000000;0.810130
9686.000000;0.810079
9685.000000;0.809911
9684.000000;0.809497
9683.000000;0.808988
9682.000000;0.808613
9681.000000;0.808406
9680.000000;0.808203
9679.000000;0.807891
9678.000000;0.807557
9677.000000;0.807312
9676.000000;0.807058
9675.000000;0.806576
9674.000000;0.805809
9673.000000;0.804983
9672.000000;0.804402
9671.000000;0.804200
9670.000000;0.804274
9669.000000;0.804388
9668.000000;0.804342
9667.000000;0.804112
9666.000000;0.803833
9665.000000;0.803585
9664.000000;0.803227
9663.000000;0.802514
9662.000000;0.801409
9661.000000;0.800198
9660.000000;0.799262
9659.000000;0.798761
9658.000000;0.798553
9657.000000;0.798365
9656.000000;0.798034
9655.000000;0.797616
9654.000000;0.797281
9653.000000;0.797080
9652.000000;0.796859
9651.000000;0.796448
9650.000000;0.795898
9649.000000;0.795431
9648.000000;0.795159
9647.000000;0.794956
9646.000000;0.794636
9645.000000;0.794173
9644.000000;0.793697
9643.000000;0.793354
9642.000000;0.793195
9641.000000;0.793125
9640.000000;0.792930
9639.000000;0.792426
9638.000000;0.791647
9637.000000;0.790853
9636.000000;0.790282
9635.000000;0.789963
9634.000000;0.789785
9633.000000;0.789679
9632.000000;0.789635
9631.000000;0.789592
9630.000000;0.789442
9629.000000;0.789173
9628.000000;0.788914
9627.000000;0.788776
9626.000000;0.788665
9625.000000;0.788315
9624.000000;0.787546
9623.000000;0.786506
9622.000000;0.785615
9621.000000;0.785200
9620.000000;0.785187
9619.000000;0.785193
9618.000000;0.784920
9617.000000;0.784397
9616.000000;0.783831
9615.000000;0.783339
9614.000000;0.782923
9613.000000;0.782588
9612.000000;0.782367
9611.000000;0.782216
9610.000000;0.781985
9609.000000;0.781535
9608.000000;0.780844
9607.000000;0.780021
9606.000000;0.779248
9605.000000;0.778703
9604.000000;0.778452
9603.000000;0.778380
9602.000000;0.778262
9601.000000;0.777957
9600.000000;0.777534
9599.000000;0.777213
9598.000000;0.777148
9597.000000;0.777246
9596.000000;0.777196
9595.000000;0.776716
9594.000000;0.775827
9593.000000;0.774829
9592.000000;0.774024
9591.000000;0.773495
9590.000000;0.773154
9589.000000;0.772891
9588.000000;0.772608
9587.000000;0.772223
9586.000000;0.771765
9585.000000;0.771414
9584.000000;0.771303
9583.000000;0.771324
9582.000000;0.771232
9581.000000;0.770930
9580.000000;0.770543
9579.000000;0.770196
9578.000000;0.769855
9577.000000;0.769396
9576.000000;0.768739
9575.000000;0.767892
9574.000000;0.766978
9573.000000;0.766254
9572.000000;0.765943
9571.000000;0.765999
9570.000000;0.766118
9569.000000;0.766024
9568.000000;0.765666
9567.000000;0.765119
9566.000000;0.764464
9565.000000;0.763842
9564.000000;0.763458
9563.000000;0.763388
9562.000000;0.763455
9561.000000;0.763418
9560.000000;0.763211
9559.000000;0.762871
9558.000000;0.762349
9557.000000;0.761604
9556.000000;0.760822
9555.000000;0.760315
9554.000000;0.760170
9553.000000;0.760176
9552.000000;0.760102
9551.000000;0.759900
9550.000000;0.759590
9549.000000;0.759137
9548.000000;0.758544
9547.000000;0.757944
9546.000000;0.757493
9545.000000;0.757235
9544.000000;0.757145
9543.000000;0.757173
9542.000000;0.757191
9541.000000;0.756985
9540.000000;0.756421
9539.000000;0.755564
9538.000000;0.754584
9537.000000;0.753614
9536.000000;0.752803
9535.000000;0.752337
9534.000000;0.752249
9533.000000;0.752261
9532.000000;0.752015
9531.000000;0.751489
9530.000000;0.751022
9529.000000;0.750918
9528.000000;0.751123
9527.000000;0.751335
9526.000000;0.751276
9525.000000;0.750815
9524.000000;0.749973
9523.000000;0.748943
9522.000000;0.748020
9521.000000;0.747393
9520.000000;0.746996
9519.000000;0.746668
9518.000000;0.746385
9517.000000;0.746244
9516.000000;0.746254
9515.000000;0.746281
9514.000000;0.746237
9513.000000;0.746186
9512.000000;0.746155
9511.000000;0.745969
9510.000000;0.745408
9509.000000;0.744522
9508.000000;0.743632
9507.000000;0.742998
9506.000000;0.742557
9505.000000;0.742078
9504.000000;0.741478
9503.000000;0.740900
9502.000000;0.740515
9501.000000;0.740350
9500.000000;0.740312
9499.000000;0.740285
9498.000000;0.740161
9497.000000;0.739849
9496.000000;0.739361
9495.000000;0.738855
9494.000000;0.738544
9493.000000;0.738498
9492.000000;0.738565
9491.000000;0.738491
9490.000000;0.738127
9489.000000;0.737545
9488.000000;0.736956
9487.000000;0.736513
9486.000000;0.736177
9485.000000;0.735784
9484.000000;0.735243
9483.000000;0.734630
9482.000000;0.734111
9481.000000;0.733773
9480.000000;0.733572
9479.000000;0.733386
9478.000000;0.733124
9477.000000;0.732777
9476.000000;0.732401
9475.000000;0.732055
9474.000000;0.731761
9473.000000;0.731525
9472.000000;0.731337
9471.000000;0.731129
9470.000000;0.730769
9469.000000;0.730184
9468.000000;0.729472
9467.000000;0.728825
9466.000000;0.728326
9465.000000;0.727900
9464.000000;0.727490
9463.000000;0.727170
9462.000000;0.727027
9461.000000;0.727011
9460.000000;0.726987
9459.000000;0.726875
9458.000000;0.726659
9457.000000;0.726309
9456.000000;0.725812
9455.000000;0.725253
9454.000000;0.724753
9453.000000;0.724320
9452.000000;0.723852
9451.000000;0.723299
9450.000000;0.722747
9449.000000;0.722303
9448.000000;0.721990
9447.000000;0.721767
9446.000000;0.721577
9445.000000;0.721344
9444.000000;0.720987
9443.000000;0.720508
9442.000000;0.720010
9441.000000;0.719611
9440.000000;0.719345
9439.000000;0.719167
9438.000000;0.718992
9437.000000;0.718698
9436.000000;0.718160
9435.000000;0.717363
9434.000000;0.716469
9433.000000;0.715726
9432.000000;0.715295
9431.000000;0.715175
9430.000000;0.715254
9429.000000;0.715399
9428.000000;0.715504
9427.000000;0.715502
9426.000000;0.715361
9425.000000;0.715081
9424.000000;0.714688
9423.000000;0.714228
9422.000000;0.713766
9421.000000;0.713374
9420.000000;0.713113
9419.000000;0.712968
9418.000000;0.712785
9417.000000;0.712337
9416.000000;0.711569
9415.000000;0.710750
9414.000000;0.710280
9413.000000;0.710281
9412.000000;0.710442
9411.000000;0.710337
9410.000000;0.709845
9409.000000;0.709188
9408.000000;0.708622
9407.000000;0.708190
9406.000000;0.707803
9405.000000;0.707445
9404.000000;0.707175
9403.000000;0.706970
9402.000000;0.706667
9401.000000;0.706156
9400.000000;0.705573
9399.000000;0.705196
9398.000000;0.705140
9397.000000;0.705218
9396.000000;0.705162
9395.000000;0.704913
9394.000000;0.704599
9393.000000;0.704288
9392.000000;0.703896
9391.000000;0.703337
9390.000000;0.702678
9389.000000;0.702087
9388.000000;0.701694
9387.000000;0.701516
9386.000000;0.701461
9385.000000;0.701365
9384.000000;0.701088
9383.000000;0.700629
9382.000000;0.700120
9381.000000;0.699687
9380.000000;0.699365
9379.000000;0.699125
9378.000000;0.698927
9377.000000;0.698711
9376.000000;0.698424
9375.000000;0.698091
9374.000000;0.697819
9373.000000;0.697676
9372.000000;0.697590
9371.000000;0.697411
9370.000000;0.697027
9369.000000;0.696433
9368.000000;0.695753
9367.000000;0.695192
9366.000000;0.694867
9365.000000;0.694653
9364.000000;0.694307
9363.000000;0.693793
9362.000000;0.693358
9361.000000;0.693203
9360.000000;0.693217
9359.000000;0.693148
9358.000000;0.692930
9357.000000;0.692645
9356.000000;0.692273
9355.000000;0.691721
9354.000000;0.691082
9353.000000;0.690614
9352.000000;0.690367
9351.000000;0.690086
9350.000000;0.689579
9349.000000;0.689009
9348.000000;0.688627
9347.000000;0.688355
9346.000000;0.687876
9345.000000;0.687104
9344.000000;0.686360
9343.000000;0.685996
9342.000000;0.685986
9341.000000;0.685996
9340.000000;0.685789
9339.000000;0.685457
9338.000000;0.685265
9337.000000;0.685328
9336.000000;0.685496
9335.000000;0.685528
9334.000000;0.685300
9333.000000;0.684842
9332.000000;0.684246
9331.000000;0.683634
9330.000000;0.683155
9329.000000;0.682898
9328.000000;0.682764
9327.000000;0.682530
9326.000000;0.682092
9325.000000;0.681568
9324.000000;0.681110
9323.000000;0.680699
9322.000000;0.680224
9321.000000;0.679711
9320.000000;0.679344
9319.000000;0.679241
9318.000000;0.679322
9317.000000;0.679390
9316.000000;0.679288
9315.000000;0.678955
9314.000000;0.678441
9313.000000;0.677902
9312.000000;0.677508
9311.000000;0.677275
9310.000000;0.677039
9309.000000;0.676674
9308.000000;0.676280
9307.000000;0.676055
9306.000000;0.675992
9305.000000;0.675817
9304.000000;0.675304
9303.000000;0.674560
9302.000000;0.673920
9301.000000;0.673598
9300.000000;0.673542
9299.000000;0.673593
9298.000000;0.673639
9297.000000;0.673577
9296.000000;0.673256
9295.000000;0.672614
9294.000000;0.671828
9293.000000;0.671178
9292.000000;0.670785
9291.000000;0.670555
9290.000000;0.670388
9289.000000;0.670279
9288.000000;0.670175
9287.000000;0.669895
9286.000000;0.669314
9285.000000;0.668546
9284.000000;0.667823
9283.000000;0.667253
9282.000000;0.666803
9281.000000;0.666475
9280.000000;0.666329
9279.000000;0.666314
9278.000000;0.666231
9277.000000;0.665917
9276.000000;0.665413
9275.000000;0.664891
9274.000000;0.664490
9273.000000;0.664236
9272.000000;0.664081
9271.000000;0.663941
9270.000000;0.663748
9269.000000;0.663504
9268.000000;0.663248
9267.000000;0.662976
9266.000000;0.662640
9265.000000;0.662256
9264.000000;0.661927
9263.000000;0.661723
9262.000000;0.661587
9261.000000;0.661406
9260.000000;0.661119
9259.000000;0.660719
9258.000000;0.660228
9257.000000;0.659732
9256.000000;0.659369
9255.000000;0.659193
9254.000000;0.659101
9253.000000;0.658976
9252.000000;0.658843
9251.000000;0.658770
9250.000000;0.658672
9249.000000;0.658361
9248.000000;0.657805
9247.000000;0.657173
9246.000000;0.656607
9245.000000;0.656083
9244.000000;0.655551
9243.000000;0.655079
9242.000000;0.654767
9241.000000;0.654611
9240.000000;0.654540
9239.000000;0.654499
9238.000000;0.654406
9237.000000;0.654116
9236.000000;0.653597
9235.000000;0.653072
9234.000000;0.652828
9233.000000;0.652867
9232.000000;0.652897
9231.000000;0.652684
9230.000000;0.652292
9229.000000;0.651889
9228.000000;0.651503
9227.000000;0.651063
9226.000000;0.650614
9225.000000;0.650296
9224.000000;0.650133
9223.000000;0.649957
9222.000000;0.649606
9221.000000;0.649101
9220.000000;0.648599
9219.000000;0.648198
9218.000000;0.647854
9217.000000;0.647474
9216.000000;0.647036
9215.000000;0.646633
9214.000000;0.646364
9213.000000;0.646203
9212.000000;0.645986
9211.000000;0.645588
9210.000000;0.645096
9209.000000;0.644732
9208.000000;0.644602
9207.000000;0.644566
9206.000000;0.644423
9205.000000;0.644165
9204.000000;0.643966
9203.000000;0.643933
9202.000000;0.643953
9201.000000;0.643811
9200.000000;0.643427
9199.000000;0.642930
9198.000000;0.642515
9197.000000;0.642261
9196.000000;0.642066
9195.000000;0.641778
9194.000000;0.641369
9193.000000;0.640954
9192.000000;0.640626
9191.000000;0.640323
9190.000000;0.639911
9189.000000;0.639385
9188.000000;0.638882
9187.000000;0.638514
9186.000000;0.638260
9185.000000;0.638050
9184.000000;0.637859
9183.000000;0.637688
9182.000000;0.637516
9181.000000;0.637318
9180.000000;0.637103
9179.000000;0.636884
9178.000000;0.636662
9177.000000;0.636471
9176.000000;0.636367
9175.000000;0.636314
9174.000000;0.636170
9173.000000;0.635852
9172.000000;0.635443
9171.000000;0.635049
9170.000000;0.634627
9169.000000;0.634091
9168.000000;0.633527
9167.000000;0.633128
9166.000000;0.632931
9165.000000;0.632776
9164.000000;0.632543
9163.000000;0.632280
9162.000000;0.632056
9161.000000;0.631825
9160.000000;0.631519
9159.000000;0.631164
9158.000000;0.630821
9157.000000;0.630474
9156.000000;0.630082
9155.000000;0.629666
9154.000000;0.629303
9153.000000;0.629057
9152.000000;0.628978
9151.000000;0.629077
9150.000000;0.629265
9149.000000;0.629389
9148.000000;0.629380
9147.000000;0.629297
9146.000000;0.629160
9145.000000;0.628860
9144.000000;0.628333
9143.000000;0.627718
9142.000000;0.627203
9141.000000;0.626769
9140.000000;0.626260
9139.000000;0.625656
9138.000000;0.625129
9137.000000;0.624795
9136.000000;0.624574
9135.000000;0.624325
9134.000000;0.624019
9133.000000;0.623700
9132.000000;0.623376
9131.000000;0.623031
9130.000000;0.622700
9129.000000;0.622472
9128.000000;0.622412
9127.000000;0.622495
9126.000000;0.622610
9125.000000;0.622648
9124.000000;0.622597
9123.000000;0.622523
9122.000000;0.622401
9121.000000;0.622037
9120.000000;0.621272
9119.000000;0.620249
9118.000000;0.619365
9117.000000;0.618908
9116.000000;0.618819
9115.000000;0.618828
9114.000000;0.618749
9113.000000;0.618571
9112.000000;0.618348
9111.000000;0.618098
9110.000000;0.617822
9109.000000;0.617559
9108.000000;0.617382
9107.000000;0.617335
9106.000000;0.617357
9105.000000;0.617300
9104.000000;0.617042
9103.000000;0.616581
9102.000000;0.616002
9101.000000;0.615399
9100.000000;0.614865
9099.000000;0.614495
9098.000000;0.614297
9097.000000;0.614134
9096.000000;0.613843
9095.000000;0.613436
9094.000000;0.613081
9093.000000;0.612879
9092.000000;0.612770
9091.000000;0.612650
9090.000000;0.612498
9089.000000;0.612310
9088.000000;0.612055
9087.000000;0.611753
9086.000000;0.611509
9085.000000;0.611362
9084.000000;0.611188
9083.000000;0.610850
9082.000000;0.610396
9081.000000;0.609992
9080.000000;0.609705
9079.000000;0.609480
9078.000000;0.609293
9077.000000;0.609193
9076.000000;0.609162
9075.000000;0.609071
9074.000000;0.608826
9073.000000;0.608490
9072.000000;0.608198
9071.000000;0.608016
9070.000000;0.607910
9069.000000;0.607786
9068.000000;0.607506
9067.000000;0.606934
9066.000000;0.606079
9065.000000;0.605163
9064.000000;0.604470
9063.000000;0.604124
9062.000000;0.604053
9061.000000;0.604154
9060.000000;0.604368
9059.000000;0.604598
9058.000000;0.604648
9057.000000;0.604355
9056.000000;0.603777
9055.000000;0.603148
9054.000000;0.602677
9053.000000;0.602400
9052.000000;0.602239
9051.000000;0.602114
9050.000000;0.601975
9049.000000;0.601778
9048.000000;0.601492
9047.000000;0.601125
9046.000000;0.600735
9045.000000;0.600396
9044.000000;0.600152
9043.000000;0.599969
9042.000000;0.599756
9041.000000;0.599447
9040.000000;0.599087
9039.000000;0.598786
9038.000000;0.598598
9037.000000;0.598487
9036.000000;0.598387
9035.000000;0.598224
9034.000000;0.597898
9033.000000;0.597346
9032.000000;0.596690
9031.000000;0.596197
9030.000000;0.596004
9029.000000;0.595973
9028.000000;0.595885
9027.000000;0.595722
9026.000000;0.595607
9025.000000;0.595525
9024.000000;0.595273
9023.000000;0.594722
9022.000000;0.594016
9021.000000;0.593439
9020.000000;0.593162
9019.000000;0.593131
9018.000000;0.593144
9017.000000;0.593014
9016.000000;0.592715
9015.000000;0.592408
9014.000000;0.592267
9013.000000;0.592286
9012.000000;0.592303
9011.000000;0.592200
9010.000000;0.591993
9009.000000;0.591735
9008.000000;0.591424
9007.000000;0.591053
9006.000000;0.590666
9005.000000;0.590304
9004.000000;0.589960
9003.000000;0.589625
9002.000000;0.589322
9001.000000;0.589065
9000.000000;0.588850
8999.000000;0.588679
8998.000000;0.588542
8997.000000;0.588341
8996.000000;0.587956
8995.000000;0.587432
8994.000000;0.586993
8993.000000;0.586797
8992.000000;0.586729
8991.000000;0.586544
8990.000000;0.586156
8989.000000;0.585698
8988.000000;0.585347
8987.000000;0.585159
8986.000000;0.585054
8985.000000;0.584879
8984.000000;0.584521
8983.000000;0.584026
8982.000000;0.583585
8981.000000;0.583339
8980.000000;0.583217
8979.000000;0.583039
8978.000000;0.582734
8977.000000;0.582387
8976.000000;0.582090
8975.000000;0.581844
8974.000000;0.581614
8973.000000;0.581393
8972.000000;0.581181
8971.000000;0.580950
8970.000000;0.580700
8969.000000;0.580480
8968.000000;0.580339
8967.000000;0.580264
8966.000000;0.580192
8965.000000;0.580047
8964.000000;0.579764
8963.000000;0.579313
8962.000000;0.578744
8961.000000;0.578207
8960.000000;0.577859
8959.000000;0.577744
8958.000000;0.577747
8957.000000;0.577709
8956.000000;0.577559
8955.000000;0.577330
8954.000000;0.577045
8953.000000;0.576681
8952.000000;0.576253
8951.000000;0.575874
8950.000000;0.575641
8949.000000;0.575502
8948.000000;0.575330
8947.000000;0.575121
8946.000000;0.575006
8945.000000;0.575039
8944.000000;0.575097
8943.000000;0.575044
8942.000000;0.574893
8941.000000;0.574727
8940.000000;0.574534
8939.000000;0.574235
8938.000000;0.573821
8937.000000;0.573363
8936.000000;0.572911
8935.000000;0.572459
8934.000000;0.572023
8933.000000;0.571651
8932.000000;0.571348
8931.000000;0.571061
8930.000000;0.570774
8929.000000;0.570554
8928.000000;0.570476
8927.000000;0.570510
8926.000000;0.570526
8925.000000;0.570392
8924.000000;0.570077
8923.000000;0.569664
8922.000000;0.569276
8921.000000;0.568996
8920.000000;0.568842
8919.000000;0.568776
8918.000000;0.568710
8917.000000;0.568523
8916.000000;0.568162
8915.000000;0.567738
8914.000000;0.567466
8913.000000;0.567446
8912.000000;0.567559
8911.000000;0.567605
8910.000000;0.567500
8909.000000;0.567293
8908.000000;0.567017
8907.000000;0.566618
8906.000000;0.566033
8905.000000;0.565303
8904.000000;0.564596
8903.000000;0.564115
8902.000000;0.563962
8901.000000;0.564049
8900.000000;0.564167
8899.000000;0.564147
8898.000000;0.563953
8897.000000;0.563621
8896.000000;0.563198
8895.000000;0.562742
8894.000000;0.562329
8893.000000;0.562000
8892.000000;0.561713
8891.000000;0.561410
8890.000000;0.561108
8889.000000;0.560893
8888.000000;0.560836
8887.000000;0.560938
8886.000000;0.561106
8885.000000;0.561164
8884.000000;0.560965
8883.000000;0.560543
8882.000000;0.560114
8881.000000;0.559873
8880.000000;0.559817
8879.000000;0.559801
8878.000000;0.559710
8877.000000;0.559528
8876.000000;0.559294
8875.000000;0.559063
8874.000000;0.558874
8873.000000;0.558687
8872.000000;0.558390
8871.000000;0.557939
8870.000000;0.557481
8869.000000;0.557239
8868.000000;0.557287
8867.000000;0.557457
8866.000000;0.557474
8865.000000;0.557169
8864.000000;0.556609
8863.000000;0.556054
8862.000000;0.555729
8861.000000;0.555596
8860.000000;0.555393
8859.000000;0.554963
8858.000000;0.554446
8857.000000;0.554092
8856.000000;0.553978
8855.000000;0.553998
8854.000000;0.554064
8853.000000;0.554160
8852.000000;0.554233
8851.000000;0.554198
8850.000000;0.554039
8849.000000;0.553800
8848.000000;0.553470
8847.000000;0.553017
8846.000000;0.552517
8845.000000;0.552127
8844.000000;0.551895
8843.000000;0.551721
8842.000000;0.551521
8841.000000;0.551337
8840.000000;0.551242
8839.000000;0.551250
8838.000000;0.551342
8837.000000;0.551462
8836.000000;0.551458
8835.000000;0.551163
8834.000000;0.550613
8833.000000;0.550087
8832.000000;0.549840
8831.000000;0.549867
8830.000000;0.549986
8829.000000;0.550056
8828.000000;0.550041
8827.000000;0.549922
8826.000000;0.549698
8825.000000;0.549429
8824.000000;0.549207
8823.000000;0.549069
8822.000000;0.548988
8821.000000;0.548940
8820.000000;0.548924
8819.000000;0.548916
8818.000000;0.548877
8817.000000;0.548806
8816.000000;0.548776
8815.000000;0.548891
8814.000000;0.549184
8813.000000;0.549531
8812.000000;0.549678
8811.000000;0.549451
8810.000000;0.548942
8809.000000;0.548434
8808.000000;0.548108
8807.000000;0.547889
8806.000000;0.547642
8805.000000;0.547425
8804.000000;0.547421
8803.000000;0.547647
8802.000000;0.547859
8801.000000;0.547788
8800.000000;0.547421
8799.000000;0.546982
8798.000000;0.546680
8797.000000;0.546532
8796.000000;0.546440
8795.000000;0.546360
8794.000000;0.546330
8793.000000;0.546374
8792.000000;0.546447
8791.000000;0.546498
8790.000000;0.546527
8789.000000;0.546524
8788.000000;0.546428
8787.000000;0.546205
8786.000000;0.545940
8785.000000;0.545769
8784.000000;0.545729
8783.000000;0.545739
8782.000000;0.545702
8781.000000;0.545571
8780.000000;0.545366
8779.000000;0.545178
8778.000000;0.545143
8777.000000;0.545284
8776.000000;0.545413
8775.000000;0.545300
8774.000000;0.544964
8773.000000;0.544675
8772.000000;0.544649
8771.000000;0.544823
8770.000000;0.544984
8769.000000;0.545033
8768.000000;0.545037
8767.000000;0.545120
8766.000000;0.545329
8765.000000;0.545591
8764.000000;0.545760
8763.000000;0.545736
8762.000000;0.545571
8761.000000;0.545381
8760.000000;0.545183
8759.000000;0.544886
8758.000000;0.544465
8757.000000;0.544039
8756.000000;0.543718
8755.000000;0.543501
8754.000000;0.543346
8753.000000;0.543264
8752.000000;0.543245
8751.000000;0.543208
8750.000000;0.543113
8749.000000;0.543052
8748.000000;0.543130
8747.000000;0.543318
8746.000000;0.543507
8745.000000;0.543640
8744.000000;0.543695
8743.000000;0.543622
8742.000000;0.543428
8741.000000;0.543272
8740.000000;0.543336
8739.000000;0.543605
8738.000000;0.543860
8737.000000;0.543904
8736.000000;0.543707
8735.000000;0.543375
8734.000000;0.543077
8733.000000;0.543003
8732.000000;0.543247
8731.000000;0.543688
8730.000000;0.544056
8729.000000;0.544179
8728.000000;0.544109
8727.000000;0.543995
8726.000000;0.543894
8725.000000;0.543747
8724.000000;0.543474
8723.000000;0.543077
8722.000000;0.542658
8721.000000;0.542359
8720.000000;0.542255
8719.000000;0.542305
8718.000000;0.542430
8717.000000;0.542606
8716.000000;0.542836
8715.000000;0.543053
8714.000000;0.543127
8713.000000;0.542998
8712.000000;0.542740
8711.000000;0.542480
8710.000000;0.542293
8709.000000;0.542194
8708.000000;0.542171
8707.000000;0.542204
8706.000000;0.542249
8705.000000;0.542240
8704.000000;0.542117
8703.000000;0.541879
8702.000000;0.541633
8701.000000;0.541544
8700.000000;0.541669
8699.000000;0.541865
8698.000000;0.541907
8697.000000;0.541693
8696.000000;0.541303
8695.000000;0.540880
8694.000000;0.540545
8693.000000;0.540403
8692.000000;0.540507
8691.000000;0.540781
8690.000000;0.541027
8689.000000;0.541084
8688.000000;0.540944
8687.000000;0.540708
8686.000000;0.540477
8685.000000;0.540322
8684.000000;0.540288
8683.000000;0.540366
8682.000000;0.540466
8681.000000;0.540481
8680.000000;0.540384
8679.000000;0.540246
8678.000000;0.540145
8677.000000;0.540075
8676.000000;0.539951
8675.000000;0.539692
8674.000000;0.539308
8673.000000;0.538884
8672.000000;0.538503
8671.000000;0.538199
8670.000000;0.537988
8669.000000;0.537897
8668.000000;0.537922
8667.000000;0.537986
8666.000000;0.538000
8665.000000;0.537940
8664.000000;0.537839
8663.000000;0.537726
8662.000000;0.537620
8661.000000;0.537556
8660.000000;0.537525
8659.000000;0.537415
8658.000000;0.537097
8657.000000;0.536608
8656.000000;0.536163
8655.000000;0.535932
8654.000000;0.535881
8653.000000;0.535867
8652.000000;0.535814
8651.000000;0.535722
8650.000000;0.535593
8649.000000;0.535434
8648.000000;0.535310
8647.000000;0.535275
8646.000000;0.535252
8645.000000;0.535070
8644.000000;0.534669
8643.000000;0.534195
8642.000000;0.533854
8641.000000;0.533721
8640.000000;0.533737
8639.000000;0.533822
8638.000000;0.533929
8637.000000;0.533988
8636.000000;0.533892
8635.000000;0.533576
8634.000000;0.533103
8633.000000;0.532617
8632.000000;0.532235
8631.000000;0.531980
8630.000000;0.531814
8629.000000;0.531690
8628.000000;0.531559
8627.000000;0.531370
8626.000000;0.531108
8625.000000;0.530834
8624.000000;0.530643
8623.000000;0.530566
8622.000000;0.530526
8621.000000;0.530415
8620.000000;0.530205
8619.000000;0.529953
8618.000000;0.529726
8617.000000;0.529541
8616.000000;0.529386
8615.000000;0.529256
8614.000000;0.529119
8613.000000;0.528881
8612.000000;0.528459
8611.000000;0.527911
8610.000000;0.527456
8609.000000;0.527295
8608.000000;0.527414
8607.000000;0.527589
8606.000000;0.527604
8605.000000;0.527424
8604.000000;0.527151
8603.000000;0.526891
8602.000000;0.526691
8601.000000;0.526556
8600.000000;0.526463
8599.000000;0.526345
8598.000000;0.526146
8597.000000;0.525890
8596.000000;0.525663
8595.000000;0.525495
8594.000000;0.525321
8593.000000;0.525063
8592.000000;0.524725
8591.000000;0.524378
8590.000000;0.524070
8589.000000;0.523803
8588.000000;0.523551
8587.000000;0.523279
8586.000000;0.522937
8585.000000;0.522501
8584.000000;0.522040
8583.000000;0.521699
8582.000000;0.521576
8581.000000;0.521625
8580.000000;0.521697
8579.000000;0.521680
8578.000000;0.521571
8577.000000;0.521437
8576.000000;0.521332
8575.000000;0.521274
8574.000000;0.521245
8573.000000;0.521174
8572.000000;0.520959
8571.000000;0.520542
8570.000000;0.519991
8569.000000;0.519458
8568.000000;0.519047
8567.000000;0.518734
8566.000000;0.518447
8565.000000;0.518171
8564.000000;0.517946
8563.000000;0.517774
8562.000000;0.517585
8561.000000;0.517330
8560.000000;0.517056
8559.000000;0.516863
8558.000000;0.516774
8557.000000;0.516696
8556.000000;0.516531
8555.000000;0.516288
8554.000000;0.516051
8553.000000;0.515834
8552.000000;0.515549
8551.000000;0.515138
8550.000000;0.514692
8549.000000;0.514370
8548.000000;0.514216
8547.000000;0.514119
8546.000000;0.513959
8545.000000;0.513741
8544.000000;0.513541
8543.000000;0.513387
8542.000000;0.513237
8541.000000;0.513061
8540.000000;0.512887
8539.000000;0.512759
8538.000000;0.512675
8537.000000;0.512568
8536.000000;0.512363
8535.000000;0.512057
8534.000000;0.511735
8533.000000;0.511480
8532.000000;0.511262
8531.000000;0.510965
8530.000000;0.510558
8529.000000;0.510167
8528.000000;0.509926
8527.000000;0.509806
8526.000000;0.509668
8525.000000;0.509460
8524.000000;0.509278
8523.000000;0.509205
8522.000000;0.509169
8521.000000;0.509023
8520.000000;0.508694
8519.000000;0.508235
8518.000000;0.507744
8517.000000;0.507300
8516.000000;0.506953
8515.000000;0.506731
8514.000000;0.506622
8513.000000;0.506567
8512.000000;0.506490
8511.000000;0.506340
8510.000000;0.506124
8509.000000;0.505912
8508.000000;0.505787
8507.000000;0.505751
8506.000000;0.505690
8505.000000;0.505460
8504.000000;0.505029
8503.000000;0.504530
8502.000000;0.504153
8501.000000;0.503980
8500.000000;0.503926
8499.000000;0.503822
8498.000000;0.503558
8497.000000;0.503160
8496.000000;0.502733
8495.000000;0.502358
8494.000000;0.502041
8493.000000;0.501749
8492.000000;0.501472
8491.000000;0.501234
8490.000000;0.501051
8489.000000;0.500917
8488.000000;0.500813
8487.000000;0.500729
8486.000000;0.500634
8485.000000;0.500479
8484.000000;0.500246
8483.000000;0.500004
8482.000000;0.499853
8481.000000;0.499786
8480.000000;0.499653
8479.000000;0.499305
8478.000000;0.498757
8477.000000;0.498171
8476.000000;0.497705
8475.000000;0.497393
8474.000000;0.497177
8473.000000;0.496968
8472.000000;0.496702
8471.000000;0.496381
8470.000000;0.496089
8469.000000;0.495905
8468.000000;0.495787
8467.000000;0.495601
8466.000000;0.495287
8465.000000;0.494944
8464.000000;0.494717
8463.000000;0.494624
8462.000000;0.494563
8461.000000;0.494432
8460.000000;0.494208
8459.000000;0.493934
8458.000000;0.493669
8457.000000;0.493449
8456.000000;0.493239
8455.000000;0.492951
8454.000000;0.492549
8453.000000;0.492120
8452.000000;0.491792
8451.000000;0.491611
8450.000000;0.491530
8449.000000;0.491493
8448.000000;0.491454
8447.000000;0.491349
8446.000000;0.491131
8445.000000;0.490825
8444.000000;0.490504
8443.000000;0.490196
8442.000000;0.489882
8441.000000;0.489570
8440.000000;0.489300
8439.000000;0.489066
8438.000000;0.488813
8437.000000;0.488544
8436.000000;0.488343
8435.000000;0.488273
8434.000000;0.488285
8433.000000;0.488271
8432.000000;0.488141
8431.000000;0.487851
8430.000000;0.487419
8429.000000;0.486953
8428.000000;0.486595
8427.000000;0.486367
8426.000000;0.486155
8425.000000;0.485872
8424.000000;0.485581
8423.000000;0.485374
8422.000000;0.485213
8421.000000;0.484975
8420.000000;0.484637
8419.000000;0.484304
8418.000000;0.484057
8417.000000;0.483870
8416.000000;0.483684
8415.000000;0.483472
8414.000000;0.483219
8413.000000;0.482891
8412.000000;0.482477
8411.000000;0.482027
8410.000000;0.481622
8409.000000;0.481336
8408.000000;0.481214
8407.000000;0.481244
8406.000000;0.481327
8405.000000;0.481330
8404.000000;0.481185
8403.000000;0.480927
8402.000000;0.480615
8401.000000;0.480272
8400.000000;0.479903
8399.000000;0.479541
8398.000000;0.479249
8397.000000;0.479087
8396.000000;0.479080
8395.000000;0.479158
8394.000000;0.479146
8393.000000;0.478886
8392.000000;0.478427
8391.000000;0.478017
8390.000000;0.477849
8389.000000;0.477843
8388.000000;0.477743
8387.000000;0.477409
8386.000000;0.476944
8385.000000;0.476540
8384.000000;0.476278
8383.000000;0.476085
8382.000000;0.475862
8381.000000;0.475583
8380.000000;0.475295
8379.000000;0.475056
8378.000000;0.474883
8377.000000;0.474765
8376.000000;0.474672
8375.000000;0.474563
8374.000000;0.474384
8373.000000;0.474104
8372.000000;0.473750
8371.000000;0.473380
8370.000000;0.473033
8369.000000;0.472717
8368.000000;0.472443
8367.000000;0.472223
8366.000000;0.472023
8365.000000;0.471779
8364.000000;0.471481
8363.000000;0.471195
8362.000000;0.470967
8361.000000;0.470750
8360.000000;0.470475
8359.000000;0.470166
8358.000000;0.469901
8357.000000;0.469695
8356.000000;0.469471
8355.000000;0.469157
8354.000000;0.468760
8353.000000;0.468337
8352.000000;0.467962
8351.000000;0.467702
8350.000000;0.467578
8349.000000;0.467517
8348.000000;0.467395
8347.000000;0.467160
8346.000000;0.466860
8345.000000;0.466552
8344.000000;0.466241
8343.000000;0.465909
8342.000000;0.465572
8341.000000;0.465251
8340.000000;0.464931
8339.000000;0.464602
8338.000000;0.464297
8337.000000;0.464044
8336.000000;0.463814
8335.000000;0.463554
8334.000000;0.463278
8333.000000;0.463068
8332.000000;0.462980
8331.000000;0.462976
8330.000000;0.462945
8329.000000;0.462799
8328.000000;0.462526
8327.000000;0.462178
8326.000000;0.461806
8325.000000;0.461423
8324.000000;0.461030
8323.000000;0.460656
8322.000000;0.460333
8321.000000;0.460046
8320.000000;0.459759
8319.000000;0.459484
8318.000000;0.459263
8317.000000;0.459078
8316.000000;0.458840
8315.000000;0.458509
8314.000000;0.458161
8313.000000;0.457882
8312.000000;0.457664
8311.000000;0.457445
8310.000000;0.457199
8309.000000;0.456934
8308.000000;0.456628
8307.000000;0.456265
8306.000000;0.455899
8305.000000;0.455596
8304.000000;0.455327
8303.000000;0.455014
8302.000000;0.454665
8301.000000;0.454374
8300.000000;0.454174
8299.000000;0.453982
8298.000000;0.453737
8297.000000;0.453492
8296.000000;0.453323
8295.000000;0.453201
8294.000000;0.453032
8293.000000;0.452773
8292.000000;0.452447
8291.000000;0.452082
8290.000000;0.451678
8289.000000;0.451238
8288.000000;0.450780
8287.000000;0.450342
8286.000000;0.449988
8285.000000;0.449790
8284.000000;0.449742
8283.000000;0.449718
8282.000000;0.449564
8281.000000;0.449240
8280.000000;0.448836
8279.000000;0.448462
8278.000000;0.448149
8277.000000;0.447867
8276.000000;0.447588
8275.000000;0.447316
8274.000000;0.447057
8273.000000;0.446803
8272.000000;0.446552
8271.000000;0.446324
8270.000000;0.446143
8269.000000;0.445981
8268.000000;0.445755
8267.000000;0.445403
8266.000000;0.444985
8265.000000;0.444652
8264.000000;0.444509
8263.000000;0.444505
8262.000000;0.444486
8261.000000;0.444316
8260.000000;0.443956
8259.000000;0.443444
8258.000000;0.442868
8257.000000;0.442338
8256.000000;0.441946
8255.000000;0.441727
8254.000000;0.441644
8253.000000;0.441606
8252.000000;0.441511
8251.000000;0.441297
8250.000000;0.440968
8249.000000;0.440571
8248.000000;0.440149
8247.000000;0.439729
8246.000000;0.439351
8245.000000;0.439061
8244.000000;0.438856
8243.000000;0.438662
8242.000000;0.438406
8241.000000;0.438079
8240.000000;0.437734
8239.000000;0.437432
8238.000000;0.437206
8237.000000;0.437034
8236.000000;0.436847
8235.000000;0.436585
8234.000000;0.436272
8233.000000;0.435995
8232.000000;0.435780
8231.000000;0.435552
8230.000000;0.435253
8229.000000;0.434939
8228.000000;0.434687
8227.000000;0.434460
8226.000000;0.434151
8225.000000;0.433747
8224.000000;0.433353
8223.000000;0.433041
8222.000000;0.432763
8221.000000;0.432448
8220.000000;0.432099
8219.000000;0.431747
8218.000000;0.431393
8217.000000;0.431042
8216.000000;0.430756
8215.000000;0.430593
8214.000000;0.430525
8213.000000;0.430446
8212.000000;0.430277
8211.000000;0.430005
8210.000000;0.429643
8209.000000;0.429205
8208.000000;0.428735
8207.000000;0.428326
8206.000000;0.428057
8205.000000;0.427916
8204.000000;0.427798
8203.000000;0.427595
8202.000000;0.427278
8201.000000;0.426916
8200.000000;0.426610
8199.000000;0.426412
8198.000000;0.426291
8197.000000;0.426152
8196.000000;0.425894
8195.000000;0.425487
8194.000000;0.424998
8193.000000;0.424533
8192.000000;0.424144
8191.000000;0.423809
8190.000000;0.423508
8189.000000;0.423270
8188.000000;0.423110
8187.000000;0.422952
8186.000000;0.422684
8185.000000;0.422284
8184.000000;0.421847
8183.000000;0.421477
8182.000000;0.421186
8181.000000;0.420908
8180.000000;0.420573
8179.000000;0.420153
8178.000000;0.419702
8177.000000;0.419356
8176.000000;0.419236
8175.000000;0.419301
8174.000000;0.419339
8173.000000;0.419162
8172.000000;0.418790
8171.000000;0.418390
8170.000000;0.418074
8169.000000;0.417793
8168.000000;0.417437
8167.000000;0.416974
8166.000000;0.416496
8165.000000;0.416143
8164.000000;0.415976
8163.000000;0.415905
8162.000000;0.415745
8161.000000;0.415391
8160.000000;0.414934
8159.000000;0.414574
8158.000000;0.414408
8157.000000;0.414360
8156.000000;0.414290
8155.000000;0.414116
8154.000000;0.413820
8153.000000;0.413397
8152.000000;0.412875
8151.000000;0.412361
8150.000000;0.411992
8149.000000;0.411804
8148.000000;0.411680
8147.000000;0.411453
8146.000000;0.411070
8145.000000;0.410640
8144.000000;0.410314
8143.000000;0.410129
8142.000000;0.409964
8141.000000;0.409669
8140.000000;0.409206
8139.000000;0.408684
8138.000000;0.408253
8137.000000;0.407977
8136.000000;0.407812
8135.000000;0.407663
8134.000000;0.407465
8133.000000;0.407209
8132.000000;0.406901
8131.000000;0.406524
8130.000000;0.406059
8129.000000;0.405538
8128.000000;0.405041
8127.000000;0.404624
8126.000000;0.404274
8125.000000;0.403964
8124.000000;0.403720
8123.000000;0.403589
8122.000000;0.403548
8121.000000;0.403506
8120.000000;0.403395
8119.000000;0.403229
8118.000000;0.403043
8117.000000;0.402826
8116.000000;0.402543
8115.000000;0.402193
8114.000000;0.401811
8113.000000;0.401420
8112.000000;0.401021
8111.000000;0.400623
8110.000000;0.400244
8109.000000;0.399897
8108.000000;0.399580
8107.000000;0.399280
8106.000000;0.398981
8105.000000;0.398652
8104.000000;0.398268
8103.000000;0.397831
8102.000000;0.397384
8101.000000;0.396997
8100.000000;0.396733
8099.000000;0.396590
8098.000000;0.396483
8097.000000;0.396299
8096.000000;0.396004
8095.000000;0.395666
8094.000000;0.395367
8093.000000;0.395100
8092.000000;0.394806
8091.000000;0.394476
8090.000000;0.394170
8089.000000;0.393933
8088.000000;0.393733
8087.000000;0.393502
8086.000000;0.393207
8085.000000;0.392877
8084.000000;0.392560
8083.000000;0.392274
8082.000000;0.391992
8081.000000;0.391665
8080.000000;0.391278
8079.000000;0.390898
8078.000000;0.390620
8077.000000;0.390471
8076.000000;0.390366
8075.000000;0.390167
8074.000000;0.389797
8073.000000;0.389294
8072.000000;0.388783
8071.000000;0.388398
8070.000000;0.388191
8069.000000;0.388089
8068.000000;0.387937
8067.000000;0.387618
8066.000000;0.387141
8065.000000;0.386619
8064.000000;0.386177
8063.000000;0.385871
8062.000000;0.385674
8061.000000;0.385500
8060.000000;0.385263
8059.000000;0.384925
8058.000000;0.384511
8057.000000;0.384095
8056.000000;0.383752
8055.000000;0.383512
8054.000000;0.383328
8053.000000;0.383105
8052.000000;0.382789
8051.000000;0.382435
8050.000000;0.382145
8049.000000;0.381957
8048.000000;0.381811
8047.000000;0.381641
8046.000000;0.381434
8045.000000;0.381189
8044.000000;0.380860
8043.000000;0.380409
8042.000000;0.379892
8041.000000;0.379432
8040.000000;0.379097
8039.000000;0.378843
8038.000000;0.378593
8037.000000;0.378323
8036.000000;0.378066
8035.000000;0.377841
8034.000000;0.377618
8033.000000;0.377346
8032.000000;0.377011
8031.000000;0.376657
8030.000000;0.376352
8029.000000;0.376118
8028.000000;0.375905
8027.000000;0.375640
8026.000000;0.375300
8025.000000;0.374911
8024.000000;0.374503
8023.000000;0.374085
8022.000000;0.373673
8021.000000;0.373301
8020.000000;0.372984
8019.000000;0.372697
8018.000000;0.372407
8017.000000;0.372104
8016.000000;0.371795
8015.000000;0.371490
8014.000000;0.371208
8013.000000;0.370965
8012.000000;0.370733
8011.000000;0.370445
8010.000000;0.370058
8009.000000;0.369620
8008.000000;0.369228
8007.000000;0.368942
8006.000000;0.368759
8005.000000;0.368643
8004.000000;0.368536
8003.000000;0.368334
8002.000000;0.367940
8001.000000;0.367373
8000.000000;0.366798
7999.000000;0.366390
7998.000000;0.366170
7997.000000;0.365999
7996.000000;0.365732
7995.000000;0.365353
7994.000000;0.364946
7993.000000;0.364589
7992.000000;0.364290
7991.000000;0.364022
7990.000000;0.363775
7989.000000;0.363549
7988.000000;0.363332
7987.000000;0.363090
7986.000000;0.362801
7985.000000;0.362483
7984.000000;0.362168
7983.000000;0.361865
7982.000000;0.361560
7981.000000;0.361246
7980.000000;0.360932
7979.000000;0.360610
7978.000000;0.360257
7977.000000;0.359875
7976.000000;0.359527
7975.000000;0.359277
7974.000000;0.359124
7973.000000;0.358995
7972.000000;0.358813
7971.000000;0.358550
7970.000000;0.358226
7969.000000;0.357874
7968.000000;0.357525
7967.000000;0.357196
7966.000000;0.356879
7965.000000;0.356544
7964.000000;0.356171
7963.000000;0.355762
7962.000000;0.355344
7961.000000;0.354958
7960.000000;0.354653
7959.000000;0.354440
7958.000000;0.354268
7957.000000;0.354061
7956.000000;0.353790
7955.000000;0.353490
7954.000000;0.353182
7953.000000;0.352839
7952.000000;0.352437
7951.000000;0.352026
7950.000000;0.351683
7949.000000;0.351427
7948.000000;0.351202
7947.000000;0.350946
7946.000000;0.350640
7945.000000;0.350295
7944.000000;0.349931
7943.000000;0.349588
7942.000000;0.349305
7941.000000;0.349075
7940.000000;0.348835
7939.000000;0.348523
7938.000000;0.348142
7937.000000;0.347762
7936.000000;0.347452
7935.000000;0.347208
7934.000000;0.346956
7933.000000;0.346632
7932.000000;0.346264
7931.000000;0.345937
7930.000000;0.345677
7929.000000;0.345411
7928.000000;0.345062
7927.000000;0.344666
7926.000000;0.344329
7925.000000;0.344084
7924.000000;0.343849
7923.000000;0.343538
7922.000000;0.343159
7921.000000;0.342792
7920.000000;0.342496
7919.000000;0.342275
7918.000000;0.342080
7917.000000;0.341849
7916.000000;0.341543
7915.000000;0.341190
7914.000000;0.340851
7913.000000;0.340546
7912.000000;0.340240
7911.000000;0.339905
7910.000000;0.339557
7909.000000;0.339211
7908.000000;0.338849
7907.000000;0.338472
7906.000000;0.338152
7905.000000;0.337975
7904.000000;0.337920
7903.000000;0.337858
7902.000000;0.337654
7901.000000;0.337283
7900.000000;0.336834
7899.000000;0.336424
7898.000000;0.336110
7897.000000;0.335856
7896.000000;0.335580
7895.000000;0.335243
7894.000000;0.334881
7893.000000;0.334572
7892.000000;0.334367
7891.000000;0.334253
7890.000000;0.334153
7889.000000;0.333950
7888.000000;0.333569
7887.000000;0.333065
7886.000000;0.332600
7885.000000;0.332292
7884.000000;0.332105
7883.000000;0.331919
7882.000000;0.331665
7881.000000;0.331358
7880.000000;0.331007
7879.000000;0.330599
7878.000000;0.330174
7877.000000;0.329831
7876.000000;0.329623
7875.000000;0.329471
7874.000000;0.329248
7873.000000;0.328918
7872.000000;0.328545
7871.000000;0.328183
7870.000000;0.327823
7869.000000;0.327453
7868.000000;0.327118
7867.000000;0.326876
7866.000000;0.326711
7865.000000;0.326538
7864.000000;0.326282
7863.000000;0.325949
7862.000000;0.325604
7861.000000;0.325318
7860.000000;0.325124
7859.000000;0.324996
7858.000000;0.324848
7857.000000;0.324584
7856.000000;0.324178
7855.000000;0.323717
7854.000000;0.323332
7853.000000;0.323082
7852.000000;0.322914
7851.000000;0.322738
7850.000000;0.322511
7849.000000;0.322247
7848.000000;0.321972
7847.000000;0.321689
7846.000000;0.321398
7845.000000;0.321112
7844.000000;0.320851
7843.000000;0.320612
7842.000000;0.320363
7841.000000;0.320082
7840.000000;0.319784
7839.000000;0.319499
7838.000000;0.319235
7837.000000;0.318976
7836.000000;0.318736
7835.000000;0.318556
7834.000000;0.318432
7833.000000;0.318284
7832.000000;0.318040
7831.000000;0.317730
7830.000000;0.317433
7829.000000;0.317159
7828.000000;0.316855
7827.000000;0.316505
7826.000000;0.316160
7825.000000;0.315848
7824.000000;0.315531
7823.000000;0.315192
7822.000000;0.314884
7821.000000;0.314658
7820.000000;0.314485
7819.000000;0.314293
7818.000000;0.314054
7817.000000;0.313788
7816.000000;0.313520
7815.000000;0.313270
7814.000000;0.313048
7813.000000;0.312828
7812.000000;0.312547
7811.000000;0.312192
7810.000000;0.311837
7809.000000;0.311553
7808.000000;0.311323
7807.000000;0.311079
7806.000000;0.310811
7805.000000;0.310562
7804.000000;0.310337
7803.000000;0.310105
7802.000000;0.309859
7801.000000;0.309622
7800.000000;0.309382
7799.000000;0.309110
7798.000000;0.308832
7797.000000;0.308607
7796.000000;0.308429
7795.000000;0.308215
7794.000000;0.307926
7793.000000;0.307615
7792.000000;0.307348
7791.000000;0.307119
7790.000000;0.306894
7789.000000;0.306679
7788.000000;0.306485
7787.000000;0.306272
7786.000000;0.305994
7785.000000;0.305672
7784.000000;0.305375
7783.000000;0.305136
7782.000000;0.304918
7781.000000;0.304676
7780.000000;0.304402
7779.000000;0.304128
7778.000000;0.303885
7777.000000;0.303679
7776.000000;0.303484
7775.000000;0.303260
7774.000000;0.302989
7773.000000;0.302702
7772.000000;0.302451
7771.000000;0.302268
7770.000000;0.302143
7769.000000;0.302035
7768.000000;0.301906
7767.000000;0.301739
7766.000000;0.301536
7765.000000;0.301297
7764.000000;0.301009
7763.000000;0.300674
7762.000000;0.300333
7761.000000;0.300042
7760.000000;0.299830
7759.000000;0.299693
7758.000000;0.299609
7757.000000;0.299535
7756.000000;0.299410
7755.000000;0.299193
7754.000000;0.298920
7753.000000;0.298670
7752.000000;0.298474
7751.000000;0.298284
7750.000000;0.298040
7749.000000;0.297743
7748.000000;0.297434
7747.000000;0.297148
7746.000000;0.296912
7745.000000;0.296750
7744.000000;0.296646
7743.000000;0.296528
7742.000000;0.296325
7741.000000;0.296048
7740.000000;0.295767
7739.000000;0.295526
7738.000000;0.295302
7737.000000;0.295065
7736.000000;0.294831
7735.000000;0.294655
7734.000000;0.294562
7733.000000;0.294497
7732.000000;0.294355
7731.000000;0.294071
7730.000000;0.293709
7729.000000;0.293414
7728.000000;0.293284
7727.000000;0.293267
7726.000000;0.293217
7725.000000;0.293034
7724.000000;0.292737
7723.000000;0.292419
7722.000000;0.292165
7721.000000;0.292012
7720.000000;0.291942
7719.000000;0.291889
7718.000000;0.291774
7717.000000;0.291554
7716.000000;0.291266
7715.000000;0.290990
7714.000000;0.290798
7713.000000;0.290704
7712.000000;0.290661
7711.000000;0.290595
7710.000000;0.290456
7709.000000;0.290243
7708.000000;0.289979
7707.000000;0.289692
7706.000000;0.289400
7705.000000;0.289113
7704.000000;0.288840
7703.000000;0.288591
7702.000000;0.288378
7701.000000;0.288208
7700.000000;0.288061
7699.000000;0.287893
7698.000000;0.287677
7697.000000;0.287436
7696.000000;0.287232
7695.000000;0.287107
7694.000000;0.287048
7693.000000;0.287002
7692.000000;0.286911
7691.000000;0.286749
7690.000000;0.286538
7689.000000;0.286333
7688.000000;0.286189
7687.000000;0.286111
7686.000000;0.286055
7685.000000;0.285969
7684.000000;0.285819
7683.000000;0.285594
7682.000000;0.285306
7681.000000;0.285019
7680.000000;0.284814
7679.000000;0.284716
7678.000000;0.284647
7677.000000;0.284516
7676.000000;0.284324
7675.000000;0.284152
7674.000000;0.284047
7673.000000;0.283964
7672.000000;0.283842
7671.000000;0.283696
7670.000000;0.283592
7669.000000;0.283558
7668.000000;0.283546
7667.000000;0.283487
7666.000000;0.283342
7665.000000;0.283128
7664.000000;0.282888
7663.000000;0.282655
7662.000000;0.282435
7661.000000;0.282228
7660.000000;0.282068
7659.000000;0.282008
7658.000000;0.282045
7657.000000;0.282096
7656.000000;0.282060
7655.000000;0.281915
7654.000000;0.281704
7653.000000;0.281468
7652.000000;0.281222
7651.000000;0.280987
7650.000000;0.280794
7649.000000;0.280645
7648.000000;0.280510
7647.000000;0.280378
7646.000000;0.280286
7645.000000;0.280274
7644.000000;0.280313
7643.000000;0.280322
7642.000000;0.280236
7641.000000;0.280069
7640.000000;0.279894
7639.000000;0.279781
7638.000000;0.279725
7637.000000;0.279656
7636.000000;0.279521
7635.000000;0.279357
7634.000000;0.279255
7633.000000;0.279249
7632.000000;0.279266
7631.000000;0.279205
7630.000000;0.279035
7629.000000;0.278804
7628.000000;0.278585
7627.000000;0.278427
7626.000000;0.278347
7625.000000;0.278332
7624.000000;0.278352
7623.000000;0.278377
7622.000000;0.278391
7621.000000;0.278398
7620.000000;0.278421
7619.000000;0.278466
7618.000000;0.278503
7617.000000;0.278478
7616.000000;0.278375
7615.000000;0.278239
7614.000000;0.278118
7613.000000;0.277993
7612.000000;0.277811
7611.000000;0.277590
7610.000000;0.277424
7609.000000;0.277377
7608.000000;0.277409
7607.000000;0.277423
7606.000000;0.277375
7605.000000;0.277297
7604.000000;0.277247
7603.000000;0.277248
7602.000000;0.277285
7601.000000;0.277319
7600.000000;0.277325
7599.000000;0.277307
7598.000000;0.277288
7597.000000;0.277269
7596.000000;0.277228
7595.000000;0.277152
7594.000000;0.277056
7593.000000;0.276976
7592.000000;0.276940
7591.000000;0.276948
7590.000000;0.276961
7589.000000;0.276938
7588.000000;0.276888
7587.000000;0.276886
7586.000000;0.276969
7585.000000;0.277063
7584.000000;0.277050
7583.000000;0.276917
7582.000000;0.276766
7581.000000;0.276674
7580.000000;0.276621
7579.000000;0.276577
7578.000000;0.276581
7577.000000;0.276676
7576.000000;0.276811
7575.000000;0.276884
7574.000000;0.276854
7573.000000;0.276769
7572.000000;0.276703
7571.000000;0.276697
7570.000000;0.276752
7569.000000;0.276818
7568.000000;0.276818
7567.000000;0.276720
7566.000000;0.276579
7565.000000;0.276500
7564.000000;0.276543
7563.000000;0.276688
7562.000000;0.276872
7561.000000;0.277030
7560.000000;0.277119
7559.000000;0.277127
7558.000000;0.277058
7557.000000;0.276929
7556.000000;0.276788
7555.000000;0.276720
7554.000000;0.276796
7553.000000;0.276977
7552.000000;0.277137
7551.000000;0.277193
7550.000000;0.277183
7549.000000;0.277185
7548.000000;0.277210
7547.000000;0.277214
7546.000000;0.277181
7545.000000;0.277149
7544.000000;0.277157
7543.000000;0.277206
7542.000000;0.277267
7541.000000;0.277314
7540.000000;0.277338
7539.000000;0.277372
7538.000000;0.277464
7537.000000;0.277631
7536.000000;0.277833
7535.000000;0.278015
7534.000000;0.278153
7533.000000;0.278237
7532.000000;0.278273
7531.000000;0.278300
7530.000000;0.278376
7529.000000;0.278510
7528.000000;0.278633
7527.000000;0.278677
7526.000000;0.278643
7525.000000;0.278596
7524.000000;0.278594
7523.000000;0.278666
7522.000000;0.278813
7521.000000;0.278996
7520.000000;0.279150
7519.000000;0.279235
7518.000000;0.279264
7517.000000;0.279268
7516.000000;0.279261
7515.000000;0.279260
7514.000000;0.279295
7513.000000;0.279369
7512.000000;0.279451
7511.000000;0.279526
7510.000000;0.279627
7509.000000;0.279770
7508.000000;0.279909
7507.000000;0.280000
7506.000000;0.280070
7505.000000;0.280171
7504.000000;0.280297
7503.000000;0.280389
7502.000000;0.280422
7501.000000;0.280434
7500.000000;0.280492
7499.000000;0.280644
7498.000000;0.280878
7497.000000;0.281111
7496.000000;0.281244
7495.000000;0.281263
7494.000000;0.281263
7493.000000;0.281321
7492.000000;0.281409
7491.000000;0.281443
7490.000000;0.281552
7489.000000;0.281565
7488.000000;0.281651
7487.000000;0.281814
7486.000000;0.282009
7485.000000;0.282199
7484.000000;0.282359
7483.000000;0.282494
7482.000000;0.282631
7481.000000;0.282785
7480.000000;0.282934
7479.000000;0.283056
7478.000000;0.283159
7477.000000;0.283248
7476.000000;0.283321
7475.000000;0.283391
7474.000000;0.283492
7473.000000;0.283636
7472.000000;0.283799
7471.000000;0.283962
7470.000000;0.284134
7469.000000;0.284307
7468.000000;0.284434
7467.000000;0.284495
7466.000000;0.284534
7465.000000;0.284611
7464.000000;0.284761
7463.000000;0.284996
7462.000000;0.285285
7461.000000;0.285519
7460.000000;0.285586
7459.000000;0.285511
7458.000000;0.285459
7457.000000;0.285550
7456.000000;0.285730
7455.000000;0.285870
7454.000000;0.285921
7453.000000;0.285923
7452.000000;0.285926
7451.000000;0.285963
7450.000000;0.286055
7449.000000;0.286184
7448.000000;0.286285
7447.000000;0.286329
7446.000000;0.286355
7445.000000;0.286394
7444.000000;0.286427
7443.000000;0.286457
7442.000000;0.286544
7441.000000;0.286711
7440.000000;0.286886
7439.000000;0.287015
7438.000000;0.287157
7437.000000;0.287388
7436.000000;0.287672
7435.000000;0.287907
7434.000000;0.288050
7433.000000;0.288130
7432.000000;0.288167
7431.000000;0.288179
7430.000000;0.288219
7429.000000;0.288337
7428.000000;0.288514
7427.000000;0.288678
7426.000000;0.288786
7425.000000;0.288849
7424.000000;0.288943
7423.000000;0.289186
7422.000000;0.289656
7421.000000;0.290256
7420.000000;0.290738
7419.000000;0.290959
7418.000000;0.291054
7417.000000;0.291249
7416.000000;0.291565
7415.000000;0.291826
7414.000000;0.291898
7413.000000;0.291817
7412.000000;0.291715
7411.000000;0.291697
7410.000000;0.291804
7409.000000;0.292002
7408.000000;0.292234
7407.000000;0.292467
7406.000000;0.292658
7405.000000;0.292725
7404.000000;0.292659
7403.000000;0.292624
7402.000000;0.292861
7401.000000;0.293407
7400.000000;0.294021
7399.000000;0.294420
7398.000000;0.294547
7397.000000;0.294568
7396.000000;0.294732
7395.000000;0.295161
7394.000000;0.295665
7393.000000;0.295910
7392.000000;0.295902
7391.000000;0.296034
7390.000000;0.296551
7389.000000;0.297231
7388.000000;0.297773
7387.000000;0.298278
7386.000000;0.299012
7385.000000;0.299870
7384.000000;0.300561
7383.000000;0.301201
7382.000000;0.302142
7381.000000;0.303198
7380.000000;0.303722
7379.000000;0.303705
7378.000000;0.304160
7377.000000;0.305774
7376.000000;0.307664
7375.000000;0.308269
7374.000000;0.307302
7373.000000;0.306114
7372.000000;0.306048
7371.000000;0.307022
7370.000000;0.307867
7369.000000;0.307598
7368.000000;0.306238
7367.000000;0.304773
7366.000000;0.304313
7365.000000;0.305020
7364.000000;0.306002
7363.000000;0.306358
7362.000000;0.306030
7361.000000;0.305522
7360.000000;0.305236
7359.000000;0.305432
7358.000000;0.306509
7357.000000;0.308465
7356.000000;0.310174
7355.000000;0.310266
7354.000000;0.308928
7353.000000;0.307931
7352.000000;0.308607
7351.000000;0.310576
7350.000000;0.312479
7349.000000;0.313319
7348.000000;0.313058
7347.000000;0.312619
7346.000000;0.313374
7345.000000;0.315814
7344.000000;0.318834
7343.000000;0.321145
7342.000000;0.323206
7341.000000;0.326392
7340.000000;0.330320
7339.000000;0.332630
7338.000000;0.332052
7337.000000;0.330140
7336.000000;0.328964
7335.000000;0.328408
7334.000000;0.326865
7333.000000;0.323811
7332.000000;0.320433
7331.000000;0.318169
7330.000000;0.317676
7329.000000;0.318572
7328.000000;0.319398
7327.000000;0.318794
7326.000000;0.317542
7325.000000;0.318153
7324.000000;0.321467
7323.000000;0.325003
7322.000000;0.325930
7321.000000;0.324557
7320.000000;0.323457
7319.000000;0.323822
7318.000000;0.324257
7317.000000;0.323039
7316.000000;0.320188
7315.000000;0.317108
7314.000000;0.315156
7313.000000;0.314852
7312.000000;0.315626
7311.000000;0.316246
7310.000000;0.316398
7309.000000;0.317514
7308.000000;0.320778
7307.000000;0.324788
7306.000000;0.326832
7305.000000;0.326437
7304.000000;0.326008
7303.000000;0.327539
7302.000000;0.330168
7301.000000;0.331622
7300.000000;0.330854
7299.000000;0.328691
7298.000000;0.326754
7297.000000;0.326534
7296.000000;0.328604
7295.000000;0.331631
7294.000000;0.333026
7293.000000;0.331734
7292.000000;0.329906
7291.000000;0.330528
7290.000000;0.333745
7289.000000;0.336771
7288.000000;0.337151
7287.000000;0.335121
7286.000000;0.332719
7285.000000;0.331439
7284.000000;0.331125
7283.000000;0.330682
7282.000000;0.329423
7281.000000;0.327720
7280.000000;0.326493
7279.000000;0.326297
7278.000000;0.326885
7277.000000;0.327636
7276.000000;0.328326
7275.000000;0.329156
7274.000000;0.330218
7273.000000;0.331308
7272.000000;0.332233
7271.000000;0.333077
7270.000000;0.334143
7269.000000;0.335584
7268.000000;0.337126
7267.000000;0.338320
7266.000000;0.339118
7265.000000;0.340079
7264.000000;0.341763
7263.000000;0.343937
7262.000000;0.345693
7261.000000;0.346509
7260.000000;0.346877
7259.000000;0.347659
7258.000000;0.349089
7257.000000;0.350757
7256.000000;0.352387
7255.000000;0.354223
7254.000000;0.356466
7253.000000;0.358733
7252.000000;0.360428
7251.000000;0.361503
7250.000000;0.362544
7249.000000;0.364054
7248.000000;0.365991
7247.000000;0.368151
7246.000000;0.370913
7245.000000;0.375219
7244.000000;0.381171
7243.000000;0.387045
7242.000000;0.390752
7241.000000;0.392315
7240.000000;0.393920
7239.000000;0.397163
7238.000000;0.401125
7237.000000;0.403860
7236.000000;0.405269
7235.000000;0.407482
7234.000000;0.412176
7233.000000;0.418139
7232.000000;0.422212
7231.000000;0.422739
7230.000000;0.421530
7229.000000;0.421969
7228.000000;0.425481
7227.000000;0.430199
7226.000000;0.433203
7225.000000;0.433798
7224.000000;0.433836
7223.000000;0.435143
7222.000000;0.437610
7221.000000;0.439754
7220.000000;0.440456
7219.000000;0.440045
7218.000000;0.440005
7217.000000;0.441680
7216.000000;0.445009
7215.000000;0.448574
7214.000000;0.451056
7213.000000;0.452535
7212.000000;0.454169
7211.000000;0.456725
7210.000000;0.459823
7209.000000;0.462722
7208.000000;0.465443
7207.000000;0.468664
7206.000000;0.472707
7205.000000;0.477144
7204.000000;0.481297
7203.000000;0.484877
7202.000000;0.488177
7201.000000;0.491703
7200.000000;0.495589
7199.000000;0.499482
7198.000000;0.503063
7197.000000;0.506508
7196.000000;0.510150
7195.000000;0.513784
7194.000000;0.516749
7193.000000;0.518858
7192.000000;0.520869
7191.000000;0.523653
7190.000000;0.527242
7189.000000;0.531080
7188.000000;0.534943
7187.000000;0.539089
7186.000000;0.543700
7185.000000;0.548808
7184.000000;0.554661
7183.000000;0.561488
7182.000000;0.568698
7181.000000;0.575122
7180.000000;0.580471
7179.000000;0.585839
7178.000000;0.592189
7177.000000;0.598903
7176.000000;0.604433
7175.000000;0.608127
7174.000000;0.610845
7173.000000;0.613823
7172.000000;0.617503
7171.000000;0.621612
7170.000000;0.625834
7169.000000;0.630104
7168.000000;0.634662
7167.000000;0.639865
7166.000000;0.645816
7165.000000;0.652243
7164.000000;0.658999
7163.000000;0.666351
7162.000000;0.674159
7161.000000;0.681301
7160.000000;0.686779
7159.000000;0.691160
7158.000000;0.695963
7157.000000;0.701541
7156.000000;0.706495
7155.000000;0.709593
7154.000000;0.711544
7153.000000;0.714101
7152.000000;0.717826
7151.000000;0.721649
7150.000000;0.724554
7149.000000;0.726859
7148.000000;0.729822
7147.000000;0.734369
7146.000000;0.740301
7145.000000;0.746630
7144.000000;0.752660
7143.000000;0.758698
7142.000000;0.765659
7141.000000;0.773867
7140.000000;0.782226
7139.000000;0.789124
7138.000000;0.794368
7137.000000;0.799569
7136.000000;0.806049
7135.000000;0.812982
7134.000000;0.818394
7133.000000;0.821712
7132.000000;0.824371
7131.000000;0.827838
7130.000000;0.832015
7129.000000;0.835898
7128.000000;0.839077
7127.000000;0.841967
7126.000000;0.844993
7125.000000;0.848350
7124.000000;0.852255
7123.000000;0.856762
7122.000000;0.861596
7121.000000;0.866698
7120.000000;0.872663
7119.000000;0.879937
7118.000000;0.887701
7117.000000;0.894423
7116.000000;0.899683
7115.000000;0.904689
7114.000000;0.910572
7113.000000;0.916800
7112.000000;0.921882
7111.000000;0.925318
7110.000000;0.928182
7109.000000;0.931774
7108.000000;0.936280
7107.000000;0.940906
7106.000000;0.944899
7105.000000;0.948197
7104.000000;0.951328
7103.000000;0.954943
7102.000000;0.959300
7101.000000;0.964054
7100.000000;0.968687
7099.000000;0.973088
7098.000000;0.977621
7097.000000;0.982672
7096.000000;0.988017
7095.000000;0.992804
7094.000000;0.996495
7093.000000;0.999605
7092.000000;1.003114
7091.000000;1.007276
7090.000000;1.011434
7089.000000;1.015030
7088.000000;1.018325
7087.000000;1.021826
7086.000000;1.025427
7085.000000;1.028560
7084.000000;1.031013
7083.000000;1.033188
7082.000000;1.035598
7081.000000;1.038446
7080.000000;1.041689
7079.000000;1.045213
7078.000000;1.048891
7077.000000;1.052640
7076.000000;1.056460
7075.000000;1.060410
7074.000000;1.064654
7073.000000;1.069354
7072.000000;1.074276
7071.000000;1.078775
7070.000000;1.082476
7069.000000;1.085854
7068.000000;1.089726
7067.000000;1.094166
7066.000000;1.098337
7065.000000;1.101504
7064.000000;1.103769
7063.000000;1.105671
7062.000000;1.107514
7061.000000;1.109388
7060.000000;1.111475
7059.000000;1.113900
7058.000000;1.116501
7057.000000;1.119123
7056.000000;1.121898
7055.000000;1.124890
7054.000000;1.127806
7053.000000;1.130399
7052.000000;1.132860
7051.000000;1.135538
7050.000000;1.138477
7049.000000;1.141459
7048.000000;1.144369
7047.000000;1.147269
7046.000000;1.150218
7045.000000;1.153260
7044.000000;1.156421
7043.000000;1.159475
7042.000000;1.161977
7041.000000;1.163803
7040.000000;1.165421
7039.000000;1.167340
7038.000000;1.169536
7037.000000;1.171741
7036.000000;1.174014
7035.000000;1.176543
7034.000000;1.179110
7033.000000;1.181252
7032.000000;1.182972
7031.000000;1.184877
7030.000000;1.187507
7029.000000;1.190744
7028.000000;1.193931
7027.000000;1.196476
7026.000000;1.198363
7025.000000;1.200165
7024.000000;1.202425
7023.000000;1.204967
7022.000000;1.207028
7021.000000;1.208231
7020.000000;1.209128
7019.000000;1.210598
7018.000000;1.212946
7017.000000;1.215819
7016.000000;1.218721
7015.000000;1.221323
7014.000000;1.223457
7013.000000;1.225132
7012.000000;1.226542
7011.000000;1.227893
7010.000000;1.229328
7009.000000;1.231058
7008.000000;1.233260
7007.000000;1.235655
7006.000000;1.237540
7005.000000;1.238562
7004.000000;1.239217
7003.000000;1.240287
7002.000000;1.242066
7001.000000;1.244388
7000.000000;1.247018
6999.000000;1.249651
6998.000000;1.251857
6997.000000;1.253453
6996.000000;1.254735
6995.000000;1.255992
6994.000000;1.257078
6993.000000;1.257864
6992.000000;1.258791
6991.000000;1.260386
6990.000000;1.262429
6989.000000;1.264192
6988.000000;1.265405
6987.000000;1.266465
6986.000000;1.267689
6985.000000;1.268931
6984.000000;1.270065
6983.000000;1.271315
6982.000000;1.272876
6981.000000;1.274623
6980.000000;1.276363
6979.000000;1.278106
6978.000000;1.279898
6977.000000;1.281639
6976.000000;1.283215
6975.000000;1.284633
6974.000000;1.285934
6973.000000;1.287131
6972.000000;1.288341
6971.000000;1.289821
6970.000000;1.291696
6969.000000;1.293644
6968.000000;1.294980
6967.000000;1.295222
6966.000000;1.294626
6965.000000;1.294048
6964.000000;1.294165
6963.000000;1.294892
6962.000000;1.295654
6961.000000;1.296158
6960.000000;1.296608
6959.000000;1.297236
6958.000000;1.298053
6957.000000;1.299105
6956.000000;1.300488
6955.000000;1.301963
6954.000000;1.303003
6953.000000;1.303496
6952.000000;1.304027
6951.000000;1.305184
6950.000000;1.306865
6949.000000;1.308474
6948.000000;1.309512
6947.000000;1.309782
6946.000000;1.309412
6945.000000;1.308984
6944.000000;1.309182
6943.000000;1.309938
6942.000000;1.310347
6941.000000;1.309884
6940.000000;1.309347
6939.000000;1.310012
6938.000000;1.312076
6937.000000;1.314465
6936.000000;1.316069
6935.000000;1.316665
6934.000000;1.316687
6933.000000;1.316683
6932.000000;1.317086
6931.000000;1.317988
6930.000000;1.318993
6929.000000;1.319634
6928.000000;1.319965
6927.000000;1.320408
6926.000000;1.321038
6925.000000;1.321420
6924.000000;1.321275
6923.000000;1.320879
6922.000000;1.320657
6921.000000;1.320701
6920.000000;1.320906
6919.000000;1.321273
6918.000000;1.321806
6917.000000;1.322308
6916.000000;1.322577
6915.000000;1.322728
6914.000000;1.323135
6913.000000;1.324020
6912.000000;1.325147
6911.000000;1.325914
6910.000000;1.325803
6909.000000;1.324812
6908.000000;1.323437
6907.000000;1.322230
6906.000000;1.321494
6905.000000;1.321367
6904.000000;1.321924
6903.000000;1.323000
6902.000000;1.324039
6901.000000;1.324371
6900.000000;1.323723
6899.000000;1.322425
6898.000000;1.321151
6897.000000;1.320548
6896.000000;1.320912
6895.000000;1.322002
6894.000000;1.323227
6893.000000;1.324153
6892.000000;1.324783
6891.000000;1.325287
6890.000000;1.325652
6889.000000;1.325741
6888.000000;1.325545
6887.000000;1.325178
6886.000000;1.324721
6885.000000;1.324221
6884.000000;1.323729
6883.000000;1.323228
6882.000000;1.322661
6881.000000;1.322101
6880.000000;1.321713
6879.000000;1.321467
6878.000000;1.321172
6877.000000;1.320949
6876.000000;1.321290
6875.000000;1.322289
6874.000000;1.323101
6873.000000;1.322693
6872.000000;1.321080
6871.000000;1.319418
6870.000000;1.318828
6869.000000;1.319451
6868.000000;1.320627
6867.000000;1.321636
6866.000000;1.322105
6865.000000;1.321984
6864.000000;1.321347
6863.000000;1.320253
6862.000000;1.318764
6861.000000;1.317122
6860.000000;1.315762
6859.000000;1.314940
6858.000000;1.314310
6857.000000;1.313131
6856.000000;1.311091
6855.000000;1.308871
6854.000000;1.307654
6853.000000;1.307997
6852.000000;1.309193
6851.000000;1.309868
6850.000000;1.309242
6849.000000;1.307708
6848.000000;1.306209
6847.000000;1.305314
6846.000000;1.305017
6845.000000;1.305016
6844.000000;1.304847
6843.000000;1.303949
6842.000000;1.302108
6841.000000;1.299881
6840.000000;1.298208
6839.000000;1.297461
6838.000000;1.297119
6837.000000;1.296438
6836.000000;1.295214
6835.000000;1.293792
6834.000000;1.292587
6833.000000;1.291716
6832.000000;1.290906
6831.000000;1.289651
6830.000000;1.287667
6829.000000;1.285257
6828.000000;1.283063
6827.000000;1.281387
6826.000000;1.279974
6825.000000;1.278435
6824.000000;1.276674
6823.000000;1.274894
6822.000000;1.273382
6821.000000;1.272305
6820.000000;1.271468
6819.000000;1.270300
6818.000000;1.268407
6817.000000;1.266156
6816.000000;1.264350
6815.000000;1.263306
6814.000000;1.262601
6813.000000;1.261715
6812.000000;1.260452
6811.000000;1.258712
6810.000000;1.256452
6809.000000;1.254059
6808.000000;1.252183
6807.000000;1.250876
6806.000000;1.249376
6805.000000;1.247087
6804.000000;1.244364
6803.000000;1.241920
6802.000000;1.239861
6801.000000;1.237808
6800.000000;1.235627
6799.000000;1.233525
6798.000000;1.231612
6797.000000;1.229838
6796.000000;1.228202
6795.000000;1.226617
6794.000000;1.224751
6793.000000;1.222384
6792.000000;1.219789
6791.000000;1.217346
6790.000000;1.214945
6789.000000;1.212215
6788.000000;1.209210
6787.000000;1.206414
6786.000000;1.204083
6785.000000;1.201996
6784.000000;1.199848
6783.000000;1.197545
6782.000000;1.195069
6781.000000;1.192395
6780.000000;1.189598
6779.000000;1.186786
6778.000000;1.183916
6777.000000;1.180946
6776.000000;1.178108
6775.000000;1.175740
6774.000000;1.173877
6773.000000;1.172253
6772.000000;1.170659
6771.000000;1.168970
6770.000000;1.166913
6769.000000;1.164249
6768.000000;1.161195
6767.000000;1.158252
6766.000000;1.155521
6765.000000;1.152613
6764.000000;1.149377
6763.000000;1.146276
6762.000000;1.143784
6761.000000;1.141737
6760.000000;1.139597
6759.000000;1.137114
6758.000000;1.134471
6757.000000;1.131930
6756.000000;1.129610
6755.000000;1.127487
6754.000000;1.125411
6753.000000;1.123195
6752.000000;1.120871
6751.000000;1.118686
6750.000000;1.116659
6749.000000;1.114355
6748.000000;1.111390
6747.000000;1.108049
6746.000000;1.105024
6745.000000;1.102539
6744.000000;1.100077
6743.000000;1.097071
6742.000000;1.093561
6741.000000;1.090033
6740.000000;1.086863
6739.000000;1.084133
6738.000000;1.081768
6737.000000;1.079575
6736.000000;1.077210
6735.000000;1.074391
6734.000000;1.071196
6733.000000;1.067980
6732.000000;1.065005
6731.000000;1.062265
6730.000000;1.059652
6729.000000;1.057090
6728.000000;1.054477
6727.000000;1.051694
6726.000000;1.048774
6725.000000;1.045959
6724.000000;1.043432
6723.000000;1.041094
6722.000000;1.038666
6721.000000;1.035969
6720.000000;1.033025
6719.000000;1.029993
6718.000000;1.027055
6717.000000;1.024294
6716.000000;1.021618
6715.000000;1.018872
6714.000000;1.016100
6713.000000;1.013559
6712.000000;1.011370
6711.000000;1.009251
6710.000000;1.006756
6709.000000;1.003725
6708.000000;1.000388
6707.000000;0.997065
6706.000000;0.993972
6705.000000;0.991112
6704.000000;0.988400
6703.000000;0.985751
6702.000000;0.983070
6701.000000;0.980316
6700.000000;0.977518
6699.000000;0.974643
6698.000000;0.971855
6697.000000;0.969088
6696.000000;0.966505
6695.000000;0.963802
6694.000000;0.960714
6693.000000;0.957606
6692.000000;0.954871
6691.000000;0.952566
6690.000000;0.950370
6689.000000;0.948019
6688.000000;0.945419
6687.000000;0.942489
6686.000000;0.939249
6685.000000;0.936027
6684.000000;0.933222
6683.000000;0.930783
6682.000000;0.928238
6681.000000;0.925347
6680.000000;0.922386
6679.000000;0.919669
6678.000000;0.917120
6677.000000;0.914533
6676.000000;0.911932
6675.000000;0.909413
6674.000000;0.906858
6673.000000;0.904128
6672.000000;0.901353
6671.000000;0.898730
6670.000000;0.896140
6669.000000;0.893288
6668.000000;0.890177
6667.000000;0.887144
6666.000000;0.884420
6665.000000;0.881920
6664.000000;0.879473
6663.000000;0.877024
6662.000000;0.874518
6661.000000;0.871832
6660.000000;0.868940
6659.000000;0.866010
6658.000000;0.863213
6657.000000;0.860525
6656.000000;0.857817
6655.000000;0.855064
6654.000000;0.852370
6653.000000;0.849824
6652.000000;0.847414
6651.000000;0.845071
6650.000000;0.842728
6649.000000;0.840315
6648.000000;0.837763
6647.000000;0.835047
6646.000000;0.832232
6645.000000;0.829439
6644.000000;0.826731
6643.000000;0.824056
6642.000000;0.821332
6641.000000;0.818583
6640.000000;0.815939
6639.000000;0.813494
6638.000000;0.811207
6637.000000;0.808944
6636.000000;0.806586
6635.000000;0.804086
6634.000000;0.801465
6633.000000;0.798788
6632.000000;0.796111
6631.000000;0.793444
6630.000000;0.790805
6629.000000;0.788274
6628.000000;0.785909
6627.000000;0.783617
6626.000000;0.781204
6625.000000;0.778591
6624.000000;0.775879
6623.000000;0.773181
6622.000000;0.770507
6621.000000;0.767858
6620.000000;0.765309
6619.000000;0.762918
6618.000000;0.760616
6617.000000;0.758289
6616.000000;0.755905
6615.000000;0.753463
6614.000000;0.750903
6613.000000;0.748187
6612.000000;0.745424
6611.000000;0.742795
6610.000000;0.740367
6609.000000;0.738071
6608.000000;0.735825
6607.000000;0.733587
6606.000000;0.731296
6605.000000;0.728898
6604.000000;0.726448
6603.000000;0.724069
6602.000000;0.721776
6601.000000;0.719436
6600.000000;0.716963
6599.000000;0.714465
6598.000000;0.712106
6597.000000;0.709881
6596.000000;0.707614
6595.000000;0.705175
6594.000000;0.702619
6593.000000;0.700096
6592.000000;0.697699
6591.000000;0.695420
6590.000000;0.693200
6589.000000;0.690969
6588.000000;0.688669
6587.000000;0.686299
6586.000000;0.683930
6585.000000;0.681635
6584.000000;0.679391
6583.000000;0.677094
6582.000000;0.674692
6581.000000;0.672236
6580.000000;0.669787
6579.000000;0.667347
6578.000000;0.664934
6577.000000;0.662652
6576.000000;0.660592
6575.000000;0.658674
6574.000000;0.656689
6573.000000;0.654491
6572.000000;0.652112
6571.000000;0.649686
6570.000000;0.647327
6569.000000;0.645091
6568.000000;0.642966
6567.000000;0.640871
6566.000000;0.638705
6565.000000;0.636437
6564.000000;0.634107
6563.000000;0.631754
6562.000000;0.629405
6561.000000;0.627118
6560.000000;0.624972
6559.000000;0.622963
6558.000000;0.620991
6557.000000;0.618974
6556.000000;0.616936
6555.000000;0.614955
6554.000000;0.613064
6553.000000;0.611236
6552.000000;0.609410
6551.000000;0.607480
6550.000000;0.605329
6549.000000;0.602929
6548.000000;0.600423
6547.000000;0.598045
6546.000000;0.595937
6545.000000;0.594035
6544.000000;0.592137
6543.000000;0.590093
6542.000000;0.587923
6541.000000;0.585760
6540.000000;0.583680
6539.000000;0.581637
6538.000000;0.579582
6537.000000;0.577570
6536.000000;0.575679
6535.000000;0.573867
6534.000000;0.572002
6533.000000;0.570030
6532.000000;0.568023
6531.000000;0.566056
6530.000000;0.564116
6529.000000;0.562161
6528.000000;0.560184
6527.000000;0.558191
6526.000000;0.556174
6525.000000;0.554150
6524.000000;0.552169
6523.000000;0.550244
6522.000000;0.548326
6521.000000;0.546375
6520.000000;0.544418
6519.000000;0.542509
6518.000000;0.540658
6517.000000;0.538829
6516.000000;0.536962
6515.000000;0.534990
6514.000000;0.532895
6513.000000;0.530782
6512.000000;0.528816
6511.000000;0.527046
6510.000000;0.525346
6509.000000;0.523572
6508.000000;0.521720
6507.000000;0.519884
6506.000000;0.518097
6505.000000;0.516315
6504.000000;0.514509
6503.000000;0.512705
6502.000000;0.510917
6501.000000;0.509112
6500.000000;0.507256
6499.000000;0.505379
6498.000000;0.503567
6497.000000;0.501880
6496.000000;0.500277
6495.000000;0.498637
6494.000000;0.496866
6493.000000;0.494993
6492.000000;0.493123
6491.000000;0.491312
6490.000000;0.489534
6489.000000;0.487761
6488.000000;0.486013
6487.000000;0.484285
6486.000000;0.482522
6485.000000;0.480699
6484.000000;0.478897
6483.000000;0.477205
6482.000000;0.475590
6481.000000;0.473937
6480.000000;0.472191
6479.000000;0.470428
6478.000000;0.468751
6477.000000;0.467171
6476.000000;0.465601
6475.000000;0.463945
6474.000000;0.462188
6473.000000;0.460399
6472.000000;0.458665
6471.000000;0.457023
6470.000000;0.455447
6469.000000;0.453888
6468.000000;0.452297
6467.000000;0.450636
6466.000000;0.448902
6465.000000;0.447145
6464.000000;0.445431
6463.000000;0.443789
6462.000000;0.442212
6461.000000;0.440686
6460.000000;0.439190
6459.000000;0.437666
6458.000000;0.436057
6457.000000;0.434376
6456.000000;0.432706
6455.000000;0.431113
6454.000000;0.429612
6453.000000;0.428212
6452.000000;0.426917
6451.000000;0.425667
6450.000000;0.424340
6449.000000;0.422861
6448.000000;0.421262
6447.000000;0.419622
6446.000000;0.417985
6445.000000;0.416376
6444.000000;0.414828
6443.000000;0.413348
6442.000000;0.411888
6441.000000;0.410394
6440.000000;0.408865
6439.000000;0.407319
6438.000000;0.405749
6437.000000;0.404164
6436.000000;0.402624
6435.000000;0.401187
6434.000000;0.399840
6433.000000;0.398520
6432.000000;0.397183
6431.000000;0.395808
6430.000000;0.394366
6429.000000;0.392857
6428.000000;0.391344
6427.000000;0.389909
6426.000000;0.388562
6425.000000;0.387238
6424.000000;0.385882
6423.000000;0.384481
6422.000000;0.383031
6421.000000;0.381514
6420.000000;0.379933
6419.000000;0.378339
6418.000000;0.376793
6417.000000;0.375332
6416.000000;0.373968
6415.000000;0.372705
6414.000000;0.371517
6413.000000;0.370341
6412.000000;0.369103
6411.000000;0.367762
6410.000000;0.366336
6409.000000;0.364882
6408.000000;0.363466
6407.000000;0.362125
6406.000000;0.360863
6405.000000;0.359644
6404.000000;0.358414
6403.000000;0.357119
6402.000000;0.355739
6401.000000;0.354297
6400.000000;0.352835
6399.000000;0.351385
6398.000000;0.349970
6397.000000;0.348620
6396.000000;0.347347
6395.000000;0.346122
6394.000000;0.344900
6393.000000;0.343675
6392.000000;0.342482
6391.000000;0.341325
6390.000000;0.340153
6389.000000;0.338923
6388.000000;0.337660
6387.000000;0.336428
6386.000000;0.335256
6385.000000;0.334122
6384.000000;0.332977
6383.000000;0.331778
6382.000000;0.330496
6381.000000;0.329141
6380.000000;0.327775
6379.000000;0.326458
6378.000000;0.325201
6377.000000;0.323966
6376.000000;0.322735
6375.000000;0.321535
6374.000000;0.320397
6373.000000;0.319296
6372.000000;0.318158
6371.000000;0.316939
6370.000000;0.315679
6369.000000;0.314466
6368.000000;0.313354
6367.000000;0.312303
6366.000000;0.311228
6365.000000;0.310071
6364.000000;0.308840
6363.000000;0.307593
6362.000000;0.306396
6361.000000;0.305300
6360.000000;0.304310
6359.000000;0.303381
6358.000000;0.302434
6357.000000;0.301400
6356.000000;0.300246
6355.000000;0.298988
6354.000000;0.297695
6353.000000;0.296451
6352.000000;0.295298
6351.000000;0.294211
6350.000000;0.293154
6349.000000;0.292124
6348.000000;0.291142
6347.000000;0.290189
6346.000000;0.289206
6345.000000;0.288138
6344.000000;0.286978
6343.000000;0.285759
6342.000000;0.284544
6341.000000;0.283400
6340.000000;0.282364
6339.000000;0.281406
6338.000000;0.280462
6337.000000;0.279493
6336.000000;0.278505
6335.000000;0.277517
6334.000000;0.276528
6333.000000;0.275525
6332.000000;0.274493
6331.000000;0.273437
6330.000000;0.272386
6329.000000;0.271382
6328.000000;0.270434
6327.000000;0.269489
6326.000000;0.268483
6325.000000;0.267406
6324.000000;0.266302
6323.000000;0.265226
6322.000000;0.264199
6321.000000;0.263213
6320.000000;0.262237
6319.000000;0.261234
6318.000000;0.260197
6317.000000;0.259167
6316.000000;0.258183
6315.000000;0.257234
6314.000000;0.256295
6313.000000;0.255384
6312.000000;0.254544
6311.000000;0.253763
6310.000000;0.252967
6309.000000;0.252093
6308.000000;0.251136
6307.000000;0.250128
6306.000000;0.249096
6305.000000;0.248067
6304.000000;0.247079
6303.000000;0.246148
6302.000000;0.245260
6301.000000;0.244391
6300.000000;0.243527
6299.000000;0.242653
6298.000000;0.241750
6297.000000;0.240814
6296.000000;0.239851
6295.000000;0.238879
6294.000000;0.237916
6293.000000;0.236978
6292.000000;0.236061
6291.000000;0.235129
6290.000000;0.234166
6289.000000;0.233206
6288.000000;0.232298
6287.000000;0.231443
6286.000000;0.230603
6285.000000;0.229758
6284.000000;0.228901
6283.000000;0.228013
6282.000000;0.227064
6281.000000;0.226082
6280.000000;0.225149
6279.000000;0.224328
6278.000000;0.223604
6277.000000;0.222906
6276.000000;0.222158
6275.000000;0.221317
6274.000000;0.220405
6273.000000;0.219507
6272.000000;0.218700
6271.000000;0.217980
6270.000000;0.217267
6269.000000;0.216489
6268.000000;0.215636
6267.000000;0.214730
6266.000000;0.213808
6265.000000;0.212923
6264.000000;0.212126
6263.000000;0.211403
6262.000000;0.210682
6261.000000;0.209901
6260.000000;0.209068
6259.000000;0.208242
6258.000000;0.207468
6257.000000;0.206742
6256.000000;0.206022
6255.000000;0.205261
6254.000000;0.204454
6253.000000;0.203648
6252.000000;0.202872
6251.000000;0.202094
6250.000000;0.201271
6249.000000;0.200423
6248.000000;0.199621
6247.000000;0.198892
6246.000000;0.198203
6245.000000;0.197510
6244.000000;0.196795
6243.000000;0.196035
6242.000000;0.195221
6241.000000;0.194399
6240.000000;0.193646
6239.000000;0.192983
6238.000000;0.192350
6237.000000;0.191680
6236.000000;0.190959
6235.000000;0.190198
6234.000000;0.189400
6233.000000;0.188579
6232.000000;0.187768
6231.000000;0.186983
6230.000000;0.186214
6229.000000;0.185453
6228.000000;0.184716
6227.000000;0.184010
6226.000000;0.183319
6225.000000;0.182630
6224.000000;0.181944
6223.000000;0.181264
6222.000000;0.180593
6221.000000;0.179949
6220.000000;0.179344
6219.000000;0.178738
6218.000000;0.178065
6217.000000;0.177304
6216.000000;0.176502
6215.000000;0.175711
6214.000000;0.174949
6213.000000;0.174223
6212.000000;0.173536
6211.000000;0.172862
6210.000000;0.172158
6209.000000;0.171424
6208.000000;0.170716
6207.000000;0.170067
6206.000000;0.169448
6205.000000;0.168814
6204.000000;0.168160
6203.000000;0.167500
6202.000000;0.166847
6201.000000;0.166212
6200.000000;0.165601
6199.000000;0.164985
6198.000000;0.164319
6197.000000;0.163604
6196.000000;0.162894
6195.000000;0.162223
6194.000000;0.161581
6193.000000;0.160953
6192.000000;0.160360
6191.000000;0.159806
6190.000000;0.159246
6189.000000;0.158638
6188.000000;0.157983
6187.000000;0.157304
6186.000000;0.156616
6185.000000;0.155941
6184.000000;0.155308
6183.000000;0.154709
6182.000000;0.154096
6181.000000;0.153454
6180.000000;0.152834
6179.000000;0.152281
6178.000000;0.151756
6177.000000;0.151190
6176.000000;0.150566
6175.000000;0.149921
6174.000000;0.149284
6173.000000;0.148652
6172.000000;0.148014
6171.000000;0.147362
6170.000000;0.146698
6169.000000;0.146043
6168.000000;0.145436
6167.000000;0.144890
6166.000000;0.144365
6165.000000;0.143822
6164.000000;0.143261
6163.000000;0.142704
6162.000000;0.142145
6161.000000;0.141556
6160.000000;0.140928
6159.000000;0.140289
6158.000000;0.139678
6157.000000;0.139118
6156.000000;0.138593
6155.000000;0.138061
6154.000000;0.137498
6153.000000;0.136929
6152.000000;0.136392
6151.000000;0.135872
6150.000000;0.135310
6149.000000;0.134691
6148.000000;0.134064
6147.000000;0.133476
6146.000000;0.132925
6145.000000;0.132402
6144.000000;0.131925
6143.000000;0.131490
6142.000000;0.131040
6141.000000;0.130513
6140.000000;0.129904
6139.000000;0.129251
6138.000000;0.128597
6137.000000;0.127989
6136.000000;0.127476
6135.000000;0.127058
6134.000000;0.126664
6133.000000;0.126216
6132.000000;0.125695
6131.000000;0.125138
6130.000000;0.124571
6129.000000;0.123999
6128.000000;0.123417
6127.000000;0.122814
6126.000000;0.122169
6125.000000;0.121492
6124.000000;0.120840
6123.000000;0.120278
6122.000000;0.119816
6121.000000;0.119396
6120.000000;0.118940
6119.000000;0.118395
6118.000000;0.117764
6117.000000;0.117115
6116.000000;0.116528
6115.000000;0.116024
6114.000000;0.115544
6113.000000;0.115026
6112.000000;0.114478
6111.000000;0.113956
6110.000000;0.113499
6109.000000;0.113094
6108.000000;0.112686
6107.000000;0.112207
6106.000000;0.111620
6105.000000;0.110970
6104.000000;0.110365
6103.000000;0.109883
6102.000000;0.109500
6101.000000;0.109137
6100.000000;0.108739
6099.000000;0.108307
6098.000000;0.107876
6097.000000;0.107462
6096.000000;0.107042
6095.000000;0.106562
6094.000000;0.105999
6093.000000;0.105409
6092.000000;0.104877
6091.000000;0.104421
6090.000000;0.103990
6089.000000;0.103540
6088.000000;0.103082
6087.000000;0.102616
6086.000000;0.102108
6085.000000;0.101555
6084.000000;0.101021
6083.000000;0.100554
6082.000000;0.100113
6081.000000;0.099630
6080.000000;0.099101
6079.000000;0.098581
6078.000000;0.098096
6077.000000;0.097639
6076.000000;0.097207
6075.000000;0.096798
6074.000000;0.096384
6073.000000;0.095937
6072.000000;0.095469
6071.000000;0.095017
6070.000000;0.094583
6069.000000;0.094141
6068.000000;0.093685
6067.000000;0.093235
6066.000000;0.092798
6065.000000;0.092370
6064.000000;0.091961
6063.000000;0.091589
6062.000000;0.091243
6061.000000;0.090883
6060.000000;0.090489
6059.000000;0.090071
6058.000000;0.089640
6057.000000;0.089194
6056.000000;0.088736
6055.000000;0.088281
6054.000000;0.087838
6053.000000;0.087399
6052.000000;0.086958
6051.000000;0.086514
6050.000000;0.086077
6049.000000;0.085657
6048.000000;0.085252
6047.000000;0.084831
6046.000000;0.084356
6045.000000;0.083834
6044.000000;0.083331
6043.000000;0.082903
6042.000000;0.082535
6041.000000;0.082175
6040.000000;0.081798
6039.000000;0.081424
6038.000000;0.081082
6037.000000;0.080776
6036.000000;0.080490
6035.000000;0.080200
6034.000000;0.079891
6033.000000;0.079579
6032.000000;0.079289
6031.000000;0.079020
6030.000000;0.078721
6029.000000;0.078341
6028.000000;0.077877
6027.000000;0.077361
6026.000000;0.076836
6025.000000;0.076347
6024.000000;0.075927
6023.000000;0.075574
6022.000000;0.075244
6021.000000;0.074906
6020.000000;0.074584
6019.000000;0.074313
6018.000000;0.074063
6017.000000;0.073768
6016.000000;0.073396
6015.000000;0.072976
6014.000000;0.072547
6013.000000;0.072124
6012.000000;0.071708
6011.000000;0.071308
6010.000000;0.070921
6009.000000;0.070535
6008.000000;0.070153
6007.000000;0.069811
6006.000000;0.069550
6005.000000;0.069376
6004.000000;0.069239
6003.000000;0.069066
6002.000000;0.068810
6001.000000;0.068481
6000.000000;0.068116
5999.000000;0.067740
5998.000000;0.067360
5997.000000;0.066993
5996.000000;0.066659
5995.000000;0.066350
5994.000000;0.066028
5993.000000;0.065671
5992.000000;0.065299
5991.000000;0.064935
5990.000000;0.064585
5989.000000;0.064258
5988.000000;0.063993
5987.000000;0.063811
5986.000000;0.063681
5985.000000;0.063536
5984.000000;0.063329
5983.000000;0.063050
5982.000000;0.062715
5981.000000;0.062352
5980.000000;0.061993
5979.000000;0.061658
5978.000000;0.061344
5977.000000;0.061051
5976.000000;0.060781
5975.000000;0.060531
5974.000000;0.060278
5973.000000;0.060010
5972.000000;0.059735
5971.000000;0.059467
5970.000000;0.059210
5969.000000;0.058967
5968.000000;0.058736
5967.000000;0.058498
5966.000000;0.058228
5965.000000;0.057937
5964.000000;0.057670
5963.000000;0.057429
5962.000000;0.057165
5961.000000;0.056844
5960.000000;0.056501
5959.000000;0.056194
5958.000000;0.055939
5957.000000;0.055726
5956.000000;0.055555
5955.000000;0.055424
5954.000000;0.055287
5953.000000;0.055096
5952.000000;0.054861
5951.000000;0.054640
5950.000000;0.054460
5949.000000;0.054280
5948.000000;0.054049
5947.000000;0.053769
5946.000000;0.053496
5945.000000;0.053288
5944.000000;0.053157
5943.000000;0.053059
5942.000000;0.052930
5941.000000;0.052748
5940.000000;0.052552
5939.000000;0.052388
5938.000000;0.052260
5937.000000;0.052140
5936.000000;0.052004
5935.000000;0.051842
5934.000000;0.051655
5933.000000;0.051446
5932.000000;0.051226
5931.000000;0.050998
5930.000000;0.050763
5929.000000;0.050537
5928.000000;0.050351
5927.000000;0.050208
5926.000000;0.050064
5925.000000;0.049881
5924.000000;0.049660
5923.000000;0.049434
5922.000000;0.049228
5921.000000;0.049061
5920.000000;0.048943
5919.000000;0.048857
5918.000000;0.048752
5917.000000;0.048590
5916.000000;0.048392
5915.000000;0.048209
5914.000000;0.048066
5913.000000;0.047949
5912.000000;0.047831
5911.000000;0.047694
5910.000000;0.047541
5909.000000;0.047395
5908.000000;0.047278
5907.000000;0.047173
5906.000000;0.047030
5905.000000;0.046830
5904.000000;0.046608
5903.000000;0.046409
5902.000000;0.046226
5901.000000;0.046033
5900.000000;0.045836
5899.000000;0.045670
5898.000000;0.045552
5897.000000;0.045464
5896.000000;0.045380
5895.000000;0.045290
5894.000000;0.045189
5893.000000;0.045076
5892.000000;0.044958
5891.000000;0.044833
5890.000000;0.044693
5889.000000;0.044533
5888.000000;0.044364
5887.000000;0.044192
5886.000000;0.044013
5885.000000;0.043835
5884.000000;0.043683
5883.000000;0.043565
5882.000000;0.043458
5881.000000;0.043339
5880.000000;0.043217
5879.000000;0.043119
5878.000000;0.043053
5877.000000;0.043012
5876.000000;0.042989
5875.000000;0.042965
5874.000000;0.042912
5873.000000;0.042825
5872.000000;0.042740
5871.000000;0.042683
5870.000000;0.042634
5869.000000;0.042556
5868.000000;0.042444
5867.000000;0.042335
5866.000000;0.042258
5865.000000;0.042219
5864.000000;0.042201
5863.000000;0.042165
5862.000000;0.042069
5861.000000;0.041907
5860.000000;0.041738
5859.000000;0.041626
5858.000000;0.041586
5857.000000;0.041584
5856.000000;0.041582
5855.000000;0.041567
5854.000000;0.041553
5853.000000;0.041578
5852.000000;0.041671
5851.000000;0.041803
5850.000000;0.041884
5849.000000;0.041844
5848.000000;0.041717
5847.000000;0.041606
5846.000000;0.041583
5845.000000;0.041639
5844.000000;0.041723
5843.000000;0.041793
5842.000000;0.041835
5841.000000;0.041860
5840.000000;0.041888
5839.000000;0.041922
5838.000000;0.041939
5837.000000;0.041930
5836.000000;0.041920
5835.000000;0.041947
5834.000000;0.042022
5833.000000;0.042126
5832.000000;0.042231
5831.000000;0.042308
5830.000000;0.042340
5829.000000;0.042350
5828.000000;0.042392
5827.000000;0.042496
5826.000000;0.042632
5825.000000;0.042759
5824.000000;0.042872
5823.000000;0.042990
5822.000000;0.043106
5821.000000;0.043191
5820.000000;0.043229
5819.000000;0.043234
5818.000000;0.043223
5817.000000;0.043223
5816.000000;0.043273
5815.000000;0.043401
5814.000000;0.043599
5813.000000;0.043824
5812.000000;0.044039
5811.000000;0.044221
5810.000000;0.044356
5809.000000;0.044450
5808.000000;0.044537
5807.000000;0.044657
5806.000000;0.044825
5805.000000;0.045030
5804.000000;0.045253
5803.000000;0.045469
5802.000000;0.045644
5801.000000;0.045755
5800.000000;0.045818
5799.000000;0.045874
5798.000000;0.045957
5797.000000;0.046093
5796.000000;0.046288
5795.000000;0.046522
5794.000000;0.046750
5793.000000;0.046950
5792.000000;0.047144
5791.000000;0.047355
5790.000000;0.047560
5789.000000;0.047713
5788.000000;0.047806
5787.000000;0.047876
5786.000000;0.047977
5785.000000;0.048155
5784.000000;0.048443
5783.000000;0.048824
5782.000000;0.049216
5781.000000;0.049529
5780.000000;0.049743
5779.000000;0.049914
5778.000000;0.050104
5777.000000;0.050335
5776.000000;0.050604
5775.000000;0.050910
5774.000000;0.051255
5773.000000;0.051630
5772.000000;0.052013
5771.000000;0.052369
5770.000000;0.052670
5769.000000;0.052921
5768.000000;0.053164
5767.000000;0.053444
5766.000000;0.053770
5765.000000;0.054123
5764.000000;0.054490
5763.000000;0.054867
5762.000000;0.055249
5761.000000;0.055627
5760.000000;0.055980
5759.000000;0.056271
5758.000000;0.056481
5757.000000;0.056643
5756.000000;0.056832
5755.000000;0.057096
5754.000000;0.057420
5753.000000;0.057760
5752.000000;0.058112
5751.000000;0.058491
5750.000000;0.058884
5749.000000;0.059257
5748.000000;0.059604
5747.000000;0.059965
5746.000000;0.060375
5745.000000;0.060826
5744.000000;0.061283
5743.000000;0.061710
5742.000000;0.062098
5741.000000;0.062465
5740.000000;0.062841
5739.000000;0.063241
5738.000000;0.063658
5737.000000;0.064087
5736.000000;0.064544
5735.000000;0.065042
5734.000000;0.065567
5733.000000;0.066092
5732.000000;0.066592
5731.000000;0.067054
5730.000000;0.067481
5729.000000;0.067898
5728.000000;0.068342
5727.000000;0.068828
5726.000000;0.069335
5725.000000;0.069834
5724.000000;0.070327
5723.000000;0.070838
5722.000000;0.071388
5721.000000;0.071979
5720.000000;0.072591
5719.000000;0.073185
5718.000000;0.073736
5717.000000;0.074257
5716.000000;0.074782
5715.000000;0.075329
5714.000000;0.075897
5713.000000;0.076486
5712.000000;0.077094
5711.000000;0.077680
5710.000000;0.078190
5709.000000;0.078634
5708.000000;0.079092
5707.000000;0.079633
5706.000000;0.080239
5705.000000;0.080845
5704.000000;0.081413
5703.000000;0.081938
5702.000000;0.082438
5701.000000;0.082949
5700.000000;0.083521
5699.000000;0.084178
5698.000000;0.084884
5697.000000;0.085590
5696.000000;0.086259
5695.000000;0.086907
5694.000000;0.087515
5693.000000;0.088175
5692.000000;0.088811
5691.000000;0.089380
5690.000000;0.089907
5689.000000;0.090371
5688.000000;0.090840
5687.000000;0.091365
5686.000000;0.091956
5685.000000;0.092583
5684.000000;0.093220
5683.000000;0.093846
5682.000000;0.094443
5681.000000;0.095011
5680.000000;0.095574
5679.000000;0.096150
5678.000000;0.096734
5677.000000;0.097327
5676.000000;0.097944
5675.000000;0.098584
5674.000000;0.099208
5673.000000;0.099781
5672.000000;0.100299
5671.000000;0.100779
5670.000000;0.101255
5669.000000;0.101777
5668.000000;0.102372
5667.000000;0.103012
5666.000000;0.103646
5665.000000;0.104280
5664.000000;0.104963
5663.000000;0.105688
5662.000000;0.106378
5661.000000;0.106987
5660.000000;0.107542
5659.000000;0.108074
5658.000000;0.108567
5657.000000;0.109014
5656.000000;0.109457
5655.000000;0.109924
5654.000000;0.110390
5653.000000;0.110841
5652.000000;0.111321
5651.000000;0.111857
5650.000000;0.112395
5649.000000;0.112866
5648.000000;0.113288
5647.000000;0.113727
5646.000000;0.114203
5645.000000;0.114689
5644.000000;0.115165
5643.000000;0.115626
5642.000000;0.116048
5641.000000;0.116420
5640.000000;0.116781
5639.000000;0.117175
5638.000000;0.117588
5637.000000;0.117965
5636.000000;0.118275
5635.000000;0.118531
5634.000000;0.118778
5633.000000;0.119085
5632.000000;0.119506
5631.000000;0.120007
5630.000000;0.120473
5629.000000;0.120821
5628.000000;0.121077
5627.000000;0.121311
5626.000000;0.121553
5625.000000;0.121811
5624.000000;0.122110
5623.000000;0.122440
5622.000000;0.122721
5621.000000;0.122885
5620.000000;0.122968
5619.000000;0.123063
5618.000000;0.123204
5617.000000;0.123375
5616.000000;0.123571
5615.000000;0.123793
5614.000000;0.123994
5613.000000;0.124133
5612.000000;0.124242
5611.000000;0.124387
5610.000000;0.124566
5609.000000;0.124710
5608.000000;0.124783
5607.000000;0.124818
5606.000000;0.124872
5605.000000;0.124974
5604.000000;0.125118
5603.000000;0.125261
5602.000000;0.125359
5601.000000;0.125409
5600.000000;0.125441
5599.000000;0.125460
5598.000000;0.125436
5597.000000;0.125368
5596.000000;0.125298
5595.000000;0.125229
5594.000000;0.125107
5593.000000;0.124928
5592.000000;0.124786
5591.000000;0.124742
5590.000000;0.124735
5589.000000;0.124673
5588.000000;0.124568
5587.000000;0.124483
5586.000000;0.124417
5585.000000;0.124329
5584.000000;0.124229
5583.000000;0.124161
5582.000000;0.124121
5581.000000;0.124068
5580.000000;0.123996
5579.000000;0.123911
5578.000000;0.123786
5577.000000;0.123594
5576.000000;0.123379
5575.000000;0.123200
5574.000000;0.123041
5573.000000;0.122873
5572.000000;0.122734
5571.000000;0.122671
5570.000000;0.122631
5569.000000;0.122502
5568.000000;0.122272
5567.000000;0.122027
5566.000000;0.121806
5565.000000;0.121583
5564.000000;0.121369
5563.000000;0.121207
5562.000000;0.121061
5561.000000;0.120828
5560.000000;0.120491
5559.000000;0.120160
5558.000000;0.119922
5557.000000;0.119744
5556.000000;0.119582
5555.000000;0.119488
5554.000000;0.119531
5553.000000;0.119674
5552.000000;0.119824
5551.000000;0.119941
5550.000000;0.120025
5549.000000;0.120035
5548.000000;0.119900
5547.000000;0.119611
5546.000000;0.119227
5545.000000;0.118804
5544.000000;0.118348
5543.000000;0.117825
5542.000000;0.117223
5541.000000;0.116599
5540.000000;0.116104
5539.000000;0.115890
5538.000000;0.115945
5537.000000;0.116089
5536.000000;0.116179
5535.000000;0.116236
5534.000000;0.116309
5533.000000;0.116324
5532.000000;0.116156
5531.000000;0.115795
5530.000000;0.115320
5529.000000;0.114759
5528.000000;0.114086
5527.000000;0.113357
5526.000000;0.112747
5525.000000;0.112440
5524.000000;0.112499
5523.000000;0.112797
5522.000000;0.113107
5521.000000;0.113278
5520.000000;0.113385
5519.000000;0.113634
5518.000000;0.114047
5517.000000;0.114372
5516.000000;0.114376
5515.000000;0.114089
5514.000000;0.113678
5513.000000;0.113180
5512.000000;0.112584
5511.000000;0.112120
5510.000000;0.112138
5509.000000;0.112646
5508.000000;0.113224
5507.000000;0.113521
5506.000000;0.113636
5505.000000;0.113834
5504.000000;0.114056
5503.000000;0.113980
5502.000000;0.113530
5501.000000;0.112987
5500.000000;0.112508
5499.000000;0.111873
5498.000000;0.110872
5497.000000;0.109934
5496.000000;0.110025
5495.000000;0.111620
5494.000000;0.114107
5493.000000;0.116464
5492.000000;0.118380
5491.000000;0.120356
5490.000000;0.122593
5489.000000;0.124393
5488.000000;0.124967
5487.000000;0.124338
5486.000000;0.123020
5485.000000;0.121143
5484.000000;0.118524
5483.000000;0.115426
5482.000000;0.112603
5481.000000;0.110464
5480.000000;0.108816
5479.000000;0.107834
5478.000000;0.108458
5477.000000;0.111193
5476.000000;0.115059
5475.000000;0.118277
5474.000000;0.120067
5473.000000;0.121081
5472.000000;0.121983
5471.000000;0.122528
5470.000000;0.122335
5469.000000;0.121686
5468.000000;0.121073
5467.000000;0.120534
5466.000000;0.119847
5465.000000;0.119286
5464.000000;0.119719
5463.000000;0.121632
5462.000000;0.124378
5461.000000;0.126660
5460.000000;0.127717
5459.000000;0.127888
5458.000000;0.127860
5457.000000;0.127684
5456.000000;0.126911
5455.000000;0.125388
5454.000000;0.123564
5453.000000;0.122164
5452.000000;0.121677
5451.000000;0.122013
5450.000000;0.122809
5449.000000;0.124228
5448.000000;0.126993
5447.000000;0.131223
5446.000000;0.135648
5445.000000;0.139047
5444.000000;0.141997
5443.000000;0.145754
5442.000000;0.149777
5441.000000;0.151980
5440.000000;0.151434
5439.000000;0.149651
5438.000000;0.148724
5437.000000;0.149086
5436.000000;0.149759
5435.000000;0.149911
5434.000000;0.149474
5433.000000;0.149180
5432.000000;0.150210
5431.000000;0.153118
5430.000000;0.157146
5429.000000;0.160844
5428.000000;0.163208
5427.000000;0.164119
5426.000000;0.163819
5425.000000;0.162494
5424.000000;0.160412
5423.000000;0.157930
5422.000000;0.155230
5421.000000;0.152275
5420.000000;0.149050
5419.000000;0.145852
5418.000000;0.143722
5417.000000;0.144339
5416.000000;0.148630
5415.000000;0.155651
5414.000000;0.163413
5413.000000;0.170971
5412.000000;0.178900
5411.000000;0.187266
5410.000000;0.194433
5409.000000;0.198797
5408.000000;0.200614
5407.000000;0.200953
5406.000000;0.199757
5405.000000;0.196430
5404.000000;0.191694
5403.000000;0.187333
5402.000000;0.184340
5401.000000;0.182499
5400.000000;0.181808
5399.000000;0.182764
5398.000000;0.185469
5397.000000;0.189749
5396.000000;0.195627
5395.000000;0.202905
5394.000000;0.210468
5393.000000;0.216930
5392.000000;0.222066
5391.000000;0.226519
5390.000000;0.230437
5389.000000;0.233519
5388.000000;0.236089
5387.000000;0.238932
5386.000000;0.241975
5385.000000;0.244347
5384.000000;0.246027
5383.000000;0.248231
5382.000000;0.251583
5381.000000;0.255516
5380.000000;0.259969
5379.000000;0.265733
5378.000000;0.272794
5377.000000;0.279859
5376.000000;0.286078
5375.000000;0.292207
5374.000000;0.299118
5373.000000;0.306099
5372.000000;0.311837
5371.000000;0.316100
5370.000000;0.319409
5369.000000;0.321844
5368.000000;0.323381
5367.000000;0.325103
5366.000000;0.328685
5365.000000;0.334629
5364.000000;0.341929
5363.000000;0.349623
5362.000000;0.357621
5361.000000;0.365976
5360.000000;0.374320
5359.000000;0.382288
5358.000000;0.390235
5357.000000;0.399145
5356.000000;0.409920
5355.000000;0.422768
5354.000000;0.436936
5353.000000;0.451144
5352.000000;0.464663
5351.000000;0.477793
5350.000000;0.490736
5349.000000;0.502984
5348.000000;0.514703
5347.000000;0.527511
5346.000000;0.542607
5345.000000;0.558783
5344.000000;0.573562
5343.000000;0.586499
5342.000000;0.599994
5341.000000;0.615860
5340.000000;0.633101
5339.000000;0.649892
5338.000000;0.665811
5337.000000;0.681199
5336.000000;0.695870
5335.000000;0.709665
5334.000000;0.723297
5333.000000;0.737504
5332.000000;0.751860
5331.000000;0.765694
5330.000000;0.779598
5329.000000;0.794875
5328.000000;0.811922
5327.000000;0.830121
5326.000000;0.849156
5325.000000;0.869202
5324.000000;0.889732
5323.000000;0.909626
5322.000000;0.928744
5321.000000;0.947886
5320.000000;0.967280
5319.000000;0.986563
5318.000000;1.006157
5317.000000;1.027210
5316.000000;1.050125
5315.000000;1.074313
5314.000000;1.099249
5313.000000;1.124659
5312.000000;1.149920
5311.000000;1.174766
5310.000000;1.200079
5309.000000;1.226553
5308.000000;1.253147
5307.000000;1.278316
5306.000000;1.302299
5305.000000;1.326430
5304.000000;1.350798
5303.000000;1.374441
5302.000000;1.397201
5301.000000;1.419434
5300.000000;1.440525
5299.000000;1.459845
5298.000000;1.478597
5297.000000;1.498382
5296.000000;1.518352
5295.000000;1.536095
5294.000000;1.551242
5293.000000;1.565684
5292.000000;1.580409
5291.000000;1.594818
5290.000000;1.608777
5289.000000;1.623127
5288.000000;1.638203
5287.000000;1.653327
5286.000000;1.667287
5285.000000;1.678271
5284.000000;1.684829
5283.000000;1.688315
5282.000000;1.692262
5281.000000;1.697857
5280.000000;1.702424
5279.000000;1.704008
5278.000000;1.704910
5277.000000;1.708097
5276.000000;1.712707
5275.000000;1.715836
5274.000000;1.716888
5273.000000;1.717409
5272.000000;1.718211
5271.000000;1.719560
5270.000000;1.722619
5269.000000;1.727787
5268.000000;1.732959
5267.000000;1.735953
5266.000000;1.737517
5265.000000;1.739958
5264.000000;1.744176
5263.000000;1.749708
5262.000000;1.755763
5261.000000;1.760595
5260.000000;1.761682
5259.000000;1.758770
5258.000000;1.754959
5257.000000;1.752876
5256.000000;1.751797
5255.000000;1.750206
5254.000000;1.748847
5253.000000;1.748956
5252.000000;1.749725
5251.000000;1.749956
5250.000000;1.750368
5249.000000;1.752007
5248.000000;1.754306
5247.000000;1.756474
5246.000000;1.758830
5245.000000;1.761159
5244.000000;1.761588
5243.000000;1.759216
5242.000000;1.755969
5241.000000;1.753774
5240.000000;1.751840
5239.000000;1.748873
5238.000000;1.745824
5237.000000;1.744047
5236.000000;1.742734
5235.000000;1.740708
5234.000000;1.739031
5233.000000;1.739257
5232.000000;1.740747
5231.000000;1.741958
5230.000000;1.742953
5229.000000;1.744662
5228.000000;1.746888
5227.000000;1.748881
5226.000000;1.750856
5225.000000;1.753296
5224.000000;1.755494
5223.000000;1.756336
5222.000000;1.755821
5221.000000;1.754574
5220.000000;1.752891
5219.000000;1.751138
5218.000000;1.749936
5217.000000;1.749048
5216.000000;1.747360
5215.000000;1.744930
5214.000000;1.743375
5213.000000;1.743377
5212.000000;1.743590
5211.000000;1.743070
5210.000000;1.743104
5209.000000;1.745064
5208.000000;1.747929
5207.000000;1.749776
5206.000000;1.750617
5205.000000;1.751772
5204.000000;1.753494
5203.000000;1.754956
5202.000000;1.755491
5201.000000;1.754556
5200.000000;1.751606
5199.000000;1.747250
5198.000000;1.743535
5197.000000;1.741884
5196.000000;1.741738
5195.000000;1.742105
5194.000000;1.742998
5193.000000;1.744250
5192.000000;1.744607
5191.000000;1.743440
5190.000000;1.742114
5189.000000;1.742189
5188.000000;1.743508
5187.000000;1.745344
5186.000000;1.748058
5185.000000;1.751933
5184.000000;1.755458
5183.000000;1.756472
5182.000000;1.754505
5181.000000;1.750775
5180.000000;1.746864
5179.000000;1.744444
5178.000000;1.744915
5177.000000;1.747926
5176.000000;1.751132
5175.000000;1.752516
5174.000000;1.752144
5173.000000;1.750839
5172.000000;1.748590
5171.000000;1.745435
5170.000000;1.742447
5169.000000;1.740599
5168.000000;1.739807
5167.000000;1.739889
5166.000000;1.741121
5165.000000;1.742929
5164.000000;1.743679
5163.000000;1.743006
5162.000000;1.742803
5161.000000;1.744537
5160.000000;1.747169
5159.000000;1.748982
5158.000000;1.749890
5157.000000;1.750494
5156.000000;1.750372
5155.000000;1.749112
5154.000000;1.747787
5153.000000;1.747492
5152.000000;1.747420
5151.000000;1.746075
5150.000000;1.743564
5149.000000;1.741241
5148.000000;1.739952
5147.000000;1.739855
5146.000000;1.740979
5145.000000;1.742674
5144.000000;1.743360
5143.000000;1.742186
5142.000000;1.740229
5141.000000;1.739135
5140.000000;1.739425
5139.000000;1.740847
5138.000000;1.742995
5137.000000;1.744802
5136.000000;1.744946
5135.000000;1.743874
5134.000000;1.743925
5133.000000;1.746183
5132.000000;1.748573
5131.000000;1.748356
5130.000000;1.745357
5129.000000;1.741395
5128.000000;1.737933
5127.000000;1.735821
5126.000000;1.735972
5125.000000;1.738501
5124.000000;1.741927
5123.000000;1.744600
5122.000000;1.746373
5121.000000;1.747904
5120.000000;1.749232
5119.000000;1.750052
5118.000000;1.750338
5117.000000;1.749750
5116.000000;1.747690
5115.000000;1.744882
5114.000000;1.743466
5113.000000;1.744508
5112.000000;1.746761
5111.000000;1.748754
5110.000000;1.750630
5109.000000;1.752727
5108.000000;1.754011
5107.000000;1.753608
5106.000000;1.752429
5105.000000;1.751549
5104.000000;1.750443
5103.000000;1.748517
5102.000000;1.746912
5101.000000;1.747052
5100.000000;1.748671
5099.000000;1.750817
5098.000000;1.753486
5097.000000;1.756493
5096.000000;1.758084
5095.000000;1.756854
5094.000000;1.754129
5093.000000;1.752407
5092.000000;1.752143
5091.000000;1.751845
5090.000000;1.750713
5089.000000;1.749433
5088.000000;1.748859
5087.000000;1.749505
5086.000000;1.751627
5085.000000;1.754158
5084.000000;1.754421
5083.000000;1.750849
5082.000000;1.745380
5081.000000;1.741530
5080.000000;1.740744
5079.000000;1.741813
5078.000000;1.743060
5077.000000;1.743771
5076.000000;1.743916
5075.000000;1.743819
5074.000000;1.744001
5073.000000;1.744412
5072.000000;1.744239
5071.000000;1.743312
5070.000000;1.742923
5069.000000;1.744320
5068.000000;1.747098
5067.000000;1.749971
5066.000000;1.752247
5065.000000;1.753462
5064.000000;1.752744
5063.000000;1.750269
5062.000000;1.748382
5061.000000;1.749399
5060.000000;1.752801
5059.000000;1.756014
5058.000000;1.757529
5057.000000;1.757824
5056.000000;1.757677
5055.000000;1.757271
5054.000000;1.756794
5053.000000;1.756411
5052.000000;1.755771
5051.000000;1.754699
5050.000000;1.754012
5049.000000;1.754538
5048.000000;1.755777
5047.000000;1.756665
5046.000000;1.757175
5045.000000;1.757851
5044.000000;1.758210
5043.000000;1.757006
5042.000000;1.753946
5041.000000;1.750071
5040.000000;1.746583
5039.000000;1.744219
5038.000000;1.743481
5037.000000;1.744357
5036.000000;1.745974
5035.000000;1.747509
5034.000000;1.749097
5033.000000;1.750805
5032.000000;1.751466
5031.000000;1.749900
5030.000000;1.746698
5029.000000;1.743582
5028.000000;1.741605
5027.000000;1.741099
5026.000000;1.742628
5025.000000;1.746358
5024.000000;1.750546
5023.000000;1.752357
5022.000000;1.750806
5021.000000;1.747776
5020.000000;1.745615
5019.000000;1.744816
5018.000000;1.744368
5017.000000;1.743497
5016.000000;1.742502
5015.000000;1.742116
5014.000000;1.742304
5013.000000;1.741887
5012.000000;1.739821
5011.000000;1.736889
5010.000000;1.735265
5009.000000;1.736017
5008.000000;1.737911
5007.000000;1.739142
5006.000000;1.739358
5005.000000;1.739103
5004.000000;1.738277
5003.000000;1.736484
5002.000000;1.734200
5001.000000;1.732197
5000.000000;1.730240
4999.000000;1.727724
4998.000000;1.725375
4997.000000;1.725127
4996.000000;1.727789
4995.000000;1.731544
4994.000000;1.733550
4993.000000;1.732253
4992.000000;1.728557
4991.000000;1.724979
4990.000000;1.723757
4989.000000;1.725097
4988.000000;1.726971
4987.000000;1.727015
4986.000000;1.724796
4985.000000;1.721892
4984.000000;1.719945
4983.000000;1.719216
4982.000000;1.718790
4981.000000;1.717518
4980.000000;1.714883
4979.000000;1.711526
4978.000000;1.708910
4977.000000;1.708107
4976.000000;1.708898
4975.000000;1.710181
4974.000000;1.710956
4973.000000;1.710594
4972.000000;1.708636
4971.000000;1.705184
4970.000000;1.701451
4969.000000;1.699234
4968.000000;1.699461
4967.000000;1.701250
4966.000000;1.702505
4965.000000;1.701602
4964.000000;1.698616
4963.000000;1.694935
4962.000000;1.691840
4961.000000;1.689753
4960.000000;1.688710
4959.000000;1.688903
4958.000000;1.690264
4957.000000;1.691991
4956.000000;1.693168
4955.000000;1.693581
4954.000000;1.693181
4953.000000;1.691131
4952.000000;1.686666
4951.000000;1.680770
4950.000000;1.675684
4949.000000;1.672653
4948.000000;1.671100
4947.000000;1.669944
4946.000000;1.668635
4945.000000;1.666807
4944.000000;1.664140
4943.000000;1.661063
4942.000000;1.658669
4941.000000;1.657428
4940.000000;1.656682
4939.000000;1.655723
4938.000000;1.654461
4937.000000;1.652674
4936.000000;1.649794
4935.000000;1.646113
4934.000000;1.643010
4933.000000;1.641145
4932.000000;1.639388
4931.000000;1.636500
4930.000000;1.633031
4929.000000;1.630459
4928.000000;1.629117
4927.000000;1.628019
4926.000000;1.626287
4925.000000;1.623690
4924.000000;1.620044
4923.000000;1.615215
4922.000000;1.609863
4921.000000;1.605403
4920.000000;1.602904
4919.000000;1.602170
4918.000000;1.601875
4917.000000;1.600471
4916.000000;1.597276
4915.000000;1.593003
4914.000000;1.588997
4913.000000;1.585800
4912.000000;1.582752
4911.000000;1.579061
4910.000000;1.574842
4909.000000;1.570877
4908.000000;1.567909
4907.000000;1.566356
4906.000000;1.566018
4905.000000;1.565711
4904.000000;1.563988
4903.000000;1.560719
4902.000000;1.557240
4901.000000;1.554445
4900.000000;1.551577
4899.000000;1.547590
4898.000000;1.542933
4897.000000;1.538925
4896.000000;1.535908
4895.000000;1.533052
4894.000000;1.529729
4893.000000;1.526078
4892.000000;1.522240
4891.000000;1.518037
4890.000000;1.513662
4889.000000;1.509902
4888.000000;1.507231
4887.000000;1.505091
4886.000000;1.502414
4885.000000;1.498708
4884.000000;1.494438
4883.000000;1.490481
4882.000000;1.487387
4881.000000;1.485037
4880.000000;1.482853
4879.000000;1.480340
4878.000000;1.477408
4877.000000;1.474228
4876.000000;1.470973
4875.000000;1.467775
4874.000000;1.464715
4873.000000;1.461704
4872.000000;1.458473
4871.000000;1.454743
4870.000000;1.450356
4869.000000;1.445331
4868.000000;1.440052
4867.000000;1.435288
4866.000000;1.431636
4865.000000;1.428828
4864.000000;1.425878
4863.000000;1.422044
4862.000000;1.417432
4861.000000;1.412619
4860.000000;1.408092
4859.000000;1.404158
4858.000000;1.400968
4857.000000;1.398311
4856.000000;1.395597
4855.000000;1.392307
4854.000000;1.388352
4853.000000;1.383943
4852.000000;1.379358
4851.000000;1.374998
4850.000000;1.371322
4849.000000;1.368403
4848.000000;1.365671
4847.000000;1.362360
4846.000000;1.358144
4845.000000;1.353246
4844.000000;1.348152
4843.000000;1.343413
4842.000000;1.339495
4841.000000;1.336483
4840.000000;1.333898
4839.000000;1.330962
4838.000000;1.327138
4837.000000;1.322481
4836.000000;1.317563
4835.000000;1.313071
4834.000000;1.309289
4833.000000;1.305904
4832.000000;1.302395
4831.000000;1.298617
4830.000000;1.294818
4829.000000;1.291108
4828.000000;1.287185
4827.000000;1.282736
4826.000000;1.277879
4825.000000;1.273113
4824.000000;1.268913
4823.000000;1.265402
4822.000000;1.262248
4821.000000;1.258869
4820.000000;1.254939
4819.000000;1.250733
4818.000000;1.246808
4817.000000;1.243320
4816.000000;1.239848
4815.000000;1.235885
4814.000000;1.231328
4813.000000;1.226501
4812.000000;1.221951
4811.000000;1.218167
4810.000000;1.215169
4809.000000;1.212309
4808.000000;1.208765
4807.000000;1.204368
4806.000000;1.199695
4805.000000;1.195350
4804.000000;1.191487
4803.000000;1.188074
4802.000000;1.185162
4801.000000;1.182602
4800.000000;1.179813
4799.000000;1.176257
4798.000000;1.172070
4797.000000;1.167953
4796.000000;1.164439
4795.000000;1.161450
4794.000000;1.158495
4793.000000;1.155129
4792.000000;1.151246
4791.000000;1.147091
4790.000000;1.142996
4789.000000;1.139040
4788.000000;1.134977
4787.000000;1.130549
4786.000000;1.125858
4785.000000;1.121376
4784.000000;1.117555
4783.000000;1.114409
4782.000000;1.111490
4781.000000;1.108351
4780.000000;1.105036
4779.000000;1.101974
4778.000000;1.099309
4777.000000;1.096541
4776.000000;1.093040
4775.000000;1.088833
4774.000000;1.084609
4773.000000;1.080976
4772.000000;1.077936
4771.000000;1.075057
4770.000000;1.071951
4769.000000;1.068530
4768.000000;1.064985
4767.000000;1.061554
4766.000000;1.058256
4765.000000;1.054884
4764.000000;1.051342
4763.000000;1.047851
4762.000000;1.044606
4761.000000;1.041382
4760.000000;1.037751
4759.000000;1.033675
4758.000000;1.029616
4757.000000;1.026044
4756.000000;1.023056
4755.000000;1.020446
4754.000000;1.017871
4753.000000;1.014970
4752.000000;1.011599
4751.000000;1.008011
4750.000000;1.004599
4749.000000;1.001451
4748.000000;0.998396
4747.000000;0.995396
4746.000000;0.992571
4745.000000;0.989835
4744.000000;0.986879
4743.000000;0.983621
4742.000000;0.980339
4741.000000;0.977263
4740.000000;0.974324
4739.000000;0.971439
4738.000000;0.968682
4737.000000;0.966000
4736.000000;0.963070
4735.000000;0.959711
4734.000000;0.956191
4733.000000;0.952900
4732.000000;0.949891
4731.000000;0.946989
4730.000000;0.944160
4729.000000;0.941502
4728.000000;0.938954
4727.000000;0.936285
4726.000000;0.933350
4725.000000;0.930225
4724.000000;0.927113
4723.000000;0.924186
4722.000000;0.921455
4721.000000;0.918746
4720.000000;0.915913
4719.000000;0.913113
4718.000000;0.910684
4717.000000;0.908658
4716.000000;0.906578
4715.000000;0.903973
4714.000000;0.900878
4713.000000;0.897718
4712.000000;0.894831
4711.000000;0.892252
4710.000000;0.889848
4709.000000;0.887444
4708.000000;0.884889
4707.000000;0.882154
4706.000000;0.879383
4705.000000;0.876757
4704.000000;0.874361
4703.000000;0.872204
4702.000000;0.870248
4701.000000;0.868341
4700.000000;0.866266
4699.000000;0.863973
4698.000000;0.861649
4697.000000;0.859463
4696.000000;0.857361
4695.000000;0.855232
4694.000000;0.853107
4693.000000;0.851054
4692.000000;0.849005
4691.000000;0.846855
4690.000000;0.844642
4689.000000;0.842429
4688.000000;0.840133
4687.000000;0.837645
4686.000000;0.835066
4685.000000;0.832644
4684.000000;0.830489
4683.000000;0.828512
4682.000000;0.826607
4681.000000;0.824754
4680.000000;0.822956
4679.000000;0.821187
4678.000000;0.819407
4677.000000;0.817529
4676.000000;0.815464
4675.000000;0.813282
4674.000000;0.811281
4673.000000;0.809721
4672.000000;0.808515
4671.000000;0.807278
4670.000000;0.805692
4669.000000;0.803735
4668.000000;0.801605
4667.000000;0.799545
4666.000000;0.797711
4665.000000;0.796085
4664.000000;0.794511
4663.000000;0.792868
4662.000000;0.791193
4661.000000;0.789563
4660.000000;0.787958
4659.000000;0.786343
4658.000000;0.784801
4657.000000;0.783456
4656.000000;0.782269
4655.000000;0.781045
4654.000000;0.779625
4653.000000;0.777969
4652.000000;0.776090
4651.000000;0.774052
4650.000000;0.772023
4649.000000;0.770188
4648.000000;0.768586
4647.000000;0.767118
4646.000000;0.765742
4645.000000;0.764520
4644.000000;0.763478
4643.000000;0.762528
4642.000000;0.761582
4641.000000;0.760647
4640.000000;0.759748
4639.000000;0.758822
4638.000000;0.757751
4637.000000;0.756504
4636.000000;0.755179
4635.000000;0.753897
4634.000000;0.752653
4633.000000;0.751295
4632.000000;0.749703
4631.000000;0.747988
4630.000000;0.746444
4629.000000;0.745271
4628.000000;0.744402
4627.000000;0.743626
4626.000000;0.742805
4625.000000;0.741910
4624.000000;0.740944
4623.000000;0.739924
4622.000000;0.738885
4621.000000;0.737816
4620.000000;0.736648
4619.000000;0.735390
4618.000000;0.734186
4617.000000;0.733150
4616.000000;0.732207
4615.000000;0.731240
4614.000000;0.730326
4613.000000;0.729641
4612.000000;0.729149
4611.000000;0.728564
4610.000000;0.727675
4609.000000;0.726572
4608.000000;0.725496
4607.000000;0.724592
4606.000000;0.723854
4605.000000;0.723213
4604.000000;0.722600
4603.000000;0.721987
4602.000000;0.721415
4601.000000;0.720941
4600.000000;0.720527
4599.000000;0.720054
4598.000000;0.719468
4597.000000;0.718848
4596.000000;0.718270
4595.000000;0.717711
4594.000000;0.717107
4593.000000;0.716455
4592.000000;0.715808
4591.000000;0.715231
4590.000000;0.714802
4589.000000;0.714583
4588.000000;0.714509
4587.000000;0.714356
4586.000000;0.713924
4585.000000;0.713235
4584.000000;0.712510
4583.000000;0.711949
4582.000000;0.711596
4581.000000;0.711372
4580.000000;0.711159
4579.000000;0.710861
4578.000000;0.710455
4577.000000;0.710040
4576.000000;0.709770
4575.000000;0.709719
4574.000000;0.709804
4573.000000;0.709878
4572.000000;0.709856
4571.000000;0.709749
4570.000000;0.709601
4569.000000;0.709446
4568.000000;0.709328
4567.000000;0.709308
4566.000000;0.709438
4565.000000;0.709723
4564.000000;0.710103
4563.000000;0.710455
4562.000000;0.710631
4561.000000;0.710568
4560.000000;0.710379
4559.000000;0.710268
4558.000000;0.710347
4557.000000;0.710559
4556.000000;0.710827
4555.000000;0.711174
4554.000000;0.711646
4553.000000;0.712181
4552.000000;0.712671
4551.000000;0.713139
4550.000000;0.713718
4549.000000;0.714430
4548.000000;0.715108
4547.000000;0.715592
4546.000000;0.715929
4545.000000;0.716290
4544.000000;0.716745
4543.000000;0.717210
4542.000000;0.717619
4541.000000;0.718052
4540.000000;0.718677
4539.000000;0.719552
4538.000000;0.720527
4537.000000;0.721350
4536.000000;0.721891
4535.000000;0.722232
4534.000000;0.722564
4533.000000;0.723037
4532.000000;0.723745
4531.000000;0.724742
4530.000000;0.725948
4529.000000;0.727099
4528.000000;0.727921
4527.000000;0.728398
4526.000000;0.728761
4525.000000;0.729206
4524.000000;0.729732
4523.000000;0.730249
4522.000000;0.730727
4521.000000;0.731177
4520.000000;0.731607
4519.000000;0.732055
4518.000000;0.732598
4517.000000;0.733261
4516.000000;0.733991
4515.000000;0.734764
4514.000000;0.735619
4513.000000;0.736544
4512.000000;0.737416
4511.000000;0.738141
4510.000000;0.738764
4509.000000;0.739384
4508.000000;0.740033
4507.000000;0.740716
4506.000000;0.741486
4505.000000;0.742370
4504.000000;0.743273
4503.000000;0.744045
4502.000000;0.744630
4501.000000;0.745142
4500.000000;0.745803
4499.000000;0.746824
4498.000000;0.748231
4497.000000;0.749754
4496.000000;0.750990
4495.000000;0.751764
4494.000000;0.752284
4493.000000;0.752899
4492.000000;0.753815
4491.000000;0.755081
4490.000000;0.756671
4489.000000;0.758460
4488.000000;0.760227
4487.000000;0.761833
4486.000000;0.763328
4485.000000;0.764797
4484.000000;0.766184
4483.000000;0.767419
4482.000000;0.768608
4481.000000;0.769928
4480.000000;0.771374
4479.000000;0.772762
4478.000000;0.773972
4477.000000;0.775064
4476.000000;0.776177
4475.000000;0.777461
4474.000000;0.779056
4473.000000;0.780974
4472.000000;0.783014
4471.000000;0.784920
4470.000000;0.786632
4469.000000;0.788282
4468.000000;0.789968
4467.000000;0.791682
4466.000000;0.793450
4465.000000;0.795354
4464.000000;0.797411
4463.000000;0.799555
4462.000000;0.801777
4461.000000;0.804127
4460.000000;0.806558
4459.000000;0.808889
4458.000000;0.811002
4457.000000;0.812960
4456.000000;0.814883
4455.000000;0.816825
4454.000000;0.818826
4453.000000;0.820961
4452.000000;0.823245
4451.000000;0.825579
4450.000000;0.827883
4449.000000;0.830200
4448.000000;0.832597
4447.000000;0.835008
4446.000000;0.837289
4445.000000;0.839393
4444.000000;0.841444
4443.000000;0.843631
4442.000000;0.846076
4441.000000;0.848772
4440.000000;0.851580
4439.000000;0.854291
4438.000000;0.856760
4437.000000;0.859018
4436.000000;0.861248
4435.000000;0.863634
4434.000000;0.866211
4433.000000;0.868873
4432.000000;0.871514
4431.000000;0.874136
4430.000000;0.876819
4429.000000;0.879607
4428.000000;0.882457
4427.000000;0.885273
4426.000000;0.887962
4425.000000;0.890486
4424.000000;0.892962
4423.000000;0.895658
4422.000000;0.898749
4421.000000;0.902050
4420.000000;0.905153
4419.000000;0.907899
4418.000000;0.910564
4417.000000;0.913481
4416.000000;0.916631
4415.000000;0.919742
4414.000000;0.922657
4413.000000;0.925401
4412.000000;0.927997
4411.000000;0.930474
4410.000000;0.933062
4409.000000;0.936130
4408.000000;0.939800
4407.000000;0.943748
4406.000000;0.947473
4405.000000;0.950720
4404.000000;0.953607
4403.000000;0.956430
4402.000000;0.959425
4401.000000;0.962641
4400.000000;0.965975
4399.000000;0.969311
4398.000000;0.972640
4397.000000;0.976028
4396.000000;0.979497
4395.000000;0.982973
4394.000000;0.986353
4393.000000;0.989572
4392.000000;0.992615
4391.000000;0.995545
4390.000000;0.998536
4389.000000;1.001837
4388.000000;1.005615
4387.000000;1.009778
4386.000000;1.013959
4385.000000;1.017776
4384.000000;1.021187
4383.000000;1.024553
4382.000000;1.028241
4381.000000;1.032216
4380.000000;1.036153
4379.000000;1.039923
4378.000000;1.043729
4377.000000;1.047709
4376.000000;1.051638
4375.000000;1.055209
4374.000000;1.058439
4373.000000;1.061613
4372.000000;1.064955
4371.000000;1.068547
4370.000000;1.072497
4369.000000;1.076943
4368.000000;1.081838
4367.000000;1.086880
4366.000000;1.091692
4365.000000;1.096053
4364.000000;1.099998
4363.000000;1.103780
4362.000000;1.107691
4361.000000;1.111851
4360.000000;1.116180
4359.000000;1.120580
4358.000000;1.125011
4357.000000;1.129395
4356.000000;1.133661
4355.000000;1.137985
4354.000000;1.142756
4353.000000;1.148046
4352.000000;1.153296
4351.000000;1.157857
4350.000000;1.161828
4349.000000;1.166062
4348.000000;1.171278
4347.000000;1.177343
4346.000000;1.183417
4345.000000;1.188706
4344.000000;1.193082
4343.000000;1.197182
4342.000000;1.201942
4341.000000;1.207897
4340.000000;1.214752
4339.000000;1.221582
4338.000000;1.227483
4337.000000;1.232184
4336.000000;1.236208
4335.000000;1.240460
4334.000000;1.245507
4333.000000;1.251174
4332.000000;1.256886
4331.000000;1.262364
4330.000000;1.267787
4329.000000;1.273340
4328.000000;1.278983
4327.000000;1.284718
4326.000000;1.290672
4325.000000;1.296683
4324.000000;1.302208
4323.000000;1.306992
4322.000000;1.311516
4321.000000;1.316395
4320.000000;1.321618
4319.000000;1.326833
4318.000000;1.332104
4317.000000;1.337866
4316.000000;1.344193
4315.000000;1.350621
4314.000000;1.356779
4313.000000;1.362829
4312.000000;1.369143
4311.000000;1.375744
4310.000000;1.382158
4309.000000;1.387802
4308.000000;1.392610
4307.000000;1.397281
4306.000000;1.402651
4305.000000;1.408764
4304.000000;1.414943
4303.000000;1.420948
4302.000000;1.427419
4301.000000;1.434738
4300.000000;1.442028
4299.000000;1.448130
4298.000000;1.453241
4297.000000;1.458612
4296.000000;1.464697
4295.000000;1.470641
4294.000000;1.475750
4293.000000;1.480519
4292.000000;1.485866
4291.000000;1.491984
4290.000000;1.498299
4289.000000;1.504192
4288.000000;1.509512
4287.000000;1.514747
4286.000000;1.520864
4285.000000;1.528589
4284.000000;1.537548
4283.000000;1.546350
4282.000000;1.553733
4281.000000;1.559436
4280.000000;1.563977
4279.000000;1.567978
4278.000000;1.571932
4277.000000;1.576384
4276.000000;1.582060
4275.000000;1.589606
4274.000000;1.598923
4273.000000;1.608697
4272.000000;1.617090
4271.000000;1.623465
4270.000000;1.628991
4269.000000;1.634987
4268.000000;1.641201
4267.000000;1.646507
4266.000000;1.650973
4265.000000;1.656189
4264.000000;1.663492
4263.000000;1.672572
4262.000000;1.681786
4261.000000;1.689357
4260.000000;1.694690
4259.000000;1.699294
4258.000000;1.705915
4257.000000;1.715636
4256.000000;1.726076
4255.000000;1.733784
4254.000000;1.738528
4253.000000;1.743478
4252.000000;1.750731
4251.000000;1.758738
4250.000000;1.765136
4249.000000;1.770135
4248.000000;1.775518
4247.000000;1.781735
4246.000000;1.787853
4245.000000;1.793634
4244.000000;1.799846
4243.000000;1.806812
4242.000000;1.814223
4241.000000;1.822193
4240.000000;1.831086
4239.000000;1.840277
4238.000000;1.848520
4237.000000;1.855682
4236.000000;1.862718
4235.000000;1.869694
4234.000000;1.875450
4233.000000;1.879871
4232.000000;1.884914
4231.000000;1.892109
4230.000000;1.900041
4229.000000;1.905850
4228.000000;1.909074
4227.000000;1.912517
4226.000000;1.918957
4225.000000;1.928136
4224.000000;1.937506
4223.000000;1.945402
4222.000000;1.952608
4221.000000;1.960453
4220.000000;1.968271
4219.000000;1.974034
4218.000000;1.977481
4217.000000;1.980997
4216.000000;1.986885
4215.000000;1.995050
4214.000000;2.004032
4213.000000;2.013423
4212.000000;2.023751
4211.000000;2.034395
4210.000000;2.043524
4209.000000;2.050439
4208.000000;2.056293
4207.000000;2.061677
4206.000000;2.065540
4205.000000;2.067983
4204.000000;2.072447
4203.000000;2.082664
4202.000000;2.097380
4201.000000;2.109770
4200.000000;2.113881
4199.000000;2.111597
4198.000000;2.111196
4197.000000;2.119689
4196.000000;2.137510
4195.000000;2.158299
4194.000000;2.173096
4193.000000;2.177401
4192.000000;2.174943
4191.000000;2.173263
4190.000000;2.176542
4189.000000;2.183194
4188.000000;2.189009
4187.000000;2.191717
4186.000000;2.192366
4185.000000;2.193354
4184.000000;2.196572
4183.000000;2.203237
4182.000000;2.213951
4181.000000;2.228368
4180.000000;2.245257
4179.000000;2.262507
4178.000000;2.276838
4177.000000;2.285316
4176.000000;2.288690
4175.000000;2.291916
4174.000000;2.300581
4173.000000;2.316158
4172.000000;2.333728
4171.000000;2.345542
4170.000000;2.347920
4169.000000;2.344011
4168.000000;2.340273
4167.000000;2.341704
4166.000000;2.349347
4165.000000;2.360042
4164.000000;2.368480
4163.000000;2.371444
4162.000000;2.371445
4161.000000;2.375229
4160.000000;2.386665
4159.000000;2.399930
4158.000000;2.401379
4157.000000;2.383914
4156.000000;2.358110
4155.000000;2.341601
4154.000000;2.343521
4153.000000;2.361981
4152.000000;2.389004
4151.000000;2.415833
4150.000000;2.437321
4149.000000;2.454788
4148.000000;2.475286
4147.000000;2.503567
4146.000000;2.532461
4145.000000;2.545030
4144.000000;2.532339
4143.000000;2.506421
4142.000000;2.487786
4141.000000;2.486936
4140.000000;2.500614
4139.000000;2.517388
4138.000000;2.525936
4137.000000;2.524869
4136.000000;2.525596
4135.000000;2.541347
4134.000000;2.572183
4133.000000;2.600544
4132.000000;2.610595
4131.000000;2.607405
4130.000000;2.600088
4129.000000;2.587566
4128.000000;2.571013
4127.000000;2.562036
4126.000000;2.569673
4125.000000;2.587392
4124.000000;2.601002
4123.000000;2.607160
4122.000000;2.612206
4121.000000;2.617580
4120.000000;2.621414
4119.000000;2.630630
4118.000000;2.655504
4117.000000;2.690237
4116.000000;2.711482
4115.000000;2.705500
4114.000000;2.683967
4113.000000;2.666499
4112.000000;2.661205
4111.000000;2.665203
4110.000000;2.672825
4109.000000;2.679181
4108.000000;2.682202
4107.000000;2.682429
4106.000000;2.684352
4105.000000;2.693351
4104.000000;2.707100
4103.000000;2.716876
4102.000000;2.716192
4101.000000;2.702078
4100.000000;2.677996
4099.000000;2.659666
4098.000000;2.661341
4097.000000;2.680053
4096.000000;2.700146
4095.000000;2.713502
4094.000000;2.727785
4093.000000;2.748247
4092.000000;2.764184
4091.000000;2.764316
4090.000000;2.757434
4089.000000;2.761380
4088.000000;2.782365
4087.000000;2.810192
4086.000000;2.823375
4085.000000;2.801543
4084.000000;2.747685
4083.000000;2.694396
4082.000000;2.672587
4081.000000;2.688490
4080.000000;2.722978
4079.000000;2.748738
4078.000000;2.756821
4077.000000;2.758420
4076.000000;2.768315
4075.000000;2.794868
4074.000000;2.839360
4073.000000;2.891742
4072.000000;2.924579
4071.000000;2.918827
4070.000000;2.894039
4069.000000;2.882166
4068.000000;2.891329
4067.000000;2.904940
4066.000000;2.905388
4065.000000;2.895174
4064.000000;2.891183
4063.000000;2.902108
4062.000000;2.918960
4061.000000;2.925501
4060.000000;2.920395
4059.000000;2.919625
4058.000000;2.933759
4057.000000;2.957138
4056.000000;2.971910
4055.000000;2.968320
4054.000000;2.962890
4053.000000;2.972902
4052.000000;2.982356
4051.000000;2.960078
4050.000000;2.902963
4049.000000;2.833691
4048.000000;2.776779
4047.000000;2.749466
4046.000000;2.761178
4045.000000;2.811829
4044.000000;2.890760
4043.000000;2.984891
4042.000000;3.074990
4041.000000;3.119216
4040.000000;3.093330
4039.000000;3.037237
4038.000000;2.994233
4037.000000;2.968350
4036.000000;2.950850
4035.000000;2.945568
4034.000000;2.961554
4033.000000;2.996688
4032.000000;3.034447
4031.000000;3.060505
4030.000000;3.079876
4029.000000;3.095796
4028.000000;3.085391
4027.000000;3.036100
4026.000000;2.981803
4025.000000;2.968262
4024.000000;3.013408
4023.000000;3.098432
4022.000000;3.169782
4021.000000;3.168748
4020.000000;3.094359
4019.000000;3.002890
4018.000000;2.937988
4017.000000;2.904388
4016.000000;2.887474
4015.000000;2.877873
4014.000000;2.880234
4013.000000;2.901212
4012.000000;2.937289
4011.000000;2.974798
4010.000000;2.989486
4009.000000;2.956933
4008.000000;2.895815
4007.000000;2.858425
4006.000000;2.878833
4005.000000;2.952091
4004.000000;3.026709
4003.000000;3.045139
4002.000000;3.030913
4001.000000;3.041170
4000.000000;3.085651
3999.000000;3.134297
3998.000000;3.172046
3997.000000;3.215587
3996.000000;3.263792
3995.000000;3.303771
3994.000000;3.310009
3993.000000;3.258925
3992.000000;3.177750
3991.000000;3.114722
3990.000000;3.105243
3989.000000;3.173912
3988.000000;3.317465
3987.000000;3.503118
3986.000000;3.734545
3985.000000;3.656822
3984.000000;3.380374
3983.000000;3.189537
3982.000000;3.101942
3981.000000;3.120395
3980.000000;3.202133
3979.000000;3.256066
3978.000000;3.226557
3977.000000;3.166860
3976.000000;3.139146
3975.000000;3.151928
3974.000000;3.181232
3973.000000;3.207437
3972.000000;3.212352
3971.000000;3.191269
3970.000000;3.176391
3969.000000;3.188067
3968.000000;3.227584
3967.000000;3.303126
3966.000000;3.416041
3965.000000;3.489109
3964.000000;3.405698
3963.000000;3.276679
3962.000000;3.229566
3961.000000;3.285006
3960.000000;3.396534
3959.000000;3.423515
3958.000000;3.359250
3957.000000;3.345865
3956.000000;3.420590
3955.000000;3.537639
3954.000000;3.607308
3953.000000;3.595371
3952.000000;3.546251
3951.000000;3.477924
3950.000000;3.404498
3949.000000;3.360774
3948.000000;3.364602
3947.000000;3.418510
3946.000000;3.488746
3945.000000;3.489765
3944.000000;3.442492
3943.000000;3.428129
3942.000000;3.436260
3941.000000;3.438175
3940.000000;3.463916
3939.000000;3.539264
3938.000000;3.650045
3937.000000;3.756423
3936.000000;3.791368
3935.000000;3.718181
3934.000000;3.621512
3933.000000;3.589099
3932.000000;3.612869
3931.000000;3.619825
3930.000000;3.578057
3929.000000;3.538802
3928.000000;3.548336
3927.000000;3.617806
3926.000000;3.727360
3925.000000;3.880201
3924.000000;4.105844
3923.000000;4.039318
3922.000000;3.740338
3921.000000;3.531245
3920.000000;3.422356
3919.000000;3.409645
3918.000000;3.466540
3917.000000;3.558557
3916.000000;3.701640
3915.000000;3.932695
3914.000000;3.999627
3913.000000;3.838662
3912.000000;3.686734
3911.000000;3.554485
3910.000000;3.437190
3909.000000;3.308398
3908.000000;3.201644
3907.000000;3.175116
3906.000000;3.225829
3905.000000;3.319691
3904.000000;3.468259
3903.000000;3.685735
3902.000000;3.878696
3901.000000;3.925721
3900.000000;3.876376
3899.000000;3.798305
3898.000000;3.736071
3897.000000;3.704071
3896.000000;3.688900
3895.000000;3.688360
3894.000000;3.721048
3893.000000;3.804529
3892.000000;3.852179
3891.000000;3.840063
3890.000000;3.887255
3889.000000;4.057330
3888.000000;4.567231
3887.000000;4.936349
3886.000000;4.819196
3885.000000;4.861091
3884.000000;4.268594
3883.000000;4.013321
3882.000000;4.014317
3881.000000;4.167004
3880.000000;4.009504
3879.000000;3.881594
3878.000000;3.870137
3877.000000;4.017225
3876.000000;4.465836
3875.000000;4.246603
3874.000000;4.253066
3873.000000;4.485372
3872.000000;4.174848
3871.000000;4.286580
3870.000000;4.253352
3869.000000;3.935148
3868.000000;4.033385
3867.000000;4.429775
3866.000000;4.186230
3865.000000;3.939714
3864.000000;4.009059
3863.000000;3.965587
3862.000000;3.899117
3861.000000;4.296922
3860.000000;3.871295
3859.000000;3.435095
3858.000000;3.354334
3857.000000;3.454722
3856.000000;3.682425
3855.000000;3.713005
3854.000000;3.726998
3853.000000;3.922351
3852.000000;4.123761
3851.000000;4.206182
3850.000000;4.029179
3849.000000;3.833813
3848.000000;3.779439
3847.000000;3.806465
3846.000000;3.783157
3845.000000;3.734191
3844.000000;3.721966
3843.000000;3.675191
3842.000000;3.551463
3841.000000;3.442782
3840.000000;3.436330
3839.000000;3.560441
3838.000000;3.728956
3837.000000;3.796162
3836.000000;3.741041
3835.000000;3.609631
3834.000000;3.499032
3833.000000;3.399809
3832.000000;3.329425
3831.000000;3.261577
3830.000000;3.231035
3829.000000;3.237737
3828.000000;3.393072
3827.000000;3.912607
3826.000000;3.655747
3825.000000;3.352085
3824.000000;3.270094
3823.000000;3.284874
3822.000000;3.466847
3821.000000;3.669516
3820.000000;3.731048
3819.000000;3.595128
3818.000000;3.640169
3817.000000;3.692565
3816.000000;3.400577
3815.000000;3.348898
3814.000000;3.380946
3813.000000;3.355550
3812.000000;3.364897
3811.000000;3.487579
3810.000000;3.547715
3809.000000;3.378019
3808.000000;3.270768
3807.000000;3.276554
3806.000000;3.390776
3805.000000;3.555779
3804.000000;3.799619
3803.000000;4.436221
3802.000000;4.099537
3801.000000;3.784586
3800.000000;3.666728
3799.000000;3.466570
3798.000000;3.322266
3797.000000;3.378645
3796.000000;3.697745
3795.000000;3.887164
3794.000000;3.769986
3793.000000;3.775460
3792.000000;3.737716
3791.000000;3.635089
3790.000000;3.647972
3789.000000;3.785046
3788.000000;3.894519
3787.000000;3.746890
3786.000000;3.556819
3785.000000;3.474537
3784.000000;3.444001
3783.000000;3.395464
3782.000000;3.355796
3781.000000;3.399952
3780.000000;3.612408
3779.000000;3.687280
3778.000000;3.463078
3777.000000;3.362602
3776.000000;3.386224
3775.000000;3.678559
3774.000000;4.073149
3773.000000;3.619243
3772.000000;3.445940
3771.000000;3.465238
3770.000000;3.610911
3769.000000;4.037269
3768.000000;4.185966
3767.000000;3.845137
3766.000000;4.086673
3765.000000;4.021415
3764.000000;3.763073
3763.000000;3.774439
3762.000000;3.525759
3761.000000;3.363508
3760.000000;3.502978
3759.000000;3.976457
3758.000000;3.715155
3757.000000;3.411529
3756.000000;3.389441
3755.000000;3.479796
3754.000000;3.632409
3753.000000;3.724416
3752.000000;3.664805
3751.000000;3.622738
3750.000000;3.656091
3749.000000;3.765666
3748.000000;4.112503
3747.000000;4.220667
3746.000000;3.888264
3745.000000;3.923854
3744.000000;4.164339
3743.000000;4.185509
3742.000000;3.993827
3741.000000;3.748545
3740.000000;3.610252
3739.000000;3.643804
3738.000000;3.778742
3737.000000;3.829024
3736.000000;3.716846
3735.000000;3.886170
3734.000000;4.463027
3733.000000;4.042450
3732.000000;3.824216
3731.000000;3.764643
3730.000000;3.690616
3729.000000;3.580316
3728.000000;3.520868
3727.000000;3.534892
3726.000000;3.608242
3725.000000;3.711769
3724.000000;3.794828
3723.000000;3.866481
3722.000000;4.004990
3721.000000;4.573656
3720.000000;4.345264
3719.000000;3.830502
3718.000000;3.662953
3717.000000;3.633029
3716.000000;3.717177
3715.000000;3.819357
3714.000000;3.818266
3713.000000;3.855866
3712.000000;4.073953
3711.000000;4.491432
3710.000000;4.336968
3709.000000;3.849811
3708.000000;3.557197
3707.000000;3.493053
3706.000000;3.767506
3705.000000;3.763385
3704.000000;3.454004
3703.000000;3.421469
3702.000000;3.505095
3701.000000;3.656214
3700.000000;3.813861
3699.000000;4.147020
3698.000000;3.957461
3697.000000;3.509829
3696.000000;3.317911
3695.000000;3.270313
3694.000000;3.320764
3693.000000;3.558483
3692.000000;4.233630
3691.000000;3.891752
3690.000000;3.751170
3689.000000;3.899896
3688.000000;3.690173
3687.000000;3.581975
3686.000000;3.616625
3685.000000;3.608174
3684.000000;3.560803
3683.000000;3.598871
3682.000000;3.662072
3681.000000;3.658808
3680.000000;3.617845
3679.000000;3.635468
3678.000000;3.768111
3677.000000;3.954522
3676.000000;3.902746
3675.000000;3.755688
3674.000000;3.725629
3673.000000;3.744730
3672.000000;3.541767
3671.000000;3.466012
3670.000000;3.707438
3669.000000;3.936939
3668.000000;3.878506
3667.000000;3.923638
3666.000000;3.872318
3665.000000;3.729995
3664.000000;3.709300
3663.000000;3.682620
3662.000000;3.595518
3661.000000;3.618723
3660.000000;3.645943
3659.000000;3.448914
3658.000000;3.302951
3657.000000;3.302817
3656.000000;3.410880
3655.000000;3.562950
3654.000000;3.689203
3653.000000;3.757804
3652.000000;3.846064
3651.000000;4.275213
3650.000000;4.121242
3649.000000;3.735117
3648.000000;3.611395
3647.000000;3.576942
3646.000000;3.605980
3645.000000;3.663233
3644.000000;4.213966
3643.000000;4.101199
3642.000000;3.551469
3641.000000;3.453743
3640.000000;3.423276
3639.000000;3.450410
3638.000000;3.505636
3637.000000;3.576215
3636.000000;3.697127
3635.000000;3.887899
3634.000000;4.278139
3633.000000;4.968623
3632.000000;4.951052
3631.000000;4.026541
3630.000000;3.629424
3629.000000;3.506148
3628.000000;3.545276
3627.000000;3.649548
3626.000000;3.864942
3625.000000;4.296675
3624.000000;4.075683
3623.000000;4.179757
3622.000000;4.459670
3621.000000;3.738344
3620.000000;3.481565
3619.000000;3.400846
3618.000000;3.426670
3617.000000;3.536255
3616.000000;3.803063
3615.000000;4.306411
3614.000000;3.916285
3613.000000;3.680811
3612.000000;3.650517
3611.000000;3.676832
3610.000000;3.778078
3609.000000;4.007940
3608.000000;4.364079
3607.000000;4.365027
3606.000000;4.353666
3605.000000;4.474179
3604.000000;4.619384
3603.000000;4.107778
3602.000000;3.700497
3601.000000;3.536837
3600.000000;3.542541
3599.000000;3.703902
3598.000000;4.212226
3597.000000;4.406305
3596.000000;3.787143
3595.000000;3.591212
3594.000000;3.492708
3593.000000;3.459446
3592.000000;3.471851
3591.000000;3.483369
3590.000000;3.529394
3589.000000;3.681463
3588.000000;3.981438
3587.000000;4.189748
3586.000000;4.246373
3585.000000;4.291073
3584.000000;4.179245
3583.000000;4.018498
3582.000000;3.895856
3581.000000;3.813983
3580.000000;3.867521
3579.000000;4.071683
3578.000000;4.220867
3577.000000;3.998884
3576.000000;3.668760
3575.000000;3.548190
3574.000000;3.638752
3573.000000;3.866569
3572.000000;3.809290
3571.000000;3.584869
3570.000000;3.467766
3569.000000;3.439994
3568.000000;3.550945
3567.000000;3.853952
3566.000000;4.143002
3565.000000;4.102143
3564.000000;4.249744
3563.000000;4.530065
3562.000000;4.010647
3561.000000;3.629191
3560.000000;3.459610
3559.000000;3.417865
3558.000000;3.531354
3557.000000;3.800198
3556.000000;3.725804
3555.000000;3.491128
3554.000000;3.408423
3553.000000;3.434593
3552.000000;3.521969
3551.000000;3.592746
3550.000000;3.627530
3549.000000;3.667647
3548.000000;3.753054
3547.000000;3.782133
3546.000000;3.906809
3545.000000;4.192644
3544.000000;3.871261
3543.000000;3.630978
3542.000000;3.580518
3541.000000;3.613240
3540.000000;3.660233
3539.000000;3.678653
3538.000000;3.840582
3537.000000;3.806324
3536.000000;3.547188
3535.000000;3.451552
3534.000000;3.475267
3533.000000;3.576530
3532.000000;3.725111
3531.000000;3.710060
3530.000000;3.596372
3529.000000;3.557365
3528.000000;3.698253
3527.000000;4.195935
3526.000000;3.839217
3525.000000;3.507560
3524.000000;3.419950
3523.000000;3.437085
3522.000000;3.515180
3521.000000;3.577011
3520.000000;3.593889
3519.000000;3.573736
3518.000000;3.563978
3517.000000;3.568851
3516.000000;3.545610
3515.000000;3.504428
3514.000000;3.488090
3513.000000;3.479736
3512.000000;3.579315
3511.000000;3.854213
3510.000000;3.781380
3509.000000;3.690709
3508.000000;3.770822
3507.000000;3.776630
3506.000000;3.964368
3505.000000;4.112530
3504.000000;3.862872
3503.000000;3.776365
3502.000000;3.655477
3501.000000;3.491060
3500.000000;3.436252
3499.000000;3.471691
3498.000000;3.476282
3497.000000;3.412691
3496.000000;3.414261
3495.000000;3.547868
3494.000000;3.802427
3493.000000;3.964846
3492.000000;3.901295
3491.000000;3.828680
3490.000000;3.635572
3489.000000;3.460867
3488.000000;3.415547
3487.000000;3.484387
3486.000000;3.641467
3485.000000;3.793819
3484.000000;3.861943
3483.000000;3.924040
3482.000000;3.901683
3481.000000;3.732680
3480.000000;3.586215
3479.000000;3.503576
3478.000000;3.488643
3477.000000;3.548974
3476.000000;3.724152
3475.000000;4.000418
3474.000000;3.824161
3473.000000;3.678904
3472.000000;3.914529
3471.000000;3.918290
3470.000000;3.446216
3469.000000;3.253278
3468.000000;3.199869
3467.000000;3.260123
3466.000000;3.461740
3465.000000;3.798317
3464.000000;4.095246
3463.000000;3.952303
3462.000000;3.740414
3461.000000;3.716777
3460.000000;3.696413
3459.000000;3.606135
3458.000000;3.690747
3457.000000;3.751757
3456.000000;3.586531
3455.000000;3.550917
3454.000000;3.734035
3453.000000;4.045778
3452.000000;3.944471
3451.000000;3.876176
3450.000000;3.809061
3449.000000;3.506450
3448.000000;3.290270
3447.000000;3.196526
3446.000000;3.188274
3445.000000;3.230442
3444.000000;3.289600
3443.000000;3.358937
3442.000000;3.442819
3441.000000;3.471322
3440.000000;3.421026
3439.000000;3.411083
3438.000000;3.503595
3437.000000;3.644284
3436.000000;3.673579
3435.000000;3.583537
3434.000000;3.482982
3433.000000;3.462771
3432.000000;3.557975
3431.000000;3.729174
3430.000000;3.914584
3429.000000;4.309213
3428.000000;4.056606
3427.000000;3.735497
3426.000000;3.730835
3425.000000;3.827765
3424.000000;4.098215
3423.000000;4.184888
3422.000000;3.987821
3421.000000;4.154596
3420.000000;4.032432
3419.000000;3.641436
3418.000000;3.448678
3417.000000;3.399332
3416.000000;3.469569
3415.000000;3.616597
3414.000000;3.721240
3413.000000;3.671055
3412.000000;3.544574
3411.000000;3.447665
3410.000000;3.421384
3409.000000;3.472311
3408.000000;3.550273
3407.000000;3.503804
3406.000000;3.454282
3405.000000;3.806694
3404.000000;3.903619
3403.000000;3.464192
3402.000000;3.417692
3401.000000;3.486035
3400.000000;3.615193
3399.000000;3.709469
3398.000000;3.696612
3397.000000;3.609682
3396.000000;3.555944
3395.000000;3.525187
3394.000000;3.435000
3393.000000;3.375946
3392.000000;3.414639
3391.000000;3.592144
3390.000000;3.984025
3389.000000;4.032608
3388.000000;3.934034
3387.000000;4.178637
3386.000000;4.582210
3385.000000;4.222410
3384.000000;3.955783
3383.000000;3.743821
3382.000000;3.613316
3381.000000;3.555827
3380.000000;3.586504
3379.000000;3.732412
3378.000000;4.223023
3377.000000;4.185040
3376.000000;3.736886
3375.000000;3.580168
3374.000000;3.471882
3373.000000;3.484670
3372.000000;3.592761
3371.000000;3.583575
3370.000000;3.451549
3369.000000;3.404834
3368.000000;3.503321
3367.000000;3.818174
3366.000000;4.796387
3365.000000;4.260752
3364.000000;4.179170
3363.000000;4.045878
3362.000000;3.653929
3361.000000;3.445547
3360.000000;3.407177
3359.000000;3.523040
3358.000000;3.709012
3357.000000;3.636639
3356.000000;3.509156
3355.000000;3.543296
3354.000000;3.892000
3353.000000;4.080580
3352.000000;3.705967
3351.000000;3.748731
3350.000000;3.889677
3349.000000;4.102185
3348.000000;4.147669
3347.000000;4.170531
3346.000000;4.274766
3345.000000;3.975237
3344.000000;3.847864
3343.000000;3.797181
3342.000000;3.669971
3341.000000;3.601460
3340.000000;3.624646
3339.000000;3.643398
3338.000000;3.650328
3337.000000;3.733094
3336.000000;3.753638
3335.000000;3.599682
3334.000000;3.450402
3333.000000;3.386432
3332.000000;3.512518
3331.000000;3.866165
3330.000000;3.737179
3329.000000;3.628954
3328.000000;3.705635
3327.000000;3.760394
3326.000000;3.854169
3325.000000;4.212099
3324.000000;3.811046
3323.000000;3.419865
3322.000000;3.331888
3321.000000;3.401373
3320.000000;3.623889
3319.000000;3.752316
3318.000000;3.751314
3317.000000;3.747531
3316.000000;3.678704
3315.000000;3.665744
3314.000000;3.745761
3313.000000;3.910637
3312.000000;4.043701
3311.000000;3.978325
3310.000000;3.810419
3309.000000;3.558663
3308.000000;3.388777
3307.000000;3.322404
3306.000000;3.326221
3305.000000;3.367872
3304.000000;3.415489
3303.000000;3.431936
3302.000000;3.390828
3301.000000;3.314707
3300.000000;3.283796
3299.000000;3.368804
3298.000000;3.665259
3297.000000;4.229540
3296.000000;4.078730
3295.000000;3.774777
3294.000000;3.619594
3293.000000;3.542890
3292.000000;3.489533
3291.000000;3.429752
3290.000000;3.372392
3289.000000;3.308574
3288.000000;3.297398
3287.000000;3.401239
3286.000000;3.657929
3285.000000;4.017405
3284.000000;3.739883
3283.000000;3.540826
3282.000000;3.462812
3281.000000;3.477862
3280.000000;3.595769
3279.000000;3.770412
3278.000000;3.821234
3277.000000;3.717827
3276.000000;3.659693
3275.000000;3.704855
3274.000000;3.982967
3273.000000;4.364976
3272.000000;3.774175
3271.000000;3.529315
3270.000000;3.498598
3269.000000;3.695282
3268.000000;4.149934
3267.000000;4.227327
3266.000000;4.268927
3265.000000;3.847080
3264.000000;3.629789
3263.000000;3.719803
3262.000000;4.127944
3261.000000;3.823307
3260.000000;3.608321
3259.000000;3.663016
3258.000000;3.914835
3257.000000;4.516811
3256.000000;4.452025
3255.000000;3.923085
3254.000000;3.707016
3253.000000;3.723495
3252.000000;4.001747
3251.000000;4.003719
3250.000000;3.923761
3249.000000;4.323987
3248.000000;4.081399
3247.000000;3.737600
3246.000000;3.681772
3245.000000;3.686567
3244.000000;3.717571
3243.000000;3.773269
3242.000000;3.981785
3241.000000;4.012002
3240.000000;3.791446
3239.000000;3.675364
3238.000000;3.578576
3237.000000;3.550849
3236.000000;3.639047
3235.000000;3.863220
3234.000000;4.274069
3233.000000;4.809795
3232.000000;4.470701
3231.000000;3.801122
3230.000000;3.474686
3229.000000;3.334280
3228.000000;3.329613
3227.000000;3.445167
3226.000000;3.674397
3225.000000;3.904112
3224.000000;3.746114
3223.000000;3.461436
3222.000000;3.268502
3221.000000;3.173589
3220.000000;3.154838
3219.000000;3.190092
3218.000000;3.264312
3217.000000;3.361502
3216.000000;3.489176
3215.000000;3.637232
3214.000000;3.667280
3213.000000;3.543838
3212.000000;3.385858
3211.000000;3.322652
3210.000000;3.402187
3209.000000;3.758359
3208.000000;4.130650
3207.000000;3.638571
3206.000000;3.401576
3205.000000;3.281785
3204.000000;3.258460
3203.000000;3.355226
3202.000000;3.538156
3201.000000;3.593049
3200.000000;3.381194
3199.000000;3.247728
3198.000000;3.270656
3197.000000;3.445925
3196.000000;3.838445
3195.000000;4.121415
3194.000000;3.627356
3193.000000;3.502009
3192.000000;3.548430
3191.000000;3.966191
3190.000000;4.427732
3189.000000;3.921779
3188.000000;3.851461
3187.000000;3.778148
3186.000000;4.056387
3185.000000;3.867421
3184.000000;3.535350
3183.000000;3.496788
3182.000000;3.630031
3181.000000;3.739871
3180.000000;3.577439
3179.000000;3.382114
3178.000000;3.292844
3177.000000;3.319120
3176.000000;3.433727
3175.000000;3.545196
3174.000000;3.520293
3173.000000;3.440651
3172.000000;3.398121
3171.000000;3.397531
3170.000000;3.408962
3169.000000;3.420307
3168.000000;3.438038
3167.000000;3.414304
3166.000000;3.341075
3165.000000;3.327414
3164.000000;3.444030
3163.000000;3.687785
3162.000000;4.054315
3161.000000;4.298370
3160.000000;3.953863
3159.000000;3.814904
3158.000000;3.848892
3157.000000;4.527807
3156.000000;4.003025
3155.000000;3.625716
3154.000000;3.568042
3153.000000;3.652325
3152.000000;3.864556
3151.000000;3.636154
3150.000000;3.434605
3149.000000;3.332687
3148.000000;3.277436
3147.000000;3.273771
3146.000000;3.328594
3145.000000;3.439074
3144.000000;3.585902
3143.000000;3.694343
3142.000000;3.789613
3141.000000;3.892386
3140.000000;3.873282
3139.000000;3.898412
3138.000000;3.694074
3137.000000;3.521290
3136.000000;3.547407
3135.000000;3.642903
3134.000000;3.692729
3133.000000;3.707659
3132.000000;3.880687
3131.000000;4.048463
3130.000000;3.676549
3129.000000;3.454608
3128.000000;3.368037
3127.000000;3.348563
3126.000000;3.404244
3125.000000;3.535217
3124.000000;3.652261
3123.000000;3.667443
3122.000000;3.526834
3121.000000;3.297982
3120.000000;3.152558
3119.000000;3.114474
3118.000000;3.172688
3117.000000;3.299853
3116.000000;3.445681
3115.000000;3.507348
3114.000000;3.420627
3113.000000;3.382611
3112.000000;3.458203
3111.000000;3.956240
3110.000000;4.284146
3109.000000;3.600234
3108.000000;3.681763
3107.000000;3.804156
3106.000000;3.603579
3105.000000;3.419863
3104.000000;3.414240
3103.000000;3.513300
3102.000000;3.696082
3101.000000;3.845915
3100.000000;3.816750
3099.000000;3.706006
3098.000000;3.696210
3097.000000;3.838467
3096.000000;4.438879
3095.000000;3.879282
3094.000000;3.569743
3093.000000;3.479348
3092.000000;3.537922
3091.000000;3.734696
3090.000000;4.060618
3089.000000;4.085264
3088.000000;3.693993
3087.000000;3.468545
3086.000000;3.384237
3085.000000;3.444798
3084.000000;3.683519
3083.000000;4.039207
3082.000000;3.971463
3081.000000;3.733363
3080.000000;3.593110
3079.000000;3.599470
3078.000000;3.764665
3077.000000;3.725511
3076.000000;3.565738
3075.000000;3.561484
3074.000000;3.836640
3073.000000;4.085907
3072.000000;3.645257
3071.000000;3.449327
3070.000000;3.366448
3069.000000;3.325159
3068.000000;3.306868
3067.000000;3.310909
3066.000000;3.383972
3065.000000;3.576512
3064.000000;4.012982
3063.000000;4.383626
3062.000000;3.994213
3061.000000;3.896130
3060.000000;3.603653
3059.000000;3.368701
3058.000000;3.222600
3057.000000;3.198452
3056.000000;3.312144
3055.000000;3.533794
3054.000000;3.647503
3053.000000;3.614300
3052.000000;3.848832
3051.000000;3.858592
3050.000000;3.483184
3049.000000;3.375260
3048.000000;3.486534
3047.000000;3.610242
3046.000000;3.553764
3045.000000;3.634330
3044.000000;3.604374
3043.000000;3.360329
3042.000000;3.235481
3041.000000;3.226198
3040.000000;3.282939
3039.000000;3.328277
3038.000000;3.347136
3037.000000;3.385843
3036.000000;3.400625
3035.000000;3.339358
3034.000000;3.261121
3033.000000;3.227687
3032.000000;3.276929
3031.000000;3.416599
3030.000000;3.781313
3029.000000;4.313299
3028.000000;3.857757
3027.000000;3.687777
3026.000000;3.668969
3025.000000;3.756336
3024.000000;4.103612
3023.000000;4.256571
3022.000000;3.917955
3021.000000;3.898458
3020.000000;3.645822
3019.000000;3.356531
3018.000000;3.265359
3017.000000;3.376335
3016.000000;3.877394
3015.000000;3.893531
3014.000000;3.673905
3013.000000;3.731216
3012.000000;3.813098
3011.000000;3.863628
3010.000000;3.967940
3009.000000;3.766193
3008.000000;3.535358
3007.000000;3.482340
3006.000000;3.508572
3005.000000;3.511842
3004.000000;3.459786
3003.000000;3.411282
3002.000000;3.401738
3001.000000;3.418074
3000.000000;3.414964
2999.000000;3.362224
2998.000000;3.298223
2997.000000;3.268429
2996.000000;3.283183
2995.000000;3.338790
2994.000000;3.439468
2993.000000;3.615712
2992.000000;3.923306
2991.000000;4.491755
2990.000000;4.652933
2989.000000;4.444708
2988.000000;4.539416
2987.000000;3.837673
2986.000000;3.529844
2985.000000;3.422377
2984.000000;3.429948
2983.000000;3.511052
2982.000000;3.631691
2981.000000;3.798558
2980.000000;4.000119
2979.000000;4.182433
2978.000000;4.341848
2977.000000;4.021760
2976.000000;3.699554
2975.000000;3.617429
2974.000000;3.745360
2973.000000;4.022547
2972.000000;4.119325
2971.000000;3.972331
2970.000000;3.728968
2969.000000;3.614414
2968.000000;3.653064
2967.000000;3.758954
2966.000000;3.820459
2965.000000;3.806002
2964.000000;3.813861
2963.000000;3.802325
2962.000000;3.734312
2961.000000;3.644918
2960.000000;3.510540
2959.000000;3.425862
2958.000000;3.456236
2957.000000;3.535046
2956.000000;3.604044
2955.000000;3.705729
2954.000000;3.596739
2953.000000;3.456688
2952.000000;3.481495
2951.000000;3.628654
2950.000000;3.800625
2949.000000;3.751258
2948.000000;3.582299
2947.000000;3.480897
2946.000000;3.479571
2945.000000;3.589917
2944.000000;3.751557
2943.000000;3.812696
2942.000000;3.777692
2941.000000;3.706831
2940.000000;3.582863
2939.000000;3.517263
2938.000000;3.575145
2937.000000;3.742271
2936.000000;3.830847
2935.000000;3.731429
2934.000000;3.682908
2933.000000;3.819471
2932.000000;3.914533
2931.000000;3.628233
2930.000000;3.465065
2929.000000;3.374060
2928.000000;3.326052
2927.000000;3.325068
2926.000000;3.330994
2925.000000;3.353852
2924.000000;3.417941
2923.000000;3.705471
2922.000000;4.164186
2921.000000;3.776735
2920.000000;3.841850
2919.000000;4.242831
2918.000000;3.897240
2917.000000;3.730004
2916.000000;3.756689
2915.000000;3.756394
2914.000000;3.709628
2913.000000;3.660034
2912.000000;3.663280
2911.000000;3.652034
2910.000000;3.538488
2909.000000;3.419371
2908.000000;3.348901
2907.000000;3.312248
2906.000000;3.331717
2905.000000;3.450001
2904.000000;3.775344
2903.000000;4.297648
2902.000000;3.956027
2901.000000;3.788965
2900.000000;3.690239
2899.000000;3.642933
2898.000000;3.794713
2897.000000;3.917598
2896.000000;3.641868
2895.000000;3.472693
2894.000000;3.400456
2893.000000;3.386513
2892.000000;3.470819
2891.000000;3.592796
2890.000000;3.761221
2889.000000;4.317763
2888.000000;3.946372
2887.000000;3.647322
2886.000000;3.737837
2885.000000;3.964618
2884.000000;3.821408
2883.000000;3.598779
2882.000000;3.544289
2881.000000;3.573369
2880.000000;3.663231
2879.000000;3.801529
2878.000000;3.726725
2877.000000;3.550915
2876.000000;3.511569
2875.000000;3.608081
2874.000000;3.815784
2873.000000;3.939341
2872.000000;3.687825
2871.000000;3.428660
2870.000000;3.299280
2869.000000;3.289639
2868.000000;3.361016
2867.000000;3.420328
2866.000000;3.435998
2865.000000;3.461817
2864.000000;3.468583
2863.000000;3.413805
2862.000000;3.337011
2861.000000;3.309965
2860.000000;3.389061
2859.000000;3.643548
2858.000000;4.281323
2857.000000;4.245511
2856.000000;3.622530
2855.000000;3.377280
2854.000000;3.308423
2853.000000;3.282125
2852.000000;3.267202
2851.000000;3.334318
2850.000000;3.396552
2849.000000;3.349514
2848.000000;3.326011
2847.000000;3.375914
2846.000000;3.478320
2845.000000;3.487355
2844.000000;3.394824
2843.000000;3.352014
2842.000000;3.337888
2841.000000;3.317652
2840.000000;3.296261
2839.000000;3.291349
2838.000000;3.309730
2837.000000;3.371761
2836.000000;3.486514
2835.000000;3.610958
2834.000000;3.679725
2833.000000;3.833004
2832.000000;4.302478
2831.000000;4.093222
2830.000000;3.860007
2829.000000;3.876977
2828.000000;3.906900
2827.000000;3.834934
2826.000000;3.625223
2825.000000;3.440769
2824.000000;3.353317
2823.000000;3.386797
2822.000000;3.525426
2821.000000;3.672952
2820.000000;3.768456
2819.000000;3.829813
2818.000000;3.764598
2817.000000;3.600837
2816.000000;3.474304
2815.000000;3.405306
2814.000000;3.454023
2813.000000;3.715819
2812.000000;3.693302
2811.000000;3.437976
2810.000000;3.397934
2809.000000;3.444231
2808.000000;3.521751
2807.000000;3.675235
2806.000000;3.746259
2805.000000;3.594403
2804.000000;3.517102
2803.000000;3.551183
2802.000000;3.591525
2801.000000;3.650011
2800.000000;3.788575
2799.000000;3.972744
2798.000000;3.995648
2797.000000;3.817232
2796.000000;3.674861
2795.000000;3.632214
2794.000000;3.782679
2793.000000;3.931169
2792.000000;3.692379
2791.000000;3.574989
2790.000000;3.488957
2789.000000;3.390589
2788.000000;3.391459
2787.000000;3.567455
2786.000000;3.637691
2785.000000;3.446104
2784.000000;3.376234
2783.000000;3.468151
2782.000000;3.866498
2781.000000;4.030406
2780.000000;3.688360
2779.000000;3.695338
2778.000000;4.025388
2777.000000;4.126347
2776.000000;3.795849
2775.000000;3.659029
2774.000000;3.571142
2773.000000;3.519028
2772.000000;3.533080
2771.000000;3.642072
2770.000000;3.981668
2769.000000;4.271585
2768.000000;3.932593
2767.000000;4.083014
2766.000000;4.252423
2765.000000;3.762766
2764.000000;3.545327
2763.000000;3.429489
2762.000000;3.400974
2761.000000;3.437834
2760.000000;3.467370
2759.000000;3.470029
2758.000000;3.464160
2757.000000;3.494707
2756.000000;3.603477
2755.000000;3.859463
2754.000000;3.986861
2753.000000;3.782488
2752.000000;3.607976
2751.000000;3.641924
2750.000000;3.972143
2749.000000;3.888382
2748.000000;3.653694
2747.000000;3.682591
2746.000000;3.719551
2745.000000;3.537384
2744.000000;3.537979
2743.000000;3.878880
2742.000000;3.848410
2741.000000;3.632382
2740.000000;3.669498
2739.000000;3.703839
2738.000000;3.614895
2737.000000;3.550916
2736.000000;3.551013
2735.000000;3.557128
2734.000000;3.602772
2733.000000;3.918104
2732.000000;4.348814
2731.000000;4.047532
2730.000000;3.967769
2729.000000;3.844388
2728.000000;3.748056
2727.000000;3.802662
2726.000000;3.986432
2725.000000;4.235372
2724.000000;4.074347
2723.000000;3.829027
2722.000000;3.702078
2721.000000;3.644624
2720.000000;3.627404
2719.000000;3.687169
2718.000000;3.883970
2717.000000;4.214735
2716.000000;4.271541
2715.000000;3.935643
2714.000000;3.731387
2713.000000;3.705661
2712.000000;3.813312
2711.000000;3.895874
2710.000000;3.914792
2709.000000;4.045356
2708.000000;4.088756
2707.000000;4.031316
2706.000000;4.184091
2705.000000;4.274457
2704.000000;4.014847
2703.000000;3.748318
2702.000000;3.536912
2701.000000;3.409785
2700.000000;3.370999
2699.000000;3.402023
2698.000000;3.452151
2697.000000;3.497793
2696.000000;3.562764
2695.000000;3.718110
2694.000000;3.883600
2693.000000;3.676033
2692.000000;3.420058
2691.000000;3.286740
2690.000000;3.274535
2689.000000;3.423627
2688.000000;3.633414
2687.000000;3.601269
2686.000000;3.548417
2685.000000;3.536463
2684.000000;3.507082
2683.000000;3.511546
2682.000000;3.613984
2681.000000;3.665983
2680.000000;3.510957
2679.000000;3.433016
2678.000000;3.591298
2677.000000;4.067248
2676.000000;3.695672
2675.000000;3.386801
2674.000000;3.341049
2673.000000;3.425922
2672.000000;3.833542
2671.000000;4.047357
2670.000000;3.780316
2669.000000;3.898980
2668.000000;3.962369
2667.000000;3.698131
2666.000000;3.523969
2665.000000;3.453701
2664.000000;3.574907
2663.000000;3.803017
2662.000000;3.561648
2661.000000;3.434710
2660.000000;3.516295
2659.000000;3.585767
2658.000000;3.483865
2657.000000;3.351865
2656.000000;3.270062
2655.000000;3.219207
2654.000000;3.211887
2653.000000;3.254474
2652.000000;3.371558
2651.000000;3.568328
2650.000000;3.632477
2649.000000;3.597282
2648.000000;3.797659
2647.000000;4.002627
2646.000000;3.752161
2645.000000;3.593770
2644.000000;3.558987
2643.000000;3.666636
2642.000000;3.834266
2641.000000;3.995846
2640.000000;4.390569
2639.000000;4.556107
2638.000000;4.488298
2637.000000;4.277371
2636.000000;4.338441
2635.000000;4.070420
2634.000000;3.737804
2633.000000;3.759119
2632.000000;4.013773
2631.000000;4.163256
2630.000000;3.985243
2629.000000;3.976012
2628.000000;3.932339
2627.000000;3.642205
2626.000000;3.459966
2625.000000;3.425640
2624.000000;3.465251
2623.000000;3.498400
2622.000000;3.545087
2621.000000;3.759141
2620.000000;4.070980
2619.000000;3.780596
2618.000000;3.594078
2617.000000;3.516801
2616.000000;3.670844
2615.000000;4.148751
2614.000000;3.674729
2613.000000;3.560313
2612.000000;3.740437
2611.000000;3.762896
2610.000000;3.895105
2609.000000;3.902438
2608.000000;3.552365
2607.000000;3.440529
2606.000000;3.533526
2605.000000;3.551588
2604.000000;3.441772
2603.000000;3.409744
2602.000000;3.448355
2601.000000;3.492676
2600.000000;3.703202
2599.000000;4.144149
2598.000000;3.805731
2597.000000;3.586295
2596.000000;3.625260
2595.000000;3.750090
2594.000000;3.927795
2593.000000;3.888434
2592.000000;3.707517
2591.000000;3.657068
2590.000000;3.663790
2589.000000;3.677696
2588.000000;3.761957
2587.000000;3.950050
2586.000000;4.412419
2585.000000;3.946128
2584.000000;3.519298
2583.000000;3.365970
2582.000000;3.308894
2581.000000;3.292588
2580.000000;3.315035
2579.000000;3.409054
2578.000000;3.610496
2577.000000;4.060257
2576.000000;4.716010
2575.000000;4.547096
2574.000000;4.084702
2573.000000;3.689613
2572.000000;3.599091
2571.000000;3.686262
2570.000000;3.764864
2569.000000;3.698632
2568.000000;3.631810
2567.000000;3.694101
2566.000000;3.889987
2565.000000;3.812486
2564.000000;3.750999
2563.000000;4.062803
2562.000000;3.779396
2561.000000;3.433401
2560.000000;3.303976
2559.000000;3.274859
2558.000000;3.311455
2557.000000;3.343975
2556.000000;3.359081
2555.000000;3.381392
2554.000000;3.414985
2553.000000;3.467962
2552.000000;3.594308
2551.000000;3.878474
2550.000000;4.087234
2549.000000;4.308908
2548.000000;4.669096
2547.000000;4.068558
2546.000000;3.837898
2545.000000;3.702145
2544.000000;3.641577
2543.000000;3.723843
2542.000000;3.920038
2541.000000;4.142654
2540.000000;4.149703
2539.000000;4.158781
2538.000000;4.446224
2537.000000;4.189000
2536.000000;3.780387
2535.000000;3.703416
2534.000000;3.674249
2533.000000;3.486748
2532.000000;3.402832
2531.000000;3.526609
2530.000000;3.899493
2529.000000;4.176761
2528.000000;4.075124
2527.000000;4.416875
2526.000000;4.733295
2525.000000;4.340432
2524.000000;4.258470
2523.000000;4.119920
2522.000000;3.928692
2521.000000;3.747272
2520.000000;3.699410
2519.000000;3.884993
2518.000000;4.018836
2517.000000;3.771013
2516.000000;3.623173
2515.000000;3.487315
2514.000000;3.387972
2513.000000;3.380168
2512.000000;3.513166
2511.000000;3.926987
2510.000000;3.801608
2509.000000;3.570706
2508.000000;3.739696
2507.000000;3.889136
2506.000000;3.589887
2505.000000;3.559324
2504.000000;3.873080
2503.000000;3.719874
2502.000000;3.433756
2501.000000;3.355139
2500.000000;3.380924
2499.000000;3.522290
2498.000000;3.879626
2497.000000;3.841742
2496.000000;3.552343
2495.000000;3.520848
2494.000000;3.459142
2493.000000;3.364604
2492.000000;3.471986
2491.000000;3.853643
2490.000000;3.706437
2489.000000;3.480587
2488.000000;3.592491
2487.000000;3.822260
2486.000000;3.826492
2485.000000;3.675849
2484.000000;3.615510
2483.000000;3.633148
2482.000000;3.651872
2481.000000;3.623506
2480.000000;3.587376
2479.000000;3.549302
2478.000000;3.458539
2477.000000;3.374179
2476.000000;3.350859
2475.000000;3.366335
2474.000000;3.374438
2473.000000;3.354767
2472.000000;3.304959
2471.000000;3.267245
2470.000000;3.297870
2469.000000;3.452595
2468.000000;3.728520
2467.000000;3.762019
2466.000000;3.649771
2465.000000;3.684292
2464.000000;3.989466
2463.000000;4.395814
2462.000000;3.992794
2461.000000;3.943452
2460.000000;3.910326
2459.000000;3.737822
2458.000000;3.781605
2457.000000;4.219006
2456.000000;4.359260
2455.000000;3.981982
2454.000000;3.860585
2453.000000;3.817805
2452.000000;3.857839
2451.000000;3.995566
2450.000000;4.152946
2449.000000;4.256290
2448.000000;3.989441
2447.000000;3.687997
2446.000000;3.587316
2445.000000;3.769932
2444.000000;4.094675
2443.000000;3.772741
2442.000000;4.021309
2441.000000;4.242156
2440.000000;3.601964
2439.000000;3.561760
2438.000000;3.746256
2437.000000;3.767609
2436.000000;3.553555
2435.000000;3.473624
2434.000000;3.527196
2433.000000;3.952673
2432.000000;4.032669
2431.000000;3.554021
2430.000000;3.462949
2429.000000;3.511218
2428.000000;3.627612
2427.000000;3.698923
2426.000000;3.763307
2425.000000;3.998245
2424.000000;3.961242
2423.000000;3.733190
2422.000000;3.558447
2421.000000;3.382421
2420.000000;3.322128
2419.000000;3.413897
2418.000000;3.796300
2417.000000;4.122463
2416.000000;3.689286
2415.000000;3.700657
2414.000000;3.859516
2413.000000;4.209186
2412.000000;4.006810
2411.000000;3.572017
2410.000000;3.408700
2409.000000;3.365184
2408.000000;3.476032
2407.000000;3.706357
2406.000000;3.608844
2405.000000;3.419357
2404.000000;3.375617
2403.000000;3.412198
2402.000000;3.514040
2401.000000;3.601002
2400.000000;3.561554
2399.000000;3.477189
2398.000000;3.412269
2397.000000;3.372305
2396.000000;3.362078
2395.000000;3.381308
2394.000000;3.426150
2393.000000;3.541117
2392.000000;3.896584
2391.000000;4.009616
2390.000000;3.704205
2389.000000;3.850210
2388.000000;3.940773
2387.000000;3.657817
2386.000000;3.555081
2385.000000;3.602807
2384.000000;3.783178
2383.000000;3.947665
2382.000000;4.020494
2381.000000;4.032604
2380.000000;3.759603
2379.000000;3.541715
2378.000000;3.490224
2377.000000;3.561932
2376.000000;3.706874
2375.000000;3.908736
2374.000000;4.464277
2373.000000;4.284915
2372.000000;3.907580
2371.000000;3.803036
2370.000000;3.777395
2369.000000;3.786705
2368.000000;3.732985
2367.000000;3.587774
2366.000000;3.477333
2365.000000;3.482236
2364.000000;3.587291
2363.000000;3.880222
2362.000000;4.408211
2361.000000;3.867631
2360.000000;3.651596
2359.000000;3.630813
2358.000000;3.694438
2357.000000;3.693453
2356.000000;3.627155
2355.000000;3.684744
2354.000000;4.077876
2353.000000;4.114984
2352.000000;3.753084
2351.000000;3.549636
2350.000000;3.376482
2349.000000;3.333049
2348.000000;3.413135
2347.000000;3.581884
2346.000000;3.715955
2345.000000;3.663680
2344.000000;3.605174
2343.000000;3.706997
2342.000000;3.999505
2341.000000;4.209792
2340.000000;4.079327
2339.000000;3.980754
2338.000000;4.041498
2337.000000;4.058823
2336.000000;4.245652
2335.000000;4.598797
2334.000000;3.948467
2333.000000;3.756886
2332.000000;3.834635
2331.000000;4.070150
2330.000000;3.750492
2329.000000;3.452927
2328.000000;3.349267
2327.000000;3.358451
2326.000000;3.481443
2325.000000;3.644136
2324.000000;3.656110
2323.000000;3.639196
2322.000000;3.768143
2321.000000;3.929650
2320.000000;4.002143
2319.000000;4.125895
2318.000000;3.837411
2317.000000;3.648156
2316.000000;3.605422
2315.000000;3.556321
2314.000000;3.515182
2313.000000;3.535729
2312.000000;3.582932
2311.000000;3.600337
2310.000000;3.633696
2309.000000;3.728208
2308.000000;3.879194
2307.000000;3.927447
2306.000000;3.809712
2305.000000;3.768094
2304.000000;3.836599
2303.000000;4.321993
2302.000000;4.485555
2301.000000;3.771678
2300.000000;3.550285
2299.000000;3.450373
2298.000000;3.451298
2297.000000;3.486273
2296.000000;3.547712
2295.000000;3.660696
2294.000000;4.530832
2293.000000;3.849559
2292.000000;3.445403
2291.000000;3.335537
2290.000000;3.303089
2289.000000;3.336082
2288.000000;3.397243
2287.000000;3.389855
2286.000000;3.273827
2285.000000;3.184085
2284.000000;3.165235
2283.000000;3.206624
2282.000000;3.292105
2281.000000;3.399157
2280.000000;3.523342
2279.000000;3.681311
2278.000000;3.820297
2277.000000;3.844833
2276.000000;3.768871
2275.000000;4.102573
2274.000000;3.974957
2273.000000;3.441698
2272.000000;3.294154
2271.000000;3.297237
2270.000000;3.429023
2269.000000;3.515871
2268.000000;3.436676
2267.000000;3.319840
2266.000000;3.213775
2265.000000;3.146417
2264.000000;3.149238
2263.000000;3.250340
2262.000000;3.465979
2261.000000;3.676042
2260.000000;3.651821
2259.000000;3.645277
2258.000000;3.756004
2257.000000;4.040495
2256.000000;4.035991
2255.000000;3.614002
2254.000000;3.453034
2253.000000;3.506421
2252.000000;3.684294
2251.000000;3.521561
2250.000000;3.345802
2249.000000;3.279305
2248.000000;3.237453
2247.000000;3.230552
2246.000000;3.302269
2245.000000;3.489274
2244.000000;3.744992
2243.000000;3.826789
2242.000000;3.703644
2241.000000;3.634773
2240.000000;3.737768
2239.000000;4.123038
2238.000000;4.424104
2237.000000;4.270591
2236.000000;4.057269
2235.000000;4.011343
2234.000000;4.080393
2233.000000;4.071590
2232.000000;3.923623
2231.000000;3.724340
2230.000000;3.551477
2229.000000;3.442392
2228.000000;3.434106
2227.000000;3.572472
2226.000000;3.810004
2225.000000;3.842913
2224.000000;3.856684
2223.000000;4.071322
2222.000000;4.282259
2221.000000;4.082096
2220.000000;4.011704
2219.000000;4.268266
2218.000000;4.549091
2217.000000;4.242640
2216.000000;4.042387
2215.000000;3.994893
2214.000000;3.982065
2213.000000;3.878586
2212.000000;3.769621
2211.000000;3.646608
2210.000000;3.512783
2209.000000;3.443426
2208.000000;3.472739
2207.000000;3.568564
2206.000000;3.666668
2205.000000;3.699700
2204.000000;3.593258
2203.000000;3.578723
2202.000000;3.683396
2201.000000;3.721494
2200.000000;3.749885
2199.000000;4.038305
2198.000000;4.104329
2197.000000;3.816035
2196.000000;4.038731
2195.000000;3.762272
2194.000000;3.427041
2193.000000;3.368657
2192.000000;3.429022
2191.000000;3.556379
2190.000000;3.652820
2189.000000;3.627995
2188.000000;3.468277
2187.000000;3.313729
2186.000000;3.247054
2185.000000;3.293681
2184.000000;3.476180
2183.000000;3.608034
2182.000000;3.443777
2181.000000;3.349661
2180.000000;3.369918
2179.000000;3.469952
2178.000000;3.680104
2177.000000;4.284885
2176.000000;3.903369
2175.000000;3.676507
2174.000000;3.730150
2173.000000;4.002188
2172.000000;3.994956
2171.000000;3.859021
2170.000000;3.729150
2169.000000;3.468606
2168.000000;3.345582
2167.000000;3.335941
2166.000000;3.341631
2165.000000;3.285209
2164.000000;3.229347
2163.000000;3.229159
2162.000000;3.311860
2161.000000;3.488896
2160.000000;3.698316
2159.000000;3.788687
2158.000000;4.154326
2157.000000;4.016659
2156.000000;3.588989
2155.000000;3.461943
2154.000000;3.513191
2153.000000;3.702502
2152.000000;3.930765
2151.000000;4.162537
2150.000000;4.630231
2149.000000;4.017872
2148.000000;3.624507
2147.000000;3.443469
2146.000000;3.429918
2145.000000;3.579186
2144.000000;3.988447
2143.000000;4.022716
2142.000000;3.667210
2141.000000;3.773163
2140.000000;4.154479
2139.000000;3.732469
2138.000000;3.448595
2137.000000;3.446198
2136.000000;3.639314
2135.000000;4.152542
2134.000000;4.303855
2133.000000;3.993437
2132.000000;3.625549
2131.000000;3.455598
2130.000000;3.406020
2129.000000;3.388665
2128.000000;3.390118
2127.000000;3.422970
2126.000000;3.530079
2125.000000;3.722789
2124.000000;3.798442
2123.000000;3.716274
2122.000000;3.693586
2121.000000;3.752080
2120.000000;4.074536
2119.000000;4.138746
2118.000000;3.589342
2117.000000;3.435961
2116.000000;3.403462
2115.000000;3.441710
2114.000000;3.493007
2113.000000;3.526373
2112.000000;3.512088
2111.000000;3.505976
2110.000000;3.490834
2109.000000;3.437651
2108.000000;3.392651
2107.000000;3.411054
2106.000000;3.507665
2105.000000;3.638738
2104.000000;3.673591
2103.000000;3.583821
2102.000000;3.523237
2101.000000;3.591865
2100.000000;3.792037
2099.000000;3.754452
2098.000000;3.736383
2097.000000;3.891275
2096.000000;3.820708
2095.000000;3.595974
2094.000000;3.469996
2093.000000;3.437494
2092.000000;3.477444
2091.000000;3.580380
2090.000000;3.642089
2089.000000;3.523317
2088.000000;3.415762
2087.000000;3.365864
2086.000000;3.365129
2085.000000;3.433834
2084.000000;3.729678
2083.000000;4.047797
2082.000000;3.589154
2081.000000;3.388817
2080.000000;3.402641
2079.000000;3.690786
2078.000000;3.999666
2077.000000;3.710707
2076.000000;3.610631
2075.000000;3.519355
2074.000000;3.420139
2073.000000;3.390074
2072.000000;3.457622
2071.000000;3.659146
2070.000000;3.979947
2069.000000;3.920003
2068.000000;3.891067
2067.000000;4.034224
2066.000000;4.060234
2065.000000;3.789000
2064.000000;3.578968
2063.000000;3.506009
2062.000000;3.531943
2061.000000;3.596424
2060.000000;3.670159
2059.000000;3.713267
2058.000000;3.637696
2057.000000;3.562638
2056.000000;3.578918
2055.000000;3.591970
2054.000000;3.478055
2053.000000;3.373532
2052.000000;3.343206
2051.000000;3.330736
2050.000000;3.342319
2049.000000;3.397420
2048.000000;3.405577
2047.000000;3.362710
2046.000000;3.403101
2045.000000;3.625569
2044.000000;4.223170
2043.000000;3.670252
2042.000000;3.461741
2041.000000;3.356469
2040.000000;3.287572
2039.000000;3.263842
2038.000000;3.323274
2037.000000;3.463690
2036.000000;3.624423
2035.000000;3.713117
2034.000000;3.741598
2033.000000;3.759029
2032.000000;3.713682
2031.000000;3.596332
2030.000000;3.494409
2029.000000;3.437688
2028.000000;3.403876
2027.000000;3.362667
2026.000000;3.298277
2025.000000;3.234088
2024.000000;3.212903
2023.000000;3.248759
2022.000000;3.342952
2021.000000;3.515776
2020.000000;3.898973
2019.000000;3.795364
2018.000000;3.574705
2017.000000;3.548989
2016.000000;3.614668
2015.000000;3.746775
2014.000000;3.637884
2013.000000;3.423090
2012.000000;3.360396
2011.000000;3.416609
2010.000000;3.730798
2009.000000;4.179496
2008.000000;3.669263
2007.000000;4.013970
2006.000000;3.977355
2005.000000;3.401524
2004.000000;3.280750
2003.000000;3.267040
2002.000000;3.342275
2001.000000;3.430658
2000.000000;3.429097
1999.000000;3.379084
1998.000000;3.410249
1997.000000;3.548209
1996.000000;3.722378
1995.000000;3.889890
1994.000000;4.211898
1993.000000;5.019456
1992.000000;4.484266
1991.000000;4.530223
1990.000000;4.513538
1989.000000;3.995308
1988.000000;3.662851
1987.000000;3.510436
1986.000000;3.453131
1985.000000;3.438181
1984.000000;3.472096
1983.000000;3.564458
1982.000000;3.554159
1981.000000;3.448750
1980.000000;3.397514
1979.000000;3.343973
1978.000000;3.260651
1977.000000;3.176124
1976.000000;3.144363
1975.000000;3.208090
1974.000000;3.388019
1973.000000;3.639288
1972.000000;3.815680
1971.000000;3.842276
1970.000000;3.754038
1969.000000;3.746504
1968.000000;3.893172
1967.000000;4.106331
1966.000000;3.891885
1965.000000;3.678327
1964.000000;3.651770
1963.000000;3.829396
1962.000000;3.718050
1961.000000;3.437468
1960.000000;3.339031
1959.000000;3.295737
1958.000000;3.241557
1957.000000;3.246574
1956.000000;3.405042
1955.000000;3.892042
1954.000000;3.892991
1953.000000;3.508002
1952.000000;3.433366
1951.000000;3.378301
1950.000000;3.364803
1949.000000;3.393300
1948.000000;3.470422
1947.000000;3.573983
1946.000000;3.695429
1945.000000;3.810889
1944.000000;3.848506
1943.000000;3.869749
1942.000000;4.172625
1941.000000;4.063399
1940.000000;3.759909
1939.000000;3.754102
1938.000000;3.781638
1937.000000;3.667058
1936.000000;3.624241
1935.000000;3.584883
1934.000000;3.474528
1933.000000;3.467899
1932.000000;3.686073
1931.000000;4.007752
1930.000000;3.867498
1929.000000;3.865987
1928.000000;3.872681
1927.000000;3.775949
1926.000000;3.764367
1925.000000;3.815353
1924.000000;3.662899
1923.000000;3.477683
1922.000000;3.373804
1921.000000;3.332485
1920.000000;3.379275
1919.000000;3.623947
1918.000000;3.953969
1917.000000;3.690962
1916.000000;3.566810
1915.000000;3.617602
1914.000000;3.726267
1913.000000;3.743222
1912.000000;3.532432
1911.000000;3.319099
1910.000000;3.208267
1909.000000;3.209666
1908.000000;3.332643
1907.000000;3.619699
1906.000000;3.758935
1905.000000;3.544891
1904.000000;3.706337
1903.000000;3.990674
1902.000000;3.511580
1901.000000;3.294469
1900.000000;3.225281
1899.000000;3.281077
1898.000000;3.481025
1897.000000;4.102500
1896.000000;4.354507
1895.000000;3.844317
1894.000000;3.824711
1893.000000;3.838432
1892.000000;4.051740
1891.000000;4.050742
1890.000000;3.764555
1889.000000;3.673148
1888.000000;3.877106
1887.000000;4.208526
1886.000000;3.782133
1885.000000;3.840387
1884.000000;4.417024
1883.000000;3.664086
1882.000000;3.451471
1881.000000;3.390892
1880.000000;3.343333
1879.000000;3.312095
1878.000000;3.345254
1877.000000;3.479790
1876.000000;3.640643
1875.000000;3.706858
1874.000000;3.724993
1873.000000;4.056197
1872.000000;4.418240
1871.000000;3.905011
1870.000000;3.858541
1869.000000;3.887780
1868.000000;3.735634
1867.000000;3.474356
1866.000000;3.311379
1865.000000;3.298547
1864.000000;3.425974
1863.000000;3.489530
1862.000000;3.345552
1861.000000;3.283109
1860.000000;3.349912
1859.000000;3.551987
1858.000000;4.097689
1857.000000;3.922679
1856.000000;3.571981
1855.000000;3.509443
1854.000000;3.625882
1853.000000;3.997823
1852.000000;4.099172
1851.000000;3.791206
1850.000000;3.792692
1849.000000;3.802752
1848.000000;3.644581
1847.000000;3.540762
1846.000000;3.521955
1845.000000;3.508976
1844.000000;3.436613
1843.000000;3.331835
1842.000000;3.268075
1841.000000;3.287228
1840.000000;3.393111
1839.000000;3.498134
1838.000000;3.431261
1837.000000;3.307570
1836.000000;3.240450
1835.000000;3.235256
1834.000000;3.293362
1833.000000;3.415733
1832.000000;3.575556
1831.000000;3.717240
1830.000000;3.855680
1829.000000;4.212949
1828.000000;4.661151
1827.000000;3.893207
1826.000000;3.679029
1825.000000;3.704381
1824.000000;3.954261
1823.000000;4.303207
1822.000000;3.910162
1821.000000;3.638717
1820.000000;3.571510
1819.000000;3.641880
1818.000000;3.886965
1817.000000;4.168847
1816.000000;4.114014
1815.000000;4.292645
1814.000000;4.283996
1813.000000;3.967945
1812.000000;3.811503
1811.000000;3.717891
1810.000000;3.739360
1809.000000;3.859180
1808.000000;3.990300
1807.000000;4.093275
1806.000000;4.067786
1805.000000;3.878003
1804.000000;3.679969
1803.000000;3.564997
1802.000000;3.551293
1801.000000;3.639992
1800.000000;3.805922
1799.000000;3.899080
1798.000000;3.821993
1797.000000;3.727533
1796.000000;3.653118
1795.000000;3.571626
1794.000000;3.502393
1793.000000;3.486452
1792.000000;3.535909
1791.000000;3.605256
1790.000000;3.590056
1789.000000;3.524776
1788.000000;3.509053
1787.000000;3.542129
1786.000000;3.592171
1785.000000;3.598322
1784.000000;3.536039
1783.000000;3.434420
1782.000000;3.369680
1781.000000;3.373993
1780.000000;3.500853
1779.000000;3.747664
1778.000000;3.607689
1777.000000;3.427447
1776.000000;3.404319
1775.000000;3.447227
1774.000000;3.495588
1773.000000;3.498850
1772.000000;3.480086
1771.000000;3.476631
1770.000000;3.510461
1769.000000;3.518444
1768.000000;3.463665
1767.000000;3.384842
1766.000000;3.331708
1765.000000;3.377111
1764.000000;3.597566
1763.000000;3.998719
1762.000000;3.844565
1761.000000;3.523469
1760.000000;3.488972
1759.000000;3.572467
1758.000000;3.421367
1757.000000;3.262456
1756.000000;3.235329
1755.000000;3.305242
1754.000000;3.454847
1753.000000;3.675405
1752.000000;3.866229
1751.000000;3.949720
1750.000000;4.045232
1749.000000;3.699938
1748.000000;3.422030
1747.000000;3.336380
1746.000000;3.358177
1745.000000;3.440126
1744.000000;3.514715
1743.000000;3.534209
1742.000000;3.511355
1741.000000;3.503464
1740.000000;3.513616
1739.000000;3.496946
1738.000000;3.424599
1737.000000;3.325946
1736.000000;3.260844
1735.000000;3.261560
1734.000000;3.347448
1733.000000;3.465056
1732.000000;3.433640
1731.000000;3.359526
1730.000000;3.358469
1729.000000;3.400389
1728.000000;3.454484
1727.000000;3.532304
1726.000000;3.745941
1725.000000;3.813316
1724.000000;3.594244
1723.000000;3.557489
1722.000000;3.738984
1721.000000;3.840442
1720.000000;3.698927
1719.000000;3.650677
1718.000000;3.662057
1717.000000;3.688698
1716.000000;3.679113
1715.000000;3.644149
1714.000000;3.671678
1713.000000;3.712516
1712.000000;3.611182
1711.000000;3.462353
1710.000000;3.437650
1709.000000;3.585697
1708.000000;3.864709
1707.000000;3.810246
1706.000000;3.583262
1705.000000;3.423381
1704.000000;3.314746
1703.000000;3.288452
1702.000000;3.290018
1701.000000;3.279657
1700.000000;3.266487
1699.000000;3.286621
1698.000000;3.379624
1697.000000;3.569476
1696.000000;3.928974
1695.000000;3.995532
1694.000000;3.746781
1693.000000;3.765859
1692.000000;4.086259
1691.000000;4.081056
1690.000000;3.706640
1689.000000;3.660903
1688.000000;3.812384
1687.000000;3.805981
1686.000000;3.663699
1685.000000;3.597662
1684.000000;3.577188
1683.000000;3.578047
1682.000000;3.645767
1681.000000;3.737754
1680.000000;3.649022
1679.000000;3.481745
1678.000000;3.360313
1677.000000;3.274763
1676.000000;3.260468
1675.000000;3.345769
1674.000000;3.544341
1673.000000;3.723087
1672.000000;3.712184
1671.000000;3.704834
1670.000000;3.767714
1669.000000;3.994989
1668.000000;3.962104
1667.000000;3.851946
1666.000000;4.138726
1665.000000;3.811822
1664.000000;3.467347
1663.000000;3.358675
1662.000000;3.335508
1661.000000;3.359684
1660.000000;3.388921
1659.000000;3.418538
1658.000000;3.445347
1657.000000;3.443281
1656.000000;3.436081
1655.000000;3.544562
1654.000000;3.781021
1653.000000;3.871759
1652.000000;3.934894
1651.000000;3.830487
1650.000000;3.592930
1649.000000;3.433914
1648.000000;3.320237
1647.000000;3.318334
1646.000000;3.466155
1645.000000;3.749923
1644.000000;4.008312
1643.000000;3.901920
1642.000000;3.740287
1641.000000;3.693797
1640.000000;3.843007
1639.000000;4.077251
1638.000000;4.162002
1637.000000;4.236126
1636.000000;3.838259
1635.000000;3.599198
1634.000000;3.592695
1633.000000;3.684181
1632.000000;3.725735
1631.000000;3.733520
1630.000000;3.807725
1629.000000;3.896164
1628.000000;3.958958
1627.000000;3.847699
1626.000000;3.649998
1625.000000;3.546518
1624.000000;3.579415
1623.000000;3.777923
1622.000000;3.961371
1621.000000;3.898994
1620.000000;3.886860
1619.000000;4.069947
1618.000000;4.104933
1617.000000;3.737355
1616.000000;3.538888
1615.000000;3.479350
1614.000000;3.475914
1613.000000;3.498652
1612.000000;3.526383
1611.000000;3.564439
1610.000000;3.578132
1609.000000;3.499453
1608.000000;3.381308
1607.000000;3.319436
1606.000000;3.331188
1605.000000;3.395731
1604.000000;3.457747
1603.000000;3.502594
1602.000000;3.592300
1601.000000;3.655717
1600.000000;3.639621
1599.000000;3.720670
1598.000000;3.984223
1597.000000;4.113717
1596.000000;3.889677
1595.000000;3.726967
1594.000000;3.655890
1593.000000;3.605496
1592.000000;3.567574
1591.000000;3.575156
1590.000000;3.694857
1589.000000;4.090452
1588.000000;4.349624
1587.000000;4.121661
1586.000000;3.953811
1585.000000;3.763487
1584.000000;3.779675
1583.000000;3.720909
1582.000000;3.568428
1581.000000;3.554056
1580.000000;3.566932
1579.000000;3.593885
1578.000000;3.635188
1577.000000;3.552100
1576.000000;3.475213
1575.000000;3.514817
1574.000000;3.612173
1573.000000;3.621922
1572.000000;3.500595
1571.000000;3.388839
1570.000000;3.346805
1569.000000;3.370271
1568.000000;3.445151
1567.000000;3.579567
1566.000000;3.819965
1565.000000;4.066628
1564.000000;4.028586
1563.000000;3.879175
1562.000000;3.786841
1561.000000;4.025031
1560.000000;4.120760
1559.000000;3.558454
1558.000000;3.385760
1557.000000;3.441441
1556.000000;3.622801
1555.000000;3.817006
1554.000000;4.106414
1553.000000;4.484532
1552.000000;3.969124
1551.000000;3.776477
1550.000000;3.650556
1549.000000;3.629072
1548.000000;3.835243
1547.000000;3.915877
1546.000000;3.699380
1545.000000;3.722446
1544.000000;4.275057
1543.000000;3.929738
1542.000000;3.565906
1541.000000;3.570369
1540.000000;3.700313
1539.000000;4.052142
1538.000000;4.382751
1537.000000;4.056061
1536.000000;3.829788
1535.000000;3.629797
1534.000000;3.482485
1533.000000;3.506584
1532.000000;3.784693
1531.000000;4.220297
1530.000000;4.294014
1529.000000;3.996271
1528.000000;3.997713
1527.000000;4.101575
1526.000000;3.716692
1525.000000;3.551455
1524.000000;3.571213
1523.000000;3.703408
1522.000000;3.680823
1521.000000;3.436256
1520.000000;3.274987
1519.000000;3.200115
1518.000000;3.180433
1517.000000;3.184149
1516.000000;3.219262
1515.000000;3.331692
1514.000000;3.635197
1513.000000;3.922999
1512.000000;3.692879
1511.000000;3.713648
1510.000000;3.786946
1509.000000;3.561196
1508.000000;3.465031
1507.000000;3.470147
1506.000000;3.468457
1505.000000;3.464418
1504.000000;3.493353
1503.000000;3.549289
1502.000000;3.553383
1501.000000;3.522448
1500.000000;3.539123
1499.000000;3.610419
1498.000000;3.657024
1497.000000;3.681010
1496.000000;3.644277
1495.000000;3.499868
1494.000000;3.354775
1493.000000;3.267303
1492.000000;3.240014
1491.000000;3.258403
1490.000000;3.293502
1489.000000;3.335994
1488.000000;3.345453
1487.000000;3.328047
1486.000000;3.339909
1485.000000;3.447161
1484.000000;3.795037
1483.000000;3.860671
1482.000000;3.506383
1481.000000;3.382449
1480.000000;3.387813
1479.000000;3.474690
1478.000000;3.565830
1477.000000;3.504540
1476.000000;3.350231
1475.000000;3.249393
1474.000000;3.255962
1473.000000;3.318917
1472.000000;3.352136
1471.000000;3.353289
1470.000000;3.418299
1469.000000;3.513078
1468.000000;3.521431
1467.000000;3.471308
1466.000000;3.550012
1465.000000;4.068177
1464.000000;3.703452
1463.000000;3.339133
1462.000000;3.325357
1461.000000;3.374562
1460.000000;3.417018
1459.000000;3.433747
1458.000000;3.455659
1457.000000;3.491172
1456.000000;3.496866
1455.000000;3.460231
1454.000000;3.405730
1453.000000;3.369645
1452.000000;3.329822
1451.000000;3.312680
1450.000000;3.355835
1449.000000;3.583949
1448.000000;4.080240
1447.000000;3.829995
1446.000000;3.730743
1445.000000;4.033971
1444.000000;3.997059
1443.000000;3.736241
1442.000000;3.717040
1441.000000;3.753836
1440.000000;3.868437
1439.000000;4.109846
1438.000000;3.975433
1437.000000;3.822894
1436.000000;3.821009
1435.000000;3.798753
1434.000000;3.754946
1433.000000;3.701727
1432.000000;3.740011
1431.000000;3.750014
1430.000000;3.572043
1429.000000;3.419709
1428.000000;3.445490
1427.000000;3.679146
1426.000000;3.507742
1425.000000;3.238798
1424.000000;3.154921
1423.000000;3.178627
1422.000000;3.279585
1421.000000;3.418194
1420.000000;3.541159
1419.000000;3.610497
1418.000000;3.642070
1417.000000;3.561231
1416.000000;3.434247
1415.000000;3.383584
1414.000000;3.420807
1413.000000;3.556581
1412.000000;3.829327
1411.000000;4.085993
1410.000000;4.027202
1409.000000;4.091190
1408.000000;4.127590
1407.000000;3.813143
1406.000000;3.665799
1405.000000;3.640791
1404.000000;3.583581
1403.000000;3.510469
1402.000000;3.577217
1401.000000;3.969720
1400.000000;3.880130
1399.000000;3.494896
1398.000000;3.402085
1397.000000;3.482730
1396.000000;3.706477
1395.000000;3.846252
1394.000000;3.759916
1393.000000;3.804856
1392.000000;4.194764
1391.000000;4.804882
1390.000000;4.216487
1389.000000;3.996570
1388.000000;3.835306
1387.000000;3.690229
1386.000000;3.565451
1385.000000;3.529923
1384.000000;3.588527
1383.000000;3.570882
1382.000000;3.443568
1381.000000;3.334319
1380.000000;3.303385
1379.000000;3.363469
1378.000000;3.475226
1377.000000;3.560226
1376.000000;3.628782
1375.000000;3.695010
1374.000000;3.691855
1373.000000;3.622282
1372.000000;3.466088
1371.000000;3.319272
1370.000000;3.254865
1369.000000;3.249545
1368.000000;3.274788
1367.000000;3.322672
1366.000000;3.393355
1365.000000;3.439576
1364.000000;3.398855
1363.000000;3.332955
1362.000000;3.305997
1361.000000;3.294197
1360.000000;3.300509
1359.000000;3.414166
1358.000000;3.534658
1357.000000;3.433219
1356.000000;3.362292
1355.000000;3.442020
1354.000000;3.640411
1353.000000;3.883499
1352.000000;3.937126
1351.000000;3.764468
1350.000000;3.611962
1349.000000;3.564545
1348.000000;3.596804
1347.000000;3.646038
1346.000000;3.670857
1345.000000;3.805343
1344.000000;4.247780
1343.000000;4.076314
1342.000000;3.918408
1341.000000;3.900307
1340.000000;3.610052
1339.000000;3.463802
1338.000000;3.527195
1337.000000;3.804958
1336.000000;3.897891
1335.000000;3.681707
1334.000000;3.590187
1333.000000;3.527478
1332.000000;3.464324
1331.000000;3.418505
1330.000000;3.445099
1329.000000;3.577101
1328.000000;3.839108
1327.000000;4.155407
1326.000000;3.890939
1325.000000;3.606496
1324.000000;3.459675
1323.000000;3.385658
1322.000000;3.364362
1321.000000;3.378484
1320.000000;3.422387
1319.000000;3.481790
1318.000000;3.561084
1317.000000;3.756468
1316.000000;4.258114
1315.000000;4.233357
1314.000000;3.789319
1313.000000;3.566655
1312.000000;3.448508
1311.000000;3.406652
1310.000000;3.427848
1309.000000;3.518415
1308.000000;3.606188
1307.000000;3.606899
1306.000000;3.655249
1305.000000;4.208113
1304.000000;4.332994
1303.000000;3.807885
1302.000000;3.912797
1301.000000;4.122994
1300.000000;4.074197
1299.000000;3.955169
1298.000000;3.883234
1297.000000;3.805718
1296.000000;3.705964
1295.000000;3.634480
1294.000000;3.606107
1293.000000;3.571984
1292.000000;3.513682
1291.000000;3.478917
1290.000000;3.505736
1289.000000;3.522201
1288.000000;3.434342
1287.000000;3.373425
1286.000000;3.428629
1285.000000;3.703218
1284.000000;4.129367
1283.000000;3.914189
1282.000000;3.923221
1281.000000;4.105740
1280.000000;3.962055
1279.000000;3.663946
1278.000000;3.482217
1277.000000;3.385866
1276.000000;3.382586
1275.000000;3.502357
1274.000000;3.573687
1273.000000;3.488290
1272.000000;3.512406
1271.000000;3.714868
1270.000000;3.848589
1269.000000;3.785899
1268.000000;3.817322
1267.000000;3.871796
1266.000000;3.772891
1265.000000;3.733960
1264.000000;3.976748
1263.000000;5.108552
1262.000000;4.058520
1261.000000;4.019336
1260.000000;4.131061
1259.000000;3.999118
1258.000000;3.863744
1257.000000;3.933791
1256.000000;4.240208
1255.000000;4.241307
1254.000000;3.942973
1253.000000;3.800573
1252.000000;3.736674
1251.000000;3.791406
1250.000000;4.017732
1249.000000;3.901654
1248.000000;3.650681
1247.000000;3.585323
1246.000000;3.614081
1245.000000;3.701317
1244.000000;3.845478
1243.000000;4.014260
1242.000000;4.036835
1241.000000;4.077863
1240.000000;4.160900
1239.000000;4.245503
1238.000000;4.806370
1237.000000;4.111678
1236.000000;3.681532
1235.000000;3.465912
1234.000000;3.387524
1233.000000;3.428673
1232.000000;3.580453
1231.000000;3.832466
1230.000000;3.979590
1229.000000;3.928290
1228.000000;3.957758
1227.000000;4.196868
1226.000000;4.548125
1225.000000;3.990606
1224.000000;3.732547
1223.000000;3.751986
1222.000000;4.116179
1221.000000;4.118535
1220.000000;3.778041
1219.000000;3.674898
1218.000000;3.650004
1217.000000;3.681038
1216.000000;3.738395
1215.000000;3.841831
1214.000000;4.072654
1213.000000;4.181167
1212.000000;3.822067
1211.000000;3.614641
1210.000000;3.555368
1209.000000;3.597343
1208.000000;3.605758
1207.000000;3.526357
1206.000000;3.506855
1205.000000;3.621290
1204.000000;3.972102
1203.000000;4.023041
1202.000000;3.717407
1201.000000;3.729309
1200.000000;3.856552
