Criado como novo conjunto de dados;"Jao_teste_celulas.spp","5943.0 Secs"
cm-1;Abs
10000.000000;1.221726
9999.000000;1.221006
9998.000000;1.220287
9997.000000;1.219569
9996.000000;1.218852
9995.000000;1.218138
9994.000000;1.217422
9993.000000;1.216712
9992.000000;1.215989
9991.000000;1.215723
9990.000000;1.216078
9989.000000;1.216688
9988.000000;1.216893
9987.000000;1.216197
9986.000000;1.214736
9985.000000;1.213216
9984.000000;1.212251
9983.000000;1.211773
9982.000000;1.211265
9981.000000;1.210518
9980.000000;1.209851
9979.000000;1.209525
9978.000000;1.209314
9977.000000;1.208898
9976.000000;1.208437
9975.000000;1.208359
9974.000000;1.208659
9973.000000;1.208772
9972.000000;1.208238
9971.000000;1.207247
9970.000000;1.206389
9969.000000;1.206006
9968.000000;1.205927
9967.000000;1.205704
9966.000000;1.205037
9965.000000;1.204083
9964.000000;1.203416
9963.000000;1.203560
9962.000000;1.204397
9961.000000;1.205129
9960.000000;1.204925
9959.000000;1.203639
9958.000000;1.201866
9957.000000;1.200429
9956.000000;1.199870
9955.000000;1.200194
9954.000000;1.200836
9953.000000;1.200952
9952.000000;1.200073
9951.000000;1.198603
9950.000000;1.197514
9949.000000;1.197403
9948.000000;1.197932
9947.000000;1.198244
9946.000000;1.197850
9945.000000;1.196991
9944.000000;1.196158
9943.000000;1.195464
9942.000000;1.194635
9941.000000;1.193562
9940.000000;1.192604
9939.000000;1.192196
9938.000000;1.192258
9937.000000;1.192255
9936.000000;1.191873
9935.000000;1.191392
9934.000000;1.191246
9933.000000;1.191410
9932.000000;1.191469
9931.000000;1.191211
9930.000000;1.190885
9929.000000;1.190827
9928.000000;1.191032
9927.000000;1.191174
9926.000000;1.190923
9925.000000;1.190161
9924.000000;1.189010
9923.000000;1.187767
9922.000000;1.186787
9921.000000;1.186315
9920.000000;1.186353
9919.000000;1.186650
9918.000000;1.186865
9917.000000;1.186793
9916.000000;1.186490
9915.000000;1.186111
9914.000000;1.185631
9913.000000;1.184867
9912.000000;1.183831
9911.000000;1.182908
9910.000000;1.182536
9909.000000;1.182795
9908.000000;1.183441
9907.000000;1.184193
9906.000000;1.184748
9905.000000;1.184648
9904.000000;1.183508
9903.000000;1.181534
9902.000000;1.179516
9901.000000;1.178128
9900.000000;1.177423
9899.000000;1.177098
9898.000000;1.176987
9897.000000;1.177045
9896.000000;1.177063
9895.000000;1.176771
9894.000000;1.176212
9893.000000;1.175743
9892.000000;1.175598
9891.000000;1.175670
9890.000000;1.175775
9889.000000;1.175877
9888.000000;1.175884
9887.000000;1.175471
9886.000000;1.174396
9885.000000;1.172929
9884.000000;1.171671
9883.000000;1.170892
9882.000000;1.170271
9881.000000;1.169420
9880.000000;1.168488
9879.000000;1.168058
9878.000000;1.168468
9877.000000;1.169403
9876.000000;1.170192
9875.000000;1.170396
9874.000000;1.170086
9873.000000;1.169591
9872.000000;1.169040
9871.000000;1.168203
9870.000000;1.166842
9869.000000;1.165190
9868.000000;1.163905
9867.000000;1.163421
9866.000000;1.163446
9865.000000;1.163295
9864.000000;1.162645
9863.000000;1.161770
9862.000000;1.161055
9861.000000;1.160576
9860.000000;1.160231
9859.000000;1.159995
9858.000000;1.159836
9857.000000;1.159597
9856.000000;1.159177
9855.000000;1.158723
9854.000000;1.158421
9853.000000;1.158188
9852.000000;1.157791
9851.000000;1.157198
9850.000000;1.156579
9849.000000;1.156031
9848.000000;1.155551
9847.000000;1.155256
9846.000000;1.155332
9845.000000;1.155677
9844.000000;1.155846
9843.000000;1.155507
9842.000000;1.154811
9841.000000;1.154162
9840.000000;1.153765
9839.000000;1.153531
9838.000000;1.153322
9837.000000;1.153115
9836.000000;1.152916
9835.000000;1.152628
9834.000000;1.152038
9833.000000;1.150974
9832.000000;1.149545
9831.000000;1.148226
9830.000000;1.147563
9829.000000;1.147644
9828.000000;1.147923
9827.000000;1.147741
9826.000000;1.147018
9825.000000;1.146294
9824.000000;1.146079
9823.000000;1.146309
9822.000000;1.146523
9821.000000;1.146417
9820.000000;1.146073
9819.000000;1.145706
9818.000000;1.145389
9817.000000;1.145066
9816.000000;1.144679
9815.000000;1.144200
9814.000000;1.143634
9813.000000;1.143070
9812.000000;1.142604
9811.000000;1.142136
9810.000000;1.141419
9809.000000;1.140463
9808.000000;1.139740
9807.000000;1.139718
9806.000000;1.140205
9805.000000;1.140445
9804.000000;1.139907
9803.000000;1.138781
9802.000000;1.137608
9801.000000;1.136696
9800.000000;1.136053
9799.000000;1.135638
9798.000000;1.135397
9797.000000;1.135151
9796.000000;1.134685
9795.000000;1.134015
9794.000000;1.133454
9793.000000;1.133395
9792.000000;1.134032
9791.000000;1.135169
9790.000000;1.136224
9789.000000;1.136546
9788.000000;1.135917
9787.000000;1.134701
9786.000000;1.133433
9785.000000;1.132402
9784.000000;1.131668
9783.000000;1.131285
9782.000000;1.131234
9781.000000;1.131228
9780.000000;1.130855
9779.000000;1.129989
9778.000000;1.128931
9777.000000;1.128135
9776.000000;1.127855
9775.000000;1.127976
9774.000000;1.128060
9773.000000;1.127639
9772.000000;1.126642
9771.000000;1.125520
9770.000000;1.124831
9769.000000;1.124704
9768.000000;1.124809
9767.000000;1.124745
9766.000000;1.124350
9765.000000;1.123715
9764.000000;1.123052
9763.000000;1.122526
9762.000000;1.122115
9761.000000;1.121663
9760.000000;1.121134
9759.000000;1.120662
9758.000000;1.120245
9757.000000;1.119592
9756.000000;1.118534
9755.000000;1.117447
9754.000000;1.116939
9753.000000;1.117153
9752.000000;1.117647
9751.000000;1.117945
9750.000000;1.117922
9749.000000;1.117616
9748.000000;1.116989
9747.000000;1.116053
9746.000000;1.115053
9745.000000;1.114371
9744.000000;1.114251
9743.000000;1.114638
9742.000000;1.115152
9741.000000;1.115291
9740.000000;1.114841
9739.000000;1.114095
9738.000000;1.113498
9737.000000;1.113146
9736.000000;1.112817
9735.000000;1.112382
9734.000000;1.111905
9733.000000;1.111381
9732.000000;1.110747
9731.000000;1.110148
9730.000000;1.109839
9729.000000;1.109763
9728.000000;1.109548
9727.000000;1.109034
9726.000000;1.108516
9725.000000;1.108291
9724.000000;1.108266
9723.000000;1.108152
9722.000000;1.107825
9721.000000;1.107319
9720.000000;1.106684
9719.000000;1.106029
9718.000000;1.105475
9717.000000;1.104945
9716.000000;1.104233
9715.000000;1.103399
9714.000000;1.102806
9713.000000;1.102625
9712.000000;1.102615
9711.000000;1.102585
9710.000000;1.102728
9709.000000;1.103178
9708.000000;1.103573
9707.000000;1.103471
9706.000000;1.102952
9705.000000;1.102391
9704.000000;1.101789
9703.000000;1.100851
9702.000000;1.099661
9701.000000;1.098754
9700.000000;1.098389
9699.000000;1.098159
9698.000000;1.097512
9697.000000;1.096437
9696.000000;1.095435
9695.000000;1.094940
9694.000000;1.094894
9693.000000;1.094840
9692.000000;1.094413
9691.000000;1.093752
9690.000000;1.093336
9689.000000;1.093374
9688.000000;1.093518
9687.000000;1.093335
9686.000000;1.092824
9685.000000;1.092232
9684.000000;1.091574
9683.000000;1.090739
9682.000000;1.089915
9681.000000;1.089450
9680.000000;1.089294
9679.000000;1.089020
9678.000000;1.088485
9677.000000;1.088036
9676.000000;1.087919
9675.000000;1.087894
9674.000000;1.087664
9673.000000;1.087362
9672.000000;1.087298
9671.000000;1.087457
9670.000000;1.087535
9669.000000;1.087333
9668.000000;1.086871
9667.000000;1.086260
9666.000000;1.085676
9665.000000;1.085329
9664.000000;1.085222
9663.000000;1.085036
9662.000000;1.084470
9661.000000;1.083638
9660.000000;1.082908
9659.000000;1.082406
9658.000000;1.081938
9657.000000;1.081382
9656.000000;1.080910
9655.000000;1.080761
9654.000000;1.080931
9653.000000;1.081192
9652.000000;1.081314
9651.000000;1.081227
9650.000000;1.080995
9649.000000;1.080678
9648.000000;1.080201
9647.000000;1.079409
9646.000000;1.078316
9645.000000;1.077215
9644.000000;1.076430
9643.000000;1.075969
9642.000000;1.075580
9641.000000;1.075127
9640.000000;1.074761
9639.000000;1.074630
9638.000000;1.074546
9637.000000;1.074111
9636.000000;1.073191
9635.000000;1.072149
9634.000000;1.071543
9633.000000;1.071601
9632.000000;1.072048
9631.000000;1.072394
9630.000000;1.072328
9629.000000;1.071805
9628.000000;1.070922
9627.000000;1.069870
9626.000000;1.068976
9625.000000;1.068559
9624.000000;1.068624
9623.000000;1.068811
9622.000000;1.068769
9621.000000;1.068503
9620.000000;1.068230
9619.000000;1.067954
9618.000000;1.067378
9617.000000;1.066264
9616.000000;1.064784
9615.000000;1.063417
9614.000000;1.062552
9613.000000;1.062243
9612.000000;1.062299
9611.000000;1.062519
9610.000000;1.062816
9609.000000;1.063137
9608.000000;1.063343
9607.000000;1.063235
9606.000000;1.062727
9605.000000;1.061970
9604.000000;1.061284
9603.000000;1.060953
9602.000000;1.061040
9601.000000;1.061342
9600.000000;1.061491
9599.000000;1.061191
9598.000000;1.060416
9597.000000;1.059416
9596.000000;1.058528
9595.000000;1.057992
9594.000000;1.057866
9593.000000;1.058012
9592.000000;1.058160
9591.000000;1.058100
9590.000000;1.057836
9589.000000;1.057492
9588.000000;1.057048
9587.000000;1.056318
9586.000000;1.055232
9585.000000;1.054054
9584.000000;1.053189
9583.000000;1.052854
9582.000000;1.052974
9581.000000;1.053325
9580.000000;1.053620
9579.000000;1.053527
9578.000000;1.052812
9577.000000;1.051555
9576.000000;1.050177
9575.000000;1.049194
9574.000000;1.048901
9573.000000;1.049222
9572.000000;1.049771
9571.000000;1.050085
9570.000000;1.049920
9569.000000;1.049322
9568.000000;1.048455
9567.000000;1.047447
9566.000000;1.046465
9565.000000;1.045792
9564.000000;1.045597
9563.000000;1.045646
9562.000000;1.045484
9561.000000;1.044990
9560.000000;1.044577
9559.000000;1.044688
9558.000000;1.045195
9557.000000;1.045452
9556.000000;1.044937
9555.000000;1.043777
9554.000000;1.042624
9553.000000;1.042079
9552.000000;1.042224
9551.000000;1.042652
9550.000000;1.042897
9549.000000;1.042805
9548.000000;1.042457
9547.000000;1.041858
9546.000000;1.040906
9545.000000;1.039699
9544.000000;1.038655
9543.000000;1.038168
9542.000000;1.038202
9541.000000;1.038339
9540.000000;1.038203
9539.000000;1.037734
9538.000000;1.037136
9537.000000;1.036687
9536.000000;1.036575
9535.000000;1.036710
9534.000000;1.036680
9533.000000;1.036047
9532.000000;1.034821
9531.000000;1.033534
9530.000000;1.032784
9529.000000;1.032721
9528.000000;1.032991
9527.000000;1.033093
9526.000000;1.032738
9525.000000;1.032003
9524.000000;1.031268
9523.000000;1.030988
9522.000000;1.031349
9521.000000;1.032081
9520.000000;1.032605
9519.000000;1.032450
9518.000000;1.031571
9517.000000;1.030340
9516.000000;1.029269
9515.000000;1.028693
9514.000000;1.028579
9513.000000;1.028590
9512.000000;1.028386
9511.000000;1.027947
9510.000000;1.027566
9509.000000;1.027461
9508.000000;1.027451
9507.000000;1.027125
9506.000000;1.026344
9505.000000;1.025435
9504.000000;1.024807
9503.000000;1.024477
9502.000000;1.024124
9501.000000;1.023543
9500.000000;1.022865
9499.000000;1.022301
9498.000000;1.021890
9497.000000;1.021613
9496.000000;1.021557
9495.000000;1.021757
9494.000000;1.021941
9493.000000;1.021714
9492.000000;1.021035
9491.000000;1.020327
9490.000000;1.020004
9489.000000;1.020022
9488.000000;1.020016
9487.000000;1.019764
9486.000000;1.019369
9485.000000;1.018998
9484.000000;1.018599
9483.000000;1.017981
9482.000000;1.017123
9481.000000;1.016307
9480.000000;1.015880
9479.000000;1.015874
9478.000000;1.015917
9477.000000;1.015594
9476.000000;1.014876
9475.000000;1.014174
9474.000000;1.013934
9473.000000;1.014240
9472.000000;1.014763
9471.000000;1.015017
9470.000000;1.014657
9469.000000;1.013676
9468.000000;1.012387
9467.000000;1.011212
9466.000000;1.010420
9465.000000;1.010060
9464.000000;1.010062
9463.000000;1.010297
9462.000000;1.010539
9461.000000;1.010543
9460.000000;1.010239
9459.000000;1.009782
9458.000000;1.009311
9457.000000;1.008794
9456.000000;1.008193
9455.000000;1.007665
9454.000000;1.007418
9453.000000;1.007435
9452.000000;1.007530
9451.000000;1.007611
9450.000000;1.007689
9449.000000;1.007617
9448.000000;1.007082
9447.000000;1.005988
9446.000000;1.004676
9445.000000;1.003618
9444.000000;1.002998
9443.000000;1.002699
9442.000000;1.002567
9441.000000;1.002511
9440.000000;1.002417
9439.000000;1.002165
9438.000000;1.001799
9437.000000;1.001551
9436.000000;1.001619
9435.000000;1.001969
9434.000000;1.002353
9433.000000;1.002472
9432.000000;1.002150
9431.000000;1.001462
9430.000000;1.000725
9429.000000;1.000308
9428.000000;1.000320
9427.000000;1.000490
9426.000000;1.000369
9425.000000;0.999717
9424.000000;0.998707
9423.000000;0.997774
9422.000000;0.997255
9421.000000;0.997157
9420.000000;0.997207
9419.000000;0.997103
9418.000000;0.996686
9417.000000;0.995968
9416.000000;0.995109
9415.000000;0.994387
9414.000000;0.994066
9413.000000;0.994186
9412.000000;0.994498
9411.000000;0.994686
9410.000000;0.994638
9409.000000;0.994443
9408.000000;0.994144
9407.000000;0.993630
9406.000000;0.992812
9405.000000;0.991852
9404.000000;0.991088
9403.000000;0.990707
9402.000000;0.990527
9401.000000;0.990151
9400.000000;0.989388
9399.000000;0.988503
9398.000000;0.987972
9397.000000;0.988000
9396.000000;0.988352
9395.000000;0.988661
9394.000000;0.988808
9393.000000;0.988841
9392.000000;0.988667
9391.000000;0.988056
9390.000000;0.987022
9389.000000;0.985977
9388.000000;0.985357
9387.000000;0.985175
9386.000000;0.985087
9385.000000;0.984831
9384.000000;0.984449
9383.000000;0.984090
9382.000000;0.983754
9381.000000;0.983329
9380.000000;0.982785
9379.000000;0.982248
9378.000000;0.981882
9377.000000;0.981733
9376.000000;0.981672
9375.000000;0.981482
9374.000000;0.981064
9373.000000;0.980576
9372.000000;0.980321
9371.000000;0.980439
9370.000000;0.980699
9369.000000;0.980644
9368.000000;0.979977
9367.000000;0.978837
9366.000000;0.977711
9365.000000;0.977068
9364.000000;0.977011
9363.000000;0.977232
9362.000000;0.977279
9361.000000;0.976882
9360.000000;0.976079
9359.000000;0.975119
9358.000000;0.974333
9357.000000;0.974030
9356.000000;0.974333
9355.000000;0.975041
9354.000000;0.975728
9353.000000;0.976097
9352.000000;0.976205
9351.000000;0.976258
9350.000000;0.976264
9349.000000;0.976004
9348.000000;0.975312
9347.000000;0.974253
9346.000000;0.973049
9345.000000;0.971954
9344.000000;0.971197
9343.000000;0.970868
9342.000000;0.970789
9341.000000;0.970655
9340.000000;0.970385
9339.000000;0.970198
9338.000000;0.970227
9337.000000;0.970230
9336.000000;0.969891
9335.000000;0.969287
9334.000000;0.968794
9333.000000;0.968563
9332.000000;0.968339
9331.000000;0.967886
9330.000000;0.967321
9329.000000;0.966912
9328.000000;0.966713
9327.000000;0.966568
9326.000000;0.966337
9325.000000;0.965950
9324.000000;0.965349
9323.000000;0.964566
9322.000000;0.963831
9321.000000;0.963408
9320.000000;0.963345
9319.000000;0.963465
9318.000000;0.963585
9317.000000;0.963599
9316.000000;0.963401
9315.000000;0.962912
9314.000000;0.962210
9313.000000;0.961516
9312.000000;0.961000
9311.000000;0.960710
9310.000000;0.960678
9309.000000;0.960905
9308.000000;0.961211
9307.000000;0.961288
9306.000000;0.961014
9305.000000;0.960598
9304.000000;0.960270
9303.000000;0.959988
9302.000000;0.959579
9301.000000;0.959066
9300.000000;0.958641
9299.000000;0.958344
9298.000000;0.957986
9297.000000;0.957448
9296.000000;0.956869
9295.000000;0.956445
9294.000000;0.956158
9293.000000;0.955817
9292.000000;0.955300
9291.000000;0.954696
9290.000000;0.954214
9289.000000;0.953998
9288.000000;0.953999
9287.000000;0.953980
9286.000000;0.953674
9285.000000;0.953026
9284.000000;0.952281
9283.000000;0.951784
9282.000000;0.951663
9281.000000;0.951757
9280.000000;0.951830
9279.000000;0.951843
9278.000000;0.951936
9277.000000;0.952172
9276.000000;0.952392
9275.000000;0.952376
9274.000000;0.952088
9273.000000;0.951658
9272.000000;0.951155
9271.000000;0.950505
9270.000000;0.949658
9269.000000;0.948737
9268.000000;0.947961
9267.000000;0.947468
9266.000000;0.947271
9265.000000;0.947277
9264.000000;0.947273
9263.000000;0.947005
9262.000000;0.946429
9261.000000;0.945862
9260.000000;0.945725
9259.000000;0.946096
9258.000000;0.946608
9257.000000;0.946802
9256.000000;0.946489
9255.000000;0.945740
9254.000000;0.944697
9253.000000;0.943513
9252.000000;0.942404
9251.000000;0.941598
9250.000000;0.941199
9249.000000;0.941128
9248.000000;0.941196
9247.000000;0.941219
9246.000000;0.941114
9245.000000;0.940925
9244.000000;0.940725
9243.000000;0.940493
9242.000000;0.940145
9241.000000;0.939746
9240.000000;0.939579
9239.000000;0.939869
9238.000000;0.940459
9237.000000;0.940894
9236.000000;0.940883
9235.000000;0.940556
9234.000000;0.940211
9233.000000;0.939940
9232.000000;0.939628
9231.000000;0.939207
9230.000000;0.938728
9229.000000;0.938178
9228.000000;0.937429
9227.000000;0.936487
9226.000000;0.935619
9225.000000;0.935072
9224.000000;0.934728
9223.000000;0.934245
9222.000000;0.933539
9221.000000;0.932920
9220.000000;0.932692
9219.000000;0.932803
9218.000000;0.933007
9217.000000;0.933186
9216.000000;0.933346
9215.000000;0.933395
9214.000000;0.933166
9213.000000;0.932658
9212.000000;0.932033
9211.000000;0.931363
9210.000000;0.930559
9209.000000;0.929637
9208.000000;0.928851
9207.000000;0.928458
9206.000000;0.928432
9205.000000;0.928525
9204.000000;0.928532
9203.000000;0.928414
9202.000000;0.928241
9201.000000;0.928118
9200.000000;0.928123
9199.000000;0.928235
9198.000000;0.928345
9197.000000;0.928379
9196.000000;0.928344
9195.000000;0.928212
9194.000000;0.927858
9193.000000;0.927225
9192.000000;0.926458
9191.000000;0.925759
9190.000000;0.925168
9189.000000;0.924617
9188.000000;0.924147
9187.000000;0.923898
9186.000000;0.923868
9185.000000;0.923838
9184.000000;0.923632
9183.000000;0.923340
9182.000000;0.923180
9181.000000;0.923208
9180.000000;0.923228
9179.000000;0.922992
9178.000000;0.922424
9177.000000;0.921666
9176.000000;0.920946
9175.000000;0.920446
9174.000000;0.920262
9173.000000;0.920400
9172.000000;0.920724
9171.000000;0.920926
9170.000000;0.920704
9169.000000;0.920059
9168.000000;0.919356
9167.000000;0.918963
9166.000000;0.918867
9165.000000;0.918735
9164.000000;0.918319
9163.000000;0.917670
9162.000000;0.916977
9161.000000;0.916365
9160.000000;0.915935
9159.000000;0.915830
9158.000000;0.916108
9157.000000;0.916576
9156.000000;0.916870
9155.000000;0.916761
9154.000000;0.916315
9153.000000;0.915765
9152.000000;0.915276
9151.000000;0.914862
9150.000000;0.914454
9149.000000;0.914016
9148.000000;0.913576
9147.000000;0.913198
9146.000000;0.912944
9145.000000;0.912822
9144.000000;0.912739
9143.000000;0.912494
9142.000000;0.911904
9141.000000;0.911012
9140.000000;0.910148
9139.000000;0.909704
9138.000000;0.909825
9137.000000;0.910332
9136.000000;0.910880
9135.000000;0.911151
9134.000000;0.910950
9133.000000;0.910297
9132.000000;0.909475
9131.000000;0.908885
9130.000000;0.908735
9129.000000;0.908857
9128.000000;0.908871
9127.000000;0.908516
9126.000000;0.907816
9125.000000;0.906981
9124.000000;0.906239
9123.000000;0.905729
9122.000000;0.905478
9121.000000;0.905426
9120.000000;0.905467
9119.000000;0.905485
9118.000000;0.905372
9117.000000;0.905086
9116.000000;0.904709
9115.000000;0.904400
9114.000000;0.904231
9113.000000;0.904122
9112.000000;0.903974
9111.000000;0.903832
9110.000000;0.903808
9109.000000;0.903850
9108.000000;0.903702
9107.000000;0.903177
9106.000000;0.902387
9105.000000;0.901634
9104.000000;0.901100
9103.000000;0.900733
9102.000000;0.900410
9101.000000;0.900111
9100.000000;0.899886
9099.000000;0.899730
9098.000000;0.899571
9097.000000;0.899338
9096.000000;0.898997
9095.000000;0.898559
9094.000000;0.898119
9093.000000;0.897815
9092.000000;0.897679
9091.000000;0.897533
9090.000000;0.897175
9089.000000;0.896658
9088.000000;0.896250
9087.000000;0.896099
9086.000000;0.896060
9085.000000;0.895937
9084.000000;0.895748
9083.000000;0.895643
9082.000000;0.895639
9081.000000;0.895602
9080.000000;0.895453
9079.000000;0.895250
9078.000000;0.895068
9077.000000;0.894916
9076.000000;0.894771
9075.000000;0.894596
9074.000000;0.894294
9073.000000;0.893785
9072.000000;0.893154
9071.000000;0.892639
9070.000000;0.892396
9069.000000;0.892342
9068.000000;0.892262
9067.000000;0.892026
9066.000000;0.891639
9065.000000;0.891148
9064.000000;0.890574
9063.000000;0.889924
9062.000000;0.889254
9061.000000;0.888719
9060.000000;0.888522
9059.000000;0.888726
9058.000000;0.889100
9057.000000;0.889267
9056.000000;0.889056
9055.000000;0.888660
9054.000000;0.888363
9053.000000;0.888206
9052.000000;0.888005
9051.000000;0.887634
9050.000000;0.887177
9049.000000;0.886773
9048.000000;0.886427
9047.000000;0.886032
9046.000000;0.885516
9045.000000;0.884914
9044.000000;0.884348
9043.000000;0.884010
9042.000000;0.884085
9041.000000;0.884592
9040.000000;0.885268
9039.000000;0.885683
9038.000000;0.885585
9037.000000;0.885087
9036.000000;0.884479
9035.000000;0.883891
9034.000000;0.883217
9033.000000;0.882367
9032.000000;0.881465
9031.000000;0.880754
9030.000000;0.880393
9029.000000;0.880378
9028.000000;0.880592
9027.000000;0.880832
9026.000000;0.880894
9025.000000;0.880716
9024.000000;0.880430
9023.000000;0.880181
9022.000000;0.879947
9021.000000;0.879603
9020.000000;0.879125
9019.000000;0.878610
9018.000000;0.878159
9017.000000;0.877845
9016.000000;0.877754
9015.000000;0.877898
9014.000000;0.878088
9013.000000;0.878084
9012.000000;0.877896
9011.000000;0.877767
9010.000000;0.877816
9009.000000;0.877855
9008.000000;0.877684
9007.000000;0.877392
9006.000000;0.877211
9005.000000;0.877147
9004.000000;0.876954
9003.000000;0.876455
9002.000000;0.875738
9001.000000;0.875019
9000.000000;0.874445
8999.000000;0.874044
8998.000000;0.873767
8997.000000;0.873525
8996.000000;0.873245
8995.000000;0.872930
8994.000000;0.872642
8993.000000;0.872421
8992.000000;0.872247
8991.000000;0.872097
8990.000000;0.871974
8989.000000;0.871868
8988.000000;0.871718
8987.000000;0.871456
8986.000000;0.871090
8985.000000;0.870697
8984.000000;0.870313
8983.000000;0.869874
8982.000000;0.869335
8981.000000;0.868819
8980.000000;0.868564
8979.000000;0.868663
8978.000000;0.868947
8977.000000;0.869160
8976.000000;0.869180
8975.000000;0.868990
8974.000000;0.868533
8973.000000;0.867787
8972.000000;0.866936
8971.000000;0.866289
8970.000000;0.865990
8969.000000;0.865938
8968.000000;0.865993
8967.000000;0.866100
8966.000000;0.866166
8965.000000;0.866022
8964.000000;0.865620
8963.000000;0.865127
8962.000000;0.864679
8961.000000;0.864174
8960.000000;0.863477
8959.000000;0.862725
8958.000000;0.862255
8957.000000;0.862254
8956.000000;0.862595
8955.000000;0.862990
8954.000000;0.863184
8953.000000;0.863035
8952.000000;0.862550
8951.000000;0.861897
8950.000000;0.861310
8949.000000;0.860952
8948.000000;0.860863
8947.000000;0.860955
8946.000000;0.861012
8945.000000;0.860792
8944.000000;0.860276
8943.000000;0.859728
8942.000000;0.859398
8941.000000;0.859223
8940.000000;0.858957
8939.000000;0.858554
8938.000000;0.858227
8937.000000;0.858147
8936.000000;0.858234
8935.000000;0.858292
8934.000000;0.858195
8933.000000;0.857915
8932.000000;0.857497
8931.000000;0.857054
8930.000000;0.856680
8929.000000;0.856345
8928.000000;0.855964
8927.000000;0.855606
8926.000000;0.855462
8925.000000;0.855551
8924.000000;0.855570
8923.000000;0.855175
8922.000000;0.854379
8921.000000;0.853609
8920.000000;0.853374
8919.000000;0.853845
8918.000000;0.854692
8917.000000;0.855292
8916.000000;0.855208
8915.000000;0.854540
8914.000000;0.853743
8913.000000;0.853132
8912.000000;0.852661
8911.000000;0.852192
8910.000000;0.851799
8909.000000;0.851674
8908.000000;0.851833
8907.000000;0.852029
8906.000000;0.851972
8905.000000;0.851555
8904.000000;0.850913
8903.000000;0.850316
8902.000000;0.849993
8901.000000;0.849979
8900.000000;0.850128
8899.000000;0.850246
8898.000000;0.850213
8897.000000;0.850002
8896.000000;0.849683
8895.000000;0.849431
8894.000000;0.849384
8893.000000;0.849453
8892.000000;0.849385
8891.000000;0.849076
8890.000000;0.848720
8889.000000;0.848529
8888.000000;0.848455
8887.000000;0.848315
8886.000000;0.848102
8885.000000;0.847955
8884.000000;0.847867
8883.000000;0.847634
8882.000000;0.847139
8881.000000;0.846510
8880.000000;0.845933
8879.000000;0.845456
8878.000000;0.845063
8877.000000;0.844808
8876.000000;0.844756
8875.000000;0.844869
8874.000000;0.845046
8873.000000;0.845219
8872.000000;0.845309
8871.000000;0.845155
8870.000000;0.844634
8869.000000;0.843891
8868.000000;0.843296
8867.000000;0.843084
8866.000000;0.843089
8865.000000;0.842923
8864.000000;0.842397
8863.000000;0.841710
8862.000000;0.841224
8861.000000;0.841121
8860.000000;0.841311
8859.000000;0.841604
8858.000000;0.841871
8857.000000;0.842032
8856.000000;0.842008
8855.000000;0.841772
8854.000000;0.841432
8853.000000;0.841162
8852.000000;0.841022
8851.000000;0.840902
8850.000000;0.840661
8849.000000;0.840277
8848.000000;0.839855
8847.000000;0.839531
8846.000000;0.839407
8845.000000;0.839515
8844.000000;0.839769
8843.000000;0.839974
8842.000000;0.839954
8841.000000;0.839678
8840.000000;0.839235
8839.000000;0.838705
8838.000000;0.838132
8837.000000;0.837587
8836.000000;0.837160
8835.000000;0.836862
8834.000000;0.836627
8833.000000;0.836470
8832.000000;0.836532
8831.000000;0.836890
8830.000000;0.837383
8829.000000;0.837744
8828.000000;0.837846
8827.000000;0.837723
8826.000000;0.837395
8825.000000;0.836821
8824.000000;0.836071
8823.000000;0.835380
8822.000000;0.834966
8821.000000;0.834864
8820.000000;0.835001
8819.000000;0.835302
8818.000000;0.835652
8817.000000;0.835862
8816.000000;0.835836
8815.000000;0.835724
8814.000000;0.835766
8813.000000;0.835972
8812.000000;0.836079
8811.000000;0.835837
8810.000000;0.835254
8809.000000;0.834546
8808.000000;0.833953
8807.000000;0.833636
8806.000000;0.833632
8805.000000;0.833820
8804.000000;0.833969
8803.000000;0.833919
8802.000000;0.833685
8801.000000;0.833364
8800.000000;0.832991
8799.000000;0.832561
8798.000000;0.832164
8797.000000;0.831987
8796.000000;0.832117
8795.000000;0.832399
8794.000000;0.832543
8793.000000;0.832400
8792.000000;0.832092
8791.000000;0.831862
8790.000000;0.831825
8789.000000;0.831903
8788.000000;0.831965
8787.000000;0.831981
8786.000000;0.832014
8785.000000;0.832123
8784.000000;0.832299
8783.000000;0.832459
8782.000000;0.832479
8781.000000;0.832296
8780.000000;0.832010
8779.000000;0.831808
8778.000000;0.831736
8777.000000;0.831633
8776.000000;0.831365
8775.000000;0.831057
8774.000000;0.830954
8773.000000;0.831118
8772.000000;0.831373
8771.000000;0.831517
8770.000000;0.831448
8769.000000;0.831123
8768.000000;0.830605
8767.000000;0.830170
8766.000000;0.830142
8765.000000;0.830522
8764.000000;0.830941
8763.000000;0.831078
8762.000000;0.830979
8761.000000;0.830845
8760.000000;0.830701
8759.000000;0.830455
8758.000000;0.830165
8757.000000;0.829986
8756.000000;0.829910
8755.000000;0.829774
8754.000000;0.829531
8753.000000;0.829308
8752.000000;0.829168
8751.000000;0.829014
8750.000000;0.828790
8749.000000;0.828614
8748.000000;0.828601
8747.000000;0.828709
8746.000000;0.828845
8745.000000;0.829039
8744.000000;0.829370
8743.000000;0.829778
8742.000000;0.830067
8741.000000;0.830086
8740.000000;0.829854
8739.000000;0.829536
8738.000000;0.829314
8737.000000;0.829232
8736.000000;0.829138
8735.000000;0.828845
8734.000000;0.828402
8733.000000;0.828096
8732.000000;0.828129
8731.000000;0.828388
8730.000000;0.828636
8729.000000;0.828816
8728.000000;0.829031
8727.000000;0.829277
8726.000000;0.829399
8725.000000;0.829336
8724.000000;0.829240
8723.000000;0.829274
8722.000000;0.829403
8721.000000;0.829458
8720.000000;0.829353
8719.000000;0.829148
8718.000000;0.828969
8717.000000;0.828898
8716.000000;0.828933
8715.000000;0.829004
8714.000000;0.829052
8713.000000;0.829123
8712.000000;0.829293
8711.000000;0.829507
8710.000000;0.829548
8709.000000;0.829258
8708.000000;0.828731
8707.000000;0.828239
8706.000000;0.827996
8705.000000;0.828033
8704.000000;0.828218
8703.000000;0.828318
8702.000000;0.828108
8701.000000;0.827554
8700.000000;0.826905
8699.000000;0.826498
8698.000000;0.826459
8697.000000;0.826630
8696.000000;0.826789
8695.000000;0.826873
8694.000000;0.826952
8693.000000;0.827065
8692.000000;0.827131
8691.000000;0.827027
8690.000000;0.826725
8689.000000;0.826359
8688.000000;0.826117
8687.000000;0.826046
8686.000000;0.825991
8685.000000;0.825778
8684.000000;0.825434
8683.000000;0.825132
8682.000000;0.824961
8681.000000;0.824872
8680.000000;0.824860
8679.000000;0.825044
8678.000000;0.825462
8677.000000;0.825918
8676.000000;0.826146
8675.000000;0.826074
8674.000000;0.825814
8673.000000;0.825462
8672.000000;0.825027
8671.000000;0.824556
8670.000000;0.824162
8669.000000;0.823902
8668.000000;0.823724
8667.000000;0.823573
8666.000000;0.823487
8665.000000;0.823520
8664.000000;0.823626
8663.000000;0.823688
8662.000000;0.823644
8661.000000;0.823520
8660.000000;0.823351
8659.000000;0.823116
8658.000000;0.822788
8657.000000;0.822437
8656.000000;0.822243
8655.000000;0.822358
8654.000000;0.822712
8653.000000;0.822994
8652.000000;0.822880
8651.000000;0.822318
8650.000000;0.821561
8649.000000;0.820919
8648.000000;0.820490
8647.000000;0.820141
8646.000000;0.819720
8645.000000;0.819245
8644.000000;0.818882
8643.000000;0.818755
8642.000000;0.818843
8641.000000;0.819047
8640.000000;0.819298
8639.000000;0.819534
8638.000000;0.819625
8637.000000;0.819441
8636.000000;0.819016
8635.000000;0.818552
8634.000000;0.818212
8633.000000;0.817984
8632.000000;0.817788
8631.000000;0.817631
8630.000000;0.817557
8629.000000;0.817535
8628.000000;0.817506
8627.000000;0.817506
8626.000000;0.817606
8625.000000;0.817739
8624.000000;0.817704
8623.000000;0.817395
8622.000000;0.816928
8621.000000;0.816516
8620.000000;0.816274
8619.000000;0.816171
8618.000000;0.816102
8617.000000;0.815962
8616.000000;0.815704
8615.000000;0.815363
8614.000000;0.815026
8613.000000;0.814772
8612.000000;0.814626
8611.000000;0.814560
8610.000000;0.814471
8609.000000;0.814222
8608.000000;0.813773
8607.000000;0.813261
8606.000000;0.812861
8605.000000;0.812593
8604.000000;0.812338
8603.000000;0.812022
8602.000000;0.811679
8601.000000;0.811337
8600.000000;0.810981
8599.000000;0.810658
8598.000000;0.810494
8597.000000;0.810525
8596.000000;0.810618
8595.000000;0.810618
8594.000000;0.810491
8593.000000;0.810266
8592.000000;0.809950
8591.000000;0.809586
8590.000000;0.809301
8589.000000;0.809166
8588.000000;0.809091
8587.000000;0.808957
8586.000000;0.808794
8585.000000;0.808731
8584.000000;0.808800
8583.000000;0.808903
8582.000000;0.808944
8581.000000;0.808880
8580.000000;0.808672
8579.000000;0.808307
8578.000000;0.807881
8577.000000;0.807542
8576.000000;0.807318
8575.000000;0.807081
8574.000000;0.806711
8573.000000;0.806238
8572.000000;0.805807
8571.000000;0.805535
8570.000000;0.805420
8569.000000;0.805328
8568.000000;0.805068
8567.000000;0.804560
8566.000000;0.803924
8565.000000;0.803379
8564.000000;0.803059
8563.000000;0.802964
8562.000000;0.803056
8561.000000;0.803283
8560.000000;0.803501
8559.000000;0.803503
8558.000000;0.803203
8557.000000;0.802750
8556.000000;0.802389
8555.000000;0.802250
8554.000000;0.802298
8553.000000;0.802421
8552.000000;0.802500
8551.000000;0.802413
8550.000000;0.802062
8549.000000;0.801437
8548.000000;0.800639
8547.000000;0.799840
8546.000000;0.799203
8545.000000;0.798818
8544.000000;0.798688
8543.000000;0.798739
8542.000000;0.798871
8541.000000;0.798980
8540.000000;0.798984
8539.000000;0.798860
8538.000000;0.798659
8537.000000;0.798451
8536.000000;0.798262
8535.000000;0.798082
8534.000000;0.797926
8533.000000;0.797815
8532.000000;0.797686
8531.000000;0.797378
8530.000000;0.796781
8529.000000;0.795969
8528.000000;0.795163
8527.000000;0.794581
8526.000000;0.794335
8525.000000;0.794394
8524.000000;0.794579
8523.000000;0.794625
8522.000000;0.794357
8521.000000;0.793843
8520.000000;0.793331
8519.000000;0.793010
8518.000000;0.792868
8517.000000;0.792797
8516.000000;0.792752
8515.000000;0.792731
8514.000000;0.792667
8513.000000;0.792453
8512.000000;0.792112
8511.000000;0.791831
8510.000000;0.791749
8509.000000;0.791779
8508.000000;0.791704
8507.000000;0.791442
8506.000000;0.791097
8505.000000;0.790776
8504.000000;0.790450
8503.000000;0.790057
8502.000000;0.789645
8501.000000;0.789319
8500.000000;0.789111
8499.000000;0.788957
8498.000000;0.788798
8497.000000;0.788623
8496.000000;0.788429
8495.000000;0.788187
8494.000000;0.787883
8493.000000;0.787548
8492.000000;0.787230
8491.000000;0.786957
8490.000000;0.786718
8489.000000;0.786468
8488.000000;0.786155
8487.000000;0.785777
8486.000000;0.785393
8485.000000;0.785049
8484.000000;0.784731
8483.000000;0.784406
8482.000000;0.784101
8481.000000;0.783882
8480.000000;0.783782
8479.000000;0.783780
8478.000000;0.783826
8477.000000;0.783831
8476.000000;0.783668
8475.000000;0.783272
8474.000000;0.782770
8473.000000;0.782403
8472.000000;0.782318
8471.000000;0.782448
8470.000000;0.782615
8469.000000;0.782677
8468.000000;0.782566
8467.000000;0.782292
8466.000000;0.781985
8465.000000;0.781829
8464.000000;0.781872
8463.000000;0.781928
8462.000000;0.781787
8461.000000;0.781474
8460.000000;0.781206
8459.000000;0.781079
8458.000000;0.780901
8457.000000;0.780431
8456.000000;0.779710
8455.000000;0.779064
8454.000000;0.778760
8453.000000;0.778719
8452.000000;0.778631
8451.000000;0.778317
8450.000000;0.777928
8449.000000;0.777738
8448.000000;0.777809
8447.000000;0.777917
8446.000000;0.777808
8445.000000;0.777441
8444.000000;0.776987
8443.000000;0.776643
8442.000000;0.776489
8441.000000;0.776460
8440.000000;0.776387
8439.000000;0.776100
8438.000000;0.775576
8437.000000;0.774979
8436.000000;0.774517
8435.000000;0.774249
8434.000000;0.774056
8433.000000;0.773795
8432.000000;0.773445
8431.000000;0.773089
8430.000000;0.772818
8429.000000;0.772656
8428.000000;0.772553
8427.000000;0.772418
8426.000000;0.772188
8425.000000;0.771872
8424.000000;0.771543
8423.000000;0.771284
8422.000000;0.771131
8421.000000;0.771052
8420.000000;0.770943
8419.000000;0.770702
8418.000000;0.770327
8417.000000;0.769940
8416.000000;0.769651
8415.000000;0.769412
8414.000000;0.769059
8413.000000;0.768520
8412.000000;0.767913
8411.000000;0.767420
8410.000000;0.767117
8409.000000;0.766960
8408.000000;0.766910
8407.000000;0.766975
8406.000000;0.767141
8405.000000;0.767318
8404.000000;0.767385
8403.000000;0.767290
8402.000000;0.767073
8401.000000;0.766801
8400.000000;0.766493
8399.000000;0.766136
8398.000000;0.765763
8397.000000;0.765473
8396.000000;0.765329
8395.000000;0.765255
8394.000000;0.765097
8393.000000;0.764785
8392.000000;0.764386
8391.000000;0.763978
8390.000000;0.763558
8389.000000;0.763101
8388.000000;0.762663
8387.000000;0.762343
8386.000000;0.762166
8385.000000;0.762055
8384.000000;0.761916
8383.000000;0.761698
8382.000000;0.761393
8381.000000;0.761053
8380.000000;0.760775
8379.000000;0.760616
8378.000000;0.760504
8377.000000;0.760308
8376.000000;0.759988
8375.000000;0.759630
8374.000000;0.759292
8373.000000;0.758943
8372.000000;0.758571
8371.000000;0.758285
8370.000000;0.758200
8369.000000;0.758267
8368.000000;0.758288
8367.000000;0.758100
8366.000000;0.757677
8365.000000;0.757098
8364.000000;0.756481
8363.000000;0.755963
8362.000000;0.755643
8361.000000;0.755510
8360.000000;0.755454
8359.000000;0.755387
8358.000000;0.755308
8357.000000;0.755249
8356.000000;0.755186
8355.000000;0.755067
8354.000000;0.754897
8353.000000;0.754737
8352.000000;0.754604
8351.000000;0.754408
8350.000000;0.754037
8349.000000;0.753517
8348.000000;0.753039
8347.000000;0.752787
8346.000000;0.752746
8345.000000;0.752742
8344.000000;0.752647
8343.000000;0.752478
8342.000000;0.752257
8341.000000;0.751880
8340.000000;0.751254
8339.000000;0.750508
8338.000000;0.749945
8337.000000;0.749721
8336.000000;0.749687
8335.000000;0.749579
8334.000000;0.749313
8333.000000;0.749027
8332.000000;0.748877
8331.000000;0.748863
8330.000000;0.748824
8329.000000;0.748554
8328.000000;0.747943
8327.000000;0.747085
8326.000000;0.746264
8325.000000;0.745781
8324.000000;0.745740
8323.000000;0.745979
8322.000000;0.746206
8321.000000;0.746206
8320.000000;0.745982
8319.000000;0.745725
8318.000000;0.745633
8317.000000;0.745707
8316.000000;0.745716
8315.000000;0.745413
8314.000000;0.744806
8313.000000;0.744170
8312.000000;0.743780
8311.000000;0.743654
8310.000000;0.743579
8309.000000;0.743358
8308.000000;0.742972
8307.000000;0.742514
8306.000000;0.742045
8305.000000;0.741568
8304.000000;0.741098
8303.000000;0.740694
8302.000000;0.740406
8301.000000;0.740242
8300.000000;0.740179
8299.000000;0.740156
8298.000000;0.740057
8297.000000;0.739759
8296.000000;0.739268
8295.000000;0.738764
8294.000000;0.738449
8293.000000;0.738346
8292.000000;0.738288
8291.000000;0.738111
8290.000000;0.737805
8289.000000;0.737472
8288.000000;0.737171
8287.000000;0.736850
8286.000000;0.736398
8285.000000;0.735784
8284.000000;0.735136
8283.000000;0.734671
8282.000000;0.734505
8281.000000;0.734529
8280.000000;0.734498
8279.000000;0.734242
8278.000000;0.733772
8277.000000;0.733212
8276.000000;0.732689
8275.000000;0.732299
8274.000000;0.732088
8273.000000;0.732025
8272.000000;0.732010
8271.000000;0.731936
8270.000000;0.731733
8269.000000;0.731372
8268.000000;0.730885
8267.000000;0.730381
8266.000000;0.729981
8265.000000;0.729692
8264.000000;0.729395
8263.000000;0.728985
8262.000000;0.728493
8261.000000;0.728045
8260.000000;0.727746
8259.000000;0.727623
8258.000000;0.727619
8257.000000;0.727600
8256.000000;0.727440
8255.000000;0.727153
8254.000000;0.726914
8253.000000;0.726868
8252.000000;0.726938
8251.000000;0.726884
8250.000000;0.726553
8249.000000;0.726028
8248.000000;0.725529
8247.000000;0.725218
8246.000000;0.725078
8245.000000;0.724967
8244.000000;0.724775
8243.000000;0.724532
8242.000000;0.724351
8241.000000;0.724265
8240.000000;0.724174
8239.000000;0.723971
8238.000000;0.723655
8237.000000;0.723275
8236.000000;0.722823
8235.000000;0.722262
8234.000000;0.721634
8233.000000;0.721054
8232.000000;0.720580
8231.000000;0.720165
8230.000000;0.719752
8229.000000;0.719362
8228.000000;0.719065
8227.000000;0.718878
8226.000000;0.718721
8225.000000;0.718477
8224.000000;0.718110
8223.000000;0.717717
8222.000000;0.717445
8221.000000;0.717335
8220.000000;0.717289
8219.000000;0.717207
8218.000000;0.717080
8217.000000;0.716913
8216.000000;0.716646
8215.000000;0.716228
8214.000000;0.715728
8213.000000;0.715279
8212.000000;0.714929
8211.000000;0.714648
8210.000000;0.714434
8209.000000;0.714327
8208.000000;0.714304
8207.000000;0.714268
8206.000000;0.714156
8205.000000;0.713978
8204.000000;0.713723
8203.000000;0.713336
8202.000000;0.712803
8201.000000;0.712210
8200.000000;0.711665
8199.000000;0.711226
8198.000000;0.710926
8197.000000;0.710782
8196.000000;0.710721
8195.000000;0.710572
8194.000000;0.710211
8193.000000;0.709681
8192.000000;0.709145
8191.000000;0.708740
8190.000000;0.708501
8189.000000;0.708388
8188.000000;0.708334
8187.000000;0.708273
8186.000000;0.708149
8185.000000;0.707909
8184.000000;0.707524
8183.000000;0.707039
8182.000000;0.706592
8181.000000;0.706290
8180.000000;0.706074
8179.000000;0.705782
8178.000000;0.705359
8177.000000;0.704924
8176.000000;0.704594
8175.000000;0.704349
8174.000000;0.704105
8173.000000;0.703839
8172.000000;0.703555
8171.000000;0.703227
8170.000000;0.702860
8169.000000;0.702562
8168.000000;0.702428
8167.000000;0.702380
8166.000000;0.702233
8165.000000;0.701916
8164.000000;0.701526
8163.000000;0.701149
8162.000000;0.700754
8161.000000;0.700292
8160.000000;0.699833
8159.000000;0.699500
8158.000000;0.699312
8157.000000;0.699163
8156.000000;0.698947
8155.000000;0.698659
8154.000000;0.698364
8153.000000;0.698118
8152.000000;0.697928
8151.000000;0.697777
8150.000000;0.697635
8149.000000;0.697459
8148.000000;0.697202
8147.000000;0.696847
8146.000000;0.696446
8145.000000;0.696082
8144.000000;0.695807
8143.000000;0.695591
8142.000000;0.695334
8141.000000;0.694936
8140.000000;0.694392
8139.000000;0.693833
8138.000000;0.693443
8137.000000;0.693273
8136.000000;0.693173
8135.000000;0.692939
8134.000000;0.692524
8133.000000;0.692039
8132.000000;0.691573
8131.000000;0.691119
8130.000000;0.690696
8129.000000;0.690432
8128.000000;0.690444
8127.000000;0.690682
8126.000000;0.690949
8125.000000;0.691043
8124.000000;0.690846
8123.000000;0.690342
8122.000000;0.689637
8121.000000;0.688929
8120.000000;0.688383
8119.000000;0.688017
8118.000000;0.687751
8117.000000;0.687513
8116.000000;0.687271
8115.000000;0.686985
8114.000000;0.686648
8113.000000;0.686339
8112.000000;0.686148
8111.000000;0.686024
8110.000000;0.685782
8109.000000;0.685309
8108.000000;0.684706
8107.000000;0.684199
8106.000000;0.683921
8105.000000;0.683815
8104.000000;0.683709
8103.000000;0.683461
8102.000000;0.683068
8101.000000;0.682654
8100.000000;0.682349
8099.000000;0.682171
8098.000000;0.682045
8097.000000;0.681892
8096.000000;0.681683
8095.000000;0.681402
8094.000000;0.681041
8093.000000;0.680633
8092.000000;0.680253
8091.000000;0.679946
8090.000000;0.679672
8089.000000;0.679365
8088.000000;0.679021
8087.000000;0.678714
8086.000000;0.678514
8085.000000;0.678404
8084.000000;0.678257
8083.000000;0.677935
8082.000000;0.677417
8081.000000;0.676831
8080.000000;0.676314
8079.000000;0.675873
8078.000000;0.675431
8077.000000;0.674980
8076.000000;0.674618
8075.000000;0.674400
8074.000000;0.674219
8073.000000;0.673920
8072.000000;0.673470
8071.000000;0.672989
8070.000000;0.672612
8069.000000;0.672383
8068.000000;0.672266
8067.000000;0.672199
8066.000000;0.672120
8065.000000;0.671983
8064.000000;0.671752
8063.000000;0.671392
8062.000000;0.670895
8061.000000;0.670328
8060.000000;0.669840
8059.000000;0.669544
8058.000000;0.669398
8057.000000;0.669240
8056.000000;0.668959
8055.000000;0.668587
8054.000000;0.668221
8053.000000;0.667889
8052.000000;0.667562
8051.000000;0.667238
8050.000000;0.666961
8049.000000;0.666749
8048.000000;0.666572
8047.000000;0.666400
8046.000000;0.666239
8045.000000;0.666071
8044.000000;0.665818
8043.000000;0.665421
8042.000000;0.664939
8041.000000;0.664499
8040.000000;0.664153
8039.000000;0.663827
8038.000000;0.663446
8037.000000;0.663052
8036.000000;0.662753
8035.000000;0.662586
8034.000000;0.662458
8033.000000;0.662229
8032.000000;0.661834
8031.000000;0.661345
8030.000000;0.660910
8029.000000;0.660619
8028.000000;0.660404
8027.000000;0.660106
8026.000000;0.659653
8025.000000;0.659157
8024.000000;0.658789
8023.000000;0.658610
8022.000000;0.658544
8021.000000;0.658487
8020.000000;0.658383
8019.000000;0.658206
8018.000000;0.657955
8017.000000;0.657673
8016.000000;0.657412
8015.000000;0.657153
8014.000000;0.656801
8013.000000;0.656296
8012.000000;0.655689
8011.000000;0.655093
8010.000000;0.654591
8009.000000;0.654200
8008.000000;0.653875
8007.000000;0.653539
8006.000000;0.653167
8005.000000;0.652862
8004.000000;0.652767
8003.000000;0.652868
8002.000000;0.652937
8001.000000;0.652751
8000.000000;0.652336
7999.000000;0.651912
7998.000000;0.651628
7997.000000;0.651450
7996.000000;0.651290
7995.000000;0.651128
7994.000000;0.650963
7993.000000;0.650741
7992.000000;0.650397
7991.000000;0.649936
7990.000000;0.649415
7989.000000;0.648877
7988.000000;0.648354
7987.000000;0.647898
7986.000000;0.647548
7985.000000;0.647266
7984.000000;0.646964
7983.000000;0.646610
7982.000000;0.646257
7981.000000;0.645979
7980.000000;0.645787
7979.000000;0.645626
7978.000000;0.645433
7977.000000;0.645162
7976.000000;0.644798
7975.000000;0.644375
7974.000000;0.643981
7973.000000;0.643701
7972.000000;0.643535
7971.000000;0.643378
7970.000000;0.643100
7969.000000;0.642682
7968.000000;0.642237
7967.000000;0.641899
7966.000000;0.641679
7965.000000;0.641445
7964.000000;0.641051
7963.000000;0.640470
7962.000000;0.639800
7961.000000;0.639182
7960.000000;0.638728
7959.000000;0.638497
7958.000000;0.638458
7957.000000;0.638478
7956.000000;0.638388
7955.000000;0.638112
7954.000000;0.637736
7953.000000;0.637405
7952.000000;0.637186
7951.000000;0.637041
7950.000000;0.636905
7949.000000;0.636729
7948.000000;0.636453
7947.000000;0.635998
7946.000000;0.635350
7945.000000;0.634632
7944.000000;0.634033
7943.000000;0.633657
7942.000000;0.633467
7941.000000;0.633356
7940.000000;0.633232
7939.000000;0.633025
7938.000000;0.632690
7937.000000;0.632261
7936.000000;0.631860
7935.000000;0.631592
7934.000000;0.631422
7933.000000;0.631214
7932.000000;0.630899
7931.000000;0.630536
7930.000000;0.630207
7929.000000;0.629891
7928.000000;0.629509
7927.000000;0.629060
7926.000000;0.628641
7925.000000;0.628352
7924.000000;0.628199
7923.000000;0.628101
7922.000000;0.627956
7921.000000;0.627702
7920.000000;0.627350
7919.000000;0.626961
7918.000000;0.626585
7917.000000;0.626218
7916.000000;0.625834
7915.000000;0.625445
7914.000000;0.625101
7913.000000;0.624834
7912.000000;0.624642
7911.000000;0.624504
7910.000000;0.624371
7909.000000;0.624164
7908.000000;0.623857
7907.000000;0.623558
7906.000000;0.623439
7905.000000;0.623525
7904.000000;0.623604
7903.000000;0.623419
7902.000000;0.622906
7901.000000;0.622245
7900.000000;0.621684
7899.000000;0.621357
7898.000000;0.621234
7897.000000;0.621161
7896.000000;0.620961
7895.000000;0.620550
7894.000000;0.619999
7893.000000;0.619457
7892.000000;0.619034
7891.000000;0.618758
7890.000000;0.618591
7889.000000;0.618447
7888.000000;0.618215
7887.000000;0.617848
7886.000000;0.617432
7885.000000;0.617107
7884.000000;0.616900
7883.000000;0.616699
7882.000000;0.616396
7881.000000;0.616013
7880.000000;0.615630
7879.000000;0.615272
7878.000000;0.614921
7877.000000;0.614611
7876.000000;0.614421
7875.000000;0.614357
7874.000000;0.614313
7873.000000;0.614173
7872.000000;0.613920
7871.000000;0.613623
7870.000000;0.613320
7869.000000;0.612967
7868.000000;0.612512
7867.000000;0.611992
7866.000000;0.611529
7865.000000;0.611216
7864.000000;0.611016
7863.000000;0.610805
7862.000000;0.610520
7861.000000;0.610227
7860.000000;0.610034
7859.000000;0.609950
7858.000000;0.609859
7857.000000;0.609638
7856.000000;0.609276
7855.000000;0.608858
7854.000000;0.608485
7853.000000;0.608207
7852.000000;0.608032
7851.000000;0.607930
7850.000000;0.607832
7849.000000;0.607647
7848.000000;0.607330
7847.000000;0.606919
7846.000000;0.606499
7845.000000;0.606119
7844.000000;0.605787
7843.000000;0.605515
7842.000000;0.605330
7841.000000;0.605208
7840.000000;0.605065
7839.000000;0.604837
7838.000000;0.604537
7837.000000;0.604221
7836.000000;0.603902
7835.000000;0.603556
7834.000000;0.603200
7833.000000;0.602889
7832.000000;0.602653
7831.000000;0.602458
7830.000000;0.602250
7829.000000;0.601998
7828.000000;0.601705
7827.000000;0.601425
7826.000000;0.601244
7825.000000;0.601186
7824.000000;0.601107
7823.000000;0.600775
7822.000000;0.600108
7821.000000;0.599302
7820.000000;0.598652
7819.000000;0.598279
7818.000000;0.598074
7817.000000;0.597881
7816.000000;0.597656
7815.000000;0.597428
7814.000000;0.597209
7813.000000;0.596974
7812.000000;0.596724
7811.000000;0.596499
7810.000000;0.596336
7809.000000;0.596232
7808.000000;0.596156
7807.000000;0.596067
7806.000000;0.595920
7805.000000;0.595687
7804.000000;0.595381
7803.000000;0.595045
7802.000000;0.594703
7801.000000;0.594343
7800.000000;0.593972
7799.000000;0.593660
7798.000000;0.593475
7797.000000;0.593368
7796.000000;0.593183
7795.000000;0.592817
7794.000000;0.592346
7793.000000;0.591926
7792.000000;0.591611
7791.000000;0.591307
7790.000000;0.590909
7789.000000;0.590432
7788.000000;0.589973
7787.000000;0.589610
7786.000000;0.589365
7785.000000;0.589227
7784.000000;0.589174
7783.000000;0.589171
7782.000000;0.589175
7781.000000;0.589132
7780.000000;0.588996
7779.000000;0.588770
7778.000000;0.588527
7777.000000;0.588348
7776.000000;0.588213
7775.000000;0.588005
7774.000000;0.587666
7773.000000;0.587311
7772.000000;0.587119
7771.000000;0.587111
7770.000000;0.587081
7769.000000;0.586794
7768.000000;0.586224
7767.000000;0.585587
7766.000000;0.585139
7765.000000;0.584956
7764.000000;0.584906
7763.000000;0.584827
7762.000000;0.584667
7761.000000;0.584476
7760.000000;0.584284
7759.000000;0.584077
7758.000000;0.583860
7757.000000;0.583661
7756.000000;0.583453
7755.000000;0.583142
7754.000000;0.582711
7753.000000;0.582300
7752.000000;0.582076
7751.000000;0.582032
7750.000000;0.581989
7749.000000;0.581812
7748.000000;0.581547
7747.000000;0.581334
7746.000000;0.581241
7745.000000;0.581209
7744.000000;0.581130
7743.000000;0.580939
7742.000000;0.580650
7741.000000;0.580331
7740.000000;0.580038
7739.000000;0.579774
7738.000000;0.579522
7737.000000;0.579299
7736.000000;0.579132
7735.000000;0.579008
7734.000000;0.578889
7733.000000;0.578785
7732.000000;0.578741
7731.000000;0.578745
7730.000000;0.578693
7729.000000;0.578513
7728.000000;0.578261
7727.000000;0.578051
7726.000000;0.577905
7725.000000;0.577742
7724.000000;0.577504
7723.000000;0.577209
7722.000000;0.576893
7721.000000;0.576564
7720.000000;0.576247
7719.000000;0.576021
7718.000000;0.575925
7717.000000;0.575871
7716.000000;0.575720
7715.000000;0.575455
7714.000000;0.575196
7713.000000;0.575031
7712.000000;0.574881
7711.000000;0.574605
7710.000000;0.574204
7709.000000;0.573868
7708.000000;0.573791
7707.000000;0.573982
7706.000000;0.574249
7705.000000;0.574350
7704.000000;0.574160
7703.000000;0.573750
7702.000000;0.573333
7701.000000;0.573107
7700.000000;0.573101
7699.000000;0.573148
7698.000000;0.573022
7697.000000;0.572615
7696.000000;0.572014
7695.000000;0.571426
7694.000000;0.571055
7693.000000;0.570965
7692.000000;0.571032
7691.000000;0.571037
7690.000000;0.570865
7689.000000;0.570620
7688.000000;0.570489
7687.000000;0.570511
7686.000000;0.570531
7685.000000;0.570389
7684.000000;0.570099
7683.000000;0.569801
7682.000000;0.569577
7681.000000;0.569393
7680.000000;0.569189
7679.000000;0.568975
7678.000000;0.568813
7677.000000;0.568724
7676.000000;0.568666
7675.000000;0.568569
7674.000000;0.568417
7673.000000;0.568256
7672.000000;0.568145
7671.000000;0.568087
7670.000000;0.568027
7669.000000;0.567922
7668.000000;0.567776
7667.000000;0.567602
7666.000000;0.567388
7665.000000;0.567138
7664.000000;0.566913
7663.000000;0.566781
7662.000000;0.566723
7661.000000;0.566653
7660.000000;0.566531
7659.000000;0.566402
7658.000000;0.566308
7657.000000;0.566209
7656.000000;0.566061
7655.000000;0.565895
7654.000000;0.565793
7653.000000;0.565783
7652.000000;0.565813
7651.000000;0.565818
7650.000000;0.565753
7649.000000;0.565577
7648.000000;0.565260
7647.000000;0.564847
7646.000000;0.564443
7645.000000;0.564136
7644.000000;0.563931
7643.000000;0.563798
7642.000000;0.563735
7641.000000;0.563748
7640.000000;0.563797
7639.000000;0.563823
7638.000000;0.563795
7637.000000;0.563718
7636.000000;0.563587
7635.000000;0.563403
7634.000000;0.563229
7633.000000;0.563167
7632.000000;0.563250
7631.000000;0.563373
7630.000000;0.563394
7629.000000;0.563276
7628.000000;0.563099
7627.000000;0.562937
7626.000000;0.562794
7625.000000;0.562644
7624.000000;0.562495
7623.000000;0.562370
7622.000000;0.562261
7621.000000;0.562135
7620.000000;0.561982
7619.000000;0.561825
7618.000000;0.561708
7617.000000;0.561676
7616.000000;0.561772
7615.000000;0.561981
7614.000000;0.562193
7613.000000;0.562257
7612.000000;0.562100
7611.000000;0.561786
7610.000000;0.561459
7609.000000;0.561244
7608.000000;0.561186
7607.000000;0.561248
7606.000000;0.561336
7605.000000;0.561360
7604.000000;0.561311
7603.000000;0.561258
7602.000000;0.561270
7601.000000;0.561333
7600.000000;0.561386
7599.000000;0.561397
7598.000000;0.561387
7597.000000;0.561378
7596.000000;0.561368
7595.000000;0.561352
7594.000000;0.561348
7593.000000;0.561369
7592.000000;0.561389
7591.000000;0.561359
7590.000000;0.561243
7589.000000;0.561049
7588.000000;0.560816
7587.000000;0.560596
7586.000000;0.560430
7585.000000;0.560339
7584.000000;0.560334
7583.000000;0.560408
7582.000000;0.560523
7581.000000;0.560606
7580.000000;0.560591
7579.000000;0.560481
7578.000000;0.560356
7577.000000;0.560326
7576.000000;0.560429
7575.000000;0.560595
7574.000000;0.560704
7573.000000;0.560707
7572.000000;0.560672
7571.000000;0.560691
7570.000000;0.560761
7569.000000;0.560804
7568.000000;0.560794
7567.000000;0.560790
7566.000000;0.560822
7565.000000;0.560818
7564.000000;0.560696
7563.000000;0.560481
7562.000000;0.560289
7561.000000;0.560212
7560.000000;0.560278
7559.000000;0.560464
7558.000000;0.560692
7557.000000;0.560837
7556.000000;0.560839
7555.000000;0.560794
7554.000000;0.560866
7553.000000;0.561086
7552.000000;0.561320
7551.000000;0.561437
7550.000000;0.561440
7549.000000;0.561403
7548.000000;0.561361
7547.000000;0.561303
7546.000000;0.561205
7545.000000;0.561044
7544.000000;0.560818
7543.000000;0.560604
7542.000000;0.560531
7541.000000;0.560645
7540.000000;0.560838
7539.000000;0.560982
7538.000000;0.561084
7537.000000;0.561238
7536.000000;0.561451
7535.000000;0.561594
7534.000000;0.561568
7533.000000;0.561441
7532.000000;0.561378
7531.000000;0.561469
7530.000000;0.561646
7529.000000;0.561788
7528.000000;0.561861
7527.000000;0.561955
7526.000000;0.562169
7525.000000;0.562487
7524.000000;0.562776
7523.000000;0.562916
7522.000000;0.562901
7521.000000;0.562820
7520.000000;0.562757
7519.000000;0.562736
7518.000000;0.562740
7517.000000;0.562760
7516.000000;0.562802
7515.000000;0.562876
7514.000000;0.562980
7513.000000;0.563109
7512.000000;0.563262
7511.000000;0.563415
7510.000000;0.563488
7509.000000;0.563398
7508.000000;0.563159
7507.000000;0.562917
7506.000000;0.562832
7505.000000;0.562945
7504.000000;0.563171
7503.000000;0.563396
7502.000000;0.563552
7501.000000;0.563629
7500.000000;0.563682
7499.000000;0.563798
7498.000000;0.564020
7497.000000;0.564298
7496.000000;0.564563
7495.000000;0.564810
7494.000000;0.565042
7493.000000;0.565227
7492.000000;0.565286
7491.000000;0.565333
7490.000000;0.565467
7489.000000;0.565610
7488.000000;0.565598
7487.000000;0.565376
7486.000000;0.565132
7485.000000;0.565088
7484.000000;0.565291
7483.000000;0.565638
7482.000000;0.566016
7481.000000;0.566334
7480.000000;0.566501
7479.000000;0.566505
7478.000000;0.566459
7477.000000;0.566503
7476.000000;0.566657
7475.000000;0.566827
7474.000000;0.566909
7473.000000;0.566864
7472.000000;0.566730
7471.000000;0.566627
7470.000000;0.566718
7469.000000;0.567054
7468.000000;0.567479
7467.000000;0.567745
7466.000000;0.567743
7465.000000;0.567575
7464.000000;0.567436
7463.000000;0.567462
7462.000000;0.567673
7461.000000;0.567985
7460.000000;0.568265
7459.000000;0.568416
7458.000000;0.568438
7457.000000;0.568395
7456.000000;0.568349
7455.000000;0.568340
7454.000000;0.568387
7453.000000;0.568498
7452.000000;0.568677
7451.000000;0.568922
7450.000000;0.569179
7449.000000;0.569352
7448.000000;0.569394
7447.000000;0.569392
7446.000000;0.569469
7445.000000;0.569631
7444.000000;0.569775
7443.000000;0.569859
7442.000000;0.569945
7441.000000;0.570070
7440.000000;0.570191
7439.000000;0.570279
7438.000000;0.570362
7437.000000;0.570423
7436.000000;0.570376
7435.000000;0.570212
7434.000000;0.570072
7433.000000;0.570085
7432.000000;0.570227
7431.000000;0.570419
7430.000000;0.570641
7429.000000;0.570868
7428.000000;0.571018
7427.000000;0.571044
7426.000000;0.571021
7425.000000;0.571032
7424.000000;0.571083
7423.000000;0.571173
7422.000000;0.571351
7421.000000;0.571631
7420.000000;0.571910
7419.000000;0.572095
7418.000000;0.572226
7417.000000;0.572393
7416.000000;0.572592
7415.000000;0.572752
7414.000000;0.572843
7413.000000;0.572862
7412.000000;0.572768
7411.000000;0.572579
7410.000000;0.572447
7409.000000;0.572484
7408.000000;0.572576
7407.000000;0.572533
7406.000000;0.572377
7405.000000;0.572306
7404.000000;0.572420
7403.000000;0.572596
7402.000000;0.572704
7401.000000;0.572753
7400.000000;0.572794
7399.000000;0.572839
7398.000000;0.572935
7397.000000;0.573074
7396.000000;0.573103
7395.000000;0.572934
7394.000000;0.572684
7393.000000;0.572455
7392.000000;0.572164
7391.000000;0.571758
7390.000000;0.571503
7389.000000;0.571749
7388.000000;0.572468
7387.000000;0.573264
7386.000000;0.573813
7385.000000;0.574044
7384.000000;0.574013
7383.000000;0.573813
7382.000000;0.573575
7381.000000;0.573439
7380.000000;0.573461
7379.000000;0.573549
7378.000000;0.573557
7377.000000;0.573419
7376.000000;0.573285
7375.000000;0.573454
7374.000000;0.574042
7373.000000;0.574745
7372.000000;0.575062
7371.000000;0.574788
7370.000000;0.574244
7369.000000;0.573916
7368.000000;0.573940
7367.000000;0.574151
7366.000000;0.574447
7365.000000;0.574720
7364.000000;0.574730
7363.000000;0.574422
7362.000000;0.574075
7361.000000;0.574066
7360.000000;0.574507
7359.000000;0.575115
7358.000000;0.575423
7357.000000;0.575191
7356.000000;0.574651
7355.000000;0.574307
7354.000000;0.574547
7353.000000;0.575302
7352.000000;0.576083
7351.000000;0.576374
7350.000000;0.576097
7349.000000;0.575679
7348.000000;0.575649
7347.000000;0.576082
7346.000000;0.576466
7345.000000;0.576261
7344.000000;0.575569
7343.000000;0.575168
7342.000000;0.575733
7341.000000;0.577084
7340.000000;0.578396
7339.000000;0.579070
7338.000000;0.579223
7337.000000;0.579219
7336.000000;0.579180
7335.000000;0.579097
7334.000000;0.579015
7333.000000;0.579010
7332.000000;0.579140
7331.000000;0.579251
7330.000000;0.579025
7329.000000;0.578445
7328.000000;0.578035
7327.000000;0.578311
7326.000000;0.579071
7325.000000;0.579640
7324.000000;0.579636
7323.000000;0.579385
7322.000000;0.579532
7321.000000;0.580323
7320.000000;0.581372
7319.000000;0.582145
7318.000000;0.582579
7317.000000;0.583007
7316.000000;0.583582
7315.000000;0.584063
7314.000000;0.584145
7313.000000;0.583949
7312.000000;0.584076
7311.000000;0.584888
7310.000000;0.585913
7309.000000;0.586312
7308.000000;0.585860
7307.000000;0.585222
7306.000000;0.585220
7305.000000;0.586066
7304.000000;0.587298
7303.000000;0.588131
7302.000000;0.588115
7301.000000;0.587519
7300.000000;0.587078
7299.000000;0.587438
7298.000000;0.588585
7297.000000;0.589815
7296.000000;0.590349
7295.000000;0.590156
7294.000000;0.590053
7293.000000;0.590791
7292.000000;0.592284
7291.000000;0.593779
7290.000000;0.594686
7289.000000;0.595207
7288.000000;0.595975
7287.000000;0.597172
7286.000000;0.598275
7285.000000;0.598798
7284.000000;0.598943
7283.000000;0.599195
7282.000000;0.599727
7281.000000;0.600423
7280.000000;0.601202
7279.000000;0.602127
7278.000000;0.603190
7277.000000;0.604252
7276.000000;0.605290
7275.000000;0.606398
7274.000000;0.607536
7273.000000;0.608565
7272.000000;0.609485
7271.000000;0.610397
7270.000000;0.611297
7269.000000;0.612116
7268.000000;0.612914
7267.000000;0.613844
7266.000000;0.614955
7265.000000;0.616198
7264.000000;0.617582
7263.000000;0.619133
7262.000000;0.620720
7261.000000;0.622153
7260.000000;0.623419
7259.000000;0.624624
7258.000000;0.625784
7257.000000;0.626844
7256.000000;0.627865
7255.000000;0.629058
7254.000000;0.630552
7253.000000;0.632245
7252.000000;0.633867
7251.000000;0.635301
7250.000000;0.636684
7249.000000;0.638121
7248.000000;0.639694
7247.000000;0.641498
7246.000000;0.643412
7245.000000;0.645118
7244.000000;0.646555
7243.000000;0.648112
7242.000000;0.650205
7241.000000;0.652749
7240.000000;0.655201
7239.000000;0.657073
7238.000000;0.658410
7237.000000;0.659802
7236.000000;0.661789
7235.000000;0.664334
7234.000000;0.666960
7233.000000;0.669312
7232.000000;0.671351
7231.000000;0.673324
7230.000000;0.675454
7229.000000;0.677573
7228.000000;0.679539
7227.000000;0.681668
7226.000000;0.684284
7225.000000;0.687237
7224.000000;0.690122
7223.000000;0.692677
7222.000000;0.694853
7221.000000;0.696807
7220.000000;0.698940
7219.000000;0.701590
7218.000000;0.704625
7217.000000;0.707586
7216.000000;0.710208
7215.000000;0.712644
7214.000000;0.715242
7213.000000;0.718251
7212.000000;0.721635
7211.000000;0.725137
7210.000000;0.728483
7209.000000;0.731585
7208.000000;0.734656
7207.000000;0.738004
7206.000000;0.741649
7205.000000;0.745377
7204.000000;0.749060
7203.000000;0.752701
7202.000000;0.756226
7201.000000;0.759518
7200.000000;0.762660
7199.000000;0.765873
7198.000000;0.769269
7197.000000;0.772844
7196.000000;0.776636
7195.000000;0.780686
7194.000000;0.784855
7193.000000;0.788906
7192.000000;0.792746
7191.000000;0.796476
7190.000000;0.800217
7189.000000;0.804047
7188.000000;0.808023
7187.000000;0.812089
7186.000000;0.816090
7185.000000;0.819919
7184.000000;0.823630
7183.000000;0.827391
7182.000000;0.831383
7181.000000;0.835747
7180.000000;0.840606
7179.000000;0.845897
7178.000000;0.851221
7177.000000;0.856165
7176.000000;0.860760
7175.000000;0.865271
7174.000000;0.869753
7173.000000;0.874103
7172.000000;0.878357
7171.000000;0.882806
7170.000000;0.887741
7169.000000;0.893198
7168.000000;0.898801
7167.000000;0.903930
7166.000000;0.908382
7165.000000;0.912577
7164.000000;0.916919
7163.000000;0.921275
7162.000000;0.925405
7161.000000;0.929633
7160.000000;0.934639
7159.000000;0.940520
7158.000000;0.946487
7157.000000;0.951719
7156.000000;0.956272
7155.000000;0.960790
7154.000000;0.965631
7153.000000;0.970700
7152.000000;0.975757
7151.000000;0.980710
7150.000000;0.985690
7149.000000;0.990792
7148.000000;0.995761
7147.000000;1.000229
7146.000000;1.004293
7145.000000;1.008628
7144.000000;1.013905
7143.000000;1.020000
7142.000000;1.026018
7141.000000;1.031237
7140.000000;1.035909
7139.000000;1.040880
7138.000000;1.046547
7137.000000;1.052434
7136.000000;1.057792
7135.000000;1.062381
7134.000000;1.066579
7133.000000;1.070935
7132.000000;1.075668
7131.000000;1.080569
7130.000000;1.085368
7129.000000;1.090039
7128.000000;1.094743
7127.000000;1.099565
7126.000000;1.104388
7125.000000;1.109083
7124.000000;1.113724
7123.000000;1.118494
7122.000000;1.123416
7121.000000;1.128244
7120.000000;1.132693
7119.000000;1.136761
7118.000000;1.140807
7117.000000;1.145287
7116.000000;1.150334
7115.000000;1.155513
7114.000000;1.160144
7113.000000;1.164059
7112.000000;1.167861
7111.000000;1.172230
7110.000000;1.177165
7109.000000;1.182070
7108.000000;1.186425
7107.000000;1.190162
7106.000000;1.193575
7105.000000;1.197083
7104.000000;1.200929
7103.000000;1.205122
7102.000000;1.209559
7101.000000;1.214089
7100.000000;1.218565
7099.000000;1.222848
7098.000000;1.226690
7097.000000;1.229890
7096.000000;1.232649
7095.000000;1.235600
7094.000000;1.239284
7093.000000;1.243640
7092.000000;1.248099
7091.000000;1.252169
7090.000000;1.255790
7089.000000;1.259196
7088.000000;1.262629
7087.000000;1.266234
7086.000000;1.270088
7085.000000;1.274169
7084.000000;1.278319
7083.000000;1.282348
7082.000000;1.286181
7081.000000;1.289839
7080.000000;1.293344
7079.000000;1.296687
7078.000000;1.299821
7077.000000;1.302747
7076.000000;1.305615
7075.000000;1.308550
7074.000000;1.311469
7073.000000;1.314272
7072.000000;1.317175
7071.000000;1.320564
7070.000000;1.324416
7069.000000;1.328079
7068.000000;1.330873
7067.000000;1.332812
7066.000000;1.334557
7065.000000;1.336695
7064.000000;1.339206
7063.000000;1.341672
7062.000000;1.343894
7061.000000;1.346155
7060.000000;1.348891
7059.000000;1.352262
7058.000000;1.355960
7057.000000;1.359457
7056.000000;1.362468
7055.000000;1.365070
7054.000000;1.367435
7053.000000;1.369644
7052.000000;1.371795
7051.000000;1.374080
7050.000000;1.376643
7049.000000;1.379413
7048.000000;1.382143
7047.000000;1.384695
7046.000000;1.387184
7045.000000;1.389776
7044.000000;1.392372
7043.000000;1.394682
7042.000000;1.396693
7041.000000;1.398845
7040.000000;1.401484
7039.000000;1.404289
7038.000000;1.406568
7037.000000;1.408213
7036.000000;1.409962
7035.000000;1.412413
7034.000000;1.415133
7033.000000;1.417197
7032.000000;1.418415
7031.000000;1.419554
7030.000000;1.421403
7029.000000;1.423990
7028.000000;1.426745
7027.000000;1.429065
7026.000000;1.430659
7025.000000;1.431666
7024.000000;1.432614
7023.000000;1.434028
7022.000000;1.435929
7021.000000;1.437888
7020.000000;1.439587
7019.000000;1.441153
7018.000000;1.442908
7017.000000;1.445011
7016.000000;1.447383
7015.000000;1.449690
7014.000000;1.451352
7013.000000;1.451933
7012.000000;1.451779
7011.000000;1.452057
7010.000000;1.453821
7009.000000;1.457042
7008.000000;1.460666
7007.000000;1.463595
7006.000000;1.465561
7005.000000;1.467104
7004.000000;1.468804
7003.000000;1.470605
7002.000000;1.471971
7001.000000;1.472721
7000.000000;1.473476
6999.000000;1.474960
6998.000000;1.476974
6997.000000;1.478500
6996.000000;1.478977
6995.000000;1.479099
6994.000000;1.480031
6993.000000;1.482091
6992.000000;1.484541
6991.000000;1.486504
6990.000000;1.487730
6989.000000;1.488486
6988.000000;1.489091
6987.000000;1.489772
6986.000000;1.490763
6985.000000;1.492251
6984.000000;1.494160
6983.000000;1.496096
6982.000000;1.497598
6981.000000;1.498496
6980.000000;1.499026
6979.000000;1.499550
6978.000000;1.500124
6977.000000;1.500504
6976.000000;1.500590
6975.000000;1.500678
6974.000000;1.501119
6973.000000;1.501843
6972.000000;1.502437
6971.000000;1.502667
6970.000000;1.502841
6969.000000;1.503554
6968.000000;1.505065
6967.000000;1.507015
6966.000000;1.508864
6965.000000;1.510463
6964.000000;1.512055
6963.000000;1.513767
6962.000000;1.515324
6961.000000;1.516360
6960.000000;1.516803
6959.000000;1.516801
6958.000000;1.516478
6957.000000;1.516015
6956.000000;1.515812
6955.000000;1.516203
6954.000000;1.517078
6953.000000;1.518067
6952.000000;1.519043
6951.000000;1.520119
6950.000000;1.521220
6949.000000;1.522073
6948.000000;1.522675
6947.000000;1.523374
6946.000000;1.524342
6945.000000;1.525362
6944.000000;1.526213
6943.000000;1.526935
6942.000000;1.527528
6941.000000;1.527775
6940.000000;1.527608
6939.000000;1.527334
6938.000000;1.527254
6937.000000;1.527325
6936.000000;1.527450
6935.000000;1.527809
6934.000000;1.528536
6933.000000;1.529306
6932.000000;1.529671
6931.000000;1.529709
6930.000000;1.529893
6929.000000;1.530432
6928.000000;1.531175
6927.000000;1.532132
6926.000000;1.533569
6925.000000;1.535409
6924.000000;1.536870
6923.000000;1.537012
6922.000000;1.535563
6921.000000;1.533049
6920.000000;1.530376
6919.000000;1.528477
6918.000000;1.528065
6917.000000;1.529193
6916.000000;1.531013
6915.000000;1.532311
6914.000000;1.532540
6913.000000;1.532194
6912.000000;1.532078
6911.000000;1.532395
6910.000000;1.532727
6909.000000;1.532810
6908.000000;1.532900
6907.000000;1.533217
6906.000000;1.533395
6905.000000;1.532923
6904.000000;1.532011
6903.000000;1.531480
6902.000000;1.531745
6901.000000;1.532363
6900.000000;1.532726
6899.000000;1.532837
6898.000000;1.533077
6897.000000;1.533461
6896.000000;1.533549
6895.000000;1.533076
6894.000000;1.532368
6893.000000;1.532094
6892.000000;1.532716
6891.000000;1.534150
6890.000000;1.535681
6889.000000;1.536294
6888.000000;1.535430
6887.000000;1.533538
6886.000000;1.531682
6885.000000;1.530618
6884.000000;1.530391
6883.000000;1.530671
6882.000000;1.531155
6881.000000;1.531665
6880.000000;1.532210
6879.000000;1.533019
6878.000000;1.534189
6877.000000;1.535243
6876.000000;1.535455
6875.000000;1.534676
6874.000000;1.533449
6873.000000;1.532184
6872.000000;1.530757
6871.000000;1.529137
6870.000000;1.527870
6869.000000;1.527445
6868.000000;1.527580
6867.000000;1.527641
6866.000000;1.527559
6865.000000;1.527782
6864.000000;1.528380
6863.000000;1.528751
6862.000000;1.528322
6861.000000;1.527124
6860.000000;1.525575
6859.000000;1.524050
6858.000000;1.522742
6857.000000;1.521658
6856.000000;1.520666
6855.000000;1.519714
6854.000000;1.519049
6853.000000;1.519009
6852.000000;1.519594
6851.000000;1.520484
6850.000000;1.521421
6849.000000;1.522278
6848.000000;1.522756
6847.000000;1.522369
6846.000000;1.520873
6845.000000;1.518516
6844.000000;1.515820
6843.000000;1.513386
6842.000000;1.511846
6841.000000;1.511443
6840.000000;1.511512
6839.000000;1.510916
6838.000000;1.509245
6837.000000;1.507205
6836.000000;1.505553
6835.000000;1.504129
6834.000000;1.502366
6833.000000;1.500374
6832.000000;1.498867
6831.000000;1.498144
6830.000000;1.497694
6829.000000;1.496903
6828.000000;1.495783
6827.000000;1.494874
6826.000000;1.494572
6825.000000;1.494645
6824.000000;1.494392
6823.000000;1.493387
6822.000000;1.492051
6821.000000;1.491174
6820.000000;1.490738
6819.000000;1.489646
6818.000000;1.487010
6817.000000;1.483388
6816.000000;1.480210
6815.000000;1.478125
6814.000000;1.476474
6813.000000;1.474329
6812.000000;1.471612
6811.000000;1.469130
6810.000000;1.467827
6809.000000;1.468006
6808.000000;1.468951
6807.000000;1.469284
6806.000000;1.468092
6805.000000;1.465700
6804.000000;1.463091
6803.000000;1.460777
6802.000000;1.458724
6801.000000;1.457080
6800.000000;1.456131
6799.000000;1.455450
6798.000000;1.453929
6797.000000;1.451138
6796.000000;1.448064
6795.000000;1.445922
6794.000000;1.444691
6793.000000;1.443366
6792.000000;1.441315
6791.000000;1.438807
6790.000000;1.436306
6789.000000;1.433908
6788.000000;1.431602
6787.000000;1.429618
6786.000000;1.428244
6785.000000;1.427476
6784.000000;1.426969
6783.000000;1.426237
6782.000000;1.424854
6781.000000;1.422630
6780.000000;1.419733
6779.000000;1.416599
6778.000000;1.413634
6777.000000;1.410952
6776.000000;1.408327
6775.000000;1.405425
6774.000000;1.402172
6773.000000;1.398917
6772.000000;1.396116
6771.000000;1.393880
6770.000000;1.391935
6769.000000;1.389997
6768.000000;1.387987
6767.000000;1.385923
6766.000000;1.383834
6765.000000;1.381872
6764.000000;1.380269
6763.000000;1.379014
6762.000000;1.377702
6761.000000;1.375868
6760.000000;1.373410
6759.000000;1.370591
6758.000000;1.367810
6757.000000;1.365459
6756.000000;1.363782
6755.000000;1.362624
6754.000000;1.361382
6753.000000;1.359411
6752.000000;1.356517
6751.000000;1.353033
6750.000000;1.349488
6749.000000;1.346283
6748.000000;1.343561
6747.000000;1.341185
6746.000000;1.338898
6745.000000;1.336591
6744.000000;1.334383
6743.000000;1.332425
6742.000000;1.330701
6741.000000;1.329053
6740.000000;1.327194
6739.000000;1.324692
6738.000000;1.321268
6737.000000;1.317293
6736.000000;1.313712
6735.000000;1.311214
6734.000000;1.309618
6733.000000;1.308284
6732.000000;1.306868
6731.000000;1.305335
6730.000000;1.303436
6729.000000;1.300730
6728.000000;1.297213
6727.000000;1.293497
6726.000000;1.290203
6725.000000;1.287466
6724.000000;1.285112
6723.000000;1.283033
6722.000000;1.281162
6721.000000;1.279280
6720.000000;1.277082
6719.000000;1.274424
6718.000000;1.271414
6717.000000;1.268327
6716.000000;1.265484
6715.000000;1.263051
6714.000000;1.260896
6713.000000;1.258717
6712.000000;1.256375
6711.000000;1.254001
6710.000000;1.251665
6709.000000;1.249236
6708.000000;1.246580
6707.000000;1.243745
6706.000000;1.240985
6705.000000;1.238391
6704.000000;1.235838
6703.000000;1.233246
6702.000000;1.230689
6701.000000;1.228234
6700.000000;1.225874
6699.000000;1.223571
6698.000000;1.221307
6697.000000;1.218978
6696.000000;1.216429
6695.000000;1.213509
6694.000000;1.210304
6693.000000;1.207100
6692.000000;1.204170
6691.000000;1.201608
6690.000000;1.199358
6689.000000;1.197299
6688.000000;1.195249
6687.000000;1.192955
6686.000000;1.190216
6685.000000;1.187088
6684.000000;1.183919
6683.000000;1.181108
6682.000000;1.178796
6681.000000;1.176775
6680.000000;1.174672
6679.000000;1.172238
6678.000000;1.169500
6677.000000;1.166668
6676.000000;1.163898
6675.000000;1.161159
6674.000000;1.158359
6673.000000;1.155582
6672.000000;1.153082
6671.000000;1.150987
6670.000000;1.149063
6669.000000;1.146873
6668.000000;1.144168
6667.000000;1.141076
6666.000000;1.137933
6665.000000;1.135003
6664.000000;1.132353
6663.000000;1.129936
6662.000000;1.127725
6661.000000;1.125747
6660.000000;1.123986
6659.000000;1.122275
6658.000000;1.120338
6657.000000;1.117999
6656.000000;1.115344
6655.000000;1.112634
6654.000000;1.110079
6653.000000;1.107723
6652.000000;1.105489
6651.000000;1.103270
6650.000000;1.100964
6649.000000;1.098507
6648.000000;1.095927
6647.000000;1.093328
6646.000000;1.090797
6645.000000;1.088328
6644.000000;1.085817
6643.000000;1.083127
6642.000000;1.080200
6641.000000;1.077157
6640.000000;1.074269
6639.000000;1.071752
6638.000000;1.069547
6637.000000;1.067352
6636.000000;1.064900
6635.000000;1.062184
6634.000000;1.059396
6633.000000;1.056703
6632.000000;1.054135
6631.000000;1.051665
6630.000000;1.049300
6629.000000;1.047066
6628.000000;1.044947
6627.000000;1.042900
6626.000000;1.040883
6625.000000;1.038841
6624.000000;1.036668
6623.000000;1.034285
6622.000000;1.031740
6621.000000;1.029178
6620.000000;1.026676
6619.000000;1.024199
6618.000000;1.021748
6617.000000;1.019471
6616.000000;1.017508
6615.000000;1.015758
6614.000000;1.013906
6613.000000;1.011699
6612.000000;1.009156
6611.000000;1.006507
6610.000000;1.003982
6609.000000;1.001663
6608.000000;0.999456
6607.000000;0.997179
6606.000000;0.994726
6605.000000;0.992138
6604.000000;0.989526
6603.000000;0.986947
6602.000000;0.984423
6601.000000;0.982044
6600.000000;0.979922
6599.000000;0.978049
6598.000000;0.976279
6597.000000;0.974449
6596.000000;0.972419
6595.000000;0.970038
6594.000000;0.967266
6593.000000;0.964362
6592.000000;0.961762
6591.000000;0.959658
6590.000000;0.957808
6589.000000;0.955879
6588.000000;0.953812
6587.000000;0.951723
6586.000000;0.949585
6585.000000;0.947252
6584.000000;0.944751
6583.000000;0.942316
6582.000000;0.940081
6581.000000;0.937914
6580.000000;0.935620
6579.000000;0.933182
6578.000000;0.930737
6577.000000;0.928404
6576.000000;0.926204
6575.000000;0.924083
6574.000000;0.921984
6573.000000;0.919936
6572.000000;0.918083
6571.000000;0.916508
6570.000000;0.915013
6569.000000;0.913225
6568.000000;0.910979
6567.000000;0.908508
6566.000000;0.906149
6565.000000;0.903982
6564.000000;0.901866
6563.000000;0.899744
6562.000000;0.897716
6561.000000;0.895819
6560.000000;0.893903
6559.000000;0.891804
6558.000000;0.889546
6557.000000;0.887292
6556.000000;0.885157
6555.000000;0.883143
6554.000000;0.881209
6553.000000;0.879340
6552.000000;0.877522
6551.000000;0.875707
6550.000000;0.873827
6549.000000;0.871834
6548.000000;0.869727
6547.000000;0.867555
6546.000000;0.865385
6545.000000;0.863258
6544.000000;0.861156
6543.000000;0.859043
6542.000000;0.856911
6541.000000;0.854787
6540.000000;0.852695
6539.000000;0.850649
6538.000000;0.848661
6537.000000;0.846743
6536.000000;0.844897
6535.000000;0.843119
6534.000000;0.841433
6533.000000;0.839863
6532.000000;0.838366
6531.000000;0.836794
6530.000000;0.834972
6529.000000;0.832845
6528.000000;0.830535
6527.000000;0.828262
6526.000000;0.826198
6525.000000;0.824368
6524.000000;0.822671
6523.000000;0.820979
6522.000000;0.819242
6521.000000;0.817484
6520.000000;0.815733
6519.000000;0.813956
6518.000000;0.812093
6517.000000;0.810121
6516.000000;0.808081
6515.000000;0.806045
6514.000000;0.804089
6513.000000;0.802275
6512.000000;0.800610
6511.000000;0.799022
6510.000000;0.797407
6509.000000;0.795702
6508.000000;0.793906
6507.000000;0.792038
6506.000000;0.790114
6505.000000;0.788158
6504.000000;0.786203
6503.000000;0.784270
6502.000000;0.782385
6501.000000;0.780597
6500.000000;0.778940
6499.000000;0.777369
6498.000000;0.775783
6497.000000;0.774147
6496.000000;0.772523
6495.000000;0.770945
6494.000000;0.769310
6493.000000;0.767470
6492.000000;0.765435
6491.000000;0.763429
6490.000000;0.761702
6489.000000;0.760305
6488.000000;0.759041
6487.000000;0.757632
6486.000000;0.755941
6485.000000;0.754057
6484.000000;0.752193
6483.000000;0.750493
6482.000000;0.748928
6481.000000;0.747362
6480.000000;0.745697
6479.000000;0.743930
6478.000000;0.742107
6477.000000;0.740280
6476.000000;0.738500
6475.000000;0.736813
6474.000000;0.735238
6473.000000;0.733728
6472.000000;0.732185
6471.000000;0.730522
6470.000000;0.728725
6469.000000;0.726883
6468.000000;0.725132
6467.000000;0.723546
6466.000000;0.722070
6465.000000;0.720572
6464.000000;0.718965
6463.000000;0.717280
6462.000000;0.715626
6461.000000;0.714095
6460.000000;0.712704
6459.000000;0.711387
6458.000000;0.710041
6457.000000;0.708602
6456.000000;0.707100
6455.000000;0.705616
6454.000000;0.704180
6453.000000;0.702741
6452.000000;0.701251
6451.000000;0.699726
6450.000000;0.698196
6449.000000;0.696634
6448.000000;0.695013
6447.000000;0.693408
6446.000000;0.691952
6445.000000;0.690662
6444.000000;0.689390
6443.000000;0.687983
6442.000000;0.686438
6441.000000;0.684864
6440.000000;0.683345
6439.000000;0.681903
6438.000000;0.680529
6437.000000;0.679183
6436.000000;0.677793
6435.000000;0.676342
6434.000000;0.674933
6433.000000;0.673669
6432.000000;0.672478
6431.000000;0.671152
6430.000000;0.669575
6429.000000;0.667841
6428.000000;0.666109
6427.000000;0.664442
6426.000000;0.662843
6425.000000;0.661353
6424.000000;0.660027
6423.000000;0.658839
6422.000000;0.657668
6421.000000;0.656391
6420.000000;0.654963
6419.000000;0.653456
6418.000000;0.652016
6417.000000;0.650734
6416.000000;0.649542
6415.000000;0.648280
6414.000000;0.646916
6413.000000;0.645611
6412.000000;0.644500
6411.000000;0.643486
6410.000000;0.642333
6409.000000;0.640944
6408.000000;0.639435
6407.000000;0.637975
6406.000000;0.636634
6405.000000;0.635392
6404.000000;0.634204
6403.000000;0.633005
6402.000000;0.631739
6401.000000;0.630411
6400.000000;0.629077
6399.000000;0.627767
6398.000000;0.626434
6397.000000;0.625024
6396.000000;0.623550
6395.000000;0.622096
6394.000000;0.620757
6393.000000;0.619577
6392.000000;0.618503
6391.000000;0.617410
6390.000000;0.616204
6389.000000;0.614899
6388.000000;0.613571
6387.000000;0.612261
6386.000000;0.610958
6385.000000;0.609666
6384.000000;0.608413
6383.000000;0.607201
6382.000000;0.605994
6381.000000;0.604783
6380.000000;0.603612
6379.000000;0.602516
6378.000000;0.601478
6377.000000;0.600461
6376.000000;0.599453
6375.000000;0.598447
6374.000000;0.597418
6373.000000;0.596336
6372.000000;0.595176
6371.000000;0.593911
6370.000000;0.592529
6369.000000;0.591086
6368.000000;0.589692
6367.000000;0.588416
6366.000000;0.587215
6365.000000;0.586002
6364.000000;0.584772
6363.000000;0.583613
6362.000000;0.582596
6361.000000;0.581671
6360.000000;0.580716
6359.000000;0.579675
6358.000000;0.578623
6357.000000;0.577676
6356.000000;0.576829
6355.000000;0.575927
6354.000000;0.574822
6353.000000;0.573519
6352.000000;0.572150
6351.000000;0.570839
6350.000000;0.569644
6349.000000;0.568579
6348.000000;0.567624
6347.000000;0.566710
6346.000000;0.565762
6345.000000;0.564775
6344.000000;0.563791
6343.000000;0.562809
6342.000000;0.561773
6341.000000;0.560674
6340.000000;0.559587
6339.000000;0.558572
6338.000000;0.557589
6337.000000;0.556548
6336.000000;0.555423
6335.000000;0.554278
6334.000000;0.553189
6333.000000;0.552178
6332.000000;0.551203
6331.000000;0.550199
6330.000000;0.549147
6329.000000;0.548096
6328.000000;0.547118
6327.000000;0.546221
6326.000000;0.545341
6325.000000;0.544423
6324.000000;0.543468
6323.000000;0.542497
6322.000000;0.541492
6321.000000;0.540421
6320.000000;0.539287
6319.000000;0.538128
6318.000000;0.536974
6317.000000;0.535830
6316.000000;0.534718
6315.000000;0.533706
6314.000000;0.532870
6313.000000;0.532222
6312.000000;0.531668
6311.000000;0.531041
6310.000000;0.530217
6309.000000;0.529195
6308.000000;0.528080
6307.000000;0.526980
6306.000000;0.525940
6305.000000;0.524953
6304.000000;0.523999
6303.000000;0.523070
6302.000000;0.522165
6301.000000;0.521286
6300.000000;0.520416
6299.000000;0.519521
6298.000000;0.518567
6297.000000;0.517548
6296.000000;0.516481
6295.000000;0.515413
6294.000000;0.514416
6293.000000;0.513562
6292.000000;0.512845
6291.000000;0.512173
6290.000000;0.511458
6289.000000;0.510709
6288.000000;0.509981
6287.000000;0.509261
6286.000000;0.508460
6285.000000;0.507521
6284.000000;0.506485
6283.000000;0.505442
6282.000000;0.504464
6281.000000;0.503581
6280.000000;0.502768
6279.000000;0.501939
6278.000000;0.501013
6277.000000;0.500016
6276.000000;0.499066
6275.000000;0.498250
6274.000000;0.497556
6273.000000;0.496925
6272.000000;0.496313
6271.000000;0.495676
6270.000000;0.494949
6269.000000;0.494103
6268.000000;0.493182
6267.000000;0.492264
6266.000000;0.491389
6265.000000;0.490558
6264.000000;0.489776
6263.000000;0.489042
6262.000000;0.488335
6261.000000;0.487626
6260.000000;0.486900
6259.000000;0.486144
6258.000000;0.485334
6257.000000;0.484468
6256.000000;0.483580
6255.000000;0.482704
6254.000000;0.481857
6253.000000;0.481059
6252.000000;0.480342
6251.000000;0.479699
6250.000000;0.479057
6249.000000;0.478349
6248.000000;0.477584
6247.000000;0.476815
6246.000000;0.476056
6245.000000;0.475276
6244.000000;0.474482
6243.000000;0.473734
6242.000000;0.473062
6241.000000;0.472405
6240.000000;0.471664
6239.000000;0.470807
6238.000000;0.469907
6237.000000;0.469090
6236.000000;0.468431
6235.000000;0.467889
6234.000000;0.467329
6233.000000;0.466618
6232.000000;0.465734
6231.000000;0.464784
6230.000000;0.463910
6229.000000;0.463179
6228.000000;0.462565
6227.000000;0.462023
6226.000000;0.461532
6225.000000;0.461060
6224.000000;0.460530
6223.000000;0.459864
6222.000000;0.459055
6221.000000;0.458168
6220.000000;0.457277
6219.000000;0.456418
6218.000000;0.455605
6217.000000;0.454843
6216.000000;0.454108
6215.000000;0.453367
6214.000000;0.452629
6213.000000;0.451947
6212.000000;0.451334
6211.000000;0.450745
6210.000000;0.450143
6209.000000;0.449553
6208.000000;0.448981
6207.000000;0.448355
6206.000000;0.447596
6205.000000;0.446748
6204.000000;0.445966
6203.000000;0.445363
6202.000000;0.444929
6201.000000;0.444577
6200.000000;0.444208
6199.000000;0.443745
6198.000000;0.443157
6197.000000;0.442485
6196.000000;0.441802
6195.000000;0.441143
6194.000000;0.440495
6193.000000;0.439846
6192.000000;0.439195
6191.000000;0.438522
6190.000000;0.437804
6189.000000;0.437056
6188.000000;0.436313
6187.000000;0.435563
6186.000000;0.434757
6185.000000;0.433892
6184.000000;0.433055
6183.000000;0.432337
6182.000000;0.431754
6181.000000;0.431244
6180.000000;0.430726
6179.000000;0.430145
6178.000000;0.429508
6177.000000;0.428867
6176.000000;0.428262
6175.000000;0.427668
6174.000000;0.427050
6173.000000;0.426440
6172.000000;0.425901
6171.000000;0.425432
6170.000000;0.424950
6169.000000;0.424394
6168.000000;0.423775
6167.000000;0.423138
6166.000000;0.422514
6165.000000;0.421934
6164.000000;0.421427
6163.000000;0.420967
6162.000000;0.420486
6161.000000;0.419950
6160.000000;0.419384
6159.000000;0.418811
6158.000000;0.418216
6157.000000;0.417591
6156.000000;0.416955
6155.000000;0.416311
6154.000000;0.415635
6153.000000;0.414929
6152.000000;0.414247
6151.000000;0.413620
6150.000000;0.413026
6149.000000;0.412432
6148.000000;0.411837
6147.000000;0.411228
6146.000000;0.410573
6145.000000;0.409889
6144.000000;0.409249
6143.000000;0.408687
6142.000000;0.408133
6141.000000;0.407524
6140.000000;0.406898
6139.000000;0.406327
6138.000000;0.405812
6137.000000;0.405302
6136.000000;0.404804
6135.000000;0.404373
6134.000000;0.404015
6133.000000;0.403654
6132.000000;0.403212
6131.000000;0.402657
6130.000000;0.402004
6129.000000;0.401294
6128.000000;0.400597
6127.000000;0.399976
6126.000000;0.399445
6125.000000;0.398969
6124.000000;0.398511
6123.000000;0.398048
6122.000000;0.397577
6121.000000;0.397136
6120.000000;0.396792
6119.000000;0.396566
6118.000000;0.396375
6117.000000;0.396088
6116.000000;0.395644
6115.000000;0.395088
6114.000000;0.394492
6113.000000;0.393877
6112.000000;0.393230
6111.000000;0.392553
6110.000000;0.391872
6109.000000;0.391219
6108.000000;0.390603
6107.000000;0.390018
6106.000000;0.389458
6105.000000;0.388925
6104.000000;0.388424
6103.000000;0.387945
6102.000000;0.387469
6101.000000;0.386998
6100.000000;0.386549
6099.000000;0.386115
6098.000000;0.385665
6097.000000;0.385183
6096.000000;0.384689
6095.000000;0.384213
6094.000000;0.383758
6093.000000;0.383309
6092.000000;0.382850
6091.000000;0.382368
6090.000000;0.381852
6089.000000;0.381319
6088.000000;0.380809
6087.000000;0.380346
6086.000000;0.379907
6085.000000;0.379440
6084.000000;0.378907
6083.000000;0.378300
6082.000000;0.377639
6081.000000;0.376978
6080.000000;0.376384
6079.000000;0.375888
6078.000000;0.375461
6077.000000;0.375057
6076.000000;0.374649
6075.000000;0.374240
6074.000000;0.373841
6073.000000;0.373447
6072.000000;0.373025
6071.000000;0.372528
6070.000000;0.371957
6069.000000;0.371395
6068.000000;0.370949
6067.000000;0.370624
6066.000000;0.370309
6065.000000;0.369895
6064.000000;0.369379
6063.000000;0.368838
6062.000000;0.368346
6061.000000;0.367937
6060.000000;0.367606
6059.000000;0.367297
6058.000000;0.366927
6057.000000;0.366472
6056.000000;0.366005
6055.000000;0.365625
6054.000000;0.365347
6053.000000;0.365093
6052.000000;0.364776
6051.000000;0.364369
6050.000000;0.363913
6049.000000;0.363478
6048.000000;0.363111
6047.000000;0.362795
6046.000000;0.362471
6045.000000;0.362101
6044.000000;0.361691
6043.000000;0.361251
6042.000000;0.360777
6041.000000;0.360279
6040.000000;0.359805
6039.000000;0.359397
6038.000000;0.359037
6037.000000;0.358668
6036.000000;0.358234
6035.000000;0.357699
6034.000000;0.357075
6033.000000;0.356446
6032.000000;0.355935
6031.000000;0.355598
6030.000000;0.355373
6029.000000;0.355160
6028.000000;0.354919
6027.000000;0.354663
6026.000000;0.354392
6025.000000;0.354086
6024.000000;0.353733
6023.000000;0.353337
6022.000000;0.352906
6021.000000;0.352467
6020.000000;0.352077
6019.000000;0.351775
6018.000000;0.351537
6017.000000;0.351312
6016.000000;0.351084
6015.000000;0.350868
6014.000000;0.350654
6013.000000;0.350400
6012.000000;0.350076
6011.000000;0.349675
6010.000000;0.349206
6009.000000;0.348707
6008.000000;0.348252
6007.000000;0.347892
6006.000000;0.347588
6005.000000;0.347247
6004.000000;0.346821
6003.000000;0.346357
6002.000000;0.345941
6001.000000;0.345626
6000.000000;0.345402
5999.000000;0.345204
5998.000000;0.344953
5997.000000;0.344609
5996.000000;0.344206
5995.000000;0.343812
5994.000000;0.343461
5993.000000;0.343136
5992.000000;0.342815
5991.000000;0.342496
5990.000000;0.342186
5989.000000;0.341896
5988.000000;0.341623
5987.000000;0.341334
5986.000000;0.340994
5985.000000;0.340616
5984.000000;0.340283
5983.000000;0.340062
5982.000000;0.339921
5981.000000;0.339766
5980.000000;0.339557
5979.000000;0.339344
5978.000000;0.339177
5977.000000;0.339026
5976.000000;0.338810
5975.000000;0.338489
5974.000000;0.338106
5973.000000;0.337754
5972.000000;0.337496
5971.000000;0.337318
5970.000000;0.337137
5969.000000;0.336879
5968.000000;0.336547
5967.000000;0.336217
5966.000000;0.335972
5965.000000;0.335841
5964.000000;0.335780
5963.000000;0.335708
5962.000000;0.335559
5961.000000;0.335332
5960.000000;0.335080
5959.000000;0.334843
5958.000000;0.334615
5957.000000;0.334359
5956.000000;0.334047
5955.000000;0.333670
5954.000000;0.333236
5953.000000;0.332793
5952.000000;0.332417
5951.000000;0.332165
5950.000000;0.332026
5949.000000;0.331940
5948.000000;0.331831
5947.000000;0.331628
5946.000000;0.331286
5945.000000;0.330842
5944.000000;0.330422
5943.000000;0.330141
5942.000000;0.329988
5941.000000;0.329849
5940.000000;0.329656
5939.000000;0.329448
5938.000000;0.329300
5937.000000;0.329214
5936.000000;0.329130
5935.000000;0.328999
5934.000000;0.328831
5933.000000;0.328666
5932.000000;0.328538
5931.000000;0.328445
5930.000000;0.328351
5929.000000;0.328220
5928.000000;0.328048
5927.000000;0.327857
5926.000000;0.327661
5925.000000;0.327447
5924.000000;0.327198
5923.000000;0.326920
5922.000000;0.326644
5921.000000;0.326400
5920.000000;0.326205
5919.000000;0.326063
5918.000000;0.325968
5917.000000;0.325891
5916.000000;0.325782
5915.000000;0.325604
5914.000000;0.325369
5913.000000;0.325123
5912.000000;0.324898
5911.000000;0.324699
5910.000000;0.324563
5909.000000;0.324566
5908.000000;0.324733
5907.000000;0.324947
5906.000000;0.325021
5905.000000;0.324878
5904.000000;0.324606
5903.000000;0.324347
5902.000000;0.324159
5901.000000;0.324019
5900.000000;0.323890
5899.000000;0.323758
5898.000000;0.323605
5897.000000;0.323404
5896.000000;0.323139
5895.000000;0.322816
5894.000000;0.322479
5893.000000;0.322201
5892.000000;0.322047
5891.000000;0.322015
5890.000000;0.322030
5889.000000;0.322006
5888.000000;0.321893
5887.000000;0.321680
5886.000000;0.321386
5885.000000;0.321073
5884.000000;0.320830
5883.000000;0.320709
5882.000000;0.320681
5881.000000;0.320683
5880.000000;0.320678
5879.000000;0.320654
5878.000000;0.320598
5877.000000;0.320507
5876.000000;0.320402
5875.000000;0.320302
5874.000000;0.320202
5873.000000;0.320087
5872.000000;0.319955
5871.000000;0.319809
5870.000000;0.319659
5869.000000;0.319550
5868.000000;0.319535
5867.000000;0.319589
5866.000000;0.319596
5865.000000;0.319475
5864.000000;0.319305
5863.000000;0.319258
5862.000000;0.319427
5861.000000;0.319735
5860.000000;0.320016
5859.000000;0.320136
5858.000000;0.320062
5857.000000;0.319876
5856.000000;0.319702
5855.000000;0.319598
5854.000000;0.319508
5853.000000;0.319349
5852.000000;0.319131
5851.000000;0.318940
5850.000000;0.318820
5849.000000;0.318745
5848.000000;0.318673
5847.000000;0.318598
5846.000000;0.318520
5845.000000;0.318430
5844.000000;0.318338
5843.000000;0.318293
5842.000000;0.318338
5841.000000;0.318472
5840.000000;0.318656
5839.000000;0.318846
5838.000000;0.319009
5837.000000;0.319148
5836.000000;0.319292
5835.000000;0.319456
5834.000000;0.319603
5833.000000;0.319671
5832.000000;0.319657
5831.000000;0.319623
5830.000000;0.319630
5829.000000;0.319679
5828.000000;0.319724
5827.000000;0.319720
5826.000000;0.319664
5825.000000;0.319597
5824.000000;0.319582
5823.000000;0.319637
5822.000000;0.319712
5821.000000;0.319735
5820.000000;0.319694
5819.000000;0.319645
5818.000000;0.319644
5817.000000;0.319704
5816.000000;0.319824
5815.000000;0.320010
5814.000000;0.320255
5813.000000;0.320508
5812.000000;0.320707
5811.000000;0.320832
5810.000000;0.320911
5809.000000;0.320991
5808.000000;0.321093
5807.000000;0.321206
5806.000000;0.321295
5805.000000;0.321349
5804.000000;0.321398
5803.000000;0.321487
5802.000000;0.321634
5801.000000;0.321811
5800.000000;0.321982
5799.000000;0.322134
5798.000000;0.322272
5797.000000;0.322407
5796.000000;0.322556
5795.000000;0.322747
5794.000000;0.322998
5793.000000;0.323279
5792.000000;0.323525
5791.000000;0.323701
5790.000000;0.323850
5789.000000;0.324041
5788.000000;0.324283
5787.000000;0.324508
5786.000000;0.324661
5785.000000;0.324789
5784.000000;0.324999
5783.000000;0.325322
5782.000000;0.325669
5781.000000;0.325933
5780.000000;0.326092
5779.000000;0.326212
5778.000000;0.326370
5777.000000;0.326596
5776.000000;0.326885
5775.000000;0.327216
5774.000000;0.327566
5773.000000;0.327905
5772.000000;0.328196
5771.000000;0.328409
5770.000000;0.328562
5769.000000;0.328726
5768.000000;0.328958
5767.000000;0.329238
5766.000000;0.329506
5765.000000;0.329747
5764.000000;0.330011
5763.000000;0.330331
5762.000000;0.330682
5761.000000;0.331041
5760.000000;0.331438
5759.000000;0.331900
5758.000000;0.332399
5757.000000;0.332889
5756.000000;0.333363
5755.000000;0.333825
5754.000000;0.334239
5753.000000;0.334562
5752.000000;0.334824
5751.000000;0.335106
5750.000000;0.335455
5749.000000;0.335844
5748.000000;0.336221
5747.000000;0.336549
5746.000000;0.336814
5745.000000;0.337031
5744.000000;0.337263
5743.000000;0.337580
5742.000000;0.337992
5741.000000;0.338430
5740.000000;0.338810
5739.000000;0.339091
5738.000000;0.339286
5737.000000;0.339444
5736.000000;0.339635
5735.000000;0.339935
5734.000000;0.340381
5733.000000;0.340948
5732.000000;0.341556
5731.000000;0.342122
5730.000000;0.342618
5729.000000;0.343089
5728.000000;0.343603
5727.000000;0.344173
5726.000000;0.344747
5725.000000;0.345277
5724.000000;0.345777
5723.000000;0.346294
5722.000000;0.346843
5721.000000;0.347391
5720.000000;0.347896
5719.000000;0.348340
5718.000000;0.348740
5717.000000;0.349143
5716.000000;0.349602
5715.000000;0.350127
5714.000000;0.350694
5713.000000;0.351281
5712.000000;0.351894
5711.000000;0.352523
5710.000000;0.353128
5709.000000;0.353679
5708.000000;0.354184
5707.000000;0.354647
5706.000000;0.355044
5705.000000;0.355392
5704.000000;0.355781
5703.000000;0.356295
5702.000000;0.356903
5701.000000;0.357503
5700.000000;0.358061
5699.000000;0.358656
5698.000000;0.359375
5697.000000;0.360214
5696.000000;0.361067
5695.000000;0.361800
5694.000000;0.362315
5693.000000;0.362688
5692.000000;0.363034
5691.000000;0.363483
5690.000000;0.364058
5689.000000;0.364696
5688.000000;0.365347
5687.000000;0.366003
5686.000000;0.366654
5685.000000;0.367265
5684.000000;0.367823
5683.000000;0.368354
5682.000000;0.368877
5681.000000;0.369379
5680.000000;0.369853
5679.000000;0.370335
5678.000000;0.370885
5677.000000;0.371541
5676.000000;0.372280
5675.000000;0.373032
5674.000000;0.373723
5673.000000;0.374335
5672.000000;0.374911
5671.000000;0.375500
5670.000000;0.376099
5669.000000;0.376656
5668.000000;0.377130
5667.000000;0.377524
5666.000000;0.377875
5665.000000;0.378233
5664.000000;0.378645
5663.000000;0.379131
5662.000000;0.379682
5661.000000;0.380279
5660.000000;0.380923
5659.000000;0.381605
5658.000000;0.382278
5657.000000;0.382874
5656.000000;0.383355
5655.000000;0.383730
5654.000000;0.384050
5653.000000;0.384387
5652.000000;0.384805
5651.000000;0.385316
5650.000000;0.385868
5649.000000;0.386406
5648.000000;0.386917
5647.000000;0.387405
5646.000000;0.387850
5645.000000;0.388228
5644.000000;0.388553
5643.000000;0.388859
5642.000000;0.389154
5641.000000;0.389433
5640.000000;0.389730
5639.000000;0.390092
5638.000000;0.390529
5637.000000;0.390999
5636.000000;0.391456
5635.000000;0.391886
5634.000000;0.392291
5633.000000;0.392665
5632.000000;0.392991
5631.000000;0.393251
5630.000000;0.393445
5629.000000;0.393599
5628.000000;0.393740
5627.000000;0.393866
5626.000000;0.393970
5625.000000;0.394093
5624.000000;0.394302
5623.000000;0.394604
5622.000000;0.394924
5621.000000;0.395197
5620.000000;0.395422
5619.000000;0.395624
5618.000000;0.395818
5617.000000;0.396039
5616.000000;0.396344
5615.000000;0.396718
5614.000000;0.397038
5613.000000;0.397195
5612.000000;0.397229
5611.000000;0.397272
5610.000000;0.397397
5609.000000;0.397583
5608.000000;0.397805
5607.000000;0.398066
5606.000000;0.398329
5605.000000;0.398511
5604.000000;0.398556
5603.000000;0.398488
5602.000000;0.398365
5601.000000;0.398240
5600.000000;0.398150
5599.000000;0.398111
5598.000000;0.398093
5597.000000;0.398058
5596.000000;0.397999
5595.000000;0.397936
5594.000000;0.397871
5593.000000;0.397795
5592.000000;0.397721
5591.000000;0.397667
5590.000000;0.397613
5589.000000;0.397517
5588.000000;0.397368
5587.000000;0.397192
5586.000000;0.397014
5585.000000;0.396866
5584.000000;0.396791
5583.000000;0.396785
5582.000000;0.396751
5581.000000;0.396587
5580.000000;0.396303
5579.000000;0.396002
5578.000000;0.395761
5577.000000;0.395582
5576.000000;0.395448
5575.000000;0.395353
5574.000000;0.395272
5573.000000;0.395180
5572.000000;0.395097
5571.000000;0.395051
5570.000000;0.395007
5569.000000;0.394905
5568.000000;0.394735
5567.000000;0.394529
5566.000000;0.394285
5565.000000;0.393975
5564.000000;0.393611
5563.000000;0.393234
5562.000000;0.392843
5561.000000;0.392400
5560.000000;0.391937
5559.000000;0.391545
5558.000000;0.391258
5557.000000;0.391026
5556.000000;0.390812
5555.000000;0.390616
5554.000000;0.390425
5553.000000;0.390204
5552.000000;0.389965
5551.000000;0.389744
5550.000000;0.389532
5549.000000;0.389306
5548.000000;0.389109
5547.000000;0.388980
5546.000000;0.388832
5545.000000;0.388515
5544.000000;0.388035
5543.000000;0.387572
5542.000000;0.387265
5541.000000;0.387099
5540.000000;0.387011
5539.000000;0.386961
5538.000000;0.386896
5537.000000;0.386765
5536.000000;0.386574
5535.000000;0.386350
5534.000000;0.386060
5533.000000;0.385661
5532.000000;0.385222
5531.000000;0.384881
5530.000000;0.384671
5529.000000;0.384498
5528.000000;0.384285
5527.000000;0.384036
5526.000000;0.383765
5525.000000;0.383436
5524.000000;0.383055
5523.000000;0.382701
5522.000000;0.382421
5521.000000;0.382204
5520.000000;0.382025
5519.000000;0.381862
5518.000000;0.381686
5517.000000;0.381459
5516.000000;0.381186
5515.000000;0.380885
5514.000000;0.380514
5513.000000;0.380051
5512.000000;0.379617
5511.000000;0.379367
5510.000000;0.379287
5509.000000;0.379231
5508.000000;0.379115
5507.000000;0.378979
5506.000000;0.378846
5505.000000;0.378671
5504.000000;0.378490
5503.000000;0.378418
5502.000000;0.378436
5501.000000;0.378415
5500.000000;0.378300
5499.000000;0.378117
5498.000000;0.377938
5497.000000;0.377776
5496.000000;0.377605
5495.000000;0.377418
5494.000000;0.377237
5493.000000;0.377106
5492.000000;0.377033
5491.000000;0.376960
5490.000000;0.376798
5489.000000;0.376543
5488.000000;0.376324
5487.000000;0.376248
5486.000000;0.376267
5485.000000;0.376265
5484.000000;0.376249
5483.000000;0.376343
5482.000000;0.376482
5481.000000;0.376510
5480.000000;0.376491
5479.000000;0.376571
5478.000000;0.376746
5477.000000;0.376892
5476.000000;0.377004
5475.000000;0.377163
5474.000000;0.377323
5473.000000;0.377351
5472.000000;0.377248
5471.000000;0.377164
5470.000000;0.377168
5469.000000;0.377240
5468.000000;0.377381
5467.000000;0.377549
5466.000000;0.377629
5465.000000;0.377618
5464.000000;0.377714
5463.000000;0.378031
5462.000000;0.378314
5461.000000;0.378341
5460.000000;0.378360
5459.000000;0.378613
5458.000000;0.378875
5457.000000;0.378911
5456.000000;0.378925
5455.000000;0.379147
5454.000000;0.379475
5453.000000;0.379761
5452.000000;0.380068
5451.000000;0.380464
5450.000000;0.380819
5449.000000;0.381162
5448.000000;0.381701
5447.000000;0.382398
5446.000000;0.383086
5445.000000;0.383844
5444.000000;0.384760
5443.000000;0.385627
5442.000000;0.386182
5441.000000;0.386585
5440.000000;0.387280
5439.000000;0.388297
5438.000000;0.389144
5437.000000;0.389609
5436.000000;0.390052
5435.000000;0.390718
5434.000000;0.391461
5433.000000;0.392190
5432.000000;0.392917
5431.000000;0.393560
5430.000000;0.394174
5429.000000;0.395011
5428.000000;0.396099
5427.000000;0.397172
5426.000000;0.398072
5425.000000;0.398935
5424.000000;0.399975
5423.000000;0.401199
5422.000000;0.402478
5421.000000;0.403723
5420.000000;0.404930
5419.000000;0.406214
5418.000000;0.407658
5417.000000;0.409239
5416.000000;0.410881
5415.000000;0.412518
5414.000000;0.414114
5413.000000;0.415652
5412.000000;0.417166
5411.000000;0.418689
5410.000000;0.420266
5409.000000;0.422062
5408.000000;0.424193
5407.000000;0.426482
5406.000000;0.428600
5405.000000;0.430487
5404.000000;0.432390
5403.000000;0.434372
5402.000000;0.436411
5401.000000;0.438614
5400.000000;0.440984
5399.000000;0.443539
5398.000000;0.446354
5397.000000;0.449359
5396.000000;0.452346
5395.000000;0.455178
5394.000000;0.457969
5393.000000;0.460898
5392.000000;0.463993
5391.000000;0.467208
5390.000000;0.470477
5389.000000;0.473748
5388.000000;0.477060
5387.000000;0.480532
5386.000000;0.484184
5385.000000;0.487994
5384.000000;0.491938
5383.000000;0.495902
5382.000000;0.499956
5381.000000;0.504323
5380.000000;0.508921
5379.000000;0.513499
5378.000000;0.518076
5377.000000;0.522825
5376.000000;0.527746
5375.000000;0.532755
5374.000000;0.537936
5373.000000;0.543342
5372.000000;0.548859
5371.000000;0.554450
5370.000000;0.560233
5369.000000;0.566273
5368.000000;0.572497
5367.000000;0.578874
5366.000000;0.585426
5365.000000;0.592178
5364.000000;0.599045
5363.000000;0.605936
5362.000000;0.613000
5361.000000;0.620366
5360.000000;0.627946
5359.000000;0.635782
5358.000000;0.644124
5357.000000;0.652957
5356.000000;0.661880
5355.000000;0.670732
5354.000000;0.679869
5353.000000;0.689621
5352.000000;0.699732
5351.000000;0.709656
5350.000000;0.719412
5349.000000;0.729611
5348.000000;0.740493
5347.000000;0.751734
5346.000000;0.763211
5345.000000;0.775111
5344.000000;0.787437
5343.000000;0.800000
5342.000000;0.812732
5341.000000;0.825536
5340.000000;0.838400
5339.000000;0.851630
5338.000000;0.865479
5337.000000;0.879841
5336.000000;0.894369
5335.000000;0.908874
5334.000000;0.923566
5333.000000;0.938894
5332.000000;0.954932
5331.000000;0.971243
5330.000000;0.987687
5329.000000;1.004581
5328.000000;1.022029
5327.000000;1.039884
5326.000000;1.058160
5325.000000;1.076753
5324.000000;1.095195
5323.000000;1.113277
5322.000000;1.131528
5321.000000;1.150510
5320.000000;1.170007
5319.000000;1.189475
5318.000000;1.208982
5317.000000;1.228938
5316.000000;1.249191
5315.000000;1.269278
5314.000000;1.289238
5313.000000;1.309482
5312.000000;1.329937
5311.000000;1.349961
5310.000000;1.369189
5309.000000;1.387798
5308.000000;1.405927
5307.000000;1.423546
5306.000000;1.440980
5305.000000;1.458757
5304.000000;1.476864
5303.000000;1.494870
5302.000000;1.512568
5301.000000;1.529767
5300.000000;1.545822
5299.000000;1.560320
5298.000000;1.573827
5297.000000;1.586820
5296.000000;1.598649
5295.000000;1.608757
5294.000000;1.617909
5293.000000;1.627093
5292.000000;1.636074
5291.000000;1.644224
5290.000000;1.651988
5289.000000;1.660024
5288.000000;1.667710
5287.000000;1.674126
5286.000000;1.679806
5285.000000;1.685793
5284.000000;1.691604
5283.000000;1.696017
5282.000000;1.699246
5281.000000;1.702336
5280.000000;1.705142
5279.000000;1.706922
5278.000000;1.708264
5277.000000;1.710188
5276.000000;1.712031
5275.000000;1.712507
5274.000000;1.712175
5273.000000;1.712741
5272.000000;1.714458
5271.000000;1.715929
5270.000000;1.716309
5269.000000;1.716074
5268.000000;1.715571
5267.000000;1.714676
5266.000000;1.713949
5265.000000;1.714407
5264.000000;1.715869
5263.000000;1.717111
5262.000000;1.717747
5261.000000;1.718417
5260.000000;1.719393
5259.000000;1.720493
5258.000000;1.721919
5257.000000;1.723809
5256.000000;1.725178
5255.000000;1.724582
5254.000000;1.722293
5253.000000;1.720548
5252.000000;1.721071
5251.000000;1.723234
5250.000000;1.725157
5249.000000;1.725789
5248.000000;1.725332
5247.000000;1.724496
5246.000000;1.723643
5245.000000;1.722387
5244.000000;1.720247
5243.000000;1.717806
5242.000000;1.716443
5241.000000;1.716654
5240.000000;1.717621
5239.000000;1.718675
5238.000000;1.720119
5237.000000;1.722230
5236.000000;1.724479
5235.000000;1.726273
5234.000000;1.727766
5233.000000;1.729142
5232.000000;1.729614
5231.000000;1.728268
5230.000000;1.725650
5229.000000;1.723371
5228.000000;1.722341
5227.000000;1.722429
5226.000000;1.723314
5225.000000;1.724611
5224.000000;1.725722
5223.000000;1.726484
5222.000000;1.727443
5221.000000;1.728671
5220.000000;1.729020
5219.000000;1.727646
5218.000000;1.725678
5217.000000;1.725126
5216.000000;1.726475
5215.000000;1.728442
5214.000000;1.729836
5213.000000;1.730322
5212.000000;1.729690
5211.000000;1.727982
5210.000000;1.726242
5209.000000;1.725816
5208.000000;1.726854
5207.000000;1.728294
5206.000000;1.729190
5205.000000;1.729356
5204.000000;1.728890
5203.000000;1.727946
5202.000000;1.727026
5201.000000;1.726630
5200.000000;1.726575
5199.000000;1.726242
5198.000000;1.725429
5197.000000;1.724647
5196.000000;1.724740
5195.000000;1.726400
5194.000000;1.729561
5193.000000;1.732794
5192.000000;1.734105
5191.000000;1.732983
5190.000000;1.730815
5189.000000;1.728872
5188.000000;1.727219
5187.000000;1.726013
5186.000000;1.726215
5185.000000;1.728062
5184.000000;1.730057
5183.000000;1.730774
5182.000000;1.730685
5181.000000;1.730806
5180.000000;1.730831
5179.000000;1.730179
5178.000000;1.729599
5177.000000;1.729990
5176.000000;1.730584
5175.000000;1.730048
5174.000000;1.728833
5173.000000;1.728755
5172.000000;1.730496
5171.000000;1.732925
5170.000000;1.734696
5169.000000;1.735311
5168.000000;1.734840
5167.000000;1.733880
5166.000000;1.733674
5165.000000;1.735043
5164.000000;1.737098
5163.000000;1.738025
5162.000000;1.737146
5161.000000;1.735264
5160.000000;1.733397
5159.000000;1.732362
5158.000000;1.733041
5157.000000;1.735628
5156.000000;1.738608
5155.000000;1.739664
5154.000000;1.737969
5153.000000;1.734815
5152.000000;1.732037
5151.000000;1.730596
5150.000000;1.730473
5149.000000;1.731048
5148.000000;1.731542
5147.000000;1.731667
5146.000000;1.731781
5145.000000;1.732066
5144.000000;1.732008
5143.000000;1.731219
5142.000000;1.730233
5141.000000;1.729848
5140.000000;1.730175
5139.000000;1.731050
5138.000000;1.732639
5137.000000;1.734737
5136.000000;1.736149
5135.000000;1.735894
5134.000000;1.734626
5133.000000;1.733812
5132.000000;1.733972
5131.000000;1.734625
5130.000000;1.735448
5129.000000;1.736401
5128.000000;1.736990
5127.000000;1.736521
5126.000000;1.735176
5125.000000;1.734044
5124.000000;1.734080
5123.000000;1.735624
5122.000000;1.738588
5121.000000;1.742261
5120.000000;1.745100
5119.000000;1.745627
5118.000000;1.743702
5117.000000;1.740420
5116.000000;1.737085
5115.000000;1.734837
5114.000000;1.734681
5113.000000;1.736798
5112.000000;1.739896
5111.000000;1.742022
5110.000000;1.742187
5109.000000;1.740860
5108.000000;1.739240
5107.000000;1.738530
5106.000000;1.739357
5105.000000;1.741087
5104.000000;1.742019
5103.000000;1.741003
5102.000000;1.738689
5101.000000;1.736635
5100.000000;1.735708
5099.000000;1.735925
5098.000000;1.737175
5097.000000;1.739146
5096.000000;1.740893
5095.000000;1.741436
5094.000000;1.740749
5093.000000;1.739565
5092.000000;1.738539
5091.000000;1.738079
5090.000000;1.738400
5089.000000;1.739079
5088.000000;1.739204
5087.000000;1.738698
5086.000000;1.738879
5085.000000;1.740862
5084.000000;1.743832
5083.000000;1.745780
5082.000000;1.745609
5081.000000;1.743740
5080.000000;1.741207
5079.000000;1.739230
5078.000000;1.739028
5077.000000;1.740597
5076.000000;1.741874
5075.000000;1.740606
5074.000000;1.737340
5073.000000;1.735260
5072.000000;1.736845
5071.000000;1.741597
5070.000000;1.746780
5069.000000;1.749496
5068.000000;1.748246
5067.000000;1.743786
5066.000000;1.738995
5065.000000;1.737083
5064.000000;1.739112
5063.000000;1.743245
5062.000000;1.746577
5061.000000;1.747689
5060.000000;1.747300
5059.000000;1.746814
5058.000000;1.746802
5057.000000;1.746937
5056.000000;1.746871
5055.000000;1.746789
5054.000000;1.747038
5053.000000;1.747450
5052.000000;1.747498
5051.000000;1.747104
5050.000000;1.746802
5049.000000;1.746925
5048.000000;1.747074
5047.000000;1.746669
5046.000000;1.745594
5045.000000;1.744052
5044.000000;1.742299
5043.000000;1.740878
5042.000000;1.740541
5041.000000;1.741493
5040.000000;1.743129
5039.000000;1.744772
5038.000000;1.746075
5037.000000;1.746480
5036.000000;1.745224
5035.000000;1.742505
5034.000000;1.739941
5033.000000;1.739103
5032.000000;1.740069
5031.000000;1.741867
5030.000000;1.743608
5029.000000;1.744554
5028.000000;1.743989
5027.000000;1.742220
5026.000000;1.741196
5025.000000;1.742773
5024.000000;1.746371
5023.000000;1.749243
5022.000000;1.749345
5021.000000;1.747255
5020.000000;1.744979
5019.000000;1.743645
5018.000000;1.742847
5017.000000;1.741680
5016.000000;1.739871
5015.000000;1.737935
5014.000000;1.736562
5013.000000;1.736091
5012.000000;1.736586
5011.000000;1.738014
5010.000000;1.740011
5009.000000;1.741722
5008.000000;1.742432
5007.000000;1.742204
5006.000000;1.741342
5005.000000;1.739600
5004.000000;1.736879
5003.000000;1.734414
5002.000000;1.733959
5001.000000;1.735569
5000.000000;1.737234
4999.000000;1.737256
4998.000000;1.736099
4997.000000;1.735313
4996.000000;1.735632
4995.000000;1.736794
4994.000000;1.738256
4993.000000;1.739321
4992.000000;1.739438
4991.000000;1.739036
4990.000000;1.739196
4989.000000;1.739885
4988.000000;1.739537
4987.000000;1.737194
4986.000000;1.734079
4985.000000;1.732047
4984.000000;1.731427
4983.000000;1.731338
4982.000000;1.731232
4981.000000;1.731033
4980.000000;1.730542
4979.000000;1.729888
4978.000000;1.729930
4977.000000;1.731048
4976.000000;1.732092
4975.000000;1.731732
4974.000000;1.730332
4973.000000;1.729222
4972.000000;1.728479
4971.000000;1.726787
4970.000000;1.723371
4969.000000;1.718933
4968.000000;1.714870
4967.000000;1.712545
4966.000000;1.712979
4965.000000;1.715960
4964.000000;1.719456
4963.000000;1.721064
4962.000000;1.720342
4961.000000;1.718765
4960.000000;1.717463
4959.000000;1.716214
4958.000000;1.714657
4957.000000;1.713216
4956.000000;1.712347
4955.000000;1.711808
4954.000000;1.711201
4953.000000;1.710698
4952.000000;1.710669
4951.000000;1.710992
4950.000000;1.711126
4949.000000;1.710603
4948.000000;1.709256
4947.000000;1.707239
4946.000000;1.705024
4945.000000;1.703187
4944.000000;1.702044
4943.000000;1.701440
4942.000000;1.700776
4941.000000;1.699334
4940.000000;1.696897
4939.000000;1.694100
4938.000000;1.691827
4937.000000;1.690256
4936.000000;1.688981
4935.000000;1.688016
4934.000000;1.687845
4933.000000;1.688191
4932.000000;1.687635
4931.000000;1.685176
4930.000000;1.681537
4929.000000;1.678272
4928.000000;1.676236
4927.000000;1.675522
4926.000000;1.676050
4925.000000;1.677256
4924.000000;1.677730
4923.000000;1.676364
4922.000000;1.673700
4921.000000;1.671222
4920.000000;1.669525
4919.000000;1.668049
4918.000000;1.666290
4917.000000;1.664272
4916.000000;1.661958
4915.000000;1.659209
4914.000000;1.656461
4913.000000;1.654597
4912.000000;1.653851
4911.000000;1.653456
4910.000000;1.652644
4909.000000;1.651535
4908.000000;1.650747
4907.000000;1.650441
4906.000000;1.649973
4905.000000;1.648364
4904.000000;1.645171
4903.000000;1.641092
4902.000000;1.637573
4901.000000;1.635636
4900.000000;1.635099
4899.000000;1.634898
4898.000000;1.633876
4897.000000;1.631292
4896.000000;1.627194
4895.000000;1.622649
4894.000000;1.619004
4893.000000;1.616533
4892.000000;1.614265
4891.000000;1.611519
4890.000000;1.608909
4889.000000;1.607219
4888.000000;1.606064
4887.000000;1.604547
4886.000000;1.602744
4885.000000;1.601464
4884.000000;1.600814
4883.000000;1.600084
4882.000000;1.598917
4881.000000;1.597585
4880.000000;1.596062
4879.000000;1.593840
4878.000000;1.590865
4877.000000;1.587783
4876.000000;1.584897
4875.000000;1.581685
4874.000000;1.577770
4873.000000;1.573791
4872.000000;1.570758
4871.000000;1.568833
4870.000000;1.567100
4869.000000;1.564455
4868.000000;1.560623
4867.000000;1.556466
4866.000000;1.553295
4865.000000;1.551684
4864.000000;1.550885
4863.000000;1.549517
4862.000000;1.546799
4861.000000;1.543003
4860.000000;1.538920
4859.000000;1.535321
4858.000000;1.532770
4857.000000;1.531363
4856.000000;1.530543
4855.000000;1.529491
4854.000000;1.527781
4853.000000;1.525472
4852.000000;1.522671
4851.000000;1.519340
4850.000000;1.515568
4849.000000;1.511701
4848.000000;1.508158
4847.000000;1.505263
4846.000000;1.503090
4845.000000;1.501246
4844.000000;1.499021
4843.000000;1.496053
4842.000000;1.492715
4841.000000;1.489530
4840.000000;1.486424
4839.000000;1.482966
4838.000000;1.479151
4837.000000;1.475455
4836.000000;1.472197
4835.000000;1.469311
4834.000000;1.466706
4833.000000;1.464362
4832.000000;1.461996
4831.000000;1.459110
4830.000000;1.455557
4829.000000;1.451790
4828.000000;1.448393
4827.000000;1.445557
4826.000000;1.443051
4825.000000;1.440461
4824.000000;1.437451
4823.000000;1.434007
4822.000000;1.430490
4821.000000;1.427282
4820.000000;1.424408
4819.000000;1.421627
4818.000000;1.418805
4817.000000;1.415957
4816.000000;1.413012
4815.000000;1.409848
4814.000000;1.406534
4813.000000;1.403258
4812.000000;1.400041
4811.000000;1.396780
4810.000000;1.393550
4809.000000;1.390536
4808.000000;1.387650
4807.000000;1.384514
4806.000000;1.380974
4805.000000;1.377370
4804.000000;1.374212
4803.000000;1.371761
4802.000000;1.369929
4801.000000;1.368343
4800.000000;1.366405
4799.000000;1.363548
4798.000000;1.359663
4797.000000;1.355246
4796.000000;1.351012
4795.000000;1.347415
4794.000000;1.344473
4793.000000;1.341919
4792.000000;1.339486
4791.000000;1.337098
4790.000000;1.334785
4789.000000;1.332411
4788.000000;1.329608
4787.000000;1.326112
4786.000000;1.322081
4785.000000;1.317986
4784.000000;1.314277
4783.000000;1.311181
4782.000000;1.308615
4781.000000;1.306137
4780.000000;1.303184
4779.000000;1.299633
4778.000000;1.296042
4777.000000;1.293109
4776.000000;1.291013
4775.000000;1.289452
4774.000000;1.288094
4773.000000;1.286599
4772.000000;1.284386
4771.000000;1.280972
4770.000000;1.276660
4769.000000;1.272445
4768.000000;1.269061
4767.000000;1.266397
4766.000000;1.263951
4765.000000;1.261501
4764.000000;1.259074
4763.000000;1.256522
4762.000000;1.253536
4761.000000;1.250058
4760.000000;1.246435
4759.000000;1.243140
4758.000000;1.240430
4757.000000;1.238226
4756.000000;1.236152
4755.000000;1.233745
4754.000000;1.230773
4753.000000;1.227411
4752.000000;1.224057
4751.000000;1.220949
4750.000000;1.218024
4749.000000;1.215110
4748.000000;1.212158
4747.000000;1.209214
4746.000000;1.206256
4745.000000;1.203164
4744.000000;1.199930
4743.000000;1.196830
4742.000000;1.194258
4741.000000;1.192332
4740.000000;1.190731
4739.000000;1.188944
4738.000000;1.186642
4737.000000;1.183824
4736.000000;1.180750
4735.000000;1.177836
4734.000000;1.175457
4733.000000;1.173620
4732.000000;1.171810
4731.000000;1.169356
4730.000000;1.166037
4729.000000;1.162270
4728.000000;1.158692
4727.000000;1.155664
4726.000000;1.153178
4725.000000;1.151083
4724.000000;1.149259
4723.000000;1.147590
4722.000000;1.145889
4721.000000;1.143910
4720.000000;1.141488
4719.000000;1.138667
4718.000000;1.135709
4717.000000;1.132915
4716.000000;1.130416
4715.000000;1.128092
4714.000000;1.125692
4713.000000;1.123069
4712.000000;1.120363
4711.000000;1.117915
4710.000000;1.115945
4709.000000;1.114293
4708.000000;1.112586
4707.000000;1.110649
4706.000000;1.108646
4705.000000;1.106776
4704.000000;1.104981
4703.000000;1.103043
4702.000000;1.100848
4701.000000;1.098428
4700.000000;1.095831
4699.000000;1.093130
4698.000000;1.090541
4697.000000;1.088343
4696.000000;1.086601
4695.000000;1.085030
4694.000000;1.083207
4693.000000;1.080925
4692.000000;1.078358
4691.000000;1.075912
4690.000000;1.073913
4689.000000;1.072387
4688.000000;1.071097
4687.000000;1.069781
4686.000000;1.068312
4685.000000;1.066683
4684.000000;1.064902
4683.000000;1.062960
4682.000000;1.060850
4681.000000;1.058593
4680.000000;1.056306
4679.000000;1.054227
4678.000000;1.052547
4677.000000;1.051169
4676.000000;1.049727
4675.000000;1.047948
4674.000000;1.045922
4673.000000;1.043959
4672.000000;1.042261
4671.000000;1.040808
4670.000000;1.039489
4669.000000;1.038180
4668.000000;1.036737
4667.000000;1.035058
4666.000000;1.033198
4665.000000;1.031349
4664.000000;1.029684
4663.000000;1.028223
4662.000000;1.026845
4661.000000;1.025426
4660.000000;1.023968
4659.000000;1.022590
4658.000000;1.021366
4657.000000;1.020205
4656.000000;1.018972
4655.000000;1.017703
4654.000000;1.016564
4653.000000;1.015565
4652.000000;1.014476
4651.000000;1.013100
4650.000000;1.011492
4649.000000;1.009798
4648.000000;1.008029
4647.000000;1.006134
4646.000000;1.004205
4645.000000;1.002455
4644.000000;1.001016
4643.000000;0.999866
4642.000000;0.998896
4641.000000;0.997969
4640.000000;0.996980
4639.000000;0.995959
4638.000000;0.995056
4637.000000;0.994313
4636.000000;0.993549
4635.000000;0.992561
4634.000000;0.991369
4633.000000;0.990117
4632.000000;0.988849
4631.000000;0.987553
4630.000000;0.986349
4629.000000;0.985411
4628.000000;0.984701
4627.000000;0.983979
4626.000000;0.983088
4625.000000;0.982087
4624.000000;0.981076
4623.000000;0.980058
4622.000000;0.979023
4621.000000;0.978022
4620.000000;0.977102
4619.000000;0.976239
4618.000000;0.975400
4617.000000;0.974580
4616.000000;0.973780
4615.000000;0.972997
4614.000000;0.972248
4613.000000;0.971541
4612.000000;0.970810
4611.000000;0.969992
4610.000000;0.969131
4609.000000;0.968325
4608.000000;0.967547
4607.000000;0.966664
4606.000000;0.965642
4605.000000;0.964636
4604.000000;0.963818
4603.000000;0.963211
4602.000000;0.962738
4601.000000;0.962371
4600.000000;0.962139
4599.000000;0.962016
4598.000000;0.961853
4597.000000;0.961482
4596.000000;0.960903
4595.000000;0.960339
4594.000000;0.960002
4593.000000;0.959792
4592.000000;0.959352
4591.000000;0.958536
4590.000000;0.957689
4589.000000;0.957273
4588.000000;0.957290
4587.000000;0.957266
4586.000000;0.956798
4585.000000;0.955945
4584.000000;0.955043
4583.000000;0.954341
4582.000000;0.953907
4581.000000;0.953733
4580.000000;0.953794
4579.000000;0.954052
4578.000000;0.954444
4577.000000;0.954830
4576.000000;0.954963
4575.000000;0.954672
4574.000000;0.954098
4573.000000;0.953632
4572.000000;0.953514
4571.000000;0.953621
4570.000000;0.953690
4569.000000;0.953623
4568.000000;0.953485
4567.000000;0.953328
4566.000000;0.953181
4565.000000;0.953132
4564.000000;0.953290
4563.000000;0.953669
4562.000000;0.954215
4561.000000;0.954885
4560.000000;0.955577
4559.000000;0.956059
4558.000000;0.956166
4557.000000;0.956084
4556.000000;0.956239
4555.000000;0.956826
4554.000000;0.957588
4553.000000;0.958136
4552.000000;0.958402
4551.000000;0.958622
4550.000000;0.958970
4549.000000;0.959406
4548.000000;0.959880
4547.000000;0.960472
4546.000000;0.961237
4545.000000;0.962039
4544.000000;0.962701
4543.000000;0.963234
4542.000000;0.963796
4541.000000;0.964440
4540.000000;0.965077
4539.000000;0.965663
4538.000000;0.966253
4537.000000;0.966827
4536.000000;0.967243
4535.000000;0.967457
4534.000000;0.967669
4533.000000;0.968111
4532.000000;0.968793
4531.000000;0.969542
4530.000000;0.970231
4529.000000;0.970855
4528.000000;0.971453
4527.000000;0.972084
4526.000000;0.972828
4525.000000;0.973697
4524.000000;0.974561
4523.000000;0.975283
4522.000000;0.975895
4521.000000;0.976533
4520.000000;0.977241
4519.000000;0.977962
4518.000000;0.978720
4517.000000;0.979641
4516.000000;0.980749
4515.000000;0.981868
4514.000000;0.982794
4513.000000;0.983496
4512.000000;0.984072
4511.000000;0.984567
4510.000000;0.984930
4509.000000;0.985139
4508.000000;0.985309
4507.000000;0.985624
4506.000000;0.986146
4505.000000;0.986771
4504.000000;0.987389
4503.000000;0.988061
4502.000000;0.988926
4501.000000;0.989971
4500.000000;0.991037
4499.000000;0.992075
4498.000000;0.993219
4497.000000;0.994526
4496.000000;0.995799
4495.000000;0.996826
4494.000000;0.997673
4493.000000;0.998559
4492.000000;0.999545
4491.000000;1.000519
4490.000000;1.001442
4489.000000;1.002412
4488.000000;1.003536
4487.000000;1.004879
4486.000000;1.006483
4485.000000;1.008247
4484.000000;1.009822
4483.000000;1.010883
4482.000000;1.011537
4481.000000;1.012274
4480.000000;1.013466
4479.000000;1.015073
4478.000000;1.016853
4477.000000;1.018632
4476.000000;1.020295
4475.000000;1.021741
4474.000000;1.023009
4473.000000;1.024358
4472.000000;1.026054
4471.000000;1.028118
4470.000000;1.030338
4469.000000;1.032451
4468.000000;1.034283
4467.000000;1.035834
4466.000000;1.037316
4465.000000;1.039034
4464.000000;1.041107
4463.000000;1.043343
4462.000000;1.045462
4461.000000;1.047391
4460.000000;1.049284
4459.000000;1.051314
4458.000000;1.053505
4457.000000;1.055724
4456.000000;1.057803
4455.000000;1.059719
4454.000000;1.061669
4453.000000;1.063871
4452.000000;1.066250
4451.000000;1.068435
4450.000000;1.070170
4449.000000;1.071657
4448.000000;1.073369
4447.000000;1.075544
4446.000000;1.078008
4445.000000;1.080489
4444.000000;1.082959
4443.000000;1.085572
4442.000000;1.088316
4441.000000;1.090882
4440.000000;1.092991
4439.000000;1.094760
4438.000000;1.096622
4437.000000;1.098894
4436.000000;1.101548
4435.000000;1.104360
4434.000000;1.107098
4433.000000;1.109546
4432.000000;1.111584
4431.000000;1.113432
4430.000000;1.115609
4429.000000;1.118394
4428.000000;1.121427
4427.000000;1.124123
4426.000000;1.126413
4425.000000;1.128788
4424.000000;1.131604
4423.000000;1.134661
4422.000000;1.137545
4421.000000;1.140112
4420.000000;1.142494
4419.000000;1.144845
4418.000000;1.147268
4417.000000;1.149854
4416.000000;1.152633
4415.000000;1.155551
4414.000000;1.158594
4413.000000;1.161815
4412.000000;1.165139
4411.000000;1.168295
4410.000000;1.171101
4409.000000;1.173737
4408.000000;1.176580
4407.000000;1.179796
4406.000000;1.183192
4405.000000;1.186418
4404.000000;1.189259
4403.000000;1.191814
4402.000000;1.194473
4401.000000;1.197667
4400.000000;1.201491
4399.000000;1.205586
4398.000000;1.209438
4397.000000;1.212778
4396.000000;1.215674
4395.000000;1.218333
4394.000000;1.220909
4393.000000;1.223500
4392.000000;1.226217
4391.000000;1.229207
4390.000000;1.232607
4389.000000;1.236424
4388.000000;1.240457
4387.000000;1.244370
4386.000000;1.247897
4385.000000;1.250996
4384.000000;1.253835
4383.000000;1.256644
4382.000000;1.259560
4381.000000;1.262586
4380.000000;1.265721
4379.000000;1.269112
4378.000000;1.272986
4377.000000;1.277336
4376.000000;1.281774
4375.000000;1.285842
4374.000000;1.289485
4373.000000;1.293069
4372.000000;1.296931
4371.000000;1.300979
4370.000000;1.304812
4369.000000;1.308188
4368.000000;1.311379
4367.000000;1.314985
4366.000000;1.319297
4365.000000;1.323926
4364.000000;1.328269
4363.000000;1.332348
4362.000000;1.336816
4361.000000;1.341980
4360.000000;1.347230
4359.000000;1.351782
4358.000000;1.355639
4357.000000;1.359310
4356.000000;1.362901
4355.000000;1.366193
4354.000000;1.369495
4353.000000;1.373556
4352.000000;1.378477
4351.000000;1.383443
4350.000000;1.387864
4349.000000;1.392144
4348.000000;1.396923
4347.000000;1.402071
4346.000000;1.406953
4345.000000;1.411319
4344.000000;1.415398
4343.000000;1.419419
4342.000000;1.423562
4341.000000;1.428177
4340.000000;1.433515
4339.000000;1.439308
4338.000000;1.445041
4337.000000;1.450526
4336.000000;1.455813
4335.000000;1.460709
4334.000000;1.464936
4333.000000;1.468711
4332.000000;1.472640
4331.000000;1.477014
4330.000000;1.481664
4329.000000;1.486482
4328.000000;1.491633
4327.000000;1.497231
4326.000000;1.503275
4325.000000;1.509926
4324.000000;1.517261
4323.000000;1.524591
4322.000000;1.530614
4321.000000;1.534649
4320.000000;1.537303
4319.000000;1.539698
4318.000000;1.542638
4317.000000;1.546789
4316.000000;1.552911
4315.000000;1.561099
4314.000000;1.569956
4313.000000;1.577301
4312.000000;1.582017
4311.000000;1.584878
4310.000000;1.587573
4309.000000;1.591387
4308.000000;1.596728
4307.000000;1.603223
4306.000000;1.610004
4305.000000;1.616329
4304.000000;1.622207
4303.000000;1.628213
4302.000000;1.634603
4301.000000;1.640970
4300.000000;1.646853
4299.000000;1.652270
4298.000000;1.657440
4297.000000;1.662392
4296.000000;1.667124
4295.000000;1.671798
4294.000000;1.676462
4293.000000;1.681004
4292.000000;1.685731
4291.000000;1.691493
4290.000000;1.698615
4289.000000;1.706013
4288.000000;1.712145
4287.000000;1.716824
4286.000000;1.721429
4285.000000;1.727255
4284.000000;1.734265
4283.000000;1.741426
4282.000000;1.747615
4281.000000;1.752166
4280.000000;1.755346
4279.000000;1.758661
4278.000000;1.763970
4277.000000;1.771710
4276.000000;1.780259
4275.000000;1.787482
4274.000000;1.792694
4273.000000;1.796765
4272.000000;1.800785
4271.000000;1.805296
4270.000000;1.810531
4269.000000;1.816558
4268.000000;1.823053
4267.000000;1.829385
4266.000000;1.835129
4265.000000;1.840248
4264.000000;1.844767
4263.000000;1.848701
4262.000000;1.852483
4261.000000;1.857121
4260.000000;1.863596
4259.000000;1.871958
4258.000000;1.881061
4257.000000;1.889370
4256.000000;1.896159
4255.000000;1.901778
4254.000000;1.906809
4253.000000;1.911444
4252.000000;1.915979
4251.000000;1.921463
4250.000000;1.929220
4249.000000;1.939781
4248.000000;1.952495
4247.000000;1.965633
4246.000000;1.976287
4245.000000;1.981191
4244.000000;1.979821
4243.000000;1.976379
4242.000000;1.976678
4241.000000;1.982573
4240.000000;1.990587
4239.000000;1.996590
4238.000000;2.000691
4237.000000;2.005766
4236.000000;2.012588
4235.000000;2.019055
4234.000000;2.023895
4233.000000;2.028686
4232.000000;2.035354
4231.000000;2.043370
4230.000000;2.050458
4229.000000;2.055109
4228.000000;2.057533
4227.000000;2.059043
4226.000000;2.061401
4225.000000;2.066123
4224.000000;2.073262
4223.000000;2.080843
4222.000000;2.086513
4221.000000;2.090024
4220.000000;2.093352
4219.000000;2.098412
4218.000000;2.105031
4217.000000;2.111786
4216.000000;2.118849
4215.000000;2.128471
4214.000000;2.141563
4213.000000;2.154364
4212.000000;2.161145
4211.000000;2.161788
4210.000000;2.163215
4209.000000;2.172076
4208.000000;2.188421
4207.000000;2.206156
4206.000000;2.218756
4205.000000;2.224287
4204.000000;2.225227
4203.000000;2.225444
4202.000000;2.228044
4201.000000;2.234139
4200.000000;2.241822
4199.000000;2.246892
4198.000000;2.246890
4197.000000;2.244860
4196.000000;2.246830
4195.000000;2.255033
4194.000000;2.265021
4193.000000;2.270588
4192.000000;2.271557
4191.000000;2.274661
4190.000000;2.285262
4189.000000;2.300175
4188.000000;2.310668
4187.000000;2.312688
4186.000000;2.311567
4185.000000;2.315112
4184.000000;2.325437
4183.000000;2.337987
4182.000000;2.346182
4181.000000;2.346980
4180.000000;2.343148
4179.000000;2.340838
4178.000000;2.343541
4177.000000;2.348039
4176.000000;2.348113
4175.000000;2.342633
4174.000000;2.337980
4173.000000;2.341241
4172.000000;2.353302
4171.000000;2.369557
4170.000000;2.384961
4169.000000;2.396903
4168.000000;2.405014
4167.000000;2.411144
4166.000000;2.418577
4165.000000;2.429081
4164.000000;2.441522
4163.000000;2.453843
4162.000000;2.465883
4161.000000;2.478782
4160.000000;2.491446
4159.000000;2.500149
4158.000000;2.502003
4157.000000;2.498129
4156.000000;2.494293
4155.000000;2.496174
4154.000000;2.503145
4153.000000;2.507601
4152.000000;2.502247
4151.000000;2.490400
4150.000000;2.484305
4149.000000;2.492459
4148.000000;2.512170
4147.000000;2.532982
4146.000000;2.545709
4145.000000;2.547617
4144.000000;2.541376
4143.000000;2.533488
4142.000000;2.531567
4141.000000;2.538266
4140.000000;2.549073
4139.000000;2.559105
4138.000000;2.570284
4137.000000;2.588118
4136.000000;2.611081
4135.000000;2.627064
4134.000000;2.626462
4133.000000;2.616114
4132.000000;2.611269
4131.000000;2.619533
4130.000000;2.636644
4129.000000;2.649501
4128.000000;2.645225
4127.000000;2.625378
4126.000000;2.605294
4125.000000;2.600612
4124.000000;2.615864
4123.000000;2.639400
4122.000000;2.652435
4121.000000;2.647566
4120.000000;2.633324
4119.000000;2.622680
4118.000000;2.622387
4117.000000;2.632372
4116.000000;2.651168
4115.000000;2.675470
4114.000000;2.693919
4113.000000;2.692250
4112.000000;2.672084
4111.000000;2.652618
4110.000000;2.654456
4109.000000;2.683764
4108.000000;2.723995
4107.000000;2.746347
4106.000000;2.741045
4105.000000;2.725741
4104.000000;2.718030
4103.000000;2.720271
4102.000000;2.725703
4101.000000;2.732134
4100.000000;2.745987
4099.000000;2.767707
4098.000000;2.781176
4097.000000;2.770087
4096.000000;2.742295
4095.000000;2.721581
4094.000000;2.721966
4093.000000;2.737643
4092.000000;2.751178
4091.000000;2.751182
4090.000000;2.741071
4089.000000;2.730525
4088.000000;2.725900
4087.000000;2.731088
4086.000000;2.748278
4085.000000;2.770181
4084.000000;2.778738
4083.000000;2.764847
4082.000000;2.742897
4081.000000;2.732788
4080.000000;2.741310
4079.000000;2.766940
4078.000000;2.808600
4077.000000;2.860112
4076.000000;2.903167
4075.000000;2.916567
4074.000000;2.898546
4073.000000;2.866009
4072.000000;2.834943
4071.000000;2.812808
4070.000000;2.801644
4069.000000;2.802711
4068.000000;2.815143
4067.000000;2.835719
4066.000000;2.858109
4065.000000;2.874771
4064.000000;2.883874
4063.000000;2.887110
4062.000000;2.886756
4061.000000;2.886171
4060.000000;2.887244
4059.000000;2.891912
4058.000000;2.903594
4057.000000;2.919965
4056.000000;2.928160
4055.000000;2.916907
4054.000000;2.894413
4053.000000;2.879235
4052.000000;2.877455
4051.000000;2.878600
4050.000000;2.870377
4049.000000;2.856946
4048.000000;2.856214
4047.000000;2.881909
4046.000000;2.932681
4045.000000;2.987909
4044.000000;3.012759
4043.000000;2.990837
4042.000000;2.944543
4041.000000;2.904099
4040.000000;2.886390
4039.000000;2.897333
4038.000000;2.934208
4037.000000;2.982270
4036.000000;3.015836
4035.000000;3.019189
4034.000000;3.004676
4033.000000;2.993485
4032.000000;2.994136
4031.000000;3.005486
4030.000000;3.020882
4029.000000;3.026122
4028.000000;3.013454
4027.000000;2.998496
4026.000000;3.006711
4025.000000;3.045178
4024.000000;3.082999
4023.000000;3.074946
4022.000000;3.029373
4021.000000;2.993367
4020.000000;2.987918
4019.000000;2.997631
4018.000000;2.999468
4017.000000;2.996213
4016.000000;3.009556
4015.000000;3.048339
4014.000000;3.085999
4013.000000;3.071787
4012.000000;3.009782
4011.000000;2.946353
4010.000000;2.906291
4009.000000;2.893732
4008.000000;2.901191
4007.000000;2.918897
4006.000000;2.942419
4005.000000;2.968479
4004.000000;2.993650
4003.000000;3.017332
4002.000000;3.029282
4001.000000;3.021707
4000.000000;3.004820
3999.000000;2.980706
3998.000000;2.963311
3997.000000;2.980928
3996.000000;3.036503
3995.000000;3.102461
3994.000000;3.140517
3993.000000;3.134556
3992.000000;3.101940
3991.000000;3.069707
3990.000000;3.060349
3989.000000;3.085771
3988.000000;3.135996
3987.000000;3.179267
3986.000000;3.170325
3985.000000;3.094525
3984.000000;3.007950
3983.000000;2.958506
3982.000000;2.955073
3981.000000;2.986372
3980.000000;3.031861
3979.000000;3.073928
3978.000000;3.106236
3977.000000;3.127353
3976.000000;3.142371
3975.000000;3.152737
3974.000000;3.151388
3973.000000;3.152654
3972.000000;3.171670
3971.000000;3.190124
3970.000000;3.193082
3969.000000;3.202957
3968.000000;3.227639
3967.000000;3.233589
3966.000000;3.205634
3965.000000;3.178751
3964.000000;3.181937
3963.000000;3.207400
3962.000000;3.231062
3961.000000;3.232381
3960.000000;3.204695
3959.000000;3.171329
3958.000000;3.157128
3957.000000;3.167304
3956.000000;3.191819
3955.000000;3.211476
3954.000000;3.215663
3953.000000;3.215759
3952.000000;3.236633
3951.000000;3.294390
3950.000000;3.372960
3949.000000;3.425506
3948.000000;3.391266
3947.000000;3.307643
3946.000000;3.289406
3945.000000;3.366526
3944.000000;3.486110
3943.000000;3.487979
3942.000000;3.372176
3941.000000;3.312796
3940.000000;3.333110
3939.000000;3.389862
3938.000000;3.445946
3937.000000;3.501867
3936.000000;3.611451
3935.000000;3.758370
3934.000000;3.812194
3933.000000;3.727820
3932.000000;3.580754
3931.000000;3.486475
3930.000000;3.450790
3929.000000;3.425030
3928.000000;3.378373
3927.000000;3.325922
3926.000000;3.301990
3925.000000;3.317364
3924.000000;3.369987
3923.000000;3.467362
3922.000000;3.564587
3921.000000;3.532762
3920.000000;3.444532
3919.000000;3.403599
3918.000000;3.392360
3917.000000;3.392882
3916.000000;3.417902
3915.000000;3.489247
3914.000000;3.609097
3913.000000;3.718922
3912.000000;3.795673
3911.000000;3.931170
3910.000000;4.149686
3909.000000;4.384242
3908.000000;4.213428
3907.000000;3.948092
3906.000000;3.903290
3905.000000;3.876041
3904.000000;3.656556
3903.000000;3.516774
3902.000000;3.440466
3901.000000;3.352630
3900.000000;3.322573
3899.000000;3.402836
3898.000000;3.590708
3897.000000;3.780471
3896.000000;3.710005
3895.000000;3.504136
3894.000000;3.364689
3893.000000;3.296753
3892.000000;3.279633
3891.000000;3.316691
3890.000000;3.426228
3889.000000;3.706928
3888.000000;3.921061
3887.000000;3.614768
3886.000000;3.451300
3885.000000;3.446320
3884.000000;3.452835
3883.000000;3.468399
3882.000000;3.488182
3881.000000;3.315748
3880.000000;3.197989
3879.000000;3.305822
3878.000000;3.697914
3877.000000;3.710313
3876.000000;3.402031
3875.000000;3.304430
3874.000000;3.340363
3873.000000;3.444502
3872.000000;3.525576
3871.000000;3.440785
3870.000000;3.271746
3869.000000;3.197464
3868.000000;3.316932
3867.000000;3.530419
3866.000000;3.438753
3865.000000;3.280906
3864.000000;3.261141
3863.000000;3.336904
3862.000000;3.390139
3861.000000;3.360280
3860.000000;3.461022
3859.000000;3.906927
3858.000000;3.906200
3857.000000;3.691548
3856.000000;3.596480
3855.000000;3.629404
3854.000000;3.744658
3853.000000;3.988076
3852.000000;4.356199
3851.000000;4.163313
3850.000000;3.825967
3849.000000;3.592416
3848.000000;3.458039
3847.000000;3.420680
3846.000000;3.480878
3845.000000;3.605998
3844.000000;3.893366
3843.000000;4.333322
3842.000000;3.724077
3841.000000;3.455971
3840.000000;3.367728
3839.000000;3.365758
3838.000000;3.492292
3837.000000;3.696754
3836.000000;3.711261
3835.000000;4.092696
3834.000000;4.273340
3833.000000;3.558470
3832.000000;3.351528
3831.000000;3.251821
3830.000000;3.295742
3829.000000;3.454007
3828.000000;3.801959
3827.000000;3.893419
3826.000000;3.643319
3825.000000;3.589953
3824.000000;3.810774
3823.000000;4.046667
3822.000000;3.470556
3821.000000;3.236630
3820.000000;3.238643
3819.000000;3.440475
3818.000000;3.926009
3817.000000;3.717508
3816.000000;3.426772
3815.000000;3.494785
3814.000000;3.673288
3813.000000;3.438515
3812.000000;3.348624
3811.000000;3.644042
3810.000000;4.070361
3809.000000;3.969505
3808.000000;3.822036
3807.000000;3.512257
3806.000000;3.334610
3805.000000;3.424830
3804.000000;3.871744
3803.000000;3.594075
3802.000000;3.295001
3801.000000;3.201609
3800.000000;3.071150
3799.000000;3.033022
3798.000000;3.147524
3797.000000;3.291851
3796.000000;3.412899
3795.000000;3.830018
3794.000000;4.262285
3793.000000;3.881613
3792.000000;3.871712
3791.000000;4.014876
3790.000000;4.085758
3789.000000;4.001610
3788.000000;3.875777
3787.000000;3.783091
3786.000000;3.708769
3785.000000;3.675155
3784.000000;3.805928
3783.000000;4.053412
3782.000000;3.868841
3781.000000;3.725584
3780.000000;3.789830
3779.000000;3.764485
3778.000000;3.535918
3777.000000;3.353569
3776.000000;3.261945
3775.000000;3.261224
3774.000000;3.381378
3773.000000;3.693113
3772.000000;4.157236
3771.000000;3.956721
3770.000000;3.751749
3769.000000;3.686696
3768.000000;3.626984
3767.000000;3.545922
3766.000000;3.525838
3765.000000;3.691165
3764.000000;4.077458
3763.000000;4.201518
3762.000000;4.069790
3761.000000;4.081254
3760.000000;3.862327
3759.000000;3.636185
3758.000000;3.552564
3757.000000;3.608513
3756.000000;3.742764
3755.000000;3.697499
3754.000000;3.619983
3753.000000;3.616106
3752.000000;3.721645
3751.000000;4.066791
3750.000000;4.388651
3749.000000;3.984424
3748.000000;3.805218
3747.000000;3.725721
3746.000000;3.719142
3745.000000;3.832425
3744.000000;3.827083
3743.000000;3.645916
3742.000000;3.555738
3741.000000;3.612156
3740.000000;3.870591
3739.000000;4.031418
3738.000000;3.824182
3737.000000;3.778689
3736.000000;3.842147
3735.000000;3.809918
3734.000000;3.882885
3733.000000;3.776974
3732.000000;3.770003
3731.000000;4.114335
3730.000000;3.968058
3729.000000;4.267023
3728.000000;4.038622
3727.000000;3.699635
3726.000000;3.685514
3725.000000;3.702380
3724.000000;3.686337
3723.000000;3.672269
3722.000000;3.630466
3721.000000;3.674694
3720.000000;3.878595
3719.000000;3.772604
3718.000000;3.549915
3717.000000;3.491315
3716.000000;3.561934
3715.000000;3.691066
3714.000000;3.725651
3713.000000;3.635434
3712.000000;3.427319
3711.000000;3.263084
3710.000000;3.216371
3709.000000;3.288124
3708.000000;3.478304
3707.000000;3.851731
3706.000000;4.400347
3705.000000;4.158000
3704.000000;3.883069
3703.000000;3.702086
3702.000000;3.628290
3701.000000;3.644167
3700.000000;3.710814
3699.000000;3.788824
3698.000000;3.859165
3697.000000;3.855478
3696.000000;3.683530
3695.000000;3.576881
3694.000000;3.608253
3693.000000;3.592343
3692.000000;3.455226
3691.000000;3.374419
3690.000000;3.352541
3689.000000;3.357396
3688.000000;3.385477
3687.000000;3.645939
3686.000000;3.912891
3685.000000;3.359852
3684.000000;3.201016
3683.000000;3.318807
3682.000000;3.573178
3681.000000;3.806483
3680.000000;3.845119
3679.000000;3.797544
3678.000000;3.612428
3677.000000;3.443173
3676.000000;3.363782
3675.000000;3.374132
3674.000000;3.560037
3673.000000;3.540534
3672.000000;3.240898
3671.000000;3.071159
3670.000000;3.063735
3669.000000;3.415710
3668.000000;3.648268
3667.000000;3.212966
3666.000000;3.100605
3665.000000;3.147488
3664.000000;3.302300
3663.000000;3.558620
3662.000000;3.890734
3661.000000;4.113427
3660.000000;4.069972
3659.000000;3.736575
3658.000000;3.445940
3657.000000;3.282161
3656.000000;3.227057
3655.000000;3.303686
3654.000000;3.484116
3653.000000;3.573019
3652.000000;3.528413
3651.000000;3.487602
3650.000000;3.445635
3649.000000;3.420131
3648.000000;3.502486
3647.000000;3.425831
3646.000000;3.123545
3645.000000;3.017859
3644.000000;3.104906
3643.000000;3.296462
3642.000000;3.547913
3641.000000;3.775047
3640.000000;4.159468
3639.000000;4.464525
3638.000000;4.004387
3637.000000;3.833255
3636.000000;3.820898
3635.000000;3.895147
3634.000000;4.102233
3633.000000;4.380457
3632.000000;4.502760
3631.000000;4.324241
3630.000000;4.177338
3629.000000;4.109221
3628.000000;4.036054
3627.000000;3.838847
3626.000000;3.606882
3625.000000;3.531507
3624.000000;3.608638
3623.000000;3.552565
3622.000000;3.417744
3621.000000;3.340992
3620.000000;3.329373
3619.000000;3.408125
3618.000000;3.607148
3617.000000;4.276209
3616.000000;4.088773
3615.000000;3.548118
3614.000000;3.438577
3613.000000;3.452420
3612.000000;3.668417
3611.000000;4.096180
3610.000000;4.172213
3609.000000;4.243765
3608.000000;3.794020
3607.000000;3.499819
3606.000000;3.427275
3605.000000;3.446048
3604.000000;3.558880
3603.000000;3.769878
3602.000000;4.222700
3601.000000;4.389249
3600.000000;3.909834
3599.000000;3.725240
3598.000000;3.634509
3597.000000;3.561960
3596.000000;3.522859
3595.000000;3.542013
3594.000000;3.657570
3593.000000;3.770601
3592.000000;3.878523
3591.000000;4.227025
3590.000000;3.959656
3589.000000;3.599567
3588.000000;3.481914
3587.000000;3.441862
3586.000000;3.476440
3585.000000;3.545247
3584.000000;3.545612
3583.000000;3.553934
3582.000000;3.665205
3581.000000;3.673437
3580.000000;3.575490
3579.000000;3.549458
3578.000000;3.628292
3577.000000;3.749852
3576.000000;3.644418
3575.000000;3.515631
3574.000000;3.529169
3573.000000;3.508984
3572.000000;3.334929
3571.000000;3.214370
3570.000000;3.214475
3569.000000;3.334731
3568.000000;3.622047
3567.000000;3.926316
3566.000000;3.880214
3565.000000;3.882427
3564.000000;3.951438
3563.000000;3.968892
3562.000000;3.916255
3561.000000;3.997223
3560.000000;4.295995
3559.000000;3.941205
3558.000000;3.640566
3557.000000;3.573594
3556.000000;3.605226
3555.000000;3.670433
3554.000000;3.706711
3553.000000;3.959492
3552.000000;4.145622
3551.000000;3.615451
3550.000000;3.413010
3549.000000;3.362744
3548.000000;3.368924
3547.000000;3.449427
3546.000000;3.620424
3545.000000;3.978930
3544.000000;4.006092
3543.000000;3.638010
3542.000000;3.466775
3541.000000;3.384076
3540.000000;3.386770
3539.000000;3.460422
3538.000000;3.572576
3537.000000;3.705712
3536.000000;3.819031
3535.000000;4.257733
3534.000000;4.290719
3533.000000;3.833413
3532.000000;3.821449
3531.000000;3.956702
3530.000000;4.022315
3529.000000;3.928322
3528.000000;3.693926
3527.000000;3.546566
3526.000000;3.570539
3525.000000;3.635319
3524.000000;3.567632
3523.000000;3.484611
3522.000000;3.422430
3521.000000;3.373517
3520.000000;3.365574
3519.000000;3.427677
3518.000000;3.537544
3517.000000;3.601405
3516.000000;3.641126
3515.000000;3.638018
3514.000000;3.572648
3513.000000;3.656166
3512.000000;3.803044
3511.000000;3.599888
3510.000000;3.392842
3509.000000;3.333531
3508.000000;3.367328
3507.000000;3.553663
3506.000000;3.956692
3505.000000;3.756721
3504.000000;3.620714
3503.000000;3.791913
3502.000000;4.179377
3501.000000;5.233230
3500.000000;4.144583
3499.000000;3.762207
3498.000000;3.782149
3497.000000;4.146369
3496.000000;3.842905
3495.000000;3.566467
3494.000000;3.560969
3493.000000;3.740040
3492.000000;4.212132
3491.000000;4.090457
3490.000000;3.813309
3489.000000;3.776837
3488.000000;3.782343
3487.000000;3.791533
3486.000000;3.829688
3485.000000;3.872057
3484.000000;3.860667
3483.000000;3.846624
3482.000000;3.820973
3481.000000;3.682703
3480.000000;3.582869
3479.000000;3.578543
3478.000000;3.695287
3477.000000;4.036372
3476.000000;4.034572
3475.000000;3.752264
3474.000000;3.671079
3473.000000;3.716783
3472.000000;3.829533
3471.000000;3.811553
3470.000000;3.706693
3469.000000;3.768929
3468.000000;3.849505
3467.000000;3.656325
3466.000000;3.558213
3465.000000;3.616924
3464.000000;3.788008
3463.000000;4.003308
3462.000000;3.892335
3461.000000;3.688487
3460.000000;3.648380
3459.000000;3.728516
3458.000000;3.744961
3457.000000;3.674061
3456.000000;3.613287
3455.000000;3.545481
3454.000000;3.482422
3453.000000;3.421429
3452.000000;3.384660
3451.000000;3.433711
3450.000000;3.587780
3449.000000;3.733213
3448.000000;3.804508
3447.000000;3.841003
3446.000000;3.707198
3445.000000;3.544451
3444.000000;3.427327
3443.000000;3.356220
3442.000000;3.349717
3441.000000;3.407230
3440.000000;3.517426
3439.000000;3.622384
3438.000000;3.674477
3437.000000;3.755477
3436.000000;3.882479
3435.000000;4.016397
3434.000000;4.208239
3433.000000;4.011648
3432.000000;3.738284
3431.000000;3.676914
3430.000000;3.748732
3429.000000;3.879969
3428.000000;3.893559
3427.000000;3.784237
3426.000000;3.716781
3425.000000;3.748369
3424.000000;3.835461
3423.000000;3.830691
3422.000000;3.772984
3421.000000;3.695770
3420.000000;3.619272
3419.000000;3.616308
3418.000000;3.722452
3417.000000;3.874024
3416.000000;4.030434
3415.000000;4.292131
3414.000000;4.161927
3413.000000;3.944222
3412.000000;3.869686
3411.000000;3.777846
3410.000000;3.685305
3409.000000;3.632007
3408.000000;3.624178
3407.000000;3.646195
3406.000000;3.708638
3405.000000;3.908947
3404.000000;4.348678
3403.000000;4.487534
3402.000000;3.878214
3401.000000;3.542777
3400.000000;3.412831
3399.000000;3.464054
3398.000000;3.824531
3397.000000;4.035134
3396.000000;3.706172
3395.000000;3.604123
3394.000000;3.520025
3393.000000;3.436471
3392.000000;3.424121
3391.000000;3.494432
3390.000000;3.629117
3389.000000;3.794210
3388.000000;3.871191
3387.000000;3.877371
3386.000000;4.053120
3385.000000;3.901119
3384.000000;3.637425
3383.000000;3.635334
3382.000000;3.843921
3381.000000;4.294243
3380.000000;4.387753
3379.000000;4.077010
3378.000000;4.048928
3377.000000;4.061406
3376.000000;3.908118
3375.000000;3.709658
3374.000000;3.612357
3373.000000;3.611042
3372.000000;3.525976
3371.000000;3.363723
3370.000000;3.269105
3369.000000;3.257316
3368.000000;3.327630
3367.000000;3.468983
3366.000000;3.785107
3365.000000;4.115812
3364.000000;3.790868
3363.000000;3.774955
3362.000000;3.758154
3361.000000;3.557831
3360.000000;3.480065
3359.000000;3.506870
3358.000000;3.656918
3357.000000;3.885117
3356.000000;3.998153
3355.000000;4.312068
3354.000000;4.207046
3353.000000;3.785380
3352.000000;3.620002
3351.000000;3.529663
3350.000000;3.531573
3349.000000;3.680235
3348.000000;4.136859
3347.000000;3.961788
3346.000000;3.600049
3345.000000;3.588948
3344.000000;3.809946
3343.000000;4.058481
3342.000000;3.994601
3341.000000;3.887658
3340.000000;3.848311
3339.000000;3.984350
3338.000000;4.030334
3337.000000;3.922283
3336.000000;3.850863
3335.000000;3.691692
3334.000000;3.586146
3333.000000;3.634953
3332.000000;3.844144
3331.000000;3.872115
3330.000000;3.694475
3329.000000;3.683365
3328.000000;3.884520
3327.000000;4.381740
3326.000000;4.690760
3325.000000;4.181622
3324.000000;3.785261
3323.000000;3.606995
3322.000000;3.598562
3321.000000;3.735628
3320.000000;4.094069
3319.000000;4.329635
3318.000000;4.158041
3317.000000;3.929093
3316.000000;3.791933
3315.000000;3.795420
3314.000000;3.883058
3313.000000;3.927048
3312.000000;4.060961
3311.000000;4.628212
3310.000000;3.929535
3309.000000;3.577371
3308.000000;3.509595
3307.000000;3.604127
3306.000000;3.815160
3305.000000;3.967206
3304.000000;3.753899
3303.000000;3.476640
3302.000000;3.356025
3301.000000;3.349025
3300.000000;3.442574
3299.000000;3.658022
3298.000000;3.876486
3297.000000;3.957248
3296.000000;3.963765
3295.000000;3.784118
3294.000000;3.661204
3293.000000;3.654675
3292.000000;3.651019
3291.000000;3.567896
3290.000000;3.466008
3289.000000;3.445867
3288.000000;3.576676
3287.000000;3.721662
3286.000000;3.617377
3285.000000;3.582076
3284.000000;3.704942
3283.000000;3.791910
3282.000000;3.666400
3281.000000;3.547733
3280.000000;3.524874
3279.000000;3.566024
3278.000000;3.650500
3277.000000;3.826954
3276.000000;4.028424
3275.000000;3.896006
3274.000000;3.698893
3273.000000;3.566161
3272.000000;3.528939
3271.000000;3.619332
3270.000000;3.865604
3269.000000;4.386566
3268.000000;4.252315
3267.000000;3.810120
3266.000000;3.714637
3265.000000;3.809195
3264.000000;3.707298
3263.000000;3.544679
3262.000000;3.505447
3261.000000;3.487953
3260.000000;3.518694
3259.000000;3.648215
3258.000000;3.858596
3257.000000;4.282027
3256.000000;4.360544
3255.000000;3.930176
3254.000000;3.824281
3253.000000;3.791852
3252.000000;3.705113
3251.000000;3.674885
3250.000000;3.761088
3249.000000;3.964854
3248.000000;4.096038
3247.000000;3.911867
3246.000000;3.697863
3245.000000;3.539817
3244.000000;3.430008
3243.000000;3.366349
3242.000000;3.343152
3241.000000;3.354488
3240.000000;3.393315
3239.000000;3.453209
3238.000000;3.518507
3237.000000;3.579994
3236.000000;3.674594
3235.000000;3.831294
3234.000000;3.931056
3233.000000;3.879017
3232.000000;3.840381
3231.000000;3.956572
3230.000000;3.952448
3229.000000;3.665258
3228.000000;3.500322
3227.000000;3.474259
3226.000000;3.572133
3225.000000;3.832405
3224.000000;4.361004
3223.000000;4.135111
3222.000000;3.737298
3221.000000;3.623176
3220.000000;3.693136
3219.000000;4.136327
3218.000000;4.130774
3217.000000;3.735213
3216.000000;3.800925
3215.000000;4.006406
3214.000000;4.018450
3213.000000;3.970166
3212.000000;4.236616
3211.000000;4.273224
3210.000000;3.884001
3209.000000;3.686258
3208.000000;3.644231
3207.000000;3.748846
3206.000000;3.815724
3205.000000;3.797260
3204.000000;3.996557
3203.000000;4.720800
3202.000000;4.263652
3201.000000;3.973460
3200.000000;3.926039
3199.000000;3.961871
3198.000000;3.940672
3197.000000;3.979538
3196.000000;4.300440
3195.000000;4.056190
3194.000000;3.711194
3193.000000;3.669365
3192.000000;3.851818
3191.000000;4.130000
3190.000000;3.882445
3189.000000;3.657184
3188.000000;3.578434
3187.000000;3.496532
3186.000000;3.376474
3185.000000;3.300172
3184.000000;3.311960
3183.000000;3.405944
3182.000000;3.552828
3181.000000;3.661143
3180.000000;3.683011
3179.000000;3.733002
3178.000000;4.051445
3177.000000;4.133592
3176.000000;3.669308
3175.000000;3.482857
3174.000000;3.408447
3173.000000;3.410605
3172.000000;3.571470
3171.000000;3.956065
3170.000000;3.907442
3169.000000;3.747555
3168.000000;3.790520
3167.000000;3.865297
3166.000000;4.076704
3165.000000;3.946922
3164.000000;3.571084
3163.000000;3.435085
3162.000000;3.455832
3161.000000;3.682165
3160.000000;4.130204
3159.000000;3.788341
3158.000000;3.486936
3157.000000;3.381850
3156.000000;3.349960
3155.000000;3.377438
3154.000000;3.428437
3153.000000;3.496061
3152.000000;3.592501
3151.000000;3.711280
3150.000000;3.797326
3149.000000;3.903728
3148.000000;3.919841
3147.000000;3.599971
3146.000000;3.419542
3145.000000;3.421968
3144.000000;3.563031
3143.000000;3.727515
3142.000000;3.711976
3141.000000;3.632296
3140.000000;3.637616
3139.000000;3.763178
3138.000000;4.139025
3137.000000;4.047078
3136.000000;3.656647
3135.000000;3.526188
3134.000000;3.470498
3133.000000;3.490404
3132.000000;3.595891
3131.000000;3.755152
3130.000000;3.876572
3129.000000;4.107188
3128.000000;4.168854
3127.000000;3.831180
3126.000000;3.716400
3125.000000;3.811470
3124.000000;4.190245
3123.000000;4.376496
3122.000000;4.025517
3121.000000;3.992822
3120.000000;4.144604
3119.000000;4.482694
3118.000000;4.363102
3117.000000;4.086607
3116.000000;3.933270
3115.000000;3.667142
3114.000000;3.542595
3113.000000;3.589068
3112.000000;3.717698
3111.000000;3.748780
3110.000000;3.683261
3109.000000;3.601532
3108.000000;3.518166
3107.000000;3.453509
3106.000000;3.410732
3105.000000;3.371950
3104.000000;3.313439
3103.000000;3.251111
3102.000000;3.225922
3101.000000;3.263947
3100.000000;3.366078
3099.000000;3.527719
3098.000000;3.723804
3097.000000;3.745542
3096.000000;3.602295
3095.000000;3.456153
3094.000000;3.363104
3093.000000;3.361524
3092.000000;3.470241
3091.000000;3.723029
3090.000000;3.993773
3089.000000;3.850823
3088.000000;3.716798
3087.000000;3.620829
3086.000000;3.520653
3085.000000;3.432115
3084.000000;3.391370
3083.000000;3.425385
3082.000000;3.548386
3081.000000;3.743697
3080.000000;3.880270
3079.000000;3.798094
3078.000000;3.631783
3077.000000;3.521776
3076.000000;3.489169
3075.000000;3.473069
3074.000000;3.394856
3073.000000;3.338090
3072.000000;3.389509
3071.000000;3.542932
3070.000000;3.683227
3069.000000;3.664488
3068.000000;3.609644
3067.000000;3.658351
3066.000000;3.818586
3065.000000;3.938254
3064.000000;3.631945
3063.000000;3.360493
3062.000000;3.272081
3061.000000;3.336542
3060.000000;3.534113
3059.000000;3.948967
3058.000000;4.154960
3057.000000;3.780746
3056.000000;3.733808
3055.000000;3.813966
3054.000000;3.940275
3053.000000;3.863912
3052.000000;3.776419
3051.000000;3.829908
3050.000000;3.951789
3049.000000;4.005872
3048.000000;3.957727
3047.000000;3.882685
3046.000000;3.812289
3045.000000;3.796628
3044.000000;3.895655
3043.000000;3.916326
3042.000000;3.647015
3041.000000;3.525798
3040.000000;3.591696
3039.000000;3.680100
3038.000000;3.581074
3037.000000;3.548751
3036.000000;3.660358
3035.000000;3.896747
3034.000000;4.091871
3033.000000;4.014042
3032.000000;3.953736
3031.000000;4.109546
3030.000000;4.345716
3029.000000;4.054532
3028.000000;3.938753
3027.000000;4.121694
3026.000000;4.326694
3025.000000;4.194552
3024.000000;3.854350
3023.000000;3.705645
3022.000000;3.784517
3021.000000;4.404814
3020.000000;4.148243
3019.000000;3.745468
3018.000000;3.614363
3017.000000;3.586289
3016.000000;3.693762
3015.000000;3.933804
3014.000000;4.376692
3013.000000;4.248120
3012.000000;3.767777
3011.000000;3.596538
3010.000000;3.573886
3009.000000;3.660291
3008.000000;3.812946
3007.000000;4.163358
3006.000000;4.715811
3005.000000;3.956422
3004.000000;3.774879
3003.000000;3.688323
3002.000000;3.615550
3001.000000;3.615680
3000.000000;3.691813
2999.000000;3.708405
2998.000000;3.619610
2997.000000;3.551441
2996.000000;3.584592
2995.000000;3.705194
2994.000000;3.779106
2993.000000;3.755254
2992.000000;3.759014
2991.000000;3.830220
2990.000000;3.939201
2989.000000;4.039863
2988.000000;3.947957
2987.000000;3.680362
2986.000000;3.510710
2985.000000;3.503597
2984.000000;3.686505
2983.000000;3.805222
2982.000000;3.531449
2981.000000;3.407712
2980.000000;3.418621
2979.000000;3.558304
2978.000000;3.815036
2977.000000;4.204550
2976.000000;4.658344
2975.000000;4.200622
2974.000000;3.917369
2973.000000;3.928045
2972.000000;3.965679
2971.000000;3.883813
2970.000000;3.817485
2969.000000;3.774548
2968.000000;3.758039
2967.000000;3.797704
2966.000000;3.906640
2965.000000;4.101053
2964.000000;4.192312
2963.000000;4.095327
2962.000000;3.868225
2961.000000;3.655427
2960.000000;3.539659
2959.000000;3.537579
2958.000000;3.682328
2957.000000;3.819830
2956.000000;3.653337
2955.000000;3.667492
2954.000000;3.777125
2953.000000;3.624163
2952.000000;3.537303
2951.000000;3.830922
2950.000000;4.318206
2949.000000;3.679526
2948.000000;3.574138
2947.000000;3.528442
2946.000000;3.493237
2945.000000;3.498336
2944.000000;3.634117
2943.000000;3.702191
2942.000000;3.580118
2941.000000;3.556039
2940.000000;3.601207
2939.000000;3.572756
2938.000000;3.564858
2937.000000;3.664934
2936.000000;3.857224
2935.000000;4.079838
2934.000000;4.429897
2933.000000;4.009016
2932.000000;3.638755
2931.000000;3.477923
2930.000000;3.457268
2929.000000;3.544259
2928.000000;3.681964
2927.000000;3.769835
2926.000000;3.749360
2925.000000;4.020808
2924.000000;4.414458
2923.000000;3.724101
2922.000000;3.632170
2921.000000;3.676387
2920.000000;3.892598
2919.000000;4.329257
2918.000000;4.028187
2917.000000;3.761329
2916.000000;3.837917
2915.000000;3.987958
2914.000000;3.832375
2913.000000;3.742389
2912.000000;3.897360
2911.000000;4.090273
2910.000000;3.998323
2909.000000;3.959043
2908.000000;3.902183
2907.000000;3.736978
2906.000000;3.690479
2905.000000;3.897820
2904.000000;4.083579
2903.000000;3.642010
2902.000000;3.467871
2901.000000;3.437320
2900.000000;3.569714
2899.000000;3.803150
2898.000000;3.813692
2897.000000;3.777681
2896.000000;4.031134
2895.000000;4.522671
2894.000000;4.024155
2893.000000;3.718191
2892.000000;3.562848
2891.000000;3.508903
2890.000000;3.533064
2889.000000;3.641002
2888.000000;3.864094
2887.000000;4.610313
2886.000000;4.339339
2885.000000;4.011893
2884.000000;3.973254
2883.000000;4.087157
2882.000000;3.860279
2881.000000;3.700044
2880.000000;3.787783
2879.000000;4.187180
2878.000000;4.318397
2877.000000;4.185092
2876.000000;4.180291
2875.000000;4.077202
2874.000000;4.162400
2873.000000;4.065161
2872.000000;3.795701
2871.000000;3.791345
2870.000000;4.192274
2869.000000;4.155048
2868.000000;3.719710
2867.000000;3.756146
2866.000000;3.961626
2865.000000;4.036481
2864.000000;3.752415
2863.000000;3.550513
2862.000000;3.443850
2861.000000;3.445699
2860.000000;3.576108
2859.000000;3.806000
2858.000000;3.684154
2857.000000;3.608234
2856.000000;3.809494
2855.000000;4.329944
2854.000000;3.823502
2853.000000;3.725645
2852.000000;3.807745
2851.000000;3.777342
2850.000000;3.660556
2849.000000;3.580132
2848.000000;3.563150
2847.000000;3.675333
2846.000000;4.108566
2845.000000;4.610017
2844.000000;4.095954
2843.000000;4.535790
2842.000000;4.168480
2841.000000;3.874045
2840.000000;3.826443
2839.000000;3.681400
2838.000000;3.556674
2837.000000;3.569139
2836.000000;3.674219
2835.000000;3.721897
2834.000000;3.710373
2833.000000;3.700625
2832.000000;3.717507
2831.000000;3.721855
2830.000000;3.699721
2829.000000;3.768940
2828.000000;4.056750
2827.000000;4.349789
2826.000000;3.851519
2825.000000;3.686373
2824.000000;3.692188
2823.000000;3.767489
2822.000000;3.702778
2821.000000;3.577035
2820.000000;3.523518
2819.000000;3.552692
2818.000000;3.638296
2817.000000;3.701038
2816.000000;3.595059
2815.000000;3.415936
2814.000000;3.332373
2813.000000;3.362492
2812.000000;3.520546
2811.000000;3.807031
2810.000000;4.402999
2809.000000;4.356390
2808.000000;3.775836
2807.000000;3.633278
2806.000000;3.708638
2805.000000;4.450575
2804.000000;4.178285
2803.000000;3.845843
2802.000000;3.832454
2801.000000;4.109290
2800.000000;4.008410
2799.000000;3.810665
2798.000000;3.963707
2797.000000;4.741393
2796.000000;4.131739
2795.000000;3.994548
2794.000000;3.945852
2793.000000;4.156688
2792.000000;4.685529
2791.000000;4.248666
2790.000000;4.038920
2789.000000;3.856377
2788.000000;3.706458
2787.000000;3.562416
2786.000000;3.533052
2785.000000;3.670634
2784.000000;3.861655
2783.000000;3.815999
2782.000000;3.702045
2781.000000;3.662795
2780.000000;3.694537
2779.000000;3.756862
2778.000000;3.924972
2777.000000;4.016203
2776.000000;3.835125
2775.000000;3.711768
2774.000000;3.629033
2773.000000;3.679421
2772.000000;3.862407
2771.000000;3.768895
2770.000000;3.881239
2769.000000;4.337615
2768.000000;3.601068
2767.000000;3.467196
2766.000000;3.465962
2765.000000;3.525484
2764.000000;3.585656
2763.000000;3.666718
2762.000000;3.757197
2761.000000;3.809171
2760.000000;3.781991
2759.000000;3.733088
2758.000000;3.877517
2757.000000;4.015319
2756.000000;3.670540
2755.000000;3.469192
2754.000000;3.364002
2753.000000;3.304532
2752.000000;3.350824
2751.000000;3.514706
2750.000000;3.744308
2749.000000;4.031534
2748.000000;3.920119
2747.000000;3.664703
2746.000000;3.472673
2745.000000;3.460072
2744.000000;3.768772
2743.000000;4.033005
2742.000000;3.561108
2741.000000;3.577358
2740.000000;3.904624
2739.000000;4.016353
2738.000000;3.776734
2737.000000;3.811200
2736.000000;3.594715
2735.000000;3.474410
2734.000000;3.699864
2733.000000;4.016959
2732.000000;3.561227
2731.000000;3.407729
2730.000000;3.414009
2729.000000;3.554210
2728.000000;3.910112
2727.000000;4.313356
2726.000000;4.107340
2725.000000;4.965068
2724.000000;4.034630
2723.000000;3.600197
2722.000000;3.478580
2721.000000;3.486345
2720.000000;3.578126
2719.000000;3.652439
2718.000000;3.677277
2717.000000;3.700800
2716.000000;3.784434
2715.000000;3.988402
2714.000000;3.907030
2713.000000;3.622602
2712.000000;3.500372
2711.000000;3.470856
2710.000000;3.484491
2709.000000;3.503683
2708.000000;3.519223
2707.000000;3.514980
2706.000000;3.489955
2705.000000;3.487854
2704.000000;3.552388
2703.000000;3.675385
2702.000000;3.931910
2701.000000;3.958703
2700.000000;3.752555
2699.000000;3.725057
2698.000000;4.195227
2697.000000;4.053739
2696.000000;3.606315
2695.000000;3.440164
2694.000000;3.377472
2693.000000;3.401121
2692.000000;3.497093
2691.000000;3.602400
2690.000000;3.619895
2689.000000;3.636909
2688.000000;3.756243
2687.000000;3.751552
2686.000000;3.584948
2685.000000;3.566741
2684.000000;3.711389
2683.000000;4.178258
2682.000000;4.579806
2681.000000;4.124268
2680.000000;4.212709
2679.000000;4.065692
2678.000000;4.172675
2677.000000;4.225212
2676.000000;4.000596
2675.000000;4.063516
2674.000000;4.232437
2673.000000;3.926824
2672.000000;3.656718
2671.000000;3.555779
2670.000000;3.583257
2669.000000;3.750472
2668.000000;4.257515
2667.000000;4.156669
2666.000000;3.840344
2665.000000;3.769005
2664.000000;3.790132
2663.000000;3.817710
2662.000000;3.806619
2661.000000;3.759871
2660.000000;3.733833
2659.000000;3.828154
2658.000000;3.902776
2657.000000;3.744859
2656.000000;3.623421
2655.000000;3.523983
2654.000000;3.486249
2653.000000;3.581382
2652.000000;3.774830
2651.000000;3.736254
2650.000000;3.627464
2649.000000;3.645286
2648.000000;3.948875
2647.000000;4.090329
2646.000000;3.710564
2645.000000;3.626517
2644.000000;3.695662
2643.000000;3.776279
2642.000000;3.741868
2641.000000;3.662608
2640.000000;3.628602
2639.000000;3.594310
2638.000000;3.549733
2637.000000;3.548606
2636.000000;3.598732
2635.000000;3.627509
2634.000000;3.605171
2633.000000;3.624987
2632.000000;3.671583
2631.000000;3.907716
2630.000000;4.285955
2629.000000;3.617491
2628.000000;3.404525
2627.000000;3.358195
2626.000000;3.411629
2625.000000;3.495609
2624.000000;3.565104
2623.000000;3.630809
2622.000000;3.742042
2621.000000;3.980476
2620.000000;3.834890
2619.000000;3.541357
2618.000000;3.423510
2617.000000;3.448990
2616.000000;3.597353
2615.000000;3.701861
2614.000000;3.706661
2613.000000;3.832453
2612.000000;4.270150
2611.000000;3.985773
2610.000000;3.823495
2609.000000;3.826646
2608.000000;3.786461
2607.000000;3.681491
2606.000000;3.565863
2605.000000;3.458271
2604.000000;3.365307
2603.000000;3.308876
2602.000000;3.317107
2601.000000;3.409481
2600.000000;3.617749
2599.000000;3.837962
2598.000000;3.774223
2597.000000;3.728232
2596.000000;3.799783
2595.000000;3.848816
2594.000000;3.840804
2593.000000;3.760853
2592.000000;3.663908
2591.000000;3.667934
2590.000000;3.872146
2589.000000;4.107099
2588.000000;3.728677
2587.000000;3.473744
2586.000000;3.382368
2585.000000;3.450271
2584.000000;3.731195
2583.000000;3.668841
2582.000000;3.467674
2581.000000;3.454943
2580.000000;3.576668
2579.000000;3.698241
2578.000000;3.554851
2577.000000;3.394289
2576.000000;3.338719
2575.000000;3.388857
2574.000000;3.556737
2573.000000;3.864098
2572.000000;4.265417
2571.000000;4.112047
2570.000000;3.800064
2569.000000;3.729879
2568.000000;3.870382
2567.000000;4.183884
2566.000000;4.187844
2565.000000;3.899803
2564.000000;3.723527
2563.000000;3.688971
2562.000000;3.786731
2561.000000;3.967995
2560.000000;4.032255
2559.000000;3.945016
2558.000000;3.895865
2557.000000;3.862588
2556.000000;3.754647
2555.000000;3.661426
2554.000000;3.701863
2553.000000;3.916498
2552.000000;3.907789
2551.000000;3.678686
2550.000000;3.585068
2549.000000;3.523063
2548.000000;3.448083
2547.000000;3.413148
2546.000000;3.464357
2545.000000;3.602212
2544.000000;3.769991
2543.000000;3.894012
2542.000000;4.284007
2541.000000;4.162929
2540.000000;3.707517
2539.000000;3.553752
2538.000000;3.527675
2537.000000;3.617606
2536.000000;3.752288
2535.000000;3.836732
2534.000000;3.914369
2533.000000;3.925358
2532.000000;3.880433
2531.000000;3.828287
2530.000000;3.734028
2529.000000;3.672191
2528.000000;3.728229
2527.000000;3.923501
2526.000000;3.891944
2525.000000;3.661523
2524.000000;3.573633
2523.000000;3.601136
2522.000000;3.779814
2521.000000;4.130259
2520.000000;4.091220
2519.000000;4.135886
2518.000000;4.081821
2517.000000;3.676302
2516.000000;3.539699
2515.000000;3.566293
2514.000000;3.746181
2513.000000;3.977776
2512.000000;4.058317
2511.000000;4.515613
2510.000000;4.178576
2509.000000;3.720273
2508.000000;3.580978
2507.000000;3.606815
2506.000000;3.838478
2505.000000;4.184458
2504.000000;3.942871
2503.000000;3.851002
2502.000000;3.721877
2501.000000;3.462133
2500.000000;3.307757
2499.000000;3.258703
2498.000000;3.284834
2497.000000;3.372527
2496.000000;3.532280
2495.000000;3.677728
2494.000000;3.700166
2493.000000;3.687208
2492.000000;3.681597
2491.000000;3.714844
2490.000000;3.775543
2489.000000;4.265975
2488.000000;4.155120
2487.000000;3.622978
2486.000000;3.510407
2485.000000;3.490083
2484.000000;3.497164
2483.000000;3.486026
2482.000000;3.490296
2481.000000;3.581356
2480.000000;3.745388
2479.000000;3.986851
2478.000000;4.156449
2477.000000;3.754857
2476.000000;3.587496
2475.000000;3.671924
2474.000000;3.881249
2473.000000;3.832064
2472.000000;3.739934
2471.000000;3.725568
2470.000000;3.701914
2469.000000;3.707733
2468.000000;3.814705
2467.000000;4.258630
2466.000000;4.229914
2465.000000;3.745553
2464.000000;3.650279
2463.000000;3.694587
2462.000000;3.815678
2461.000000;3.997061
2460.000000;4.316534
2459.000000;4.262772
2458.000000;3.955591
2457.000000;3.728240
2456.000000;3.588300
2455.000000;3.574747
2454.000000;3.653843
2453.000000;3.782345
2452.000000;3.887057
2451.000000;3.823531
2450.000000;3.704416
2449.000000;3.675464
2448.000000;3.677623
2447.000000;3.628898
2446.000000;3.606901
2445.000000;3.671240
2444.000000;3.749526
2443.000000;3.906596
2442.000000;4.328992
2441.000000;3.983490
2440.000000;3.662106
2439.000000;3.593826
2438.000000;3.616148
2437.000000;3.939449
2436.000000;4.204830
2435.000000;3.658257
2434.000000;3.471479
2433.000000;3.451855
2432.000000;3.517267
2431.000000;3.577773
2430.000000;3.519050
2429.000000;3.454830
2428.000000;3.476233
2427.000000;3.638400
2426.000000;4.024378
2425.000000;3.908455
2424.000000;3.655161
2423.000000;3.602323
2422.000000;3.650976
2421.000000;3.758806
2420.000000;3.974755
2419.000000;4.286457
2418.000000;4.011701
2417.000000;3.871888
2416.000000;4.055433
2415.000000;4.535827
2414.000000;4.216695
2413.000000;3.840505
2412.000000;3.671212
2411.000000;3.608681
2410.000000;3.555878
2409.000000;3.500389
2408.000000;3.528761
2407.000000;3.639415
2406.000000;3.674667
2405.000000;3.606967
2404.000000;3.558233
2403.000000;3.586364
2402.000000;3.700260
2401.000000;3.954533
2400.000000;4.336874
2399.000000;4.027217
2398.000000;3.757930
2397.000000;3.828101
2396.000000;4.504257
2395.000000;4.028749
2394.000000;3.925244
2393.000000;4.130764
2392.000000;3.759736
2391.000000;3.598797
2390.000000;3.670537
2389.000000;4.051533
2388.000000;4.015971
2387.000000;3.737346
2386.000000;3.737938
2385.000000;3.709958
2384.000000;3.837509
2383.000000;3.847138
2382.000000;3.583106
2381.000000;3.518521
2380.000000;3.652743
2379.000000;3.907729
2378.000000;3.836785
2377.000000;3.726396
2376.000000;3.787417
2375.000000;3.865561
2374.000000;3.884625
2373.000000;3.779430
2372.000000;3.671407
2371.000000;3.657407
2370.000000;3.718785
2369.000000;3.801433
2368.000000;3.884076
2367.000000;3.985649
2366.000000;4.210554
2365.000000;4.275732
2364.000000;3.981658
2363.000000;3.839588
2362.000000;3.793707
2361.000000;3.813961
2360.000000;3.890013
2359.000000;4.009972
2358.000000;4.097871
2357.000000;4.022353
2356.000000;3.950853
2355.000000;3.956409
2354.000000;3.995162
2353.000000;4.006847
2352.000000;3.983134
2351.000000;3.948084
2350.000000;3.931263
2349.000000;3.946017
2348.000000;4.087720
2347.000000;4.578910
2346.000000;4.852759
2345.000000;4.576433
2344.000000;4.581596
2343.000000;4.485926
2342.000000;4.389006
2341.000000;4.261309
2340.000000;4.317443
2339.000000;4.773773
2338.000000;4.234719
2337.000000;3.906749
2336.000000;3.853954
2335.000000;3.909052
2334.000000;3.969839
2333.000000;3.964833
2332.000000;4.317230
2331.000000;4.558159
2330.000000;4.005670
2329.000000;4.006302
2328.000000;3.996114
2327.000000;3.824733
2326.000000;3.822556
2325.000000;3.998719
2324.000000;3.958128
2323.000000;3.747243
2322.000000;3.640216
2321.000000;3.573298
2320.000000;3.546932
2319.000000;3.567750
2318.000000;3.625752
2317.000000;3.710872
2316.000000;3.799843
2315.000000;3.823254
2314.000000;3.842805
2313.000000;4.117702
2312.000000;4.230340
2311.000000;3.820311
2310.000000;3.690665
2309.000000;3.679175
2308.000000;3.713577
2307.000000;3.749946
2306.000000;3.713832
2305.000000;3.655460
2304.000000;3.597671
2303.000000;3.535417
2302.000000;3.481054
2301.000000;3.476513
2300.000000;3.543019
2299.000000;3.677341
2298.000000;3.878621
2297.000000;4.058553
2296.000000;4.100958
2295.000000;3.977378
2294.000000;3.928906
2293.000000;4.024329
2292.000000;3.873288
2291.000000;3.705129
2290.000000;3.713026
2289.000000;3.772773
2288.000000;3.860551
2287.000000;4.032132
2286.000000;4.170122
2285.000000;4.118812
2284.000000;3.820031
2283.000000;3.630240
2282.000000;3.612844
2281.000000;3.721235
2280.000000;3.914356
2279.000000;4.096954
2278.000000;4.149965
2277.000000;3.995330
2276.000000;3.770402
2275.000000;3.621611
2274.000000;3.493369
2273.000000;3.407155
2272.000000;3.401455
2271.000000;3.545952
2270.000000;4.063099
2269.000000;4.204189
2268.000000;3.779898
2267.000000;3.595510
2266.000000;3.497049
2265.000000;3.534935
2264.000000;3.677942
2263.000000;3.970800
2262.000000;4.454391
2261.000000;4.179738
2260.000000;3.999546
2259.000000;3.919695
2258.000000;3.704594
2257.000000;3.595010
2256.000000;3.572572
2255.000000;3.533561
2254.000000;3.531511
2253.000000;3.646040
2252.000000;3.690512
2251.000000;3.545662
2250.000000;3.486333
2249.000000;3.520581
2248.000000;3.588525
2247.000000;3.651296
2246.000000;3.747184
2245.000000;4.097774
2244.000000;4.238110
2243.000000;3.926784
2242.000000;3.816020
2241.000000;3.767312
2240.000000;3.785274
2239.000000;3.818745
2238.000000;3.806677
2237.000000;3.764320
2236.000000;3.733120
2235.000000;3.829369
2234.000000;3.971545
2233.000000;3.883269
2232.000000;3.828480
2231.000000;3.905463
2230.000000;4.003642
2229.000000;4.092782
2228.000000;4.138755
2227.000000;3.925822
2226.000000;3.627820
2225.000000;3.448157
2224.000000;3.396337
2223.000000;3.477075
2222.000000;3.712466
2221.000000;4.047954
2220.000000;4.036711
2219.000000;3.748681
2218.000000;3.620251
2217.000000;3.670756
2216.000000;3.935770
2215.000000;4.553327
2214.000000;4.231481
2213.000000;3.941508
2212.000000;3.883256
2211.000000;3.828110
2210.000000;3.699320
2209.000000;3.544762
2208.000000;3.466384
2207.000000;3.549682
2206.000000;3.966873
2205.000000;3.995961
2204.000000;3.630425
2203.000000;3.626335
2202.000000;3.715516
2201.000000;3.888466
2200.000000;4.160015
2199.000000;3.782031
2198.000000;3.511197
2197.000000;3.440640
2196.000000;3.481047
2195.000000;3.570019
2194.000000;3.572860
2193.000000;3.511112
2192.000000;3.499503
2191.000000;3.587595
2190.000000;3.765925
2189.000000;4.018686
2188.000000;4.154121
2187.000000;4.278183
2186.000000;4.308385
2185.000000;3.997999
2184.000000;3.820945
2183.000000;3.934937
2182.000000;4.522485
2181.000000;4.068930
2180.000000;3.736626
2179.000000;3.670289
2178.000000;3.669881
2177.000000;3.668282
2176.000000;3.692693
2175.000000;3.753178
2174.000000;4.046538
2173.000000;4.509354
2172.000000;3.728300
2171.000000;3.479834
2170.000000;3.427906
2169.000000;3.547276
2168.000000;4.057461
2167.000000;3.817504
2166.000000;3.427868
2165.000000;3.341252
2164.000000;3.338812
2163.000000;3.411191
2162.000000;3.550104
2161.000000;3.717445
2160.000000;3.853920
2159.000000;3.829901
2158.000000;3.725109
2157.000000;3.637686
2156.000000;3.619502
2155.000000;3.657994
2154.000000;3.675215
2153.000000;3.573446
2152.000000;3.463959
2151.000000;3.453877
2150.000000;3.579703
2149.000000;3.875053
2148.000000;4.105404
2147.000000;3.932051
2146.000000;3.834581
2145.000000;3.856322
2144.000000;4.070131
2143.000000;4.550558
2142.000000;4.337223
2141.000000;4.024068
2140.000000;3.958594
2139.000000;4.367970
2138.000000;4.478794
2137.000000;3.927536
2136.000000;3.819284
2135.000000;3.678894
2134.000000;3.490987
2133.000000;3.382818
2132.000000;3.349182
2131.000000;3.368456
2130.000000;3.416677
2129.000000;3.457942
2128.000000;3.471894
2127.000000;3.511540
2126.000000;3.596086
2125.000000;3.674231
2124.000000;3.685280
2123.000000;3.667776
2122.000000;3.715442
2121.000000;3.846744
2120.000000;3.948785
2119.000000;3.938340
2118.000000;3.845419
2117.000000;3.652240
2116.000000;3.506257
2115.000000;3.493541
2114.000000;3.640174
2113.000000;4.066368
2112.000000;4.333446
2111.000000;3.947475
2110.000000;3.781729
2109.000000;3.716087
2108.000000;3.726839
2107.000000;3.700377
2106.000000;3.549448
2105.000000;3.409886
2104.000000;3.343943
2103.000000;3.349078
2102.000000;3.413002
2101.000000;3.555099
2100.000000;3.715488
2099.000000;3.675922
2098.000000;3.585334
2097.000000;3.565641
2096.000000;3.597674
2095.000000;3.620088
2094.000000;3.544025
2093.000000;3.464287
2092.000000;3.483729
2091.000000;3.582594
2090.000000;3.581121
2089.000000;3.512674
2088.000000;3.597388
2087.000000;3.937373
2086.000000;4.037623
2085.000000;3.903788
2084.000000;4.297995
2083.000000;4.455924
2082.000000;3.981770
2081.000000;3.832481
2080.000000;3.822499
2079.000000;3.916158
2078.000000;3.894440
2077.000000;3.910539
2076.000000;4.051200
2075.000000;3.961622
2074.000000;3.856436
2073.000000;3.818694
2072.000000;3.742673
2071.000000;3.642201
2070.000000;3.528212
2069.000000;3.449044
2068.000000;3.449961
2067.000000;3.578565
2066.000000;3.809569
2065.000000;3.891465
2064.000000;3.926274
2063.000000;4.114655
2062.000000;4.150567
2061.000000;3.968383
2060.000000;3.857201
2059.000000;3.888623
2058.000000;3.843359
2057.000000;3.654728
2056.000000;3.588248
2055.000000;3.668267
2054.000000;3.811749
2053.000000;3.861564
2052.000000;3.779793
2051.000000;3.702845
2050.000000;3.671495
2049.000000;3.679220
2048.000000;3.700565
2047.000000;3.709572
2046.000000;3.699046
2045.000000;3.681430
2044.000000;3.685580
2043.000000;3.726901
2042.000000;3.765070
2041.000000;3.835850
2040.000000;4.075599
2039.000000;4.615384
2038.000000;4.477057
2037.000000;3.954375
2036.000000;3.809903
2035.000000;3.858946
2034.000000;3.797200
2033.000000;3.672009
2032.000000;3.729595
2031.000000;3.884445
2030.000000;3.828795
2029.000000;3.704465
2028.000000;3.644774
2027.000000;3.647066
2026.000000;3.871752
2025.000000;4.387938
2024.000000;4.014601
2023.000000;3.806573
2022.000000;3.718514
2021.000000;3.621967
2020.000000;3.601095
2019.000000;3.783707
2018.000000;4.291761
2017.000000;3.931935
2016.000000;3.633721
2015.000000;3.534384
2014.000000;3.571009
2013.000000;3.810288
2012.000000;3.956782
2011.000000;3.767354
2010.000000;3.668015
2009.000000;3.633470
2008.000000;3.649824
2007.000000;3.752573
2006.000000;3.977887
2005.000000;4.376467
2004.000000;4.350655
2003.000000;3.974076
2002.000000;3.915464
2001.000000;4.198971
2000.000000;3.770256
1999.000000;3.420006
1998.000000;3.323258
1997.000000;3.337108
1996.000000;3.430310
1995.000000;3.565971
1994.000000;3.743772
1993.000000;3.935969
1992.000000;3.937127
1991.000000;3.977494
1990.000000;4.353546
1989.000000;4.367442
1988.000000;4.190939
1987.000000;4.114066
1986.000000;3.754854
1985.000000;3.550801
1984.000000;3.512817
1983.000000;3.586242
1982.000000;3.667196
1981.000000;3.597341
1980.000000;3.532739
1979.000000;3.565490
1978.000000;3.713862
1977.000000;3.964019
1976.000000;3.755459
1975.000000;3.477563
1974.000000;3.368665
1973.000000;3.342494
1972.000000;3.386095
1971.000000;3.559135
1970.000000;3.780967
1969.000000;3.618911
1968.000000;3.506771
1967.000000;3.534912
1966.000000;3.444837
1965.000000;3.290912
1964.000000;3.228600
1963.000000;3.272750
1962.000000;3.446273
1961.000000;3.656389
1960.000000;3.622675
1959.000000;3.566947
1958.000000;3.448069
1957.000000;3.316186
1956.000000;3.319253
1955.000000;3.451550
1954.000000;3.594067
1953.000000;3.576327
1952.000000;3.629781
1951.000000;3.967540
1950.000000;3.859879
1949.000000;3.552404
1948.000000;3.486919
1947.000000;3.486277
1946.000000;3.543373
1945.000000;3.711654
1944.000000;3.813972
1943.000000;3.696580
1942.000000;3.638908
1941.000000;3.576518
1940.000000;3.448928
1939.000000;3.369513
1938.000000;3.330189
1937.000000;3.317763
1936.000000;3.358102
1935.000000;3.513872
1934.000000;3.833955
1933.000000;3.910277
1932.000000;4.052667
1931.000000;4.193582
1930.000000;3.688184
1929.000000;3.550915
1928.000000;3.582280
1927.000000;3.718823
1926.000000;3.919528
1925.000000;4.221901
1924.000000;4.414165
1923.000000;3.908515
1922.000000;3.679987
1921.000000;3.643788
1920.000000;3.727032
1919.000000;3.825981
1918.000000;3.803982
1917.000000;3.753987
1916.000000;3.811984
1915.000000;3.948260
1914.000000;3.861067
1913.000000;3.618466
1912.000000;3.442474
1911.000000;3.371551
1910.000000;3.411927
1909.000000;3.533844
1908.000000;3.676751
1907.000000;3.769274
1906.000000;3.939467
1905.000000;4.384282
1904.000000;3.939484
1903.000000;3.572761
1902.000000;3.485841
1901.000000;3.620400
1900.000000;4.138794
1899.000000;4.282027
1898.000000;4.133034
1897.000000;4.534198
1896.000000;4.657056
1895.000000;4.332996
1894.000000;3.926331
1893.000000;3.912130
1892.000000;4.236689
1891.000000;4.084415
1890.000000;3.906021
1889.000000;3.985511
1888.000000;4.168959
1887.000000;4.086674
1886.000000;3.756769
1885.000000;3.575971
1884.000000;3.525375
1883.000000;3.675022
1882.000000;4.205500
1881.000000;4.044449
1880.000000;3.807319
1879.000000;3.882152
1878.000000;4.059170
1877.000000;4.018484
1876.000000;3.808037
1875.000000;3.791697
1874.000000;4.092760
1873.000000;4.212224
1872.000000;3.841820
1871.000000;3.742202
1870.000000;3.665718
1869.000000;3.600092
1868.000000;3.610023
1867.000000;3.669621
1866.000000;3.719924
1865.000000;3.729692
1864.000000;3.683654
1863.000000;3.601113
1862.000000;3.571497
1861.000000;3.678897
1860.000000;4.080481
1859.000000;4.200626
1858.000000;3.804089
1857.000000;3.670348
1856.000000;3.631759
1855.000000;3.846692
1854.000000;4.176419
1853.000000;3.655276
1852.000000;3.536480
1851.000000;3.611330
1850.000000;3.575420
1849.000000;3.421653
1848.000000;3.331367
1847.000000;3.317268
1846.000000;3.382897
1845.000000;3.531358
1844.000000;3.603784
1843.000000;3.585896
1842.000000;3.608069
1841.000000;3.688575
1840.000000;3.813137
1839.000000;3.892697
1838.000000;3.780592
1837.000000;3.618435
1836.000000;3.564433
1835.000000;3.697472
1834.000000;4.102663
1833.000000;4.079102
1832.000000;3.961661
1831.000000;4.316468
1830.000000;4.285625
1829.000000;3.892765
1828.000000;3.776004
1827.000000;3.762165
1826.000000;3.818440
1825.000000;4.039463
1824.000000;4.047999
1823.000000;3.746410
1822.000000;3.694128
1821.000000;3.971732
1820.000000;4.372342
1819.000000;4.180114
1818.000000;4.166759
1817.000000;3.932642
1816.000000;3.768603
1815.000000;3.737670
1814.000000;3.756408
1813.000000;3.808516
1812.000000;3.706191
1811.000000;3.511081
1810.000000;3.416957
1809.000000;3.430589
1808.000000;3.528481
1807.000000;3.647097
1806.000000;3.861428
1805.000000;4.306640
1804.000000;3.787517
1803.000000;3.550444
1802.000000;3.521339
1801.000000;3.572790
1800.000000;3.681638
1799.000000;3.733369
1798.000000;3.710945
1797.000000;3.772432
1796.000000;3.952391
1795.000000;3.991642
1794.000000;3.903915
1793.000000;3.903314
1792.000000;3.959587
1791.000000;4.081848
1790.000000;4.282996
1789.000000;4.382663
1788.000000;4.290352
1787.000000;4.196360
1786.000000;4.106354
1785.000000;3.969391
1784.000000;3.913191
1783.000000;4.022283
1782.000000;4.024764
1781.000000;3.869980
1780.000000;3.833891
1779.000000;3.891519
1778.000000;3.958767
1777.000000;4.011653
1776.000000;4.211508
1775.000000;4.621243
1774.000000;4.164195
1773.000000;3.870917
1772.000000;3.720898
1771.000000;3.758872
1770.000000;4.017488
1769.000000;4.586088
1768.000000;4.977520
1767.000000;4.344325
1766.000000;3.918516
1765.000000;3.627974
1764.000000;3.490072
1763.000000;3.460511
1762.000000;3.478037
1761.000000;3.485182
1760.000000;3.527185
1759.000000;3.645461
1758.000000;3.829142
1757.000000;4.343717
1756.000000;4.322228
1755.000000;3.874048
1754.000000;3.732784
1753.000000;3.686412
1752.000000;3.702123
1751.000000;3.844808
1750.000000;3.930874
1749.000000;3.650438
1748.000000;3.563082
1747.000000;3.677874
1746.000000;3.630110
1745.000000;3.393886
1744.000000;3.285325
1743.000000;3.303062
1742.000000;3.429935
1741.000000;3.709196
1740.000000;3.894182
1739.000000;3.674833
1738.000000;3.573458
1737.000000;3.595916
1736.000000;3.626769
1735.000000;3.559056
1734.000000;3.543543
1733.000000;3.694714
1732.000000;3.928887
1731.000000;3.979121
1730.000000;3.875409
1729.000000;3.835221
1728.000000;3.882429
1727.000000;3.932839
1726.000000;3.969656
1725.000000;4.042519
1724.000000;4.151946
1723.000000;4.113922
1722.000000;3.799578
1721.000000;3.557828
1720.000000;3.440441
1719.000000;3.435323
1718.000000;3.525649
1717.000000;3.662534
1716.000000;3.733234
1715.000000;3.872050
1714.000000;4.287562
1713.000000;4.009501
1712.000000;3.746379
1711.000000;3.782785
1710.000000;3.992086
1709.000000;4.071342
1708.000000;3.882408
1707.000000;3.824014
1706.000000;3.831620
1705.000000;3.836898
1704.000000;3.866444
1703.000000;4.107973
1702.000000;4.408550
1701.000000;3.889267
1700.000000;3.720852
1699.000000;3.753146
1698.000000;3.772851
1697.000000;3.698324
1696.000000;3.605585
1695.000000;3.621047
1694.000000;3.749685
1693.000000;3.842956
1692.000000;3.822173
1691.000000;3.899868
1690.000000;4.182290
1689.000000;4.309601
1688.000000;4.201898
1687.000000;3.966133
1686.000000;3.934127
1685.000000;4.070866
1684.000000;3.773569
1683.000000;3.638187
1682.000000;3.642973
1681.000000;3.641680
1680.000000;3.671904
1679.000000;3.795097
1678.000000;4.020691
1677.000000;4.250761
1676.000000;4.425649
1675.000000;4.633674
1674.000000;4.460368
1673.000000;4.172812
1672.000000;3.964356
1671.000000;3.856745
1670.000000;3.829873
1669.000000;3.860211
1668.000000;3.963502
1667.000000;3.850709
1666.000000;3.666572
1665.000000;3.714979
1664.000000;3.993834
1663.000000;3.827598
1662.000000;3.690645
1661.000000;3.720341
1660.000000;3.679410
1659.000000;3.604633
1658.000000;3.612202
1657.000000;3.749770
1656.000000;4.079663
1655.000000;3.703793
1654.000000;3.320088
1653.000000;3.254859
1652.000000;3.428876
1651.000000;3.764717
1650.000000;3.703277
1649.000000;3.594929
1648.000000;3.778594
1647.000000;4.392090
1646.000000;3.951242
1645.000000;3.721683
1644.000000;3.656647
1643.000000;3.577930
1642.000000;3.512799
1641.000000;3.511114
1640.000000;3.619557
1639.000000;3.821233
1638.000000;3.914387
1637.000000;3.870838
1636.000000;3.904286
1635.000000;3.983584
1634.000000;3.941658
1633.000000;3.816354
1632.000000;3.742819
1631.000000;3.780040
1630.000000;3.922167
1629.000000;3.936926
1628.000000;3.864212
1627.000000;3.887111
1626.000000;3.950293
1625.000000;3.945710
1624.000000;3.837032
1623.000000;3.776770
1622.000000;3.773047
1621.000000;3.781135
1620.000000;3.833805
1619.000000;3.813306
1618.000000;3.739219
1617.000000;3.700474
1616.000000;3.655674
1615.000000;3.725660
1614.000000;4.016824
1613.000000;3.988188
1612.000000;3.711540
1611.000000;3.659432
1610.000000;3.701973
1609.000000;3.678926
1608.000000;3.669591
1607.000000;3.810703
1606.000000;3.863661
1605.000000;3.751638
1604.000000;3.874014
1603.000000;4.072573
1602.000000;3.859630
1601.000000;3.669257
1600.000000;3.626234
1599.000000;3.739687
1598.000000;3.956119
1597.000000;3.742799
1596.000000;3.539633
1595.000000;3.523038
1594.000000;3.619075
1593.000000;3.821725
1592.000000;3.989555
1591.000000;3.886418
1590.000000;3.761024
1589.000000;3.620367
1588.000000;3.530941
1587.000000;3.531589
1586.000000;3.576394
1585.000000;3.618633
1584.000000;3.679156
1583.000000;3.852843
1582.000000;3.969287
1581.000000;3.710235
1580.000000;3.603051
1579.000000;3.641699
1578.000000;4.023054
1577.000000;4.222520
1576.000000;3.709668
1575.000000;3.728225
1574.000000;3.867507
1573.000000;4.073750
1572.000000;4.089562
1571.000000;3.878736
1570.000000;3.759226
1569.000000;3.808906
1568.000000;4.008304
1567.000000;4.363219
1566.000000;4.212767
1565.000000;4.037394
1564.000000;3.807010
1563.000000;3.614842
1562.000000;3.540628
1561.000000;3.545488
1560.000000;3.575688
1559.000000;3.564715
1558.000000;3.579345
1557.000000;3.666620
1556.000000;3.754364
1555.000000;3.733364
1554.000000;3.641646
1553.000000;3.639425
1552.000000;3.683961
1551.000000;3.707909
1550.000000;3.746789
1549.000000;3.794782
1548.000000;3.805643
1547.000000;3.786976
1546.000000;3.796660
1545.000000;3.831959
1544.000000;3.831412
1543.000000;3.809285
1542.000000;3.589925
1541.000000;3.405213
1540.000000;3.379306
1539.000000;3.504151
1538.000000;3.850056
1537.000000;3.800554
1536.000000;3.577507
1535.000000;3.553929
1534.000000;3.605843
1533.000000;3.605162
1532.000000;3.572103
1531.000000;3.573748
1530.000000;3.632637
1529.000000;3.769375
1528.000000;3.978825
1527.000000;3.998529
1526.000000;3.838092
1525.000000;3.734124
1524.000000;3.652865
1523.000000;3.611260
1522.000000;3.613260
1521.000000;3.669255
1520.000000;3.808469
1519.000000;4.019382
1518.000000;4.005036
1517.000000;3.878785
1516.000000;3.817695
1515.000000;3.749443
1514.000000;3.660010
1513.000000;3.584499
1512.000000;3.586812
1511.000000;3.640328
1510.000000;3.646961
1509.000000;3.700179
1508.000000;3.928679
1507.000000;4.043422
1506.000000;3.800026
1505.000000;3.687855
1504.000000;3.639788
1503.000000;3.651350
1502.000000;3.874618
1501.000000;4.462386
1500.000000;4.053215
1499.000000;3.851954
1498.000000;3.745119
1497.000000;3.816347
1496.000000;3.873583
1495.000000;3.782683
1494.000000;3.821662
1493.000000;3.969318
1492.000000;4.503895
1491.000000;4.576957
1490.000000;4.171243
1489.000000;4.141746
1488.000000;4.080239
1487.000000;4.076938
1486.000000;4.020091
1485.000000;3.957341
1484.000000;3.980931
1483.000000;4.063188
1482.000000;3.727177
1481.000000;3.528559
1480.000000;3.535484
1479.000000;3.674633
1478.000000;3.701718
1477.000000;3.612421
1476.000000;3.612576
1475.000000;3.797479
1474.000000;4.181116
1473.000000;4.160404
1472.000000;4.305147
1471.000000;4.204980
1470.000000;4.075972
1469.000000;4.289036
1468.000000;4.299718
1467.000000;3.983315
1466.000000;3.796871
1465.000000;3.676049
1464.000000;3.600229
1463.000000;3.542539
1462.000000;3.507655
1461.000000;3.511695
1460.000000;3.561275
1459.000000;3.623789
1458.000000;3.623652
1457.000000;3.544274
1456.000000;3.474247
1455.000000;3.471178
1454.000000;3.536653
1453.000000;3.640119
1452.000000;3.697156
1451.000000;3.736207
1450.000000;3.868492
1449.000000;4.082121
1448.000000;3.908887
1447.000000;3.691463
1446.000000;3.586611
1445.000000;3.559722
1444.000000;3.619600
1443.000000;3.716454
1442.000000;3.700838
1441.000000;3.927740
1440.000000;4.137957
1439.000000;3.684833
1438.000000;3.559354
1437.000000;3.527715
1436.000000;3.480178
1435.000000;3.480175
1434.000000;3.473332
1433.000000;3.391858
1432.000000;3.322735
1431.000000;3.321802
1430.000000;3.432627
1429.000000;3.723441
1428.000000;4.179901
1427.000000;3.858125
1426.000000;3.712448
1425.000000;3.683210
1424.000000;3.795885
1423.000000;3.961214
1422.000000;3.706210
1421.000000;3.550462
1420.000000;3.488809
1419.000000;3.456824
1418.000000;3.427306
1417.000000;3.452053
1416.000000;3.564843
1415.000000;3.747432
1414.000000;4.016174
1413.000000;3.899122
1412.000000;3.645258
1411.000000;3.611279
1410.000000;3.753770
1409.000000;3.853176
1408.000000;3.704762
1407.000000;3.557177
1406.000000;3.456045
1405.000000;3.416432
1404.000000;3.445458
1403.000000;3.567843
1402.000000;3.848098
1401.000000;4.562372
1400.000000;4.027207
1399.000000;4.059423
1398.000000;4.844765
1397.000000;3.966692
1396.000000;3.895348
1395.000000;4.204322
1394.000000;4.251396
1393.000000;3.797790
1392.000000;3.638422
1391.000000;3.541473
1390.000000;3.528887
1389.000000;3.511137
1388.000000;3.436875
1387.000000;3.439718
1386.000000;3.664230
1385.000000;4.038280
1384.000000;4.036596
1383.000000;4.046013
1382.000000;4.120373
1381.000000;4.118715
1380.000000;4.092636
1379.000000;3.943447
1378.000000;3.793091
1377.000000;3.747380
1376.000000;3.794390
1375.000000;3.853366
1374.000000;3.892996
1373.000000;3.891974
1372.000000;3.827025
1371.000000;3.917955
1370.000000;4.354207
1369.000000;3.787218
1368.000000;3.555494
1367.000000;3.520630
1366.000000;3.606714
1365.000000;3.697698
1364.000000;3.656811
1363.000000;3.521971
1362.000000;3.465928
1361.000000;3.541504
1360.000000;3.571719
1359.000000;3.505007
1358.000000;3.489505
1357.000000;3.528941
1356.000000;3.625209
1355.000000;3.805677
1354.000000;4.069665
1353.000000;4.153763
1352.000000;3.903551
1351.000000;3.701052
1350.000000;3.666508
1349.000000;3.797006
1348.000000;4.277465
1347.000000;4.152655
1346.000000;3.810354
1345.000000;3.692568
1344.000000;3.694437
1343.000000;3.853695
1342.000000;4.355375
1341.000000;3.903237
1340.000000;3.599360
1339.000000;3.491100
1338.000000;3.467757
1337.000000;3.475720
1336.000000;3.510924
1335.000000;3.587334
1334.000000;3.759895
1333.000000;3.801392
1332.000000;3.613296
1331.000000;3.549261
1330.000000;3.615795
1329.000000;3.744087
1328.000000;3.819765
1327.000000;3.815697
1326.000000;3.696982
1325.000000;3.587872
1324.000000;3.628711
1323.000000;3.952633
1322.000000;4.262804
1321.000000;3.897890
1320.000000;3.761555
1319.000000;3.722167
1318.000000;3.785926
1317.000000;3.977213
1316.000000;3.760446
1315.000000;3.501431
1314.000000;3.382420
1313.000000;3.371645
1312.000000;3.466632
1311.000000;3.728481
1310.000000;4.121527
1309.000000;3.967423
1308.000000;3.887705
1307.000000;3.835684
1306.000000;3.772317
1305.000000;3.769971
1304.000000;3.647310
1303.000000;3.535269
1302.000000;3.490082
1301.000000;3.494378
1300.000000;3.608935
1299.000000;3.865340
1298.000000;4.020125
1297.000000;3.937510
1296.000000;3.895325
1295.000000;4.031002
1294.000000;4.072905
1293.000000;3.886577
1292.000000;3.864871
1291.000000;3.997195
1290.000000;4.253900
1289.000000;4.593243
1288.000000;4.654921
1287.000000;4.319143
1286.000000;3.980985
1285.000000;3.841463
1284.000000;3.865429
1283.000000;4.232644
1282.000000;4.462138
1281.000000;3.910047
1280.000000;3.819861
1279.000000;3.965633
1278.000000;4.394977
1277.000000;3.969641
1276.000000;3.753403
1275.000000;3.873654
1274.000000;4.357242
1273.000000;3.906425
1272.000000;3.608458
1271.000000;3.521788
1270.000000;3.479460
1269.000000;3.509181
1268.000000;3.639962
1267.000000;3.876268
1266.000000;3.882149
1265.000000;3.872106
1264.000000;4.038721
1263.000000;4.337700
1262.000000;4.007908
1261.000000;3.675990
1260.000000;3.550423
1259.000000;3.502373
1258.000000;3.480174
1257.000000;3.520566
1256.000000;3.674366
1255.000000;3.899960
1254.000000;3.925990
1253.000000;3.819194
1252.000000;3.765099
1251.000000;4.025499
1250.000000;4.288053
1249.000000;3.880921
1248.000000;3.867733
1247.000000;4.401140
1246.000000;3.949441
1245.000000;3.655401
1244.000000;3.593171
1243.000000;3.547011
1242.000000;3.537768
1241.000000;3.537850
1240.000000;3.477512
1239.000000;3.390658
1238.000000;3.362516
1237.000000;3.417702
1236.000000;3.551622
1235.000000;3.759212
1234.000000;4.079872
1233.000000;4.125403
1232.000000;3.773384
1231.000000;3.680443
1230.000000;3.755911
1229.000000;3.814276
1228.000000;3.734952
1227.000000;3.734552
1226.000000;3.890943
1225.000000;4.259179
1224.000000;4.145868
1223.000000;4.004388
1222.000000;4.335862
1221.000000;3.970537
1220.000000;3.700345
1219.000000;3.657460
1218.000000;3.642936
1217.000000;3.648053
1216.000000;3.674394
1215.000000;3.777744
1214.000000;4.107601
1213.000000;4.461823
1212.000000;4.019438
1211.000000;3.864535
1210.000000;3.800861
1209.000000;3.801349
1208.000000;4.054100
1207.000000;4.929012
1206.000000;4.217277
1205.000000;4.062401
1204.000000;3.784999
1203.000000;3.665179
1202.000000;3.661749
1201.000000;3.689899
1200.000000;3.713712
