Criado como novo conjunto de dados;"Jao_teste_celulas.spp","9004.0 Secs"
cm-1;Abs
10000.000000;1.296151
9999.000000;1.294776
9998.000000;1.293855
9997.000000;1.293390
9996.000000;1.292939
9995.000000;1.292271
9994.000000;1.291652
9993.000000;1.291484
9992.000000;1.291845
9991.000000;1.292411
9990.000000;1.292717
9989.000000;1.292476
9988.000000;1.291807
9987.000000;1.291200
9986.000000;1.291114
9985.000000;1.291502
9984.000000;1.291779
9983.000000;1.291336
9982.000000;1.290061
9981.000000;1.288350
9980.000000;1.286752
9979.000000;1.285652
9978.000000;1.285189
9977.000000;1.285280
9976.000000;1.285671
9975.000000;1.286028
9974.000000;1.286087
9973.000000;1.285779
9972.000000;1.285277
9971.000000;1.284875
9970.000000;1.284723
9969.000000;1.284665
9968.000000;1.284429
9967.000000;1.283996
9966.000000;1.283660
9965.000000;1.283650
9964.000000;1.283813
9963.000000;1.283776
9962.000000;1.283365
9961.000000;1.282673
9960.000000;1.281753
9959.000000;1.280483
9958.000000;1.278861
9957.000000;1.277301
9956.000000;1.276382
9955.000000;1.276256
9954.000000;1.276453
9953.000000;1.276422
9952.000000;1.276161
9951.000000;1.276100
9950.000000;1.276327
9949.000000;1.276205
9948.000000;1.275070
9947.000000;1.273240
9946.000000;1.271936
9945.000000;1.272026
9944.000000;1.273015
9943.000000;1.273522
9942.000000;1.272691
9941.000000;1.270922
9940.000000;1.269213
9939.000000;1.268167
9938.000000;1.267815
9937.000000;1.268055
9936.000000;1.268817
9935.000000;1.269797
9934.000000;1.270388
9933.000000;1.270132
9932.000000;1.269110
9931.000000;1.267818
9930.000000;1.266761
9929.000000;1.266230
9928.000000;1.266275
9927.000000;1.266677
9926.000000;1.267030
9925.000000;1.267056
9924.000000;1.266800
9923.000000;1.266379
9922.000000;1.265624
9921.000000;1.264267
9920.000000;1.262507
9919.000000;1.261069
9918.000000;1.260517
9917.000000;1.260638
9916.000000;1.260702
9915.000000;1.260253
9914.000000;1.259505
9913.000000;1.258983
9912.000000;1.258968
9911.000000;1.259318
9910.000000;1.259685
9909.000000;1.259826
9908.000000;1.259733
9907.000000;1.259523
9906.000000;1.259176
9905.000000;1.258459
9904.000000;1.257183
9903.000000;1.255533
9902.000000;1.254042
9901.000000;1.253167
9900.000000;1.252943
9899.000000;1.253024
9898.000000;1.253017
9897.000000;1.252767
9896.000000;1.252358
9895.000000;1.251919
9894.000000;1.251444
9893.000000;1.250838
9892.000000;1.250123
9891.000000;1.249522
9890.000000;1.249271
9889.000000;1.249347
9888.000000;1.249451
9887.000000;1.249260
9886.000000;1.248700
9885.000000;1.248008
9884.000000;1.247548
9883.000000;1.247545
9882.000000;1.247906
9881.000000;1.248278
9880.000000;1.248330
9879.000000;1.247972
9878.000000;1.247266
9877.000000;1.246228
9876.000000;1.244849
9875.000000;1.243346
9874.000000;1.242198
9873.000000;1.241796
9872.000000;1.242038
9871.000000;1.242359
9870.000000;1.242220
9869.000000;1.241605
9868.000000;1.240992
9867.000000;1.240810
9866.000000;1.240946
9865.000000;1.240843
9864.000000;1.240134
9863.000000;1.239090
9862.000000;1.238321
9861.000000;1.238084
9860.000000;1.238066
9859.000000;1.237862
9858.000000;1.237525
9857.000000;1.237446
9856.000000;1.237763
9855.000000;1.238088
9854.000000;1.237875
9853.000000;1.236971
9852.000000;1.235746
9851.000000;1.234735
9850.000000;1.234247
9849.000000;1.234241
9848.000000;1.234416
9847.000000;1.234386
9846.000000;1.233903
9845.000000;1.233069
9844.000000;1.232290
9843.000000;1.231897
9842.000000;1.231784
9841.000000;1.231523
9840.000000;1.230876
9839.000000;1.230106
9838.000000;1.229676
9837.000000;1.229738
9836.000000;1.229990
9835.000000;1.229974
9834.000000;1.229377
9833.000000;1.228164
9832.000000;1.226622
9831.000000;1.225296
9830.000000;1.224675
9829.000000;1.224807
9828.000000;1.225292
9827.000000;1.225689
9826.000000;1.225810
9825.000000;1.225586
9824.000000;1.224837
9823.000000;1.223408
9822.000000;1.221484
9821.000000;1.219627
9820.000000;1.218459
9819.000000;1.218305
9818.000000;1.218996
9817.000000;1.219903
9816.000000;1.220292
9815.000000;1.219905
9814.000000;1.219204
9813.000000;1.218874
9812.000000;1.219048
9811.000000;1.219195
9810.000000;1.218795
9809.000000;1.217959
9808.000000;1.217232
9807.000000;1.216936
9806.000000;1.216886
9805.000000;1.216688
9804.000000;1.216132
9803.000000;1.215291
9802.000000;1.214400
9801.000000;1.213727
9800.000000;1.213428
9799.000000;1.213420
9798.000000;1.213396
9797.000000;1.213069
9796.000000;1.212431
9795.000000;1.211730
9794.000000;1.211186
9793.000000;1.210746
9792.000000;1.210151
9791.000000;1.209210
9790.000000;1.208036
9789.000000;1.207036
9788.000000;1.206613
9787.000000;1.206748
9786.000000;1.206873
9785.000000;1.206348
9784.000000;1.205241
9783.000000;1.204465
9782.000000;1.204818
9781.000000;1.205906
9780.000000;1.206370
9779.000000;1.205391
9778.000000;1.203660
9777.000000;1.202540
9776.000000;1.202511
9775.000000;1.202877
9774.000000;1.202836
9773.000000;1.202332
9772.000000;1.201697
9771.000000;1.200999
9770.000000;1.200152
9769.000000;1.199397
9768.000000;1.199205
9767.000000;1.199685
9766.000000;1.200399
9765.000000;1.200795
9764.000000;1.200644
9763.000000;1.200043
9762.000000;1.199219
9761.000000;1.198409
9760.000000;1.197775
9759.000000;1.197326
9758.000000;1.196949
9757.000000;1.196490
9756.000000;1.195773
9755.000000;1.194663
9754.000000;1.193337
9753.000000;1.192445
9752.000000;1.192665
9751.000000;1.193945
9750.000000;1.195333
9749.000000;1.195758
9748.000000;1.194950
9747.000000;1.193596
9746.000000;1.192721
9745.000000;1.192972
9744.000000;1.194185
9743.000000;1.195384
9742.000000;1.195345
9741.000000;1.193550
9740.000000;1.190684
9739.000000;1.188085
9738.000000;1.186694
9737.000000;1.186559
9736.000000;1.187125
9735.000000;1.187766
9734.000000;1.188069
9733.000000;1.187908
9732.000000;1.187434
9731.000000;1.186874
9730.000000;1.186254
9729.000000;1.185398
9728.000000;1.184321
9727.000000;1.183460
9726.000000;1.183328
9725.000000;1.183926
9724.000000;1.184654
9723.000000;1.184833
9722.000000;1.184253
9721.000000;1.183180
9720.000000;1.182008
9719.000000;1.181029
9718.000000;1.180424
9717.000000;1.180244
9716.000000;1.180328
9715.000000;1.180360
9714.000000;1.180141
9713.000000;1.179733
9712.000000;1.179257
9711.000000;1.178654
9710.000000;1.177806
9709.000000;1.176804
9708.000000;1.175906
9707.000000;1.175237
9706.000000;1.174700
9705.000000;1.174216
9704.000000;1.173838
9703.000000;1.173590
9702.000000;1.173440
9701.000000;1.173498
9700.000000;1.173939
9699.000000;1.174525
9698.000000;1.174510
9697.000000;1.173407
9696.000000;1.171714
9695.000000;1.170465
9694.000000;1.170129
9693.000000;1.170318
9692.000000;1.170501
9691.000000;1.170543
9690.000000;1.170441
9689.000000;1.170021
9688.000000;1.169218
9687.000000;1.168343
9686.000000;1.167756
9685.000000;1.167468
9684.000000;1.167294
9683.000000;1.167117
9682.000000;1.166740
9681.000000;1.165784
9680.000000;1.164199
9679.000000;1.162687
9678.000000;1.162131
9677.000000;1.162610
9676.000000;1.163322
9675.000000;1.163468
9674.000000;1.162886
9673.000000;1.161871
9672.000000;1.160840
9671.000000;1.160279
9670.000000;1.160540
9669.000000;1.161394
9668.000000;1.162084
9667.000000;1.162075
9666.000000;1.161552
9665.000000;1.161004
9664.000000;1.160589
9663.000000;1.160149
9662.000000;1.159572
9661.000000;1.158836
9660.000000;1.157885
9659.000000;1.156757
9658.000000;1.155720
9657.000000;1.155046
9656.000000;1.154740
9655.000000;1.154653
9654.000000;1.154734
9653.000000;1.154937
9652.000000;1.155034
9651.000000;1.154827
9650.000000;1.154439
9649.000000;1.154098
9648.000000;1.153731
9647.000000;1.153095
9646.000000;1.152225
9645.000000;1.151420
9644.000000;1.150842
9643.000000;1.150446
9642.000000;1.150281
9641.000000;1.150452
9640.000000;1.150740
9639.000000;1.150629
9638.000000;1.149930
9637.000000;1.149070
9636.000000;1.148603
9635.000000;1.148610
9634.000000;1.148760
9633.000000;1.148725
9632.000000;1.148381
9631.000000;1.147746
9630.000000;1.146925
9629.000000;1.146022
9628.000000;1.145006
9627.000000;1.143805
9626.000000;1.142628
9625.000000;1.141985
9624.000000;1.142194
9623.000000;1.142979
9622.000000;1.143674
9621.000000;1.143767
9620.000000;1.143179
9619.000000;1.142181
9618.000000;1.141225
9617.000000;1.140708
9616.000000;1.140713
9615.000000;1.140966
9614.000000;1.141110
9613.000000;1.140956
9612.000000;1.140466
9611.000000;1.139662
9610.000000;1.138664
9609.000000;1.137654
9608.000000;1.136699
9607.000000;1.135746
9606.000000;1.134889
9605.000000;1.134424
9604.000000;1.134467
9603.000000;1.134687
9602.000000;1.134632
9601.000000;1.134197
9600.000000;1.133601
9599.000000;1.133070
9598.000000;1.132772
9597.000000;1.132897
9596.000000;1.133477
9595.000000;1.134184
9594.000000;1.134592
9593.000000;1.134623
9592.000000;1.134450
9591.000000;1.134020
9590.000000;1.133045
9589.000000;1.131551
9588.000000;1.130115
9587.000000;1.129334
9586.000000;1.129220
9585.000000;1.129229
9584.000000;1.128793
9583.000000;1.127823
9582.000000;1.126789
9581.000000;1.126338
9580.000000;1.126674
9579.000000;1.127289
9578.000000;1.127448
9577.000000;1.126973
9576.000000;1.126327
9575.000000;1.125884
9574.000000;1.125430
9573.000000;1.124558
9572.000000;1.123356
9571.000000;1.122387
9570.000000;1.122034
9569.000000;1.122104
9568.000000;1.122144
9567.000000;1.121958
9566.000000;1.121687
9565.000000;1.121452
9564.000000;1.121148
9563.000000;1.120673
9562.000000;1.120192
9561.000000;1.119941
9560.000000;1.119774
9559.000000;1.119194
9558.000000;1.117997
9557.000000;1.116665
9556.000000;1.115887
9555.000000;1.115830
9554.000000;1.116143
9553.000000;1.116523
9552.000000;1.116941
9551.000000;1.117311
9550.000000;1.117309
9549.000000;1.116678
9548.000000;1.115518
9547.000000;1.114218
9546.000000;1.113255
9545.000000;1.113019
9544.000000;1.113484
9543.000000;1.113984
9542.000000;1.113705
9541.000000;1.112630
9540.000000;1.111655
9539.000000;1.111526
9538.000000;1.111956
9537.000000;1.112092
9536.000000;1.111608
9535.000000;1.110931
9534.000000;1.110536
9533.000000;1.110447
9532.000000;1.110434
9531.000000;1.110329
9530.000000;1.110057
9529.000000;1.109613
9528.000000;1.109097
9527.000000;1.108610
9526.000000;1.108060
9525.000000;1.107260
9524.000000;1.106282
9523.000000;1.105489
9522.000000;1.105110
9521.000000;1.104956
9520.000000;1.104693
9519.000000;1.104314
9518.000000;1.104137
9517.000000;1.104363
9516.000000;1.104762
9515.000000;1.104863
9514.000000;1.104429
9513.000000;1.103696
9512.000000;1.103102
9511.000000;1.102808
9510.000000;1.102567
9509.000000;1.102095
9508.000000;1.101450
9507.000000;1.100923
9506.000000;1.100638
9505.000000;1.100455
9504.000000;1.100235
9503.000000;1.099963
9502.000000;1.099575
9501.000000;1.098894
9500.000000;1.097906
9499.000000;1.096931
9498.000000;1.096337
9497.000000;1.096148
9496.000000;1.096080
9495.000000;1.095882
9494.000000;1.095507
9493.000000;1.094998
9492.000000;1.094426
9491.000000;1.093950
9490.000000;1.093742
9489.000000;1.093751
9488.000000;1.093719
9487.000000;1.093495
9486.000000;1.093200
9485.000000;1.092954
9484.000000;1.092630
9483.000000;1.092048
9482.000000;1.091306
9481.000000;1.090697
9480.000000;1.090333
9479.000000;1.090054
9478.000000;1.089712
9477.000000;1.089313
9476.000000;1.088851
9475.000000;1.088239
9474.000000;1.087517
9473.000000;1.086937
9472.000000;1.086692
9471.000000;1.086698
9470.000000;1.086780
9469.000000;1.086899
9468.000000;1.087029
9467.000000;1.086974
9466.000000;1.086566
9465.000000;1.085962
9464.000000;1.085469
9463.000000;1.085097
9462.000000;1.084538
9461.000000;1.083668
9460.000000;1.082826
9459.000000;1.082455
9458.000000;1.082617
9457.000000;1.082946
9456.000000;1.083004
9455.000000;1.082613
9454.000000;1.081926
9453.000000;1.081267
9452.000000;1.080859
9451.000000;1.080681
9450.000000;1.080599
9449.000000;1.080535
9448.000000;1.080393
9447.000000;1.079918
9446.000000;1.078931
9445.000000;1.077724
9444.000000;1.076939
9443.000000;1.076898
9442.000000;1.077263
9441.000000;1.077498
9440.000000;1.077473
9439.000000;1.077386
9438.000000;1.077274
9437.000000;1.076917
9436.000000;1.076206
9435.000000;1.075301
9434.000000;1.074407
9433.000000;1.073590
9432.000000;1.072889
9431.000000;1.072365
9430.000000;1.071926
9429.000000;1.071288
9428.000000;1.070301
9427.000000;1.069248
9426.000000;1.068658
9425.000000;1.068783
9424.000000;1.069363
9423.000000;1.069886
9422.000000;1.070034
9421.000000;1.069872
9420.000000;1.069662
9419.000000;1.069563
9418.000000;1.069484
9417.000000;1.069186
9416.000000;1.068558
9415.000000;1.067795
9414.000000;1.067247
9413.000000;1.067046
9412.000000;1.066917
9411.000000;1.066456
9410.000000;1.065589
9409.000000;1.064635
9408.000000;1.063935
9407.000000;1.063555
9406.000000;1.063425
9405.000000;1.063534
9404.000000;1.063793
9403.000000;1.063841
9402.000000;1.063309
9401.000000;1.062297
9400.000000;1.061368
9399.000000;1.060996
9398.000000;1.061182
9397.000000;1.061642
9396.000000;1.062123
9395.000000;1.062424
9394.000000;1.062321
9393.000000;1.061697
9392.000000;1.060701
9391.000000;1.059648
9390.000000;1.058789
9389.000000;1.058242
9388.000000;1.058013
9387.000000;1.057989
9386.000000;1.057988
9385.000000;1.057929
9384.000000;1.057904
9383.000000;1.057954
9382.000000;1.057872
9381.000000;1.057376
9380.000000;1.056450
9379.000000;1.055428
9378.000000;1.054749
9377.000000;1.054663
9376.000000;1.055040
9375.000000;1.055353
9374.000000;1.054988
9373.000000;1.053805
9372.000000;1.052353
9371.000000;1.051367
9370.000000;1.051079
9369.000000;1.051141
9368.000000;1.051145
9367.000000;1.050989
9366.000000;1.050720
9365.000000;1.050286
9364.000000;1.049613
9363.000000;1.048819
9362.000000;1.048178
9361.000000;1.047861
9360.000000;1.047810
9359.000000;1.047826
9358.000000;1.047726
9357.000000;1.047414
9356.000000;1.046897
9355.000000;1.046299
9354.000000;1.045826
9353.000000;1.045655
9352.000000;1.045765
9351.000000;1.045912
9350.000000;1.045837
9349.000000;1.045501
9348.000000;1.045068
9347.000000;1.044673
9346.000000;1.044340
9345.000000;1.044123
9344.000000;1.044120
9343.000000;1.044204
9342.000000;1.043942
9341.000000;1.043019
9340.000000;1.041723
9339.000000;1.040781
9338.000000;1.040686
9337.000000;1.041291
9336.000000;1.042029
9335.000000;1.042369
9334.000000;1.042062
9333.000000;1.041167
9332.000000;1.039981
9331.000000;1.038902
9330.000000;1.038250
9329.000000;1.038175
9328.000000;1.038665
9327.000000;1.039487
9326.000000;1.040144
9325.000000;1.040122
9324.000000;1.039327
9323.000000;1.038205
9322.000000;1.037318
9321.000000;1.036849
9320.000000;1.036551
9319.000000;1.036092
9318.000000;1.035347
9317.000000;1.034431
9316.000000;1.033569
9315.000000;1.032977
9314.000000;1.032758
9313.000000;1.032847
9312.000000;1.033043
9311.000000;1.033106
9310.000000;1.032913
9309.000000;1.032557
9308.000000;1.032308
9307.000000;1.032353
9306.000000;1.032569
9305.000000;1.032617
9304.000000;1.032329
9303.000000;1.031904
9302.000000;1.031639
9301.000000;1.031549
9300.000000;1.031411
9299.000000;1.031112
9298.000000;1.030776
9297.000000;1.030468
9296.000000;1.029954
9295.000000;1.028956
9294.000000;1.027594
9293.000000;1.026401
9292.000000;1.025853
9291.000000;1.025952
9290.000000;1.026316
9289.000000;1.026557
9288.000000;1.026490
9287.000000;1.026075
9286.000000;1.025344
9285.000000;1.024451
9284.000000;1.023674
9283.000000;1.023258
9282.000000;1.023229
9281.000000;1.023387
9280.000000;1.023454
9279.000000;1.023254
9278.000000;1.022805
9277.000000;1.022297
9276.000000;1.021937
9275.000000;1.021795
9274.000000;1.021773
9273.000000;1.021735
9272.000000;1.021626
9271.000000;1.021454
9270.000000;1.021214
9269.000000;1.020879
9268.000000;1.020476
9267.000000;1.020094
9266.000000;1.019804
9265.000000;1.019576
9264.000000;1.019309
9263.000000;1.018937
9262.000000;1.018490
9261.000000;1.018056
9260.000000;1.017686
9259.000000;1.017342
9258.000000;1.016899
9257.000000;1.016212
9256.000000;1.015240
9255.000000;1.014189
9254.000000;1.013493
9253.000000;1.013487
9252.000000;1.014013
9251.000000;1.014458
9250.000000;1.014304
9249.000000;1.013617
9248.000000;1.012879
9247.000000;1.012432
9246.000000;1.012265
9245.000000;1.012252
9244.000000;1.012355
9243.000000;1.012522
9242.000000;1.012614
9241.000000;1.012570
9240.000000;1.012477
9239.000000;1.012348
9238.000000;1.011986
9237.000000;1.011261
9236.000000;1.010392
9235.000000;1.009769
9234.000000;1.009520
9233.000000;1.009438
9232.000000;1.009309
9231.000000;1.009111
9230.000000;1.008859
9229.000000;1.008441
9228.000000;1.007762
9227.000000;1.006963
9226.000000;1.006373
9225.000000;1.006221
9224.000000;1.006417
9223.000000;1.006612
9222.000000;1.006468
9221.000000;1.005926
9220.000000;1.005208
9219.000000;1.004569
9218.000000;1.004070
9217.000000;1.003628
9216.000000;1.003221
9215.000000;1.002950
9214.000000;1.002889
9213.000000;1.002960
9212.000000;1.003005
9211.000000;1.002950
9210.000000;1.002836
9209.000000;1.002696
9208.000000;1.002460
9207.000000;1.002044
9206.000000;1.001511
9205.000000;1.001062
9204.000000;1.000786
9203.000000;1.000491
9202.000000;0.999916
9201.000000;0.999104
9200.000000;0.998450
9199.000000;0.998274
9198.000000;0.998465
9197.000000;0.998605
9196.000000;0.998398
9195.000000;0.997892
9194.000000;0.997326
9193.000000;0.996880
9192.000000;0.996556
9191.000000;0.996243
9190.000000;0.995861
9189.000000;0.995485
9188.000000;0.995284
9187.000000;0.995292
9186.000000;0.995305
9185.000000;0.995088
9184.000000;0.994619
9183.000000;0.994054
9182.000000;0.993518
9181.000000;0.993067
9180.000000;0.992796
9179.000000;0.992775
9178.000000;0.992818
9177.000000;0.992506
9176.000000;0.991617
9175.000000;0.990474
9174.000000;0.989702
9173.000000;0.989642
9172.000000;0.990086
9171.000000;0.990567
9170.000000;0.990780
9169.000000;0.990651
9168.000000;0.990151
9167.000000;0.989266
9166.000000;0.988172
9165.000000;0.987259
9164.000000;0.986835
9163.000000;0.986836
9162.000000;0.986947
9161.000000;0.986939
9160.000000;0.986798
9159.000000;0.986554
9158.000000;0.986188
9157.000000;0.985769
9156.000000;0.985503
9155.000000;0.985526
9154.000000;0.985711
9153.000000;0.985787
9152.000000;0.985611
9151.000000;0.985252
9150.000000;0.984868
9149.000000;0.984589
9148.000000;0.984465
9147.000000;0.984442
9146.000000;0.984384
9145.000000;0.984179
9144.000000;0.983822
9143.000000;0.983353
9142.000000;0.982784
9141.000000;0.982166
9140.000000;0.981664
9139.000000;0.981450
9138.000000;0.981514
9137.000000;0.981645
9136.000000;0.981607
9135.000000;0.981297
9134.000000;0.980774
9133.000000;0.980198
9132.000000;0.979718
9131.000000;0.979353
9130.000000;0.978976
9129.000000;0.978470
9128.000000;0.977861
9127.000000;0.977299
9126.000000;0.976925
9125.000000;0.976792
9124.000000;0.976826
9123.000000;0.976821
9122.000000;0.976549
9121.000000;0.975990
9120.000000;0.975397
9119.000000;0.975048
9118.000000;0.974958
9117.000000;0.974915
9116.000000;0.974760
9115.000000;0.974534
9114.000000;0.974378
9113.000000;0.974368
9112.000000;0.974449
9111.000000;0.974470
9110.000000;0.974266
9109.000000;0.973786
9108.000000;0.973101
9107.000000;0.972313
9106.000000;0.971501
9105.000000;0.970791
9104.000000;0.970345
9103.000000;0.970187
9102.000000;0.970131
9101.000000;0.970009
9100.000000;0.969889
9099.000000;0.969927
9098.000000;0.970050
9097.000000;0.969972
9096.000000;0.969532
9095.000000;0.968871
9094.000000;0.968252
9093.000000;0.967817
9092.000000;0.967557
9091.000000;0.967390
9090.000000;0.967225
9089.000000;0.967041
9088.000000;0.966900
9087.000000;0.966832
9086.000000;0.966716
9085.000000;0.966399
9084.000000;0.965925
9083.000000;0.965531
9082.000000;0.965377
9081.000000;0.965363
9080.000000;0.965220
9079.000000;0.964737
9078.000000;0.963939
9077.000000;0.963121
9076.000000;0.962691
9075.000000;0.962833
9074.000000;0.963307
9073.000000;0.963680
9072.000000;0.963759
9071.000000;0.963679
9070.000000;0.963603
9069.000000;0.963485
9068.000000;0.963168
9067.000000;0.962578
9066.000000;0.961783
9065.000000;0.960971
9064.000000;0.960397
9063.000000;0.960196
9062.000000;0.960184
9061.000000;0.960003
9060.000000;0.959546
9059.000000;0.959113
9058.000000;0.959041
9057.000000;0.959282
9056.000000;0.959461
9055.000000;0.959289
9054.000000;0.958778
9053.000000;0.958105
9052.000000;0.957415
9051.000000;0.956781
9050.000000;0.956271
9049.000000;0.955937
9048.000000;0.955728
9047.000000;0.955455
9046.000000;0.954919
9045.000000;0.954139
9044.000000;0.953400
9043.000000;0.953007
9042.000000;0.953023
9041.000000;0.953278
9040.000000;0.953584
9039.000000;0.953815
9038.000000;0.953822
9037.000000;0.953472
9036.000000;0.952847
9035.000000;0.952254
9034.000000;0.951936
9033.000000;0.951814
9032.000000;0.951600
9031.000000;0.951102
9030.000000;0.950384
9029.000000;0.949708
9028.000000;0.949355
9027.000000;0.949424
9026.000000;0.949754
9025.000000;0.950072
9024.000000;0.950210
9023.000000;0.950135
9022.000000;0.949818
9021.000000;0.949232
9020.000000;0.948507
9019.000000;0.947926
9018.000000;0.947656
9017.000000;0.947574
9016.000000;0.947438
9015.000000;0.947150
9014.000000;0.946805
9013.000000;0.946574
9012.000000;0.946565
9011.000000;0.946703
9010.000000;0.946675
9009.000000;0.946130
9008.000000;0.945072
9007.000000;0.943981
9006.000000;0.943432
9005.000000;0.943598
9004.000000;0.944174
9003.000000;0.944694
9002.000000;0.944834
9001.000000;0.944515
9000.000000;0.943868
8999.000000;0.943143
8998.000000;0.942582
8997.000000;0.942346
8996.000000;0.942457
8995.000000;0.942730
8994.000000;0.942767
8993.000000;0.942211
8992.000000;0.941137
8991.000000;0.940073
8990.000000;0.939523
8989.000000;0.939511
8988.000000;0.939668
8987.000000;0.939675
8986.000000;0.939508
8985.000000;0.939320
8984.000000;0.939236
8983.000000;0.939253
8982.000000;0.939237
8981.000000;0.939016
8980.000000;0.938555
8979.000000;0.938015
8978.000000;0.937581
8977.000000;0.937269
8976.000000;0.936979
8975.000000;0.936670
8974.000000;0.936393
8973.000000;0.936182
8972.000000;0.936040
8971.000000;0.935963
8970.000000;0.935866
8969.000000;0.935536
8968.000000;0.934846
8967.000000;0.933998
8966.000000;0.933416
8965.000000;0.933342
8964.000000;0.933619
8963.000000;0.933898
8962.000000;0.933945
8961.000000;0.933724
8960.000000;0.933341
8959.000000;0.932977
8958.000000;0.932774
8957.000000;0.932687
8956.000000;0.932497
8955.000000;0.932055
8954.000000;0.931489
8953.000000;0.931076
8952.000000;0.930927
8951.000000;0.930855
8950.000000;0.930574
8949.000000;0.929981
8948.000000;0.929238
8947.000000;0.928617
8946.000000;0.928316
8945.000000;0.928382
8944.000000;0.928697
8943.000000;0.929002
8942.000000;0.929023
8941.000000;0.928705
8940.000000;0.928315
8939.000000;0.928184
8938.000000;0.928320
8937.000000;0.928355
8936.000000;0.927937
8935.000000;0.927068
8934.000000;0.926041
8933.000000;0.925147
8932.000000;0.924538
8931.000000;0.924242
8930.000000;0.924179
8929.000000;0.924202
8928.000000;0.924250
8927.000000;0.924416
8926.000000;0.924759
8925.000000;0.925058
8924.000000;0.924907
8923.000000;0.924092
8922.000000;0.922816
8921.000000;0.921563
8920.000000;0.920769
8919.000000;0.920575
8918.000000;0.920772
8917.000000;0.921012
8916.000000;0.921126
8915.000000;0.921219
8914.000000;0.921368
8913.000000;0.921367
8912.000000;0.920964
8911.000000;0.920295
8910.000000;0.919824
8909.000000;0.919812
8908.000000;0.920030
8907.000000;0.920068
8906.000000;0.919740
8905.000000;0.919107
8904.000000;0.918321
8903.000000;0.917633
8902.000000;0.917398
8901.000000;0.917795
8900.000000;0.918514
8899.000000;0.918930
8898.000000;0.918661
8897.000000;0.917898
8896.000000;0.917147
8895.000000;0.916754
8894.000000;0.916710
8893.000000;0.916805
8892.000000;0.916850
8891.000000;0.916756
8890.000000;0.916525
8889.000000;0.916250
8888.000000;0.916121
8887.000000;0.916285
8886.000000;0.916638
8885.000000;0.916788
8884.000000;0.916371
8883.000000;0.915404
8882.000000;0.914278
8881.000000;0.913405
8880.000000;0.912926
8879.000000;0.912765
8878.000000;0.912800
8877.000000;0.912911
8876.000000;0.912958
8875.000000;0.912832
8874.000000;0.912555
8873.000000;0.912255
8872.000000;0.912049
8871.000000;0.911958
8870.000000;0.911922
8869.000000;0.911854
8868.000000;0.911686
8867.000000;0.911391
8866.000000;0.910974
8865.000000;0.910464
8864.000000;0.909937
8863.000000;0.909509
8862.000000;0.909240
8861.000000;0.909045
8860.000000;0.908793
8859.000000;0.908485
8858.000000;0.908269
8857.000000;0.908222
8856.000000;0.908254
8855.000000;0.908244
8854.000000;0.908207
8853.000000;0.908203
8852.000000;0.908178
8851.000000;0.908008
8850.000000;0.907695
8849.000000;0.907419
8848.000000;0.907347
8847.000000;0.907423
8846.000000;0.907398
8845.000000;0.907064
8844.000000;0.906465
8843.000000;0.905847
8842.000000;0.905416
8841.000000;0.905182
8840.000000;0.905086
8839.000000;0.905187
8838.000000;0.905575
8837.000000;0.906088
8836.000000;0.906293
8835.000000;0.905874
8834.000000;0.904978
8833.000000;0.904078
8832.000000;0.903563
8831.000000;0.903504
8830.000000;0.903721
8829.000000;0.903926
8828.000000;0.903907
8827.000000;0.903687
8826.000000;0.903510
8825.000000;0.903567
8824.000000;0.903757
8823.000000;0.903817
8822.000000;0.903628
8821.000000;0.903301
8820.000000;0.902987
8819.000000;0.902747
8818.000000;0.902584
8817.000000;0.902489
8816.000000;0.902409
8815.000000;0.902319
8814.000000;0.902341
8813.000000;0.902639
8812.000000;0.903136
8811.000000;0.903466
8810.000000;0.903324
8809.000000;0.902804
8808.000000;0.902268
8807.000000;0.901928
8806.000000;0.901661
8805.000000;0.901266
8804.000000;0.900794
8803.000000;0.900521
8802.000000;0.900611
8801.000000;0.900852
8800.000000;0.900829
8799.000000;0.900347
8798.000000;0.899624
8797.000000;0.899026
8796.000000;0.898735
8795.000000;0.898720
8794.000000;0.898912
8793.000000;0.899228
8792.000000;0.899495
8791.000000;0.899547
8790.000000;0.899438
8789.000000;0.899368
8788.000000;0.899385
8787.000000;0.899314
8786.000000;0.899058
8785.000000;0.898802
8784.000000;0.898777
8783.000000;0.898948
8782.000000;0.899086
8781.000000;0.899062
8780.000000;0.898944
8779.000000;0.898843
8778.000000;0.898816
8777.000000;0.898879
8776.000000;0.898998
8775.000000;0.899059
8774.000000;0.898943
8773.000000;0.898658
8772.000000;0.898335
8771.000000;0.898070
8770.000000;0.897859
8769.000000;0.897663
8768.000000;0.897504
8767.000000;0.897462
8766.000000;0.897631
8765.000000;0.898027
8764.000000;0.898497
8763.000000;0.898758
8762.000000;0.898617
8761.000000;0.898152
8760.000000;0.897632
8759.000000;0.897268
8758.000000;0.897089
8757.000000;0.897000
8756.000000;0.896895
8755.000000;0.896715
8754.000000;0.896481
8753.000000;0.896277
8752.000000;0.896148
8751.000000;0.896059
8750.000000;0.895980
8749.000000;0.895938
8748.000000;0.895929
8747.000000;0.895865
8746.000000;0.895723
8745.000000;0.895654
8744.000000;0.895780
8743.000000;0.895934
8742.000000;0.895817
8741.000000;0.895441
8740.000000;0.895202
8739.000000;0.895413
8738.000000;0.895930
8737.000000;0.896356
8736.000000;0.896485
8735.000000;0.896417
8734.000000;0.896334
8733.000000;0.896322
8732.000000;0.896382
8731.000000;0.896460
8730.000000;0.896467
8729.000000;0.896367
8728.000000;0.896243
8727.000000;0.896194
8726.000000;0.896203
8725.000000;0.896192
8724.000000;0.896185
8723.000000;0.896279
8722.000000;0.896419
8721.000000;0.896340
8720.000000;0.895827
8719.000000;0.895010
8718.000000;0.894319
8717.000000;0.894132
8716.000000;0.894483
8715.000000;0.895065
8714.000000;0.895477
8713.000000;0.895493
8712.000000;0.895158
8711.000000;0.894688
8710.000000;0.894313
8709.000000;0.894182
8708.000000;0.894310
8707.000000;0.894582
8706.000000;0.894826
8705.000000;0.894955
8704.000000;0.895011
8703.000000;0.895027
8702.000000;0.894893
8701.000000;0.894446
8700.000000;0.893735
8699.000000;0.893086
8698.000000;0.892831
8697.000000;0.892973
8696.000000;0.893204
8695.000000;0.893252
8694.000000;0.893131
8693.000000;0.893035
8692.000000;0.893046
8691.000000;0.893049
8690.000000;0.892932
8689.000000;0.892796
8688.000000;0.892862
8687.000000;0.893178
8686.000000;0.893491
8685.000000;0.893453
8684.000000;0.892956
8683.000000;0.892230
8682.000000;0.891596
8681.000000;0.891160
8680.000000;0.890786
8679.000000;0.890345
8678.000000;0.889934
8677.000000;0.889788
8676.000000;0.889989
8675.000000;0.890343
8674.000000;0.890563
8673.000000;0.890537
8672.000000;0.890379
8671.000000;0.890248
8670.000000;0.890201
8669.000000;0.890199
8668.000000;0.890205
8667.000000;0.890222
8666.000000;0.890247
8665.000000;0.890209
8664.000000;0.889972
8663.000000;0.889446
8662.000000;0.888748
8661.000000;0.888183
8660.000000;0.888004
8659.000000;0.888185
8658.000000;0.888491
8657.000000;0.888734
8656.000000;0.888910
8655.000000;0.889073
8654.000000;0.889176
8653.000000;0.889074
8652.000000;0.888657
8651.000000;0.887965
8650.000000;0.887220
8649.000000;0.886724
8648.000000;0.886653
8647.000000;0.886904
8646.000000;0.887195
8645.000000;0.887315
8644.000000;0.887244
8643.000000;0.887014
8642.000000;0.886604
8641.000000;0.886031
8640.000000;0.885445
8639.000000;0.885021
8638.000000;0.884787
8637.000000;0.884635
8636.000000;0.884477
8635.000000;0.884303
8634.000000;0.884135
8633.000000;0.883976
8632.000000;0.883820
8631.000000;0.883653
8630.000000;0.883473
8629.000000;0.883320
8628.000000;0.883262
8627.000000;0.883275
8626.000000;0.883221
8625.000000;0.883015
8624.000000;0.882785
8623.000000;0.882746
8622.000000;0.882914
8621.000000;0.883053
8620.000000;0.882929
8619.000000;0.882542
8618.000000;0.882086
8617.000000;0.881732
8616.000000;0.881484
8615.000000;0.881196
8614.000000;0.880720
8613.000000;0.880088
8612.000000;0.879529
8611.000000;0.879235
8610.000000;0.879124
8609.000000;0.878941
8608.000000;0.878601
8607.000000;0.878294
8606.000000;0.878196
8605.000000;0.878197
8604.000000;0.878052
8603.000000;0.877717
8602.000000;0.877371
8601.000000;0.877129
8600.000000;0.876903
8599.000000;0.876597
8598.000000;0.876308
8597.000000;0.876218
8596.000000;0.876363
8595.000000;0.876594
8594.000000;0.876747
8593.000000;0.876753
8592.000000;0.876598
8591.000000;0.876260
8590.000000;0.875764
8589.000000;0.875213
8588.000000;0.874722
8587.000000;0.874353
8586.000000;0.874134
8585.000000;0.874101
8584.000000;0.874220
8583.000000;0.874292
8582.000000;0.874049
8581.000000;0.873422
8580.000000;0.872666
8579.000000;0.872157
8578.000000;0.872041
8577.000000;0.872116
8576.000000;0.872074
8575.000000;0.871832
8574.000000;0.871570
8573.000000;0.871450
8572.000000;0.871356
8571.000000;0.870995
8570.000000;0.870293
8569.000000;0.869571
8568.000000;0.869240
8567.000000;0.869378
8566.000000;0.869715
8565.000000;0.869986
8564.000000;0.870121
8563.000000;0.870081
8562.000000;0.869722
8561.000000;0.868995
8560.000000;0.868144
8559.000000;0.867519
8558.000000;0.867217
8557.000000;0.867050
8556.000000;0.866833
8555.000000;0.866562
8554.000000;0.866296
8553.000000;0.866024
8552.000000;0.865712
8551.000000;0.865385
8550.000000;0.865076
8549.000000;0.864785
8548.000000;0.864542
8547.000000;0.864440
8546.000000;0.864515
8545.000000;0.864619
8544.000000;0.864511
8543.000000;0.864085
8542.000000;0.863519
8541.000000;0.863153
8540.000000;0.863200
8539.000000;0.863534
8538.000000;0.863784
8537.000000;0.863681
8536.000000;0.863298
8535.000000;0.862895
8534.000000;0.862585
8533.000000;0.862251
8532.000000;0.861762
8531.000000;0.861146
8530.000000;0.860530
8529.000000;0.860022
8528.000000;0.859714
8527.000000;0.859667
8526.000000;0.859820
8525.000000;0.859979
8524.000000;0.859997
8523.000000;0.859905
8522.000000;0.859829
8521.000000;0.859820
8520.000000;0.859823
8519.000000;0.859741
8518.000000;0.859477
8517.000000;0.858999
8516.000000;0.858423
8515.000000;0.857959
8514.000000;0.857682
8513.000000;0.857414
8512.000000;0.856934
8511.000000;0.856263
8510.000000;0.855626
8509.000000;0.855223
8508.000000;0.855110
8507.000000;0.855248
8506.000000;0.855518
8505.000000;0.855698
8504.000000;0.855596
8503.000000;0.855221
8502.000000;0.854747
8501.000000;0.854304
8500.000000;0.853917
8499.000000;0.853616
8498.000000;0.853441
8497.000000;0.853314
8496.000000;0.853053
8495.000000;0.852602
8494.000000;0.852132
8493.000000;0.851834
8492.000000;0.851694
8491.000000;0.851549
8490.000000;0.851292
8489.000000;0.850951
8488.000000;0.850629
8487.000000;0.850429
8486.000000;0.850371
8485.000000;0.850336
8484.000000;0.850145
8483.000000;0.849773
8482.000000;0.849409
8481.000000;0.849245
8480.000000;0.849281
8479.000000;0.849384
8478.000000;0.849464
8477.000000;0.849482
8476.000000;0.849369
8475.000000;0.849051
8474.000000;0.848555
8473.000000;0.847990
8472.000000;0.847442
8471.000000;0.846953
8470.000000;0.846562
8469.000000;0.846281
8468.000000;0.846059
8467.000000;0.845848
8466.000000;0.845688
8465.000000;0.845610
8464.000000;0.845507
8463.000000;0.845208
8462.000000;0.844727
8461.000000;0.844294
8460.000000;0.844119
8459.000000;0.844183
8458.000000;0.844296
8457.000000;0.844266
8456.000000;0.843985
8455.000000;0.843455
8454.000000;0.842805
8453.000000;0.842230
8452.000000;0.841836
8451.000000;0.841558
8450.000000;0.841273
8449.000000;0.840975
8448.000000;0.840774
8447.000000;0.840753
8446.000000;0.840841
8445.000000;0.840845
8444.000000;0.840601
8443.000000;0.840124
8442.000000;0.839603
8441.000000;0.839214
8440.000000;0.838960
8439.000000;0.838735
8438.000000;0.838516
8437.000000;0.838404
8436.000000;0.838459
8435.000000;0.838567
8434.000000;0.838539
8433.000000;0.838288
8432.000000;0.837868
8431.000000;0.837391
8430.000000;0.836953
8429.000000;0.836590
8428.000000;0.836256
8427.000000;0.835878
8426.000000;0.835480
8425.000000;0.835210
8424.000000;0.835177
8423.000000;0.835279
8422.000000;0.835281
8421.000000;0.835038
8420.000000;0.834607
8419.000000;0.834145
8418.000000;0.833764
8417.000000;0.833495
8416.000000;0.833318
8415.000000;0.833207
8414.000000;0.833138
8413.000000;0.833071
8412.000000;0.832939
8411.000000;0.832694
8410.000000;0.832392
8409.000000;0.832157
8408.000000;0.832000
8407.000000;0.831718
8406.000000;0.831082
8405.000000;0.830156
8404.000000;0.829313
8403.000000;0.828905
8402.000000;0.828954
8401.000000;0.829186
8400.000000;0.829315
8399.000000;0.829237
8398.000000;0.829006
8397.000000;0.828718
8396.000000;0.828426
8395.000000;0.828106
8394.000000;0.827692
8393.000000;0.827183
8392.000000;0.826710
8391.000000;0.826455
8390.000000;0.826470
8389.000000;0.826608
8388.000000;0.826646
8387.000000;0.826456
8386.000000;0.826056
8385.000000;0.825548
8384.000000;0.825041
8383.000000;0.824604
8382.000000;0.824248
8381.000000;0.823948
8380.000000;0.823723
8379.000000;0.823660
8378.000000;0.823776
8377.000000;0.823876
8376.000000;0.823679
8375.000000;0.823139
8374.000000;0.822539
8373.000000;0.822188
8372.000000;0.822090
8371.000000;0.822005
8370.000000;0.821758
8369.000000;0.821376
8368.000000;0.820953
8367.000000;0.820549
8366.000000;0.820246
8365.000000;0.820154
8364.000000;0.820254
8363.000000;0.820326
8362.000000;0.820129
8361.000000;0.819634
8360.000000;0.819021
8359.000000;0.818511
8358.000000;0.818238
8357.000000;0.818212
8356.000000;0.818317
8355.000000;0.818359
8354.000000;0.818197
8353.000000;0.817847
8352.000000;0.817419
8351.000000;0.817002
8350.000000;0.816632
8349.000000;0.816318
8348.000000;0.816035
8347.000000;0.815722
8346.000000;0.815349
8345.000000;0.814965
8344.000000;0.814632
8343.000000;0.814335
8342.000000;0.814031
8341.000000;0.813748
8340.000000;0.813553
8339.000000;0.813417
8338.000000;0.813203
8337.000000;0.812831
8336.000000;0.812391
8335.000000;0.812048
8334.000000;0.811855
8333.000000;0.811710
8332.000000;0.811489
8331.000000;0.811173
8330.000000;0.810836
8329.000000;0.810535
8328.000000;0.810255
8327.000000;0.809988
8326.000000;0.809831
8325.000000;0.809911
8324.000000;0.810192
8323.000000;0.810425
8322.000000;0.810356
8321.000000;0.809961
8320.000000;0.809439
8319.000000;0.809004
8318.000000;0.808722
8317.000000;0.808533
8316.000000;0.808329
8315.000000;0.808008
8314.000000;0.807517
8313.000000;0.806898
8312.000000;0.806300
8311.000000;0.805888
8310.000000;0.805697
8309.000000;0.805550
8308.000000;0.805198
8307.000000;0.804576
8306.000000;0.803900
8305.000000;0.803422
8304.000000;0.803141
8303.000000;0.802846
8302.000000;0.802452
8301.000000;0.802133
8300.000000;0.802066
8299.000000;0.802174
8298.000000;0.802231
8297.000000;0.802105
8296.000000;0.801795
8295.000000;0.801323
8294.000000;0.800748
8293.000000;0.800215
8292.000000;0.799854
8291.000000;0.799632
8290.000000;0.799415
8289.000000;0.799151
8288.000000;0.798878
8287.000000;0.798598
8286.000000;0.798288
8285.000000;0.797998
8284.000000;0.797783
8283.000000;0.797559
8282.000000;0.797185
8281.000000;0.796698
8280.000000;0.796302
8279.000000;0.796075
8278.000000;0.795866
8277.000000;0.795547
8276.000000;0.795205
8275.000000;0.794979
8274.000000;0.794844
8273.000000;0.794664
8272.000000;0.794371
8271.000000;0.793965
8270.000000;0.793437
8269.000000;0.792814
8268.000000;0.792242
8267.000000;0.791890
8266.000000;0.791785
8265.000000;0.791813
8264.000000;0.791866
8263.000000;0.791881
8262.000000;0.791765
8261.000000;0.791409
8260.000000;0.790805
8259.000000;0.790110
8258.000000;0.789537
8257.000000;0.789205
8256.000000;0.789064
8255.000000;0.788947
8254.000000;0.788690
8253.000000;0.788262
8252.000000;0.787774
8251.000000;0.787368
8250.000000;0.787096
8249.000000;0.786921
8248.000000;0.786798
8247.000000;0.786722
8246.000000;0.786680
8245.000000;0.786596
8244.000000;0.786362
8243.000000;0.785965
8242.000000;0.785547
8241.000000;0.785291
8240.000000;0.785212
8239.000000;0.785125
8238.000000;0.784870
8237.000000;0.784518
8236.000000;0.784252
8235.000000;0.784111
8234.000000;0.783953
8233.000000;0.783678
8232.000000;0.783366
8231.000000;0.783166
8230.000000;0.783143
8229.000000;0.783257
8228.000000;0.783380
8227.000000;0.783289
8226.000000;0.782786
8225.000000;0.781923
8224.000000;0.781021
8223.000000;0.780394
8222.000000;0.780079
8221.000000;0.779889
8220.000000;0.779647
8219.000000;0.779294
8218.000000;0.778860
8217.000000;0.778439
8216.000000;0.778146
8215.000000;0.778008
8214.000000;0.777906
8213.000000;0.777707
8212.000000;0.777399
8211.000000;0.777023
8210.000000;0.776539
8209.000000;0.775869
8208.000000;0.775096
8207.000000;0.774478
8206.000000;0.774231
8205.000000;0.774330
8204.000000;0.774553
8203.000000;0.774646
8202.000000;0.774477
8201.000000;0.774070
8200.000000;0.773567
8199.000000;0.773111
8198.000000;0.772757
8197.000000;0.772467
8196.000000;0.772174
8195.000000;0.771845
8194.000000;0.771506
8193.000000;0.771226
8192.000000;0.771045
8191.000000;0.770918
8190.000000;0.770748
8189.000000;0.770491
8188.000000;0.770188
8187.000000;0.769872
8186.000000;0.769517
8185.000000;0.769115
8184.000000;0.768745
8183.000000;0.768486
8182.000000;0.768293
8181.000000;0.768031
8180.000000;0.767606
8179.000000;0.767033
8178.000000;0.766394
8177.000000;0.765796
8176.000000;0.765359
8175.000000;0.765154
8174.000000;0.765139
8173.000000;0.765177
8172.000000;0.765121
8171.000000;0.764854
8170.000000;0.764333
8169.000000;0.763654
8168.000000;0.763049
8167.000000;0.762721
8166.000000;0.762657
8165.000000;0.762650
8164.000000;0.762507
8163.000000;0.762204
8162.000000;0.761846
8161.000000;0.761545
8160.000000;0.761348
8159.000000;0.761218
8158.000000;0.761066
8157.000000;0.760809
8156.000000;0.760429
8155.000000;0.759965
8154.000000;0.759474
8153.000000;0.759031
8152.000000;0.758710
8151.000000;0.758530
8150.000000;0.758418
8149.000000;0.758281
8148.000000;0.758080
8147.000000;0.757814
8146.000000;0.757479
8145.000000;0.757114
8144.000000;0.756836
8143.000000;0.756725
8142.000000;0.756671
8141.000000;0.756431
8140.000000;0.755876
8139.000000;0.755138
8138.000000;0.754474
8137.000000;0.754031
8136.000000;0.753778
8135.000000;0.753604
8134.000000;0.753431
8133.000000;0.753248
8132.000000;0.753042
8131.000000;0.752733
8130.000000;0.752226
8129.000000;0.751559
8128.000000;0.750968
8127.000000;0.750703
8126.000000;0.750771
8125.000000;0.750905
8124.000000;0.750799
8123.000000;0.750347
8122.000000;0.749659
8121.000000;0.748941
8120.000000;0.748419
8119.000000;0.748277
8118.000000;0.748531
8117.000000;0.748935
8116.000000;0.749100
8115.000000;0.748781
8114.000000;0.748057
8113.000000;0.747231
8112.000000;0.746560
8111.000000;0.746101
8110.000000;0.745775
8109.000000;0.745495
8108.000000;0.745228
8107.000000;0.744960
8106.000000;0.744690
8105.000000;0.744450
8104.000000;0.744293
8103.000000;0.744211
8102.000000;0.744099
8101.000000;0.743826
8100.000000;0.743362
8099.000000;0.742814
8098.000000;0.742347
8097.000000;0.742055
8096.000000;0.741896
8095.000000;0.741734
8094.000000;0.741469
8093.000000;0.741132
8092.000000;0.740845
8091.000000;0.740672
8090.000000;0.740562
8089.000000;0.740420
8088.000000;0.740211
8087.000000;0.739954
8086.000000;0.739656
8085.000000;0.739273
8084.000000;0.738735
8083.000000;0.738002
8082.000000;0.737153
8081.000000;0.736408
8080.000000;0.735981
8079.000000;0.735869
8078.000000;0.735831
8077.000000;0.735637
8076.000000;0.735296
8075.000000;0.735000
8074.000000;0.734867
8073.000000;0.734833
8072.000000;0.734743
8071.000000;0.734488
8070.000000;0.734044
8069.000000;0.733471
8068.000000;0.732893
8067.000000;0.732438
8066.000000;0.732146
8065.000000;0.731954
8064.000000;0.731760
8063.000000;0.731512
8062.000000;0.731231
8061.000000;0.730978
8060.000000;0.730770
8059.000000;0.730523
8058.000000;0.730108
8057.000000;0.729517
8056.000000;0.728905
8055.000000;0.728443
8054.000000;0.728146
8053.000000;0.727901
8052.000000;0.727638
8051.000000;0.727390
8050.000000;0.727195
8049.000000;0.727014
8048.000000;0.726768
8047.000000;0.726436
8046.000000;0.726093
8045.000000;0.725871
8044.000000;0.725830
8043.000000;0.725849
8042.000000;0.725699
8041.000000;0.725267
8040.000000;0.724686
8039.000000;0.724167
8038.000000;0.723754
8037.000000;0.723331
8036.000000;0.722851
8035.000000;0.722428
8034.000000;0.722190
8033.000000;0.722113
8032.000000;0.722044
8031.000000;0.721836
8030.000000;0.721461
8029.000000;0.721040
8028.000000;0.720763
8027.000000;0.720701
8026.000000;0.720689
8025.000000;0.720453
8024.000000;0.719896
8023.000000;0.719192
8022.000000;0.718598
8021.000000;0.718218
8020.000000;0.717978
8019.000000;0.717755
8018.000000;0.717480
8017.000000;0.717163
8016.000000;0.716860
8015.000000;0.716594
8014.000000;0.716300
8013.000000;0.715897
8012.000000;0.715408
8011.000000;0.714956
8010.000000;0.714619
8009.000000;0.714373
8008.000000;0.714179
8007.000000;0.714034
8006.000000;0.713879
8005.000000;0.713569
8004.000000;0.713026
8003.000000;0.712367
8002.000000;0.711790
8001.000000;0.711357
8000.000000;0.710973
7999.000000;0.710558
7998.000000;0.710147
7997.000000;0.709836
7996.000000;0.709668
7995.000000;0.709607
7994.000000;0.709564
7993.000000;0.709434
7992.000000;0.709175
7991.000000;0.708845
7990.000000;0.708535
7989.000000;0.708243
7988.000000;0.707875
7987.000000;0.707377
7986.000000;0.706826
7985.000000;0.706369
7984.000000;0.706092
7983.000000;0.705965
7982.000000;0.705892
7981.000000;0.705782
7980.000000;0.705596
7979.000000;0.705356
7978.000000;0.705092
7977.000000;0.704772
7976.000000;0.704317
7975.000000;0.703721
7974.000000;0.703137
7973.000000;0.702745
7972.000000;0.702547
7971.000000;0.702343
7970.000000;0.701961
7969.000000;0.701449
7968.000000;0.701001
7967.000000;0.700731
7966.000000;0.700593
7965.000000;0.700478
7964.000000;0.700289
7963.000000;0.699937
7962.000000;0.699381
7961.000000;0.698717
7960.000000;0.698136
7959.000000;0.697739
7958.000000;0.697448
7957.000000;0.697158
7956.000000;0.696897
7955.000000;0.696767
7954.000000;0.696772
7953.000000;0.696801
7952.000000;0.696753
7951.000000;0.696599
7950.000000;0.696347
7949.000000;0.696010
7948.000000;0.695617
7947.000000;0.695178
7946.000000;0.694668
7945.000000;0.694105
7944.000000;0.693607
7943.000000;0.693296
7942.000000;0.693138
7941.000000;0.692986
7940.000000;0.692761
7939.000000;0.692511
7938.000000;0.692263
7937.000000;0.691945
7936.000000;0.691496
7935.000000;0.690984
7934.000000;0.690529
7933.000000;0.690189
7932.000000;0.689964
7931.000000;0.689856
7930.000000;0.689853
7929.000000;0.689868
7928.000000;0.689762
7927.000000;0.689445
7926.000000;0.688938
7925.000000;0.688349
7924.000000;0.687799
7923.000000;0.687332
7922.000000;0.686890
7921.000000;0.686399
7920.000000;0.685882
7919.000000;0.685464
7918.000000;0.685255
7917.000000;0.685238
7916.000000;0.685279
7915.000000;0.685191
7914.000000;0.684841
7913.000000;0.684255
7912.000000;0.683654
7911.000000;0.683271
7910.000000;0.683083
7909.000000;0.682813
7908.000000;0.682245
7907.000000;0.681488
7906.000000;0.680856
7905.000000;0.680540
7904.000000;0.680477
7903.000000;0.680481
7902.000000;0.680412
7901.000000;0.680215
7900.000000;0.679915
7899.000000;0.679604
7898.000000;0.679380
7897.000000;0.679244
7896.000000;0.679086
7895.000000;0.678805
7894.000000;0.678415
7893.000000;0.678022
7892.000000;0.677708
7891.000000;0.677458
7890.000000;0.677218
7889.000000;0.676956
7888.000000;0.676668
7887.000000;0.676335
7886.000000;0.675929
7885.000000;0.675486
7884.000000;0.675112
7883.000000;0.674888
7882.000000;0.674764
7881.000000;0.674607
7880.000000;0.674333
7879.000000;0.673963
7878.000000;0.673566
7877.000000;0.673187
7876.000000;0.672838
7875.000000;0.672485
7874.000000;0.672073
7873.000000;0.671602
7872.000000;0.671183
7871.000000;0.670949
7870.000000;0.670885
7869.000000;0.670805
7868.000000;0.670540
7867.000000;0.670084
7866.000000;0.669557
7865.000000;0.669081
7864.000000;0.668731
7863.000000;0.668554
7862.000000;0.668537
7861.000000;0.668590
7860.000000;0.668575
7859.000000;0.668381
7858.000000;0.667972
7857.000000;0.667418
7856.000000;0.666895
7855.000000;0.666571
7854.000000;0.666451
7853.000000;0.666354
7852.000000;0.666097
7851.000000;0.665659
7850.000000;0.665159
7849.000000;0.664723
7848.000000;0.664419
7847.000000;0.664255
7846.000000;0.664164
7845.000000;0.664016
7844.000000;0.663724
7843.000000;0.663315
7842.000000;0.662875
7841.000000;0.662475
7840.000000;0.662161
7839.000000;0.661969
7838.000000;0.661869
7837.000000;0.661740
7836.000000;0.661487
7835.000000;0.661158
7834.000000;0.660877
7833.000000;0.660678
7832.000000;0.660480
7831.000000;0.660220
7830.000000;0.659937
7829.000000;0.659696
7828.000000;0.659503
7827.000000;0.659307
7826.000000;0.659051
7825.000000;0.658724
7824.000000;0.658367
7823.000000;0.658036
7822.000000;0.657724
7821.000000;0.657359
7820.000000;0.656898
7819.000000;0.656406
7818.000000;0.655989
7817.000000;0.655692
7816.000000;0.655496
7815.000000;0.655366
7814.000000;0.655233
7813.000000;0.654991
7812.000000;0.654601
7811.000000;0.654175
7810.000000;0.653859
7809.000000;0.653651
7808.000000;0.653425
7807.000000;0.653129
7806.000000;0.652844
7805.000000;0.652648
7804.000000;0.652536
7803.000000;0.652498
7802.000000;0.652556
7801.000000;0.652663
7800.000000;0.652663
7799.000000;0.652440
7798.000000;0.652032
7797.000000;0.651554
7796.000000;0.651065
7795.000000;0.650589
7794.000000;0.650192
7793.000000;0.649931
7792.000000;0.649762
7791.000000;0.649572
7790.000000;0.649304
7789.000000;0.648961
7788.000000;0.648542
7787.000000;0.648049
7786.000000;0.647583
7785.000000;0.647310
7784.000000;0.647280
7783.000000;0.647343
7782.000000;0.647312
7781.000000;0.647155
7780.000000;0.646965
7779.000000;0.646774
7778.000000;0.646476
7777.000000;0.645974
7776.000000;0.645343
7775.000000;0.644793
7774.000000;0.644486
7773.000000;0.644396
7772.000000;0.644370
7771.000000;0.644278
7770.000000;0.644115
7769.000000;0.643973
7768.000000;0.643925
7767.000000;0.643922
7766.000000;0.643805
7765.000000;0.643457
7764.000000;0.642946
7763.000000;0.642470
7762.000000;0.642159
7761.000000;0.641962
7760.000000;0.641768
7759.000000;0.641558
7758.000000;0.641385
7757.000000;0.641228
7756.000000;0.640970
7755.000000;0.640545
7754.000000;0.640034
7753.000000;0.639578
7752.000000;0.639234
7751.000000;0.638962
7750.000000;0.638716
7749.000000;0.638508
7748.000000;0.638372
7747.000000;0.638319
7746.000000;0.638334
7745.000000;0.638398
7744.000000;0.638498
7743.000000;0.638590
7742.000000;0.638584
7741.000000;0.638395
7740.000000;0.638030
7739.000000;0.637591
7738.000000;0.637193
7737.000000;0.636881
7736.000000;0.636623
7735.000000;0.636357
7734.000000;0.636013
7733.000000;0.635564
7732.000000;0.635088
7731.000000;0.634753
7730.000000;0.634656
7729.000000;0.634706
7728.000000;0.634718
7727.000000;0.634621
7726.000000;0.634498
7725.000000;0.634438
7724.000000;0.634395
7723.000000;0.634241
7722.000000;0.633904
7721.000000;0.633448
7720.000000;0.633045
7719.000000;0.632863
7718.000000;0.632928
7717.000000;0.633072
7716.000000;0.633058
7715.000000;0.632788
7714.000000;0.632354
7713.000000;0.631921
7712.000000;0.631589
7711.000000;0.631381
7710.000000;0.631258
7709.000000;0.631114
7708.000000;0.630829
7707.000000;0.630397
7706.000000;0.629973
7705.000000;0.629729
7704.000000;0.629688
7703.000000;0.629738
7702.000000;0.629776
7701.000000;0.629763
7700.000000;0.629652
7699.000000;0.629370
7698.000000;0.628906
7697.000000;0.628385
7696.000000;0.627988
7695.000000;0.627790
7694.000000;0.627695
7693.000000;0.627561
7692.000000;0.627359
7691.000000;0.627182
7690.000000;0.627112
7689.000000;0.627124
7688.000000;0.627131
7687.000000;0.627092
7686.000000;0.627002
7685.000000;0.626839
7684.000000;0.626583
7683.000000;0.626284
7682.000000;0.626040
7681.000000;0.625887
7680.000000;0.625756
7679.000000;0.625569
7678.000000;0.625327
7677.000000;0.625090
7676.000000;0.624911
7675.000000;0.624798
7674.000000;0.624707
7673.000000;0.624559
7672.000000;0.624318
7671.000000;0.624053
7670.000000;0.623888
7669.000000;0.623845
7668.000000;0.623812
7667.000000;0.623682
7666.000000;0.623480
7665.000000;0.623310
7664.000000;0.623213
7663.000000;0.623134
7662.000000;0.623004
7661.000000;0.622808
7660.000000;0.622597
7659.000000;0.622445
7658.000000;0.622383
7657.000000;0.622351
7656.000000;0.622252
7655.000000;0.622063
7654.000000;0.621860
7653.000000;0.621709
7652.000000;0.621584
7651.000000;0.621437
7650.000000;0.621279
7649.000000;0.621142
7648.000000;0.621008
7647.000000;0.620845
7646.000000;0.620684
7645.000000;0.620592
7644.000000;0.620565
7643.000000;0.620523
7642.000000;0.620399
7641.000000;0.620184
7640.000000;0.619899
7639.000000;0.619581
7638.000000;0.619314
7637.000000;0.619184
7636.000000;0.619211
7635.000000;0.619321
7634.000000;0.619417
7633.000000;0.619440
7632.000000;0.619378
7631.000000;0.619259
7630.000000;0.619135
7629.000000;0.619021
7628.000000;0.618880
7627.000000;0.618677
7626.000000;0.618460
7625.000000;0.618321
7624.000000;0.618285
7623.000000;0.618288
7622.000000;0.618261
7621.000000;0.618202
7620.000000;0.618134
7619.000000;0.618063
7618.000000;0.618001
7617.000000;0.617992
7616.000000;0.618063
7615.000000;0.618150
7614.000000;0.618123
7613.000000;0.617904
7612.000000;0.617553
7611.000000;0.617234
7610.000000;0.617082
7609.000000;0.617111
7608.000000;0.617223
7607.000000;0.617307
7606.000000;0.617299
7605.000000;0.617161
7604.000000;0.616877
7603.000000;0.616491
7602.000000;0.616132
7601.000000;0.615940
7600.000000;0.615957
7599.000000;0.616113
7598.000000;0.616316
7597.000000;0.616522
7596.000000;0.616712
7595.000000;0.616850
7594.000000;0.616887
7593.000000;0.616825
7592.000000;0.616731
7591.000000;0.616695
7590.000000;0.616748
7589.000000;0.616831
7588.000000;0.616861
7587.000000;0.616826
7586.000000;0.616780
7585.000000;0.616753
7584.000000;0.616706
7583.000000;0.616588
7582.000000;0.616408
7581.000000;0.616210
7580.000000;0.616020
7579.000000;0.615849
7578.000000;0.615734
7577.000000;0.615713
7576.000000;0.615770
7575.000000;0.615821
7574.000000;0.615785
7573.000000;0.615639
7572.000000;0.615442
7571.000000;0.615302
7570.000000;0.615311
7569.000000;0.615464
7568.000000;0.615638
7567.000000;0.615705
7566.000000;0.615640
7565.000000;0.615533
7564.000000;0.615494
7563.000000;0.615576
7562.000000;0.615772
7561.000000;0.616013
7560.000000;0.616185
7559.000000;0.616198
7558.000000;0.616046
7557.000000;0.615809
7556.000000;0.615566
7555.000000;0.615356
7554.000000;0.615192
7553.000000;0.615091
7552.000000;0.615071
7551.000000;0.615142
7550.000000;0.615298
7549.000000;0.615506
7548.000000;0.615709
7547.000000;0.615848
7546.000000;0.615900
7545.000000;0.615877
7544.000000;0.615800
7543.000000;0.615700
7542.000000;0.615625
7541.000000;0.615622
7540.000000;0.615709
7539.000000;0.615875
7538.000000;0.616098
7537.000000;0.616348
7536.000000;0.616583
7535.000000;0.616771
7534.000000;0.616916
7533.000000;0.617046
7532.000000;0.617167
7531.000000;0.617254
7530.000000;0.617272
7529.000000;0.617209
7528.000000;0.617090
7527.000000;0.616974
7526.000000;0.616932
7525.000000;0.616992
7524.000000;0.617132
7523.000000;0.617311
7522.000000;0.617493
7521.000000;0.617636
7520.000000;0.617684
7519.000000;0.617622
7518.000000;0.617511
7517.000000;0.617440
7516.000000;0.617440
7515.000000;0.617488
7514.000000;0.617553
7513.000000;0.617627
7512.000000;0.617700
7511.000000;0.617764
7510.000000;0.617819
7509.000000;0.617846
7508.000000;0.617796
7507.000000;0.617652
7506.000000;0.617494
7505.000000;0.617454
7504.000000;0.617572
7503.000000;0.617771
7502.000000;0.617946
7501.000000;0.618068
7500.000000;0.618212
7499.000000;0.618403
7498.000000;0.618600
7497.000000;0.618747
7496.000000;0.618849
7495.000000;0.618955
7494.000000;0.619095
7493.000000;0.619258
7492.000000;0.619427
7491.000000;0.619611
7490.000000;0.619816
7489.000000;0.619989
7488.000000;0.620036
7487.000000;0.619901
7486.000000;0.619640
7485.000000;0.619405
7484.000000;0.619365
7483.000000;0.619597
7482.000000;0.620016
7481.000000;0.620420
7480.000000;0.620656
7479.000000;0.620747
7478.000000;0.620828
7477.000000;0.620966
7476.000000;0.621079
7475.000000;0.621051
7474.000000;0.620879
7473.000000;0.620692
7472.000000;0.620645
7471.000000;0.620805
7470.000000;0.621101
7469.000000;0.621378
7468.000000;0.621520
7467.000000;0.621547
7466.000000;0.621565
7465.000000;0.621647
7464.000000;0.621801
7463.000000;0.622006
7462.000000;0.622222
7461.000000;0.622376
7460.000000;0.622436
7459.000000;0.622505
7458.000000;0.622711
7457.000000;0.623007
7456.000000;0.623183
7455.000000;0.623132
7454.000000;0.622976
7453.000000;0.622887
7452.000000;0.622908
7451.000000;0.623018
7450.000000;0.623218
7449.000000;0.623461
7448.000000;0.623594
7447.000000;0.623525
7446.000000;0.623359
7445.000000;0.623265
7444.000000;0.623278
7443.000000;0.623350
7442.000000;0.623504
7441.000000;0.623795
7440.000000;0.624157
7439.000000;0.624434
7438.000000;0.624559
7437.000000;0.624596
7436.000000;0.624605
7435.000000;0.624592
7434.000000;0.624561
7433.000000;0.624522
7432.000000;0.624452
7431.000000;0.624341
7430.000000;0.624270
7429.000000;0.624333
7428.000000;0.624510
7427.000000;0.624693
7426.000000;0.624822
7425.000000;0.624927
7424.000000;0.625065
7423.000000;0.625280
7422.000000;0.625604
7421.000000;0.626030
7420.000000;0.626472
7419.000000;0.626806
7418.000000;0.626962
7417.000000;0.626934
7416.000000;0.626763
7415.000000;0.626543
7414.000000;0.626409
7413.000000;0.626443
7412.000000;0.626576
7411.000000;0.626685
7410.000000;0.626748
7409.000000;0.626785
7408.000000;0.626745
7407.000000;0.626565
7406.000000;0.626334
7405.000000;0.626239
7404.000000;0.626338
7403.000000;0.626466
7402.000000;0.626477
7401.000000;0.626452
7400.000000;0.626557
7399.000000;0.626831
7398.000000;0.627196
7397.000000;0.627505
7396.000000;0.627632
7395.000000;0.627637
7394.000000;0.627682
7393.000000;0.627729
7392.000000;0.627526
7391.000000;0.627014
7390.000000;0.626606
7389.000000;0.626748
7388.000000;0.627365
7387.000000;0.628025
7386.000000;0.628486
7385.000000;0.628779
7384.000000;0.628916
7383.000000;0.628835
7382.000000;0.628608
7381.000000;0.628497
7380.000000;0.628661
7379.000000;0.628926
7378.000000;0.628965
7377.000000;0.628649
7376.000000;0.628232
7375.000000;0.628137
7374.000000;0.628537
7373.000000;0.629179
7372.000000;0.629621
7371.000000;0.629594
7370.000000;0.629218
7369.000000;0.628831
7368.000000;0.628626
7367.000000;0.628659
7366.000000;0.628990
7365.000000;0.629451
7364.000000;0.629596
7363.000000;0.629214
7362.000000;0.628629
7361.000000;0.628380
7360.000000;0.628709
7359.000000;0.629355
7358.000000;0.629820
7357.000000;0.629804
7356.000000;0.629475
7355.000000;0.629298
7354.000000;0.629653
7353.000000;0.630470
7352.000000;0.631228
7351.000000;0.631421
7350.000000;0.631090
7349.000000;0.630801
7348.000000;0.630974
7347.000000;0.631376
7346.000000;0.631423
7345.000000;0.630981
7344.000000;0.630563
7343.000000;0.630752
7342.000000;0.631586
7341.000000;0.632571
7340.000000;0.633230
7339.000000;0.633440
7338.000000;0.633402
7337.000000;0.633273
7336.000000;0.633044
7335.000000;0.632709
7334.000000;0.632431
7333.000000;0.632481
7332.000000;0.632974
7331.000000;0.633557
7330.000000;0.633612
7329.000000;0.633054
7328.000000;0.632667
7327.000000;0.633109
7326.000000;0.633953
7325.000000;0.634328
7324.000000;0.634011
7323.000000;0.633508
7322.000000;0.633357
7321.000000;0.633675
7320.000000;0.634224
7319.000000;0.634714
7318.000000;0.635148
7317.000000;0.635781
7316.000000;0.636689
7315.000000;0.637504
7314.000000;0.637684
7313.000000;0.637268
7312.000000;0.637152
7311.000000;0.638076
7310.000000;0.639521
7309.000000;0.640217
7308.000000;0.639747
7307.000000;0.638990
7306.000000;0.638942
7305.000000;0.639744
7304.000000;0.640908
7303.000000;0.641782
7302.000000;0.641877
7301.000000;0.641177
7300.000000;0.640312
7299.000000;0.640201
7298.000000;0.641114
7297.000000;0.642293
7296.000000;0.642774
7295.000000;0.642575
7294.000000;0.642640
7293.000000;0.643558
7292.000000;0.644998
7291.000000;0.646345
7290.000000;0.647370
7289.000000;0.648248
7288.000000;0.649200
7287.000000;0.650184
7286.000000;0.650912
7285.000000;0.651242
7284.000000;0.651426
7283.000000;0.651800
7282.000000;0.652489
7281.000000;0.653407
7280.000000;0.654399
7279.000000;0.655364
7278.000000;0.656200
7277.000000;0.656834
7276.000000;0.657396
7275.000000;0.658148
7274.000000;0.659180
7273.000000;0.660360
7272.000000;0.661550
7271.000000;0.662701
7270.000000;0.663781
7269.000000;0.664796
7268.000000;0.665840
7267.000000;0.667019
7266.000000;0.668297
7265.000000;0.669561
7264.000000;0.670808
7263.000000;0.672114
7262.000000;0.673441
7261.000000;0.674665
7260.000000;0.675785
7259.000000;0.676923
7258.000000;0.678156
7257.000000;0.679473
7256.000000;0.680850
7255.000000;0.682283
7254.000000;0.683818
7253.000000;0.685504
7252.000000;0.687191
7251.000000;0.688629
7250.000000;0.689739
7249.000000;0.690713
7248.000000;0.692028
7247.000000;0.694009
7246.000000;0.696300
7245.000000;0.698170
7244.000000;0.699543
7243.000000;0.701250
7242.000000;0.703897
7241.000000;0.706950
7240.000000;0.709442
7239.000000;0.711113
7238.000000;0.712504
7237.000000;0.714292
7236.000000;0.716610
7235.000000;0.719008
7234.000000;0.721105
7233.000000;0.723007
7232.000000;0.724940
7231.000000;0.726945
7230.000000;0.728918
7229.000000;0.730748
7228.000000;0.732576
7227.000000;0.734713
7226.000000;0.737217
7225.000000;0.739781
7224.000000;0.742150
7223.000000;0.744341
7222.000000;0.746405
7221.000000;0.748372
7220.000000;0.750502
7219.000000;0.753112
7218.000000;0.756162
7217.000000;0.759306
7216.000000;0.762282
7215.000000;0.765029
7214.000000;0.767606
7213.000000;0.770187
7212.000000;0.773020
7211.000000;0.776278
7210.000000;0.779848
7209.000000;0.783402
7208.000000;0.786780
7207.000000;0.790138
7206.000000;0.793667
7205.000000;0.797388
7204.000000;0.801205
7203.000000;0.804984
7202.000000;0.808534
7201.000000;0.811776
7200.000000;0.814864
7199.000000;0.818022
7198.000000;0.821292
7197.000000;0.824628
7196.000000;0.828089
7195.000000;0.831803
7194.000000;0.835762
7193.000000;0.839868
7192.000000;0.844078
7191.000000;0.848341
7190.000000;0.852445
7189.000000;0.856220
7188.000000;0.859824
7187.000000;0.863599
7186.000000;0.867697
7185.000000;0.871857
7184.000000;0.875685
7183.000000;0.879154
7182.000000;0.882760
7181.000000;0.887038
7180.000000;0.892016
7179.000000;0.897253
7178.000000;0.902277
7177.000000;0.906993
7176.000000;0.911643
7175.000000;0.916351
7174.000000;0.920945
7173.000000;0.925378
7172.000000;0.929989
7171.000000;0.935150
7170.000000;0.940735
7169.000000;0.946263
7168.000000;0.951317
7167.000000;0.955812
7166.000000;0.960089
7165.000000;0.964503
7164.000000;0.968926
7163.000000;0.972913
7162.000000;0.976498
7161.000000;0.980440
7160.000000;0.985364
7159.000000;0.990957
7158.000000;0.996374
7157.000000;1.001251
7156.000000;1.005954
7155.000000;1.010793
7154.000000;1.015529
7153.000000;1.019970
7152.000000;1.024381
7151.000000;1.029159
7150.000000;1.034438
7149.000000;1.040021
7148.000000;1.045471
7147.000000;1.050386
7146.000000;1.054773
7145.000000;1.059179
7144.000000;1.064307
7143.000000;1.070264
7142.000000;1.076319
7141.000000;1.081630
7140.000000;1.086110
7139.000000;1.090377
7138.000000;1.094935
7137.000000;1.099747
7136.000000;1.104556
7135.000000;1.109248
7134.000000;1.113828
7133.000000;1.118370
7132.000000;1.122972
7131.000000;1.127686
7130.000000;1.132476
7129.000000;1.137301
7128.000000;1.142262
7127.000000;1.147505
7126.000000;1.152891
7125.000000;1.157979
7124.000000;1.162473
7123.000000;1.166589
7122.000000;1.170808
7121.000000;1.175229
7120.000000;1.179447
7119.000000;1.183137
7118.000000;1.186624
7117.000000;1.190640
7116.000000;1.195516
7115.000000;1.200780
7114.000000;1.205683
7113.000000;1.210003
7112.000000;1.214212
7111.000000;1.218802
7110.000000;1.223630
7109.000000;1.228157
7108.000000;1.232165
7107.000000;1.235903
7106.000000;1.239761
7105.000000;1.243960
7104.000000;1.248426
7103.000000;1.252961
7102.000000;1.257418
7101.000000;1.261687
7100.000000;1.265779
7099.000000;1.269826
7098.000000;1.273823
7097.000000;1.277454
7096.000000;1.280449
7095.000000;1.283061
7094.000000;1.285964
7093.000000;1.289575
7092.000000;1.293697
7091.000000;1.297871
7090.000000;1.301885
7089.000000;1.305806
7088.000000;1.309631
7087.000000;1.313124
7086.000000;1.316096
7085.000000;1.318711
7084.000000;1.321374
7083.000000;1.324401
7082.000000;1.327819
7081.000000;1.331361
7080.000000;1.334690
7079.000000;1.337688
7078.000000;1.340541
7077.000000;1.343614
7076.000000;1.347164
7075.000000;1.351036
7074.000000;1.354722
7073.000000;1.357866
7072.000000;1.360666
7071.000000;1.363641
7070.000000;1.367023
7069.000000;1.370524
7068.000000;1.373719
7067.000000;1.376486
7066.000000;1.379071
7065.000000;1.381833
7064.000000;1.384880
7063.000000;1.387952
7062.000000;1.390674
7061.000000;1.392914
7060.000000;1.394847
7059.000000;1.396729
7058.000000;1.398649
7057.000000;1.400657
7056.000000;1.403039
7055.000000;1.406102
7054.000000;1.409655
7053.000000;1.413000
7052.000000;1.415611
7051.000000;1.417701
7050.000000;1.420011
7049.000000;1.423056
7048.000000;1.426605
7047.000000;1.429859
7046.000000;1.432218
7045.000000;1.433840
7044.000000;1.435328
7043.000000;1.436954
7042.000000;1.438467
7041.000000;1.439659
7040.000000;1.440763
7039.000000;1.442087
7038.000000;1.443474
7037.000000;1.444533
7036.000000;1.445347
7035.000000;1.446556
7034.000000;1.448663
7033.000000;1.451544
7032.000000;1.454680
7031.000000;1.457627
7030.000000;1.460226
7029.000000;1.462530
7028.000000;1.464737
7027.000000;1.467046
7026.000000;1.469428
7025.000000;1.471581
7024.000000;1.473267
7023.000000;1.474674
7022.000000;1.476323
7021.000000;1.478600
7020.000000;1.481372
7019.000000;1.484062
7018.000000;1.486098
7017.000000;1.487314
7016.000000;1.487960
7015.000000;1.488408
7014.000000;1.488964
7013.000000;1.489872
7012.000000;1.491298
7011.000000;1.493225
7010.000000;1.495447
7009.000000;1.497659
7008.000000;1.499482
7007.000000;1.500523
7006.000000;1.500766
7005.000000;1.500954
7004.000000;1.502125
7003.000000;1.504477
7002.000000;1.506947
7001.000000;1.508322
7000.000000;1.508599
6999.000000;1.508872
6998.000000;1.509966
6997.000000;1.511669
6996.000000;1.513342
6995.000000;1.514826
6994.000000;1.516459
6993.000000;1.518446
6992.000000;1.520575
6991.000000;1.522469
6990.000000;1.523900
6989.000000;1.524808
6988.000000;1.525186
6987.000000;1.525168
6986.000000;1.525171
6985.000000;1.525686
6984.000000;1.526836
6983.000000;1.528365
6982.000000;1.530089
6981.000000;1.532031
6980.000000;1.533835
6979.000000;1.534521
6978.000000;1.533519
6977.000000;1.531842
6976.000000;1.531447
6975.000000;1.533247
6974.000000;1.536248
6973.000000;1.538880
6972.000000;1.540626
6971.000000;1.541898
6970.000000;1.542865
6969.000000;1.543281
6968.000000;1.543244
6967.000000;1.543378
6966.000000;1.544160
6965.000000;1.545474
6964.000000;1.546853
6963.000000;1.547864
6962.000000;1.548316
6961.000000;1.548465
6960.000000;1.548982
6959.000000;1.550308
6958.000000;1.552006
6957.000000;1.553137
6956.000000;1.553307
6955.000000;1.553025
6954.000000;1.553013
6953.000000;1.553588
6952.000000;1.554682
6951.000000;1.556011
6950.000000;1.557114
6949.000000;1.557674
6948.000000;1.557976
6947.000000;1.558680
6946.000000;1.559994
6945.000000;1.561368
6944.000000;1.562146
6943.000000;1.562231
6942.000000;1.561915
6941.000000;1.561417
6940.000000;1.560895
6939.000000;1.560689
6938.000000;1.561143
6937.000000;1.562185
6936.000000;1.563318
6935.000000;1.564119
6934.000000;1.564575
6933.000000;1.564878
6932.000000;1.565043
6931.000000;1.564919
6930.000000;1.564505
6929.000000;1.564124
6928.000000;1.564134
6927.000000;1.564520
6926.000000;1.564896
6925.000000;1.564932
6924.000000;1.564678
6923.000000;1.564433
6922.000000;1.564513
6921.000000;1.565129
6920.000000;1.566256
6919.000000;1.567539
6918.000000;1.568543
6917.000000;1.569161
6916.000000;1.569577
6915.000000;1.569735
6914.000000;1.569211
6913.000000;1.567863
6912.000000;1.566298
6911.000000;1.565361
6910.000000;1.565367
6909.000000;1.566086
6908.000000;1.567236
6907.000000;1.568581
6906.000000;1.569688
6905.000000;1.570095
6904.000000;1.569756
6903.000000;1.569015
6902.000000;1.568147
6901.000000;1.567259
6900.000000;1.566621
6899.000000;1.566692
6898.000000;1.567548
6897.000000;1.568439
6896.000000;1.568287
6895.000000;1.566799
6894.000000;1.565005
6893.000000;1.564441
6892.000000;1.565617
6891.000000;1.567408
6890.000000;1.568249
6889.000000;1.567874
6888.000000;1.567418
6887.000000;1.567726
6886.000000;1.568184
6885.000000;1.567604
6884.000000;1.565771
6883.000000;1.563540
6882.000000;1.561782
6881.000000;1.560916
6880.000000;1.561207
6879.000000;1.562687
6878.000000;1.564611
6877.000000;1.565644
6876.000000;1.564982
6875.000000;1.562980
6874.000000;1.560606
6873.000000;1.558747
6872.000000;1.558098
6871.000000;1.558982
6870.000000;1.560823
6869.000000;1.562237
6868.000000;1.562268
6867.000000;1.561384
6866.000000;1.560798
6865.000000;1.560963
6864.000000;1.561140
6863.000000;1.560367
6862.000000;1.558510
6861.000000;1.556310
6860.000000;1.554704
6859.000000;1.554189
6858.000000;1.554552
6857.000000;1.555060
6856.000000;1.555009
6855.000000;1.554220
6854.000000;1.552999
6853.000000;1.551664
6852.000000;1.550301
6851.000000;1.549049
6850.000000;1.548349
6849.000000;1.548568
6848.000000;1.549372
6847.000000;1.549805
6846.000000;1.549197
6845.000000;1.547835
6844.000000;1.546445
6843.000000;1.545254
6842.000000;1.543957
6841.000000;1.542450
6840.000000;1.541089
6839.000000;1.540134
6838.000000;1.539393
6837.000000;1.538640
6836.000000;1.537999
6835.000000;1.537599
6834.000000;1.537196
6833.000000;1.536559
6832.000000;1.535919
6831.000000;1.535552
6830.000000;1.535140
6829.000000;1.534094
6828.000000;1.532459
6827.000000;1.530957
6826.000000;1.530023
6825.000000;1.529263
6824.000000;1.528056
6823.000000;1.526325
6822.000000;1.524447
6821.000000;1.522620
6820.000000;1.520653
6819.000000;1.518352
6818.000000;1.515929
6817.000000;1.513923
6816.000000;1.512757
6815.000000;1.512343
6814.000000;1.512101
6813.000000;1.511459
6812.000000;1.510308
6811.000000;1.508857
6810.000000;1.507132
6809.000000;1.504844
6808.000000;1.501850
6807.000000;1.498583
6806.000000;1.495878
6805.000000;1.494315
6804.000000;1.493750
6803.000000;1.493434
6802.000000;1.492617
6801.000000;1.491116
6800.000000;1.489331
6799.000000;1.487680
6798.000000;1.486119
6797.000000;1.484271
6796.000000;1.481976
6795.000000;1.479526
6794.000000;1.477328
6793.000000;1.475487
6792.000000;1.473806
6791.000000;1.472104
6790.000000;1.470409
6789.000000;1.468800
6788.000000;1.467170
6787.000000;1.465297
6786.000000;1.463172
6785.000000;1.461107
6784.000000;1.459373
6783.000000;1.457802
6782.000000;1.455894
6781.000000;1.453365
6780.000000;1.450479
6779.000000;1.447820
6778.000000;1.445818
6777.000000;1.444459
6776.000000;1.443303
6775.000000;1.441798
6774.000000;1.439743
6773.000000;1.437460
6772.000000;1.435381
6771.000000;1.433505
6770.000000;1.431424
6769.000000;1.428857
6768.000000;1.425945
6767.000000;1.422997
6766.000000;1.420190
6765.000000;1.417574
6764.000000;1.415137
6763.000000;1.412772
6762.000000;1.410355
6761.000000;1.407956
6760.000000;1.405778
6759.000000;1.403775
6758.000000;1.401592
6757.000000;1.399039
6756.000000;1.396387
6755.000000;1.393997
6754.000000;1.391840
6753.000000;1.389595
6752.000000;1.387070
6751.000000;1.384300
6750.000000;1.381398
6749.000000;1.378592
6748.000000;1.376291
6747.000000;1.374765
6746.000000;1.373715
6745.000000;1.372388
6744.000000;1.370196
6743.000000;1.367178
6742.000000;1.363877
6741.000000;1.360898
6740.000000;1.358535
6739.000000;1.356600
6738.000000;1.354571
6737.000000;1.352057
6736.000000;1.349169
6735.000000;1.346367
6734.000000;1.343979
6733.000000;1.341931
6732.000000;1.339898
6731.000000;1.337637
6730.000000;1.335181
6729.000000;1.332772
6728.000000;1.330577
6727.000000;1.328474
6726.000000;1.326219
6725.000000;1.323831
6724.000000;1.321585
6723.000000;1.319509
6722.000000;1.317130
6721.000000;1.314010
6720.000000;1.310422
6719.000000;1.307215
6718.000000;1.304924
6717.000000;1.303309
6716.000000;1.301709
6715.000000;1.299839
6714.000000;1.297902
6713.000000;1.296077
6712.000000;1.294057
6711.000000;1.291302
6710.000000;1.287680
6709.000000;1.283934
6708.000000;1.280984
6707.000000;1.279066
6706.000000;1.277621
6705.000000;1.275964
6704.000000;1.273937
6703.000000;1.271786
6702.000000;1.269637
6701.000000;1.267348
6700.000000;1.264795
6699.000000;1.262094
6698.000000;1.259468
6697.000000;1.256967
6696.000000;1.254372
6695.000000;1.251378
6694.000000;1.247955
6693.000000;1.244494
6692.000000;1.241481
6691.000000;1.239028
6690.000000;1.236848
6689.000000;1.234677
6688.000000;1.232513
6687.000000;1.230377
6686.000000;1.228111
6685.000000;1.225606
6684.000000;1.223013
6683.000000;1.220525
6682.000000;1.218120
6681.000000;1.215700
6680.000000;1.213336
6679.000000;1.211140
6678.000000;1.209013
6677.000000;1.206792
6676.000000;1.204542
6675.000000;1.202428
6674.000000;1.200330
6673.000000;1.197869
6672.000000;1.194873
6671.000000;1.191615
6670.000000;1.188538
6669.000000;1.185895
6668.000000;1.183621
6667.000000;1.181388
6666.000000;1.178798
6665.000000;1.175721
6664.000000;1.172482
6663.000000;1.169547
6662.000000;1.167006
6661.000000;1.164558
6660.000000;1.162008
6659.000000;1.159529
6658.000000;1.157337
6657.000000;1.155309
6656.000000;1.153090
6655.000000;1.150493
6654.000000;1.147661
6653.000000;1.144915
6652.000000;1.142535
6651.000000;1.140607
6650.000000;1.138917
6649.000000;1.137030
6648.000000;1.134596
6647.000000;1.131639
6646.000000;1.128499
6645.000000;1.125521
6644.000000;1.122849
6643.000000;1.120484
6642.000000;1.118430
6641.000000;1.116665
6640.000000;1.115013
6639.000000;1.113152
6638.000000;1.110853
6637.000000;1.108192
6636.000000;1.105465
6635.000000;1.102870
6634.000000;1.100349
6633.000000;1.097729
6632.000000;1.094962
6631.000000;1.092167
6630.000000;1.089524
6629.000000;1.087174
6628.000000;1.085152
6627.000000;1.083327
6626.000000;1.081402
6625.000000;1.079085
6624.000000;1.076308
6623.000000;1.073293
6622.000000;1.070402
6621.000000;1.067891
6620.000000;1.065750
6619.000000;1.063748
6618.000000;1.061634
6617.000000;1.059322
6616.000000;1.056872
6615.000000;1.054368
6614.000000;1.051893
6613.000000;1.049564
6612.000000;1.047451
6611.000000;1.045432
6610.000000;1.043265
6609.000000;1.040849
6608.000000;1.038326
6607.000000;1.035894
6606.000000;1.033628
6605.000000;1.031533
6604.000000;1.029606
6603.000000;1.027744
6602.000000;1.025739
6601.000000;1.023466
6600.000000;1.021029
6599.000000;1.018595
6598.000000;1.016210
6597.000000;1.013851
6596.000000;1.011557
6595.000000;1.009357
6594.000000;1.007145
6593.000000;1.004795
6592.000000;1.002375
6591.000000;1.000080
6590.000000;0.997979
6589.000000;0.995941
6588.000000;0.993806
6587.000000;0.991519
6586.000000;0.989120
6585.000000;0.986728
6584.000000;0.984501
6583.000000;0.982500
6582.000000;0.980613
6581.000000;0.978694
6580.000000;0.976733
6579.000000;0.974768
6578.000000;0.972704
6577.000000;0.970390
6576.000000;0.967890
6575.000000;0.965463
6574.000000;0.963253
6573.000000;0.961156
6572.000000;0.959055
6571.000000;0.957026
6570.000000;0.955183
6569.000000;0.953451
6568.000000;0.951621
6567.000000;0.949601
6566.000000;0.947488
6565.000000;0.945408
6564.000000;0.943378
6563.000000;0.941340
6562.000000;0.939279
6561.000000;0.937259
6560.000000;0.935342
6559.000000;0.933476
6558.000000;0.931494
6557.000000;0.929279
6556.000000;0.926915
6555.000000;0.924635
6554.000000;0.922575
6553.000000;0.920608
6552.000000;0.918454
6551.000000;0.915956
6550.000000;0.913237
6549.000000;0.910603
6548.000000;0.908307
6547.000000;0.906408
6546.000000;0.904811
6545.000000;0.903366
6544.000000;0.901905
6543.000000;0.900253
6542.000000;0.898310
6541.000000;0.896153
6540.000000;0.893977
6539.000000;0.891903
6538.000000;0.889894
6537.000000;0.887876
6536.000000;0.885862
6535.000000;0.883905
6534.000000;0.882024
6533.000000;0.880226
6532.000000;0.878543
6531.000000;0.876962
6530.000000;0.875370
6529.000000;0.873656
6528.000000;0.871826
6527.000000;0.869945
6526.000000;0.868025
6525.000000;0.866048
6524.000000;0.864081
6523.000000;0.862242
6522.000000;0.860559
6521.000000;0.858937
6520.000000;0.857262
6519.000000;0.855488
6518.000000;0.853604
6517.000000;0.851624
6516.000000;0.849586
6515.000000;0.847524
6514.000000;0.845439
6513.000000;0.843352
6512.000000;0.841378
6511.000000;0.839662
6510.000000;0.838211
6509.000000;0.836838
6508.000000;0.835294
6507.000000;0.833433
6506.000000;0.831283
6505.000000;0.829025
6504.000000;0.826892
6503.000000;0.825014
6502.000000;0.823348
6501.000000;0.821766
6500.000000;0.820191
6499.000000;0.818606
6498.000000;0.816984
6497.000000;0.815295
6496.000000;0.813556
6495.000000;0.811799
6494.000000;0.809994
6493.000000;0.808104
6492.000000;0.806209
6491.000000;0.804468
6490.000000;0.802909
6489.000000;0.801369
6488.000000;0.799693
6487.000000;0.797930
6486.000000;0.796265
6485.000000;0.794808
6484.000000;0.793501
6483.000000;0.792204
6482.000000;0.790800
6481.000000;0.789228
6480.000000;0.787476
6479.000000;0.785582
6478.000000;0.783623
6477.000000;0.781704
6476.000000;0.779915
6475.000000;0.778289
6474.000000;0.776782
6473.000000;0.775320
6472.000000;0.773861
6471.000000;0.772400
6470.000000;0.770900
6469.000000;0.769277
6468.000000;0.767475
6467.000000;0.765583
6466.000000;0.763827
6465.000000;0.762412
6464.000000;0.761313
6463.000000;0.760237
6462.000000;0.758838
6461.000000;0.757015
6460.000000;0.754978
6459.000000;0.753003
6458.000000;0.751203
6457.000000;0.749544
6456.000000;0.747991
6455.000000;0.746539
6454.000000;0.745133
6453.000000;0.743683
6452.000000;0.742170
6451.000000;0.740684
6450.000000;0.739318
6449.000000;0.738080
6448.000000;0.736898
6447.000000;0.735672
6446.000000;0.734305
6445.000000;0.732770
6444.000000;0.731158
6443.000000;0.729618
6442.000000;0.728210
6441.000000;0.726859
6440.000000;0.725470
6439.000000;0.724022
6438.000000;0.722541
6437.000000;0.721031
6436.000000;0.719496
6435.000000;0.717973
6434.000000;0.716495
6433.000000;0.715056
6432.000000;0.713639
6431.000000;0.712279
6430.000000;0.711022
6429.000000;0.709844
6428.000000;0.708640
6427.000000;0.707310
6426.000000;0.705830
6425.000000;0.704252
6424.000000;0.702660
6423.000000;0.701121
6422.000000;0.699635
6421.000000;0.698131
6420.000000;0.696552
6419.000000;0.694941
6418.000000;0.693417
6417.000000;0.692038
6416.000000;0.690748
6415.000000;0.689462
6414.000000;0.688188
6413.000000;0.686991
6412.000000;0.685858
6411.000000;0.684666
6410.000000;0.683338
6409.000000;0.681956
6408.000000;0.680677
6407.000000;0.679546
6406.000000;0.678459
6405.000000;0.677291
6404.000000;0.676006
6403.000000;0.674631
6402.000000;0.673205
6401.000000;0.671779
6400.000000;0.670408
6399.000000;0.669111
6398.000000;0.667835
6397.000000;0.666530
6396.000000;0.665208
6395.000000;0.663906
6394.000000;0.662609
6393.000000;0.661269
6392.000000;0.659906
6391.000000;0.658618
6390.000000;0.657466
6389.000000;0.656364
6388.000000;0.655150
6387.000000;0.653760
6386.000000;0.652313
6385.000000;0.650980
6384.000000;0.649781
6383.000000;0.648560
6382.000000;0.647184
6381.000000;0.645724
6380.000000;0.644381
6379.000000;0.643261
6378.000000;0.642294
6377.000000;0.641360
6376.000000;0.640407
6375.000000;0.639418
6374.000000;0.638356
6373.000000;0.637213
6372.000000;0.636060
6371.000000;0.634970
6370.000000;0.633916
6369.000000;0.632804
6368.000000;0.631601
6367.000000;0.630366
6366.000000;0.629184
6365.000000;0.628098
6364.000000;0.627102
6363.000000;0.626126
6362.000000;0.625039
6361.000000;0.623732
6360.000000;0.622245
6359.000000;0.620768
6358.000000;0.619482
6357.000000;0.618405
6356.000000;0.617408
6355.000000;0.616349
6354.000000;0.615188
6353.000000;0.613984
6352.000000;0.612814
6351.000000;0.611717
6350.000000;0.610694
6349.000000;0.609743
6348.000000;0.608838
6347.000000;0.607896
6346.000000;0.606837
6345.000000;0.605693
6344.000000;0.604600
6343.000000;0.603643
6342.000000;0.602739
6341.000000;0.601767
6340.000000;0.600751
6339.000000;0.599828
6338.000000;0.599042
6337.000000;0.598255
6336.000000;0.597305
6335.000000;0.596169
6334.000000;0.594938
6333.000000;0.593705
6332.000000;0.592534
6331.000000;0.591494
6330.000000;0.590625
6329.000000;0.589858
6328.000000;0.589039
6327.000000;0.588050
6326.000000;0.586901
6325.000000;0.585700
6324.000000;0.584563
6323.000000;0.583548
6322.000000;0.582638
6321.000000;0.581766
6320.000000;0.580852
6319.000000;0.579857
6318.000000;0.578788
6317.000000;0.577682
6316.000000;0.576579
6315.000000;0.575508
6314.000000;0.574492
6313.000000;0.573545
6312.000000;0.572662
6311.000000;0.571800
6310.000000;0.570892
6309.000000;0.569890
6308.000000;0.568819
6307.000000;0.567772
6306.000000;0.566830
6305.000000;0.565981
6304.000000;0.565154
6303.000000;0.564311
6302.000000;0.563481
6301.000000;0.562700
6300.000000;0.561935
6299.000000;0.561105
6298.000000;0.560166
6297.000000;0.559135
6296.000000;0.558069
6295.000000;0.557040
6294.000000;0.556122
6293.000000;0.555346
6292.000000;0.554660
6291.000000;0.553969
6290.000000;0.553228
6289.000000;0.552465
6288.000000;0.551705
6287.000000;0.550921
6286.000000;0.550060
6285.000000;0.549108
6284.000000;0.548097
6283.000000;0.547086
6282.000000;0.546135
6281.000000;0.545256
6280.000000;0.544381
6279.000000;0.543426
6278.000000;0.542396
6277.000000;0.541387
6276.000000;0.540451
6275.000000;0.539538
6274.000000;0.538605
6273.000000;0.537721
6272.000000;0.536966
6271.000000;0.536289
6270.000000;0.535557
6269.000000;0.534737
6268.000000;0.533916
6267.000000;0.533169
6266.000000;0.532471
6265.000000;0.531775
6264.000000;0.531053
6263.000000;0.530262
6262.000000;0.529337
6261.000000;0.528282
6260.000000;0.527211
6259.000000;0.526241
6258.000000;0.525395
6257.000000;0.524623
6256.000000;0.523885
6255.000000;0.523169
6254.000000;0.522481
6253.000000;0.521837
6252.000000;0.521237
6251.000000;0.520625
6250.000000;0.519918
6249.000000;0.519098
6248.000000;0.518244
6247.000000;0.517413
6246.000000;0.516563
6245.000000;0.515634
6244.000000;0.514660
6243.000000;0.513754
6242.000000;0.512988
6241.000000;0.512346
6240.000000;0.511771
6239.000000;0.511232
6238.000000;0.510723
6237.000000;0.510223
6236.000000;0.509682
6235.000000;0.509031
6234.000000;0.508238
6233.000000;0.507339
6232.000000;0.506417
6231.000000;0.505526
6230.000000;0.504682
6229.000000;0.503891
6228.000000;0.503155
6227.000000;0.502428
6226.000000;0.501635
6225.000000;0.500761
6224.000000;0.499899
6223.000000;0.499157
6222.000000;0.498563
6221.000000;0.498063
6220.000000;0.497587
6219.000000;0.497077
6218.000000;0.496490
6217.000000;0.495821
6216.000000;0.495116
6215.000000;0.494421
6214.000000;0.493736
6213.000000;0.493035
6212.000000;0.492338
6211.000000;0.491708
6210.000000;0.491180
6209.000000;0.490707
6208.000000;0.490166
6207.000000;0.489448
6206.000000;0.488556
6205.000000;0.487634
6204.000000;0.486862
6203.000000;0.486318
6202.000000;0.485935
6201.000000;0.485594
6200.000000;0.485190
6199.000000;0.484647
6198.000000;0.483949
6197.000000;0.483182
6196.000000;0.482483
6195.000000;0.481886
6194.000000;0.481280
6193.000000;0.480563
6192.000000;0.479774
6191.000000;0.479020
6190.000000;0.478317
6189.000000;0.477598
6188.000000;0.476827
6187.000000;0.476032
6186.000000;0.475242
6185.000000;0.474469
6184.000000;0.473762
6183.000000;0.473190
6182.000000;0.472745
6181.000000;0.472307
6180.000000;0.471753
6179.000000;0.471059
6178.000000;0.470301
6177.000000;0.469570
6176.000000;0.468902
6175.000000;0.468270
6174.000000;0.467629
6173.000000;0.466973
6172.000000;0.466351
6171.000000;0.465787
6170.000000;0.465230
6169.000000;0.464597
6168.000000;0.463890
6167.000000;0.463201
6166.000000;0.462609
6165.000000;0.462084
6164.000000;0.461526
6163.000000;0.460882
6162.000000;0.460200
6161.000000;0.459587
6160.000000;0.459108
6159.000000;0.458727
6158.000000;0.458343
6157.000000;0.457876
6156.000000;0.457330
6155.000000;0.456768
6154.000000;0.456245
6153.000000;0.455758
6152.000000;0.455242
6151.000000;0.454620
6150.000000;0.453866
6149.000000;0.453021
6148.000000;0.452141
6147.000000;0.451248
6146.000000;0.450359
6145.000000;0.449544
6144.000000;0.448892
6143.000000;0.448411
6142.000000;0.447999
6141.000000;0.447545
6140.000000;0.447020
6139.000000;0.446455
6138.000000;0.445876
6137.000000;0.445307
6136.000000;0.444802
6135.000000;0.444414
6134.000000;0.444143
6133.000000;0.443923
6132.000000;0.443665
6131.000000;0.443284
6130.000000;0.442737
6129.000000;0.442061
6128.000000;0.441351
6127.000000;0.440687
6126.000000;0.440088
6125.000000;0.439543
6124.000000;0.439052
6123.000000;0.438591
6122.000000;0.438102
6121.000000;0.437560
6120.000000;0.437034
6119.000000;0.436603
6118.000000;0.436239
6117.000000;0.435827
6116.000000;0.435298
6115.000000;0.434687
6114.000000;0.434064
6113.000000;0.433449
6112.000000;0.432837
6111.000000;0.432234
6110.000000;0.431661
6109.000000;0.431124
6108.000000;0.430602
6107.000000;0.430043
6106.000000;0.429400
6105.000000;0.428671
6104.000000;0.427933
6103.000000;0.427284
6102.000000;0.426750
6101.000000;0.426268
6100.000000;0.425766
6099.000000;0.425236
6098.000000;0.424724
6097.000000;0.424269
6096.000000;0.423895
6095.000000;0.423608
6094.000000;0.423389
6093.000000;0.423161
6092.000000;0.422820
6091.000000;0.422319
6090.000000;0.421721
6089.000000;0.421144
6088.000000;0.420658
6087.000000;0.420239
6086.000000;0.419822
6085.000000;0.419369
6084.000000;0.418872
6083.000000;0.418320
6082.000000;0.417713
6081.000000;0.417094
6080.000000;0.416534
6079.000000;0.416066
6078.000000;0.415659
6077.000000;0.415251
6076.000000;0.414807
6075.000000;0.414332
6074.000000;0.413860
6073.000000;0.413421
6072.000000;0.413008
6071.000000;0.412574
6070.000000;0.412076
6069.000000;0.411533
6068.000000;0.411005
6067.000000;0.410532
6066.000000;0.410102
6065.000000;0.409677
6064.000000;0.409226
6063.000000;0.408724
6062.000000;0.408173
6061.000000;0.407628
6060.000000;0.407153
6059.000000;0.406741
6058.000000;0.406327
6057.000000;0.405884
6056.000000;0.405460
6055.000000;0.405110
6054.000000;0.404829
6053.000000;0.404580
6052.000000;0.404333
6051.000000;0.404056
6050.000000;0.403703
6049.000000;0.403255
6048.000000;0.402750
6047.000000;0.402235
6046.000000;0.401723
6045.000000;0.401221
6044.000000;0.400767
6043.000000;0.400369
6042.000000;0.399964
6041.000000;0.399465
6040.000000;0.398871
6039.000000;0.398278
6038.000000;0.397787
6037.000000;0.397430
6036.000000;0.397152
6035.000000;0.396844
6034.000000;0.396416
6033.000000;0.395881
6032.000000;0.395351
6031.000000;0.394936
6030.000000;0.394639
6029.000000;0.394383
6028.000000;0.394093
6027.000000;0.393748
6026.000000;0.393360
6025.000000;0.392949
6024.000000;0.392520
6023.000000;0.392058
6022.000000;0.391550
6021.000000;0.391030
6020.000000;0.390581
6019.000000;0.390255
6018.000000;0.390024
6017.000000;0.389826
6016.000000;0.389626
6015.000000;0.389420
6014.000000;0.389187
6013.000000;0.388897
6012.000000;0.388538
6011.000000;0.388118
6010.000000;0.387666
6009.000000;0.387243
6008.000000;0.386933
6007.000000;0.386761
6006.000000;0.386643
6005.000000;0.386456
6004.000000;0.386146
6003.000000;0.385748
6002.000000;0.385326
6001.000000;0.384927
6000.000000;0.384573
5999.000000;0.384245
5998.000000;0.383888
5997.000000;0.383472
5996.000000;0.383053
5995.000000;0.382715
5994.000000;0.382473
5993.000000;0.382260
5992.000000;0.382007
5991.000000;0.381698
5990.000000;0.381363
5989.000000;0.381040
5988.000000;0.380751
5987.000000;0.380476
5986.000000;0.380150
5985.000000;0.379732
5984.000000;0.379262
5983.000000;0.378838
5982.000000;0.378515
5981.000000;0.378273
5980.000000;0.378068
5979.000000;0.377873
5978.000000;0.377681
5977.000000;0.377469
5976.000000;0.377207
5975.000000;0.376874
5974.000000;0.376478
5973.000000;0.376072
5972.000000;0.375731
5971.000000;0.375497
5970.000000;0.375342
5969.000000;0.375206
5968.000000;0.375058
5967.000000;0.374897
5966.000000;0.374733
5965.000000;0.374570
5964.000000;0.374415
5963.000000;0.374256
5962.000000;0.374062
5961.000000;0.373809
5960.000000;0.373519
5959.000000;0.373226
5958.000000;0.372928
5957.000000;0.372594
5956.000000;0.372211
5955.000000;0.371808
5954.000000;0.371436
5953.000000;0.371133
5952.000000;0.370903
5951.000000;0.370715
5950.000000;0.370524
5949.000000;0.370316
5948.000000;0.370098
5947.000000;0.369867
5946.000000;0.369607
5945.000000;0.369334
5944.000000;0.369096
5943.000000;0.368896
5942.000000;0.368664
5941.000000;0.368357
5940.000000;0.368038
5939.000000;0.367805
5938.000000;0.367667
5937.000000;0.367548
5936.000000;0.367407
5935.000000;0.367269
5934.000000;0.367157
5933.000000;0.367054
5932.000000;0.366956
5931.000000;0.366896
5930.000000;0.366873
5929.000000;0.366822
5928.000000;0.366674
5927.000000;0.366434
5926.000000;0.366168
5925.000000;0.365923
5924.000000;0.365703
5923.000000;0.365488
5922.000000;0.365259
5921.000000;0.365015
5920.000000;0.364769
5919.000000;0.364541
5918.000000;0.364342
5917.000000;0.364159
5916.000000;0.363965
5915.000000;0.363725
5914.000000;0.363426
5913.000000;0.363104
5912.000000;0.362839
5911.000000;0.362693
5910.000000;0.362656
5909.000000;0.362677
5908.000000;0.362727
5907.000000;0.362808
5906.000000;0.362908
5905.000000;0.362974
5904.000000;0.362928
5903.000000;0.362719
5902.000000;0.362357
5901.000000;0.361930
5900.000000;0.361565
5899.000000;0.361347
5898.000000;0.361262
5897.000000;0.361226
5896.000000;0.361163
5895.000000;0.361034
5894.000000;0.360841
5893.000000;0.360622
5892.000000;0.360432
5891.000000;0.360296
5890.000000;0.360183
5889.000000;0.360041
5888.000000;0.359861
5887.000000;0.359676
5886.000000;0.359511
5885.000000;0.359355
5884.000000;0.359181
5883.000000;0.358972
5882.000000;0.358732
5881.000000;0.358499
5880.000000;0.358341
5879.000000;0.358298
5878.000000;0.358326
5877.000000;0.358338
5876.000000;0.358280
5875.000000;0.358175
5874.000000;0.358072
5873.000000;0.357997
5872.000000;0.357941
5871.000000;0.357873
5870.000000;0.357755
5869.000000;0.357596
5868.000000;0.357460
5867.000000;0.357412
5866.000000;0.357438
5865.000000;0.357450
5864.000000;0.357395
5863.000000;0.357316
5862.000000;0.357299
5861.000000;0.357378
5860.000000;0.357497
5859.000000;0.357561
5858.000000;0.357518
5857.000000;0.357406
5856.000000;0.357328
5855.000000;0.357355
5854.000000;0.357456
5853.000000;0.357524
5852.000000;0.357467
5851.000000;0.357273
5850.000000;0.356986
5849.000000;0.356667
5848.000000;0.356378
5847.000000;0.356175
5846.000000;0.356075
5845.000000;0.356051
5844.000000;0.356061
5843.000000;0.356080
5842.000000;0.356099
5841.000000;0.356103
5840.000000;0.356075
5839.000000;0.356039
5838.000000;0.356070
5837.000000;0.356236
5836.000000;0.356513
5835.000000;0.356792
5834.000000;0.356979
5833.000000;0.357070
5832.000000;0.357112
5831.000000;0.357119
5830.000000;0.357073
5829.000000;0.356999
5828.000000;0.356978
5827.000000;0.357063
5826.000000;0.357222
5825.000000;0.357386
5824.000000;0.357513
5823.000000;0.357585
5822.000000;0.357588
5821.000000;0.357525
5820.000000;0.357440
5819.000000;0.357394
5818.000000;0.357416
5817.000000;0.357495
5816.000000;0.357603
5815.000000;0.357707
5814.000000;0.357788
5813.000000;0.357862
5812.000000;0.357964
5811.000000;0.358105
5810.000000;0.358264
5809.000000;0.358425
5808.000000;0.358583
5807.000000;0.358704
5806.000000;0.358738
5805.000000;0.358699
5804.000000;0.358673
5803.000000;0.358720
5802.000000;0.358809
5801.000000;0.358896
5800.000000;0.359022
5799.000000;0.359254
5798.000000;0.359563
5797.000000;0.359841
5796.000000;0.360031
5795.000000;0.360163
5794.000000;0.360291
5793.000000;0.360430
5792.000000;0.360591
5791.000000;0.360793
5790.000000;0.361032
5789.000000;0.361267
5788.000000;0.361464
5787.000000;0.361632
5786.000000;0.361819
5785.000000;0.362073
5784.000000;0.362424
5783.000000;0.362842
5782.000000;0.363233
5781.000000;0.363503
5780.000000;0.363635
5779.000000;0.363684
5778.000000;0.363712
5777.000000;0.363755
5776.000000;0.363841
5775.000000;0.363993
5774.000000;0.364197
5773.000000;0.364422
5772.000000;0.364669
5771.000000;0.364966
5770.000000;0.365307
5769.000000;0.365628
5768.000000;0.365864
5767.000000;0.366017
5766.000000;0.366147
5765.000000;0.366321
5764.000000;0.366570
5763.000000;0.366889
5762.000000;0.367258
5761.000000;0.367663
5760.000000;0.368101
5759.000000;0.368543
5758.000000;0.368949
5757.000000;0.369306
5756.000000;0.369659
5755.000000;0.370056
5754.000000;0.370482
5753.000000;0.370878
5752.000000;0.371216
5751.000000;0.371519
5750.000000;0.371824
5749.000000;0.372149
5748.000000;0.372494
5747.000000;0.372860
5746.000000;0.373247
5745.000000;0.373650
5744.000000;0.374054
5743.000000;0.374436
5742.000000;0.374780
5741.000000;0.375100
5740.000000;0.375430
5739.000000;0.375759
5738.000000;0.376025
5737.000000;0.376193
5736.000000;0.376316
5735.000000;0.376499
5734.000000;0.376796
5733.000000;0.377192
5732.000000;0.377651
5731.000000;0.378153
5730.000000;0.378685
5729.000000;0.379230
5728.000000;0.379780
5727.000000;0.380336
5726.000000;0.380889
5725.000000;0.381425
5724.000000;0.381939
5723.000000;0.382435
5722.000000;0.382923
5721.000000;0.383420
5720.000000;0.383937
5719.000000;0.384452
5718.000000;0.384929
5717.000000;0.385370
5716.000000;0.385815
5715.000000;0.386274
5714.000000;0.386727
5713.000000;0.387184
5712.000000;0.387710
5711.000000;0.388329
5710.000000;0.388976
5709.000000;0.389587
5708.000000;0.390182
5707.000000;0.390810
5706.000000;0.391440
5705.000000;0.392002
5704.000000;0.392496
5703.000000;0.392982
5702.000000;0.393495
5701.000000;0.393998
5700.000000;0.394508
5699.000000;0.395067
5698.000000;0.395660
5697.000000;0.396220
5696.000000;0.396729
5695.000000;0.397242
5694.000000;0.397791
5693.000000;0.398321
5692.000000;0.398778
5691.000000;0.399204
5690.000000;0.399713
5689.000000;0.400383
5688.000000;0.401185
5687.000000;0.401999
5686.000000;0.402707
5685.000000;0.403280
5684.000000;0.403797
5683.000000;0.404337
5682.000000;0.404890
5681.000000;0.405388
5680.000000;0.405832
5679.000000;0.406303
5678.000000;0.406864
5677.000000;0.407488
5676.000000;0.408104
5675.000000;0.408676
5674.000000;0.409200
5673.000000;0.409682
5672.000000;0.410137
5671.000000;0.410589
5670.000000;0.411057
5669.000000;0.411540
5668.000000;0.412029
5667.000000;0.412510
5666.000000;0.412977
5665.000000;0.413447
5664.000000;0.413970
5663.000000;0.414578
5662.000000;0.415242
5661.000000;0.415911
5660.000000;0.416569
5659.000000;0.417229
5658.000000;0.417877
5657.000000;0.418460
5656.000000;0.418947
5655.000000;0.419348
5654.000000;0.419696
5653.000000;0.420026
5652.000000;0.420371
5651.000000;0.420741
5650.000000;0.421124
5649.000000;0.421525
5648.000000;0.421987
5647.000000;0.422504
5646.000000;0.422974
5645.000000;0.423298
5644.000000;0.423523
5643.000000;0.423786
5642.000000;0.424144
5641.000000;0.424536
5640.000000;0.424903
5639.000000;0.425268
5638.000000;0.425662
5637.000000;0.426063
5636.000000;0.426447
5635.000000;0.426821
5634.000000;0.427179
5633.000000;0.427488
5632.000000;0.427748
5631.000000;0.428010
5630.000000;0.428303
5629.000000;0.428586
5628.000000;0.428819
5627.000000;0.429037
5626.000000;0.429297
5625.000000;0.429604
5624.000000;0.429912
5623.000000;0.430200
5622.000000;0.430481
5621.000000;0.430767
5620.000000;0.431044
5619.000000;0.431304
5618.000000;0.431555
5617.000000;0.431795
5616.000000;0.431988
5615.000000;0.432079
5614.000000;0.432049
5613.000000;0.431947
5612.000000;0.431870
5611.000000;0.431885
5610.000000;0.431986
5609.000000;0.432114
5608.000000;0.432225
5607.000000;0.432311
5606.000000;0.432376
5605.000000;0.432426
5604.000000;0.432479
5603.000000;0.432547
5602.000000;0.432604
5601.000000;0.432616
5600.000000;0.432585
5599.000000;0.432542
5598.000000;0.432504
5597.000000;0.432481
5596.000000;0.432506
5595.000000;0.432608
5594.000000;0.432746
5593.000000;0.432825
5592.000000;0.432781
5591.000000;0.432637
5590.000000;0.432466
5589.000000;0.432329
5588.000000;0.432246
5587.000000;0.432180
5586.000000;0.432061
5585.000000;0.431872
5584.000000;0.431685
5583.000000;0.431576
5582.000000;0.431518
5581.000000;0.431422
5580.000000;0.431264
5579.000000;0.431101
5578.000000;0.430959
5577.000000;0.430789
5576.000000;0.430557
5575.000000;0.430307
5574.000000;0.430102
5573.000000;0.429973
5572.000000;0.429917
5571.000000;0.429906
5570.000000;0.429879
5569.000000;0.429777
5568.000000;0.429606
5567.000000;0.429419
5566.000000;0.429230
5565.000000;0.428988
5564.000000;0.428655
5563.000000;0.428250
5562.000000;0.427813
5561.000000;0.427366
5560.000000;0.426935
5559.000000;0.426555
5558.000000;0.426213
5557.000000;0.425878
5556.000000;0.425561
5555.000000;0.425305
5554.000000;0.425102
5553.000000;0.424893
5552.000000;0.424663
5551.000000;0.424447
5550.000000;0.424265
5549.000000;0.424092
5548.000000;0.423903
5547.000000;0.423686
5546.000000;0.423413
5545.000000;0.423076
5544.000000;0.422748
5543.000000;0.422530
5542.000000;0.422427
5541.000000;0.422364
5540.000000;0.422278
5539.000000;0.422134
5538.000000;0.421874
5537.000000;0.421469
5536.000000;0.420986
5535.000000;0.420520
5534.000000;0.420091
5533.000000;0.419681
5532.000000;0.419325
5531.000000;0.419075
5530.000000;0.418899
5529.000000;0.418719
5528.000000;0.418516
5527.000000;0.418328
5526.000000;0.418160
5525.000000;0.417974
5524.000000;0.417777
5523.000000;0.417618
5522.000000;0.417486
5521.000000;0.417342
5520.000000;0.417186
5519.000000;0.417027
5518.000000;0.416819
5517.000000;0.416491
5516.000000;0.416077
5515.000000;0.415690
5514.000000;0.415372
5513.000000;0.415114
5512.000000;0.414965
5511.000000;0.414975
5510.000000;0.415042
5509.000000;0.414990
5508.000000;0.414769
5507.000000;0.414476
5506.000000;0.414184
5505.000000;0.413862
5504.000000;0.413531
5503.000000;0.413284
5502.000000;0.413137
5501.000000;0.413041
5500.000000;0.412961
5499.000000;0.412883
5498.000000;0.412855
5497.000000;0.412936
5496.000000;0.413088
5495.000000;0.413152
5494.000000;0.412999
5493.000000;0.412724
5492.000000;0.412514
5491.000000;0.412413
5490.000000;0.412277
5489.000000;0.411986
5488.000000;0.411577
5487.000000;0.411146
5486.000000;0.410751
5485.000000;0.410435
5484.000000;0.410309
5483.000000;0.410443
5482.000000;0.410649
5481.000000;0.410753
5480.000000;0.410935
5479.000000;0.411363
5478.000000;0.411830
5477.000000;0.412013
5476.000000;0.412018
5475.000000;0.412174
5474.000000;0.412404
5473.000000;0.412404
5472.000000;0.412187
5471.000000;0.412003
5470.000000;0.411930
5469.000000;0.411944
5468.000000;0.412110
5467.000000;0.412412
5466.000000;0.412671
5465.000000;0.412789
5464.000000;0.412935
5463.000000;0.413250
5462.000000;0.413516
5461.000000;0.413538
5460.000000;0.413526
5459.000000;0.413645
5458.000000;0.413679
5457.000000;0.413517
5456.000000;0.413477
5455.000000;0.413841
5454.000000;0.414490
5453.000000;0.415158
5452.000000;0.415736
5451.000000;0.416225
5450.000000;0.416665
5449.000000;0.417273
5448.000000;0.418174
5447.000000;0.419051
5446.000000;0.419629
5445.000000;0.420093
5444.000000;0.420685
5443.000000;0.421259
5442.000000;0.421558
5441.000000;0.421715
5440.000000;0.422138
5439.000000;0.422910
5438.000000;0.423729
5437.000000;0.424444
5436.000000;0.425225
5435.000000;0.426139
5434.000000;0.427035
5433.000000;0.427898
5432.000000;0.428783
5431.000000;0.429506
5430.000000;0.429999
5429.000000;0.430559
5428.000000;0.431309
5427.000000;0.431992
5426.000000;0.432519
5425.000000;0.433140
5424.000000;0.434072
5423.000000;0.435256
5422.000000;0.436565
5421.000000;0.437964
5420.000000;0.439482
5419.000000;0.441204
5418.000000;0.443148
5417.000000;0.445191
5416.000000;0.447160
5415.000000;0.449004
5414.000000;0.450834
5413.000000;0.452592
5412.000000;0.454046
5411.000000;0.455125
5410.000000;0.456062
5409.000000;0.457234
5408.000000;0.458846
5407.000000;0.460777
5406.000000;0.462726
5405.000000;0.464578
5404.000000;0.466489
5403.000000;0.468508
5402.000000;0.470663
5401.000000;0.473047
5400.000000;0.475585
5399.000000;0.478256
5398.000000;0.481129
5397.000000;0.484118
5396.000000;0.487036
5395.000000;0.489853
5394.000000;0.492777
5393.000000;0.495808
5392.000000;0.498668
5391.000000;0.501343
5390.000000;0.504108
5389.000000;0.507097
5388.000000;0.510211
5387.000000;0.513421
5386.000000;0.516891
5385.000000;0.520784
5384.000000;0.524955
5383.000000;0.529084
5382.000000;0.533240
5381.000000;0.537720
5380.000000;0.542449
5379.000000;0.547124
5378.000000;0.551755
5377.000000;0.556595
5376.000000;0.561606
5375.000000;0.566546
5374.000000;0.571509
5373.000000;0.576720
5372.000000;0.582120
5371.000000;0.587595
5370.000000;0.593220
5369.000000;0.599101
5368.000000;0.605192
5367.000000;0.611455
5366.000000;0.617974
5365.000000;0.624843
5364.000000;0.631915
5363.000000;0.638967
5362.000000;0.646152
5361.000000;0.653741
5360.000000;0.661686
5359.000000;0.669859
5358.000000;0.678332
5357.000000;0.687103
5356.000000;0.695860
5355.000000;0.704523
5354.000000;0.713615
5353.000000;0.723586
5352.000000;0.734010
5351.000000;0.744124
5350.000000;0.753958
5349.000000;0.764199
5348.000000;0.775116
5347.000000;0.786360
5346.000000;0.797740
5345.000000;0.809462
5344.000000;0.821562
5343.000000;0.833793
5342.000000;0.846212
5341.000000;0.858940
5340.000000;0.871822
5339.000000;0.884919
5338.000000;0.898505
5337.000000;0.912517
5336.000000;0.926531
5335.000000;0.940345
5334.000000;0.954247
5333.000000;0.968764
5332.000000;0.984108
5331.000000;1.000052
5330.000000;1.016493
5329.000000;1.033467
5328.000000;1.050703
5327.000000;1.067870
5326.000000;1.085088
5325.000000;1.102645
5324.000000;1.120494
5323.000000;1.138413
5322.000000;1.156535
5321.000000;1.175155
5320.000000;1.194115
5319.000000;1.212975
5318.000000;1.231793
5317.000000;1.251110
5316.000000;1.271090
5315.000000;1.291234
5314.000000;1.310855
5313.000000;1.329595
5312.000000;1.347544
5311.000000;1.365184
5310.000000;1.383310
5309.000000;1.402454
5308.000000;1.422276
5307.000000;1.441798
5306.000000;1.460289
5305.000000;1.477551
5304.000000;1.493464
5303.000000;1.508083
5302.000000;1.522140
5301.000000;1.536503
5300.000000;1.551204
5299.000000;1.565722
5298.000000;1.579846
5297.000000;1.593282
5296.000000;1.605260
5295.000000;1.615736
5294.000000;1.626053
5293.000000;1.637225
5292.000000;1.648120
5291.000000;1.656669
5290.000000;1.662643
5289.000000;1.667747
5288.000000;1.673183
5287.000000;1.678604
5286.000000;1.683386
5285.000000;1.687477
5284.000000;1.690949
5283.000000;1.694061
5282.000000;1.697603
5281.000000;1.701817
5280.000000;1.705317
5279.000000;1.706564
5278.000000;1.706266
5277.000000;1.706657
5276.000000;1.708656
5275.000000;1.711178
5274.000000;1.712976
5273.000000;1.713939
5272.000000;1.714584
5271.000000;1.715295
5270.000000;1.716474
5269.000000;1.718458
5268.000000;1.720830
5267.000000;1.722672
5266.000000;1.723437
5265.000000;1.723040
5264.000000;1.721495
5263.000000;1.719315
5262.000000;1.717671
5261.000000;1.717112
5260.000000;1.716797
5259.000000;1.715866
5258.000000;1.714931
5257.000000;1.715336
5256.000000;1.717533
5255.000000;1.720816
5254.000000;1.724258
5253.000000;1.727070
5252.000000;1.728346
5251.000000;1.727310
5250.000000;1.724326
5249.000000;1.721177
5248.000000;1.719557
5247.000000;1.719769
5246.000000;1.720932
5245.000000;1.721806
5244.000000;1.721517
5243.000000;1.720291
5242.000000;1.719296
5241.000000;1.719182
5240.000000;1.719284
5239.000000;1.718777
5238.000000;1.718045
5237.000000;1.718265
5236.000000;1.719911
5235.000000;1.722216
5234.000000;1.724158
5233.000000;1.725349
5232.000000;1.725753
5231.000000;1.725383
5230.000000;1.724612
5229.000000;1.724148
5228.000000;1.724422
5227.000000;1.725549
5226.000000;1.727676
5225.000000;1.730524
5224.000000;1.732904
5223.000000;1.733671
5222.000000;1.732845
5221.000000;1.731086
5220.000000;1.728696
5219.000000;1.725933
5218.000000;1.723739
5217.000000;1.723212
5216.000000;1.724367
5215.000000;1.726170
5214.000000;1.727864
5213.000000;1.729280
5212.000000;1.730067
5211.000000;1.729836
5210.000000;1.729037
5209.000000;1.728718
5208.000000;1.729197
5207.000000;1.729575
5206.000000;1.728874
5205.000000;1.727417
5204.000000;1.726653
5203.000000;1.727574
5202.000000;1.729745
5201.000000;1.731901
5200.000000;1.733254
5199.000000;1.733977
5198.000000;1.734339
5197.000000;1.733932
5196.000000;1.732331
5195.000000;1.730268
5194.000000;1.729203
5193.000000;1.729490
5192.000000;1.729943
5191.000000;1.729512
5190.000000;1.728538
5189.000000;1.727998
5188.000000;1.728319
5187.000000;1.729266
5186.000000;1.730344
5185.000000;1.730963
5184.000000;1.730812
5183.000000;1.730408
5182.000000;1.730542
5181.000000;1.731042
5180.000000;1.731111
5179.000000;1.730938
5178.000000;1.731664
5177.000000;1.733378
5176.000000;1.734601
5175.000000;1.734514
5174.000000;1.734256
5173.000000;1.734893
5172.000000;1.735405
5171.000000;1.734171
5170.000000;1.731759
5169.000000;1.730571
5168.000000;1.731960
5167.000000;1.734911
5166.000000;1.737387
5165.000000;1.738033
5164.000000;1.736679
5163.000000;1.734127
5162.000000;1.731603
5161.000000;1.729874
5160.000000;1.728859
5159.000000;1.728231
5158.000000;1.728013
5157.000000;1.728389
5156.000000;1.729398
5155.000000;1.731063
5154.000000;1.733276
5153.000000;1.735315
5152.000000;1.736199
5151.000000;1.735859
5150.000000;1.735192
5149.000000;1.734713
5148.000000;1.734045
5147.000000;1.733083
5146.000000;1.732704
5145.000000;1.733667
5144.000000;1.735632
5143.000000;1.737884
5142.000000;1.740268
5141.000000;1.742569
5140.000000;1.743787
5139.000000;1.743098
5138.000000;1.741071
5137.000000;1.738968
5136.000000;1.737317
5135.000000;1.735988
5134.000000;1.735133
5133.000000;1.735160
5132.000000;1.736085
5131.000000;1.737634
5130.000000;1.739601
5129.000000;1.741450
5128.000000;1.742102
5127.000000;1.740995
5126.000000;1.738954
5125.000000;1.737247
5124.000000;1.736211
5123.000000;1.735511
5122.000000;1.735336
5121.000000;1.736361
5120.000000;1.738574
5119.000000;1.740958
5118.000000;1.742456
5117.000000;1.742796
5116.000000;1.742427
5115.000000;1.742021
5114.000000;1.741924
5113.000000;1.741890
5112.000000;1.741571
5111.000000;1.741296
5110.000000;1.741730
5109.000000;1.742588
5108.000000;1.742554
5107.000000;1.741028
5106.000000;1.739173
5105.000000;1.738455
5104.000000;1.738769
5103.000000;1.738889
5102.000000;1.738368
5101.000000;1.738051
5100.000000;1.738783
5099.000000;1.740383
5098.000000;1.741809
5097.000000;1.741917
5096.000000;1.740425
5095.000000;1.738561
5094.000000;1.738331
5093.000000;1.740587
5092.000000;1.744037
5091.000000;1.746521
5090.000000;1.747026
5089.000000;1.746019
5088.000000;1.744297
5087.000000;1.742318
5086.000000;1.740410
5085.000000;1.738924
5084.000000;1.738060
5083.000000;1.737836
5082.000000;1.738164
5081.000000;1.738846
5080.000000;1.739718
5079.000000;1.740885
5078.000000;1.742423
5077.000000;1.743735
5076.000000;1.743822
5075.000000;1.742646
5074.000000;1.741600
5073.000000;1.741992
5072.000000;1.743573
5071.000000;1.745026
5070.000000;1.745468
5069.000000;1.744936
5068.000000;1.743896
5067.000000;1.743057
5066.000000;1.743363
5065.000000;1.745270
5064.000000;1.747899
5063.000000;1.749393
5062.000000;1.748427
5061.000000;1.745472
5060.000000;1.742583
5059.000000;1.741828
5058.000000;1.743572
5057.000000;1.746111
5056.000000;1.747287
5055.000000;1.746540
5054.000000;1.745035
5053.000000;1.744050
5052.000000;1.744056
5051.000000;1.745144
5050.000000;1.747117
5049.000000;1.748906
5048.000000;1.749045
5047.000000;1.747377
5046.000000;1.745376
5045.000000;1.744126
5044.000000;1.743085
5043.000000;1.741645
5042.000000;1.740790
5041.000000;1.741891
5040.000000;1.744493
5039.000000;1.746601
5038.000000;1.747021
5037.000000;1.746273
5036.000000;1.745221
5035.000000;1.743961
5034.000000;1.742404
5033.000000;1.741121
5032.000000;1.741078
5031.000000;1.742751
5030.000000;1.745565
5029.000000;1.748098
5028.000000;1.749084
5027.000000;1.748417
5026.000000;1.746946
5025.000000;1.745228
5024.000000;1.743046
5023.000000;1.740480
5022.000000;1.738698
5021.000000;1.738921
5020.000000;1.740936
5019.000000;1.743290
5018.000000;1.744813
5017.000000;1.745382
5016.000000;1.745405
5015.000000;1.745372
5014.000000;1.745932
5013.000000;1.747609
5012.000000;1.750056
5011.000000;1.751967
5010.000000;1.752090
5009.000000;1.750302
5008.000000;1.747556
5007.000000;1.744854
5006.000000;1.742391
5005.000000;1.739663
5004.000000;1.736477
5003.000000;1.733658
5002.000000;1.732440
5001.000000;1.733236
5000.000000;1.735271
4999.000000;1.737497
4998.000000;1.739423
4997.000000;1.740860
4996.000000;1.741422
4995.000000;1.740818
4994.000000;1.739470
4993.000000;1.738295
4992.000000;1.737819
4991.000000;1.737673
4990.000000;1.737022
4989.000000;1.735487
4988.000000;1.733639
4987.000000;1.732533
4986.000000;1.732605
4985.000000;1.733213
4984.000000;1.733464
4983.000000;1.733175
4982.000000;1.732689
4981.000000;1.732037
4980.000000;1.730975
4979.000000;1.729841
4978.000000;1.729565
4977.000000;1.730519
4976.000000;1.731850
4975.000000;1.732269
4974.000000;1.731244
4973.000000;1.729294
4972.000000;1.727440
4971.000000;1.726460
4970.000000;1.726288
4969.000000;1.725996
4968.000000;1.724758
4967.000000;1.722890
4966.000000;1.721501
4965.000000;1.721154
4964.000000;1.721416
4963.000000;1.721712
4962.000000;1.721882
4961.000000;1.721737
4960.000000;1.720937
4959.000000;1.719702
4958.000000;1.718940
4957.000000;1.719140
4956.000000;1.719546
4955.000000;1.718904
4954.000000;1.716727
4953.000000;1.713605
4952.000000;1.710618
4951.000000;1.708756
4950.000000;1.708542
4949.000000;1.709709
4948.000000;1.711231
4947.000000;1.711910
4946.000000;1.711060
4945.000000;1.708871
4944.000000;1.706444
4943.000000;1.705159
4942.000000;1.705362
4941.000000;1.705621
4940.000000;1.703973
4939.000000;1.700172
4938.000000;1.696169
4937.000000;1.694219
4936.000000;1.694999
4935.000000;1.697334
4934.000000;1.699060
4933.000000;1.698280
4932.000000;1.694725
4931.000000;1.690197
4930.000000;1.686973
4929.000000;1.685609
4928.000000;1.684808
4927.000000;1.683451
4926.000000;1.681913
4925.000000;1.681028
4924.000000;1.680618
4923.000000;1.679827
4922.000000;1.678421
4921.000000;1.677043
4920.000000;1.676520
4919.000000;1.677283
4918.000000;1.678870
4917.000000;1.679650
4916.000000;1.677653
4915.000000;1.672402
4914.000000;1.665690
4913.000000;1.660201
4912.000000;1.657592
4911.000000;1.657784
4910.000000;1.659370
4909.000000;1.660524
4908.000000;1.660172
4907.000000;1.658590
4906.000000;1.656539
4905.000000;1.653954
4904.000000;1.650376
4903.000000;1.646700
4902.000000;1.645077
4901.000000;1.646289
4900.000000;1.648133
4899.000000;1.647493
4898.000000;1.643780
4897.000000;1.639205
4896.000000;1.635853
4895.000000;1.633643
4894.000000;1.631128
4893.000000;1.627438
4892.000000;1.623148
4891.000000;1.619616
4890.000000;1.617696
4889.000000;1.616971
4888.000000;1.616185
4887.000000;1.614534
4886.000000;1.612276
4885.000000;1.609950
4884.000000;1.607483
4883.000000;1.604537
4882.000000;1.601333
4881.000000;1.598528
4880.000000;1.596410
4879.000000;1.594641
4878.000000;1.592681
4877.000000;1.590213
4876.000000;1.587316
4875.000000;1.584532
4874.000000;1.582557
4873.000000;1.581495
4872.000000;1.580561
4871.000000;1.578882
4870.000000;1.576415
4869.000000;1.573653
4868.000000;1.570626
4867.000000;1.566865
4866.000000;1.562479
4865.000000;1.558692
4864.000000;1.556833
4863.000000;1.556833
4862.000000;1.556947
4861.000000;1.555171
4860.000000;1.551011
4859.000000;1.545841
4858.000000;1.541575
4857.000000;1.539161
4856.000000;1.538256
4855.000000;1.537894
4854.000000;1.537177
4853.000000;1.535587
4852.000000;1.533079
4851.000000;1.529921
4850.000000;1.526236
4849.000000;1.521827
4848.000000;1.516814
4847.000000;1.512215
4846.000000;1.509314
4845.000000;1.508310
4844.000000;1.507980
4843.000000;1.506834
4842.000000;1.504352
4841.000000;1.501000
4840.000000;1.497453
4839.000000;1.494092
4838.000000;1.490905
4837.000000;1.487540
4836.000000;1.483675
4835.000000;1.479535
4834.000000;1.475800
4833.000000;1.472819
4832.000000;1.470204
4831.000000;1.467429
4830.000000;1.464520
4829.000000;1.461864
4828.000000;1.459601
4827.000000;1.457517
4826.000000;1.455425
4825.000000;1.453382
4824.000000;1.451553
4823.000000;1.449969
4822.000000;1.448314
4821.000000;1.445934
4820.000000;1.442333
4819.000000;1.437797
4818.000000;1.433280
4817.000000;1.429509
4816.000000;1.426384
4815.000000;1.423380
4814.000000;1.420257
4813.000000;1.417192
4812.000000;1.414460
4811.000000;1.412161
4810.000000;1.410123
4809.000000;1.407897
4808.000000;1.405085
4807.000000;1.401840
4806.000000;1.398785
4805.000000;1.396284
4804.000000;1.393988
4803.000000;1.391274
4802.000000;1.387859
4801.000000;1.383848
4800.000000;1.379470
4799.000000;1.375111
4798.000000;1.371345
4797.000000;1.368509
4796.000000;1.366272
4795.000000;1.363911
4794.000000;1.361062
4793.000000;1.358028
4792.000000;1.355341
4791.000000;1.353204
4790.000000;1.351312
4789.000000;1.349120
4788.000000;1.346309
4787.000000;1.343046
4786.000000;1.339728
4785.000000;1.336477
4784.000000;1.333060
4783.000000;1.329372
4782.000000;1.325772
4781.000000;1.322745
4780.000000;1.320372
4779.000000;1.318268
4778.000000;1.315934
4777.000000;1.313074
4776.000000;1.309766
4775.000000;1.306493
4774.000000;1.303831
4773.000000;1.301827
4772.000000;1.299786
4771.000000;1.296908
4770.000000;1.293156
4769.000000;1.289253
4768.000000;1.285893
4767.000000;1.283158
4766.000000;1.280697
4765.000000;1.278218
4764.000000;1.275653
4763.000000;1.273008
4762.000000;1.270235
4761.000000;1.267309
4760.000000;1.264327
4759.000000;1.261454
4758.000000;1.258771
4757.000000;1.256233
4756.000000;1.253791
4755.000000;1.251438
4754.000000;1.249064
4753.000000;1.246391
4752.000000;1.243237
4751.000000;1.239803
4750.000000;1.236513
4749.000000;1.233571
4748.000000;1.230861
4747.000000;1.228236
4746.000000;1.225692
4745.000000;1.223205
4744.000000;1.220632
4743.000000;1.217887
4742.000000;1.215055
4741.000000;1.212234
4740.000000;1.209418
4739.000000;1.206630
4738.000000;1.204022
4737.000000;1.201704
4736.000000;1.199591
4735.000000;1.197499
4734.000000;1.195310
4733.000000;1.192987
4732.000000;1.190557
4731.000000;1.188137
4730.000000;1.185829
4729.000000;1.183509
4728.000000;1.180896
4727.000000;1.177904
4726.000000;1.174810
4725.000000;1.171971
4724.000000;1.169493
4723.000000;1.167217
4722.000000;1.164903
4721.000000;1.162347
4720.000000;1.159522
4719.000000;1.156681
4718.000000;1.154170
4717.000000;1.152031
4716.000000;1.149945
4715.000000;1.147674
4714.000000;1.145378
4713.000000;1.143324
4712.000000;1.141469
4711.000000;1.139500
4710.000000;1.137195
4709.000000;1.134582
4708.000000;1.131838
4707.000000;1.129155
4706.000000;1.126656
4705.000000;1.124333
4704.000000;1.122154
4703.000000;1.120240
4702.000000;1.118741
4701.000000;1.117458
4700.000000;1.115873
4699.000000;1.113747
4698.000000;1.111468
4697.000000;1.109522
4696.000000;1.107814
4695.000000;1.105852
4694.000000;1.103511
4693.000000;1.101232
4692.000000;1.099444
4691.000000;1.098096
4690.000000;1.096802
4689.000000;1.095240
4688.000000;1.093321
4687.000000;1.091190
4686.000000;1.089153
4685.000000;1.087458
4684.000000;1.086010
4683.000000;1.084429
4682.000000;1.082436
4681.000000;1.080104
4680.000000;1.077714
4679.000000;1.075519
4678.000000;1.073686
4677.000000;1.072269
4676.000000;1.071100
4675.000000;1.069801
4674.000000;1.068067
4673.000000;1.065944
4672.000000;1.063767
4671.000000;1.061853
4670.000000;1.060264
4669.000000;1.058832
4668.000000;1.057339
4667.000000;1.055695
4666.000000;1.053984
4665.000000;1.052323
4664.000000;1.050712
4663.000000;1.049072
4662.000000;1.047405
4661.000000;1.045836
4660.000000;1.044465
4659.000000;1.043254
4658.000000;1.042107
4657.000000;1.040996
4656.000000;1.039944
4655.000000;1.038905
4654.000000;1.037750
4653.000000;1.036395
4652.000000;1.034889
4651.000000;1.033363
4650.000000;1.031894
4649.000000;1.030478
4648.000000;1.029107
4647.000000;1.027808
4646.000000;1.026553
4645.000000;1.025207
4644.000000;1.023670
4643.000000;1.022041
4642.000000;1.020572
4641.000000;1.019411
4640.000000;1.018500
4639.000000;1.017701
4638.000000;1.016923
4637.000000;1.016081
4636.000000;1.015065
4635.000000;1.013860
4634.000000;1.012619
4633.000000;1.011512
4632.000000;1.010539
4631.000000;1.009571
4630.000000;1.008544
4629.000000;1.007537
4628.000000;1.006653
4627.000000;1.005893
4626.000000;1.005133
4625.000000;1.004186
4624.000000;1.002950
4623.000000;1.001545
4622.000000;1.000261
4621.000000;0.999311
4620.000000;0.998652
4619.000000;0.998079
4618.000000;0.997409
4617.000000;0.996542
4616.000000;0.995462
4615.000000;0.994310
4614.000000;0.993389
4613.000000;0.992908
4612.000000;0.992722
4611.000000;0.992442
4610.000000;0.991841
4609.000000;0.991020
4608.000000;0.990144
4607.000000;0.989188
4606.000000;0.988050
4605.000000;0.986817
4604.000000;0.985759
4603.000000;0.985043
4602.000000;0.984575
4601.000000;0.984125
4600.000000;0.983547
4599.000000;0.982835
4598.000000;0.982041
4597.000000;0.981233
4596.000000;0.980551
4595.000000;0.980155
4594.000000;0.980034
4593.000000;0.979935
4592.000000;0.979614
4591.000000;0.979150
4590.000000;0.978869
4589.000000;0.978909
4588.000000;0.978994
4587.000000;0.978754
4586.000000;0.978177
4585.000000;0.977596
4584.000000;0.977260
4583.000000;0.977089
4582.000000;0.976861
4581.000000;0.976502
4580.000000;0.976095
4579.000000;0.975699
4578.000000;0.975277
4577.000000;0.974803
4576.000000;0.974366
4575.000000;0.974115
4574.000000;0.974111
4573.000000;0.974269
4572.000000;0.974462
4571.000000;0.974626
4570.000000;0.974744
4569.000000;0.974775
4568.000000;0.974686
4567.000000;0.974565
4566.000000;0.974602
4565.000000;0.974915
4564.000000;0.975427
4563.000000;0.975972
4562.000000;0.976434
4561.000000;0.976753
4560.000000;0.976882
4559.000000;0.976857
4558.000000;0.976878
4557.000000;0.977190
4556.000000;0.977841
4555.000000;0.978625
4554.000000;0.979283
4553.000000;0.979703
4552.000000;0.979929
4551.000000;0.980069
4550.000000;0.980238
4549.000000;0.980555
4548.000000;0.981090
4547.000000;0.981818
4546.000000;0.982644
4545.000000;0.983481
4544.000000;0.984260
4543.000000;0.984896
4542.000000;0.985314
4541.000000;0.985547
4540.000000;0.985750
4539.000000;0.986047
4538.000000;0.986385
4537.000000;0.986648
4536.000000;0.986896
4535.000000;0.987375
4534.000000;0.988228
4533.000000;0.989329
4532.000000;0.990453
4531.000000;0.991529
4530.000000;0.992593
4529.000000;0.993607
4528.000000;0.994498
4527.000000;0.995318
4526.000000;0.996171
4525.000000;0.996976
4524.000000;0.997493
4523.000000;0.997653
4522.000000;0.997682
4521.000000;0.997852
4520.000000;0.998244
4519.000000;0.998835
4518.000000;0.999622
4517.000000;1.000542
4516.000000;1.001417
4515.000000;1.002144
4514.000000;1.002833
4513.000000;1.003633
4512.000000;1.004493
4511.000000;1.005284
4510.000000;1.006081
4509.000000;1.007099
4508.000000;1.008364
4507.000000;1.009611
4506.000000;1.010552
4505.000000;1.011131
4504.000000;1.011470
4503.000000;1.011705
4502.000000;1.011953
4501.000000;1.012375
4500.000000;1.013119
4499.000000;1.014176
4498.000000;1.015333
4497.000000;1.016357
4496.000000;1.017224
4495.000000;1.018126
4494.000000;1.019200
4493.000000;1.020315
4492.000000;1.021229
4491.000000;1.021918
4490.000000;1.022601
4489.000000;1.023442
4488.000000;1.024395
4487.000000;1.025416
4486.000000;1.026618
4485.000000;1.028061
4484.000000;1.029539
4483.000000;1.030768
4482.000000;1.031742
4481.000000;1.032738
4480.000000;1.034010
4479.000000;1.035620
4478.000000;1.037497
4477.000000;1.039485
4476.000000;1.041326
4475.000000;1.042811
4474.000000;1.043987
4473.000000;1.045117
4472.000000;1.046392
4471.000000;1.047829
4470.000000;1.049447
4469.000000;1.051359
4468.000000;1.053593
4467.000000;1.055946
4466.000000;1.058161
4465.000000;1.060186
4464.000000;1.062154
4463.000000;1.064153
4462.000000;1.066132
4461.000000;1.068042
4460.000000;1.069952
4459.000000;1.071952
4458.000000;1.073983
4457.000000;1.075890
4456.000000;1.077645
4455.000000;1.079430
4454.000000;1.081415
4453.000000;1.083518
4452.000000;1.085519
4451.000000;1.087420
4450.000000;1.089517
4449.000000;1.092037
4448.000000;1.094854
4447.000000;1.097652
4446.000000;1.100266
4445.000000;1.102669
4444.000000;1.104777
4443.000000;1.106530
4442.000000;1.108172
4441.000000;1.110185
4440.000000;1.112769
4439.000000;1.115542
4438.000000;1.117932
4437.000000;1.119830
4436.000000;1.121717
4435.000000;1.124138
4434.000000;1.127147
4433.000000;1.130278
4432.000000;1.133015
4431.000000;1.135251
4430.000000;1.137318
4429.000000;1.139624
4428.000000;1.142300
4427.000000;1.145185
4426.000000;1.148062
4425.000000;1.150847
4424.000000;1.153543
4423.000000;1.156122
4422.000000;1.158533
4421.000000;1.160855
4420.000000;1.163352
4419.000000;1.166276
4418.000000;1.169576
4417.000000;1.172866
4416.000000;1.175777
4415.000000;1.178311
4414.000000;1.180777
4413.000000;1.183416
4412.000000;1.186192
4411.000000;1.188978
4410.000000;1.191784
4409.000000;1.194707
4408.000000;1.197751
4407.000000;1.200781
4406.000000;1.203625
4405.000000;1.206162
4404.000000;1.208395
4403.000000;1.210550
4402.000000;1.213059
4401.000000;1.216298
4400.000000;1.220243
4399.000000;1.224403
4398.000000;1.228139
4397.000000;1.231154
4396.000000;1.233749
4395.000000;1.236572
4394.000000;1.240033
4393.000000;1.243939
4392.000000;1.247716
4391.000000;1.251006
4390.000000;1.253948
4389.000000;1.256895
4388.000000;1.260004
4387.000000;1.263171
4386.000000;1.266297
4385.000000;1.269463
4384.000000;1.272859
4383.000000;1.276580
4382.000000;1.280510
4381.000000;1.284421
4380.000000;1.288170
4379.000000;1.291757
4378.000000;1.295222
4377.000000;1.298598
4376.000000;1.302056
4375.000000;1.305909
4374.000000;1.310244
4373.000000;1.314688
4372.000000;1.318792
4371.000000;1.322519
4370.000000;1.326057
4369.000000;1.329312
4368.000000;1.332104
4367.000000;1.334883
4366.000000;1.338656
4365.000000;1.343849
4364.000000;1.349636
4363.000000;1.354705
4362.000000;1.358484
4361.000000;1.361356
4360.000000;1.364006
4359.000000;1.367066
4358.000000;1.371090
4357.000000;1.376239
4356.000000;1.381870
4355.000000;1.386904
4354.000000;1.390789
4353.000000;1.393913
4352.000000;1.397075
4351.000000;1.400808
4350.000000;1.405220
4349.000000;1.410121
4348.000000;1.415160
4347.000000;1.420064
4346.000000;1.424892
4345.000000;1.429929
4344.000000;1.435253
4343.000000;1.440568
4342.000000;1.445489
4341.000000;1.449874
4340.000000;1.453822
4339.000000;1.457521
4338.000000;1.461273
4337.000000;1.465539
4336.000000;1.470729
4335.000000;1.476773
4334.000000;1.482906
4333.000000;1.488114
4332.000000;1.492009
4331.000000;1.495268
4330.000000;1.499074
4329.000000;1.504097
4328.000000;1.510074
4327.000000;1.516296
4326.000000;1.522320
4325.000000;1.528137
4324.000000;1.533891
4323.000000;1.539543
4322.000000;1.544712
4321.000000;1.548898
4320.000000;1.552138
4319.000000;1.555368
4318.000000;1.559694
4317.000000;1.565220
4316.000000;1.570991
4315.000000;1.576262
4314.000000;1.581302
4313.000000;1.586625
4312.000000;1.592079
4311.000000;1.597265
4310.000000;1.602292
4309.000000;1.607387
4308.000000;1.612185
4307.000000;1.616272
4306.000000;1.620247
4305.000000;1.625353
4304.000000;1.631975
4303.000000;1.639222
4302.000000;1.646076
4301.000000;1.652302
4300.000000;1.658050
4299.000000;1.663323
4298.000000;1.668281
4297.000000;1.673451
4296.000000;1.679083
4295.000000;1.684687
4294.000000;1.689778
4293.000000;1.694827
4292.000000;1.700816
4291.000000;1.707875
4290.000000;1.714854
4289.000000;1.720455
4288.000000;1.724609
4287.000000;1.728455
4286.000000;1.733142
4285.000000;1.739048
4284.000000;1.746112
4283.000000;1.754271
4282.000000;1.763016
4281.000000;1.770802
4280.000000;1.775885
4279.000000;1.778310
4278.000000;1.780392
4277.000000;1.784562
4276.000000;1.791076
4275.000000;1.798190
4274.000000;1.804263
4273.000000;1.809375
4272.000000;1.814890
4271.000000;1.821802
4270.000000;1.829638
4269.000000;1.836811
4268.000000;1.842122
4267.000000;1.845995
4266.000000;1.849869
4265.000000;1.854402
4264.000000;1.859000
4263.000000;1.863345
4262.000000;1.868344
4261.000000;1.874691
4260.000000;1.881345
4259.000000;1.886872
4258.000000;1.891705
4257.000000;1.897487
4256.000000;1.904464
4255.000000;1.911098
4254.000000;1.916619
4253.000000;1.922480
4252.000000;1.930214
4251.000000;1.938978
4250.000000;1.946776
4249.000000;1.952697
4248.000000;1.957582
4247.000000;1.962346
4246.000000;1.966961
4245.000000;1.970908
4244.000000;1.973927
4243.000000;1.976370
4242.000000;1.979447
4241.000000;1.984826
4240.000000;1.993103
4239.000000;2.002562
4238.000000;2.010169
4237.000000;2.014348
4236.000000;2.016490
4235.000000;2.019342
4234.000000;2.024240
4233.000000;2.030158
4232.000000;2.035341
4231.000000;2.039677
4230.000000;2.045056
4229.000000;2.053088
4228.000000;2.062682
4227.000000;2.070539
4226.000000;2.074681
4225.000000;2.077156
4224.000000;2.082384
4223.000000;2.092888
4222.000000;2.107074
4221.000000;2.120654
4220.000000;2.129730
4219.000000;2.133071
4218.000000;2.132506
4217.000000;2.131693
4216.000000;2.133983
4215.000000;2.140587
4214.000000;2.150248
4213.000000;2.160521
4212.000000;2.169430
4211.000000;2.176144
4210.000000;2.180730
4209.000000;2.184301
4208.000000;2.188871
4207.000000;2.195503
4206.000000;2.202994
4205.000000;2.209521
4204.000000;2.215402
4203.000000;2.223250
4202.000000;2.235112
4201.000000;2.249801
4200.000000;2.262965
4199.000000;2.269748
4198.000000;2.268559
4197.000000;2.263287
4196.000000;2.260842
4195.000000;2.265423
4194.000000;2.274959
4193.000000;2.283309
4192.000000;2.286660
4191.000000;2.286684
4190.000000;2.286730
4189.000000;2.287858
4188.000000;2.290205
4187.000000;2.295045
4186.000000;2.302515
4185.000000;2.309090
4184.000000;2.310751
4183.000000;2.309306
4182.000000;2.311572
4181.000000;2.321699
4180.000000;2.337380
4179.000000;2.352629
4178.000000;2.362969
4177.000000;2.367895
4176.000000;2.369048
4175.000000;2.368420
4174.000000;2.368649
4173.000000;2.372961
4172.000000;2.383431
4171.000000;2.398753
4170.000000;2.414126
4169.000000;2.425375
4168.000000;2.433755
4167.000000;2.443931
4166.000000;2.456404
4165.000000;2.464285
4164.000000;2.460384
4163.000000;2.447625
4162.000000;2.436964
4161.000000;2.435701
4160.000000;2.443002
4159.000000;2.453956
4158.000000;2.463806
4157.000000;2.469357
4156.000000;2.470853
4155.000000;2.472824
4154.000000;2.478795
4153.000000;2.485238
4152.000000;2.485100
4151.000000;2.478619
4150.000000;2.475665
4149.000000;2.484610
4148.000000;2.502614
4147.000000;2.519950
4146.000000;2.532100
4145.000000;2.542181
4144.000000;2.554363
4143.000000;2.569050
4142.000000;2.581243
4141.000000;2.582825
4140.000000;2.571369
4139.000000;2.556581
4138.000000;2.552037
4137.000000;2.560845
4136.000000;2.573281
4135.000000;2.581450
4134.000000;2.589704
4133.000000;2.603645
4132.000000;2.617421
4131.000000;2.619912
4130.000000;2.612570
4129.000000;2.609752
4128.000000;2.620216
4127.000000;2.637752
4126.000000;2.649245
4125.000000;2.648669
4124.000000;2.640848
4123.000000;2.633919
4122.000000;2.633073
4121.000000;2.639374
4120.000000;2.651125
4119.000000;2.665792
4118.000000;2.679535
4117.000000;2.686947
4116.000000;2.686567
4115.000000;2.684550
4114.000000;2.688115
4113.000000;2.696332
4112.000000;2.699775
4111.000000;2.690725
4110.000000;2.672952
4109.000000;2.658841
4108.000000;2.656805
4107.000000;2.664528
4106.000000;2.675740
4105.000000;2.686196
4104.000000;2.692270
4103.000000;2.697076
4102.000000;2.709480
4101.000000;2.726029
4100.000000;2.733603
4099.000000;2.735193
4098.000000;2.746224
4097.000000;2.767717
4096.000000;2.780752
4095.000000;2.768786
4094.000000;2.738918
4093.000000;2.707462
4092.000000;2.680834
4091.000000;2.661007
4090.000000;2.654349
4089.000000;2.664984
4088.000000;2.684164
4087.000000;2.695723
4086.000000;2.696705
4085.000000;2.703525
4084.000000;2.733163
4083.000000;2.784105
4082.000000;2.831309
4081.000000;2.845059
4080.000000;2.825203
4079.000000;2.798796
4078.000000;2.787534
4077.000000;2.793468
4076.000000;2.804318
4075.000000;2.806186
4074.000000;2.798219
4073.000000;2.788985
4072.000000;2.779448
4071.000000;2.769721
4070.000000;2.770047
4069.000000;2.788499
4068.000000;2.819231
4067.000000;2.849349
4066.000000;2.872328
4065.000000;2.885325
4064.000000;2.886655
4063.000000;2.883109
4062.000000;2.890387
4061.000000;2.914075
4060.000000;2.929160
4059.000000;2.912449
4058.000000;2.887886
4057.000000;2.891894
4056.000000;2.929892
4055.000000;2.972342
4054.000000;2.984330
4053.000000;2.971221
4052.000000;2.966441
4051.000000;2.981087
4050.000000;2.999757
4049.000000;3.007172
4048.000000;3.002488
4047.000000;2.990767
4046.000000;2.976507
4045.000000;2.962888
4044.000000;2.948854
4043.000000;2.931540
4042.000000;2.913558
4041.000000;2.903130
4040.000000;2.903073
4039.000000;2.904878
4038.000000;2.901873
4037.000000;2.898829
4036.000000;2.897438
4035.000000;2.891559
4034.000000;2.882899
4033.000000;2.883632
4032.000000;2.898089
4031.000000;2.911373
4030.000000;2.902630
4029.000000;2.878850
4028.000000;2.869800
4027.000000;2.883108
4026.000000;2.899810
4025.000000;2.906649
4024.000000;2.909587
4023.000000;2.914328
4022.000000;2.915223
4021.000000;2.910716
4020.000000;2.911508
4019.000000;2.923810
4018.000000;2.939318
4017.000000;2.947764
4016.000000;2.952192
4015.000000;2.961257
4014.000000;2.972792
4013.000000;2.977680
4012.000000;2.974550
4011.000000;2.968841
4010.000000;2.959513
4009.000000;2.934214
4008.000000;2.897197
4007.000000;2.880949
4006.000000;2.909601
4005.000000;2.980972
4004.000000;3.066875
4003.000000;3.118363
4002.000000;3.110399
4001.000000;3.075469
4000.000000;3.043689
3999.000000;3.021077
3998.000000;3.011953
3997.000000;3.019492
3996.000000;3.031057
3995.000000;3.023254
3994.000000;3.000189
3993.000000;2.995794
3992.000000;3.028416
3991.000000;3.082858
3990.000000;3.122318
3989.000000;3.120365
3988.000000;3.092352
3987.000000;3.069342
3986.000000;3.057409
3985.000000;3.048046
3984.000000;3.048804
3983.000000;3.076108
3982.000000;3.127624
3981.000000;3.156355
3980.000000;3.114423
3979.000000;3.049986
3978.000000;3.013055
3977.000000;3.007461
3976.000000;3.029671
3975.000000;3.073152
3974.000000;3.126274
3973.000000;3.181438
3972.000000;3.239542
3971.000000;3.302023
3970.000000;3.344821
3969.000000;3.331914
3968.000000;3.270972
3967.000000;3.201838
3966.000000;3.149108
3965.000000;3.119062
3964.000000;3.118050
3963.000000;3.142064
3962.000000;3.163315
3961.000000;3.160579
3960.000000;3.139894
3959.000000;3.121096
3958.000000;3.127359
3957.000000;3.160690
3956.000000;3.182524
3955.000000;3.144625
3954.000000;3.068013
3953.000000;3.015556
3952.000000;3.022233
3951.000000;3.082242
3950.000000;3.151971
3949.000000;3.179599
3948.000000;3.149736
3947.000000;3.089907
3946.000000;3.049161
3945.000000;3.066305
3944.000000;3.146723
3943.000000;3.271241
3942.000000;3.419594
3941.000000;3.545769
3940.000000;3.541795
3939.000000;3.419147
3938.000000;3.296309
3937.000000;3.214832
3936.000000;3.177055
3935.000000;3.189169
3934.000000;3.253041
3933.000000;3.343469
3932.000000;3.406265
3931.000000;3.399634
3930.000000;3.322137
3929.000000;3.204796
3928.000000;3.108963
3927.000000;3.092977
3926.000000;3.159522
3925.000000;3.243873
3924.000000;3.272109
3923.000000;3.258797
3922.000000;3.278419
3921.000000;3.380071
3920.000000;3.538156
3919.000000;3.615901
3918.000000;3.579186
3917.000000;3.508255
3916.000000;3.437108
3915.000000;3.392350
3914.000000;3.371013
3913.000000;3.368142
3912.000000;3.399992
3911.000000;3.414859
3910.000000;3.331766
3909.000000;3.214874
3908.000000;3.166765
3907.000000;3.263746
3906.000000;3.561453
3905.000000;4.117764
3904.000000;4.486315
3903.000000;4.185965
3902.000000;3.968241
3901.000000;3.821678
3900.000000;3.687195
3899.000000;3.585434
3898.000000;3.591539
3897.000000;3.754112
3896.000000;4.024362
3895.000000;4.197021
3894.000000;4.115456
3893.000000;4.021636
3892.000000;4.061597
3891.000000;4.076921
3890.000000;3.992174
3889.000000;3.883043
3888.000000;3.907413
3887.000000;4.121130
3886.000000;4.066728
3885.000000;3.702125
3884.000000;3.443431
3883.000000;3.380754
3882.000000;3.527321
3881.000000;3.734988
3880.000000;3.748561
3879.000000;3.637792
3878.000000;3.638594
3877.000000;3.983293
3876.000000;4.027332
3875.000000;3.728461
3874.000000;3.474662
3873.000000;3.268483
3872.000000;3.277537
3871.000000;3.477641
3870.000000;3.713630
3869.000000;3.868383
3868.000000;3.819281
3867.000000;3.624009
3866.000000;3.446820
3865.000000;3.337918
3864.000000;3.318630
3863.000000;3.387095
3862.000000;3.575054
3861.000000;3.822765
3860.000000;3.900971
3859.000000;4.081054
3858.000000;4.597689
3857.000000;4.705295
3856.000000;4.407371
3855.000000;4.325932
3854.000000;4.261821
3853.000000;4.112950
3852.000000;3.909897
3851.000000;3.647556
3850.000000;3.453609
3849.000000;3.335473
3848.000000;3.235437
3847.000000;3.168750
3846.000000;3.219016
3845.000000;3.517052
3844.000000;3.695552
3843.000000;3.312736
3842.000000;3.189537
3841.000000;3.206823
3840.000000;3.283408
3839.000000;3.369563
3838.000000;3.423309
3837.000000;3.475453
3836.000000;3.565583
3835.000000;3.664945
3834.000000;3.639918
3833.000000;3.427924
3832.000000;3.396512
3831.000000;3.361775
3830.000000;3.354132
3829.000000;3.464307
3828.000000;3.554356
3827.000000;3.654316
3826.000000;3.975312
3825.000000;3.938936
3824.000000;3.644127
3823.000000;3.574424
3822.000000;3.580968
3821.000000;3.671792
3820.000000;3.710214
3819.000000;4.066857
3818.000000;4.060448
3817.000000;3.904349
3816.000000;3.938742
3815.000000;3.813308
3814.000000;3.660628
3813.000000;3.543355
3812.000000;3.524702
3811.000000;3.524807
3810.000000;3.859706
3809.000000;4.190386
3808.000000;3.681724
3807.000000;3.517128
3806.000000;3.327985
3805.000000;3.169066
3804.000000;3.075894
3803.000000;3.143775
3802.000000;3.334289
3801.000000;3.515248
3800.000000;3.881355
3799.000000;4.176977
3798.000000;3.902959
3797.000000;3.728315
3796.000000;3.604793
3795.000000;3.547672
3794.000000;3.600533
3793.000000;3.641305
3792.000000;3.569979
3791.000000;3.493201
3790.000000;3.383492
3789.000000;3.251390
3788.000000;3.200727
3787.000000;3.431956
3786.000000;3.859796
3785.000000;3.656620
3784.000000;3.568197
3783.000000;3.925726
3782.000000;3.757752
3781.000000;3.359491
3780.000000;3.333087
3779.000000;3.413691
3778.000000;3.494945
3777.000000;3.525372
3776.000000;3.538652
3775.000000;3.645989
3774.000000;3.657831
3773.000000;3.491447
3772.000000;3.481288
3771.000000;3.730412
3770.000000;4.018252
3769.000000;3.884010
3768.000000;3.897026
3767.000000;3.853576
3766.000000;3.552351
3765.000000;3.336847
3764.000000;3.183403
3763.000000;3.211801
3762.000000;3.464774
3761.000000;3.375588
3760.000000;3.268351
3759.000000;3.523667
3758.000000;4.026405
3757.000000;3.737360
3756.000000;3.498652
3755.000000;3.463726
3754.000000;3.516577
3753.000000;3.761142
3752.000000;4.107394
3751.000000;4.028697
3750.000000;3.900434
3749.000000;3.868738
3748.000000;3.881327
3747.000000;4.007877
3746.000000;4.334384
3745.000000;4.594876
3744.000000;3.828719
3743.000000;3.330043
3742.000000;3.133481
3741.000000;3.152165
3740.000000;3.249972
3739.000000;3.374714
3738.000000;3.462765
3737.000000;3.345376
3736.000000;3.313610
3735.000000;3.438750
3734.000000;3.701744
3733.000000;4.091186
3732.000000;4.134134
3731.000000;3.946852
3730.000000;3.763804
3729.000000;3.567718
3728.000000;3.461179
3727.000000;3.450328
3726.000000;3.369694
3725.000000;3.238920
3724.000000;3.203279
3723.000000;3.207217
3722.000000;3.187372
3721.000000;3.182651
3720.000000;3.256738
3719.000000;3.400787
3718.000000;3.514901
3717.000000;3.546273
3716.000000;3.590138
3715.000000;3.892449
3714.000000;3.573305
3713.000000;3.613605
3712.000000;3.956215
3711.000000;3.724350
3710.000000;3.753860
3709.000000;3.812452
3708.000000;3.846413
3707.000000;4.174716
3706.000000;4.475527
3705.000000;4.262567
3704.000000;4.015533
3703.000000;3.665584
3702.000000;3.591190
3701.000000;3.659542
3700.000000;3.780100
3699.000000;3.836179
3698.000000;3.822582
3697.000000;3.757975
3696.000000;3.513452
3695.000000;3.287034
3694.000000;3.160410
3693.000000;3.180815
3692.000000;3.348014
3691.000000;3.582967
3690.000000;3.766496
3689.000000;3.877829
3688.000000;3.872567
3687.000000;3.982890
3686.000000;3.941770
3685.000000;3.498326
3684.000000;3.325583
3683.000000;3.466643
3682.000000;3.837693
3681.000000;3.697771
3680.000000;3.648702
3679.000000;3.952820
3678.000000;3.744792
3677.000000;3.641265
3676.000000;3.787596
3675.000000;3.849909
3674.000000;3.719008
3673.000000;3.562146
3672.000000;3.772534
3671.000000;3.899435
3670.000000;3.611741
3669.000000;3.484422
3668.000000;3.410387
3667.000000;3.482147
3666.000000;3.722362
3665.000000;3.695363
3664.000000;3.539476
3663.000000;3.519128
3662.000000;3.582282
3661.000000;3.672169
3660.000000;3.886680
3659.000000;4.316693
3658.000000;3.920987
3657.000000;3.673227
3656.000000;3.528119
3655.000000;3.360732
3654.000000;3.208196
3653.000000;3.129269
3652.000000;3.196050
3651.000000;3.259988
3650.000000;3.254960
3649.000000;3.294040
3648.000000;3.359660
3647.000000;3.459413
3646.000000;3.794844
3645.000000;4.161544
3644.000000;3.762627
3643.000000;3.647554
3642.000000;3.594981
3641.000000;3.518176
3640.000000;3.561357
3639.000000;3.826749
3638.000000;3.985163
3637.000000;3.863034
3636.000000;4.032079
3635.000000;4.090107
3634.000000;3.788724
3633.000000;3.554998
3632.000000;3.450818
3631.000000;3.594419
3630.000000;3.924252
3629.000000;3.904966
3628.000000;3.653588
3627.000000;3.500031
3626.000000;3.502716
3625.000000;3.514577
3624.000000;3.398394
3623.000000;3.259447
3622.000000;3.251254
3621.000000;3.400836
3620.000000;3.444889
3619.000000;3.353029
3618.000000;3.347299
3617.000000;3.470593
3616.000000;3.678188
3615.000000;3.778094
3614.000000;3.872045
3613.000000;4.027798
3612.000000;4.110955
3611.000000;4.320572
3610.000000;4.245359
3609.000000;3.815273
3608.000000;3.686067
3607.000000;3.886602
3606.000000;3.991279
3605.000000;3.629581
3604.000000;3.436485
3603.000000;3.289009
3602.000000;3.188159
3601.000000;3.187870
3600.000000;3.206797
3599.000000;3.446747
3598.000000;3.940193
3597.000000;3.441455
3596.000000;3.298809
3595.000000;3.405491
3594.000000;3.591927
3593.000000;4.069190
3592.000000;3.940230
3591.000000;3.479481
3590.000000;3.291977
3589.000000;3.268730
3588.000000;3.365489
3587.000000;3.517812
3586.000000;3.531000
3585.000000;3.437950
3584.000000;3.446899
3583.000000;3.591194
3582.000000;3.747091
3581.000000;3.770702
3580.000000;3.690095
3579.000000;3.682490
3578.000000;3.955100
3577.000000;3.878450
3576.000000;3.514926
3575.000000;3.437950
3574.000000;3.502255
3573.000000;3.550934
3572.000000;3.415718
3571.000000;3.223065
3570.000000;3.116846
3569.000000;3.153199
3568.000000;3.296002
3567.000000;3.483946
3566.000000;3.722250
3565.000000;3.724995
3564.000000;3.646873
3563.000000;3.634070
3562.000000;3.604981
3561.000000;3.626334
3560.000000;3.640308
3559.000000;3.591358
3558.000000;3.549633
3557.000000;3.575058
3556.000000;3.710832
3555.000000;3.843263
3554.000000;3.661394
3553.000000;3.449644
3552.000000;3.345221
3551.000000;3.344032
3550.000000;3.460694
3549.000000;3.835994
3548.000000;4.233739
3547.000000;3.856968
3546.000000;3.741508
3545.000000;3.672395
3544.000000;3.683602
3543.000000;3.757835
3542.000000;3.711362
3541.000000;3.688475
3540.000000;3.858101
3539.000000;3.915226
3538.000000;3.730519
3537.000000;3.737220
3536.000000;3.874844
3535.000000;3.897151
3534.000000;3.667944
3533.000000;3.491919
3532.000000;3.473360
3531.000000;3.584376
3530.000000;3.699749
3529.000000;3.833320
3528.000000;3.990949
3527.000000;3.822437
3526.000000;3.609933
3525.000000;3.517336
3524.000000;3.579803
3523.000000;3.811589
3522.000000;3.929015
3521.000000;3.712223
3520.000000;3.595548
3519.000000;3.600718
3518.000000;3.601843
3517.000000;3.549380
3516.000000;3.523700
3515.000000;3.581874
3514.000000;3.711157
3513.000000;3.615198
3512.000000;3.528178
3511.000000;3.873695
3510.000000;4.243308
3509.000000;3.829061
3508.000000;3.846135
3507.000000;4.254174
3506.000000;4.413229
3505.000000;4.157109
3504.000000;3.921389
3503.000000;3.633184
3502.000000;3.505386
3501.000000;3.478889
3500.000000;3.550622
3499.000000;3.676059
3498.000000;3.982779
3497.000000;4.607700
3496.000000;3.919360
3495.000000;3.811087
3494.000000;3.859791
3493.000000;3.622247
3492.000000;3.440137
3491.000000;3.449579
3490.000000;3.711651
3489.000000;3.865982
3488.000000;3.706033
3487.000000;3.704212
3486.000000;3.705658
3485.000000;3.704926
3484.000000;3.646762
3483.000000;3.465137
3482.000000;3.342511
3481.000000;3.327825
3480.000000;3.391004
3479.000000;3.497567
3478.000000;3.637819
3477.000000;3.654555
3476.000000;3.534026
3475.000000;3.511099
3474.000000;3.517719
3473.000000;3.540651
3472.000000;3.545943
3471.000000;3.778942
3470.000000;4.328872
3469.000000;3.566380
3468.000000;3.356915
3467.000000;3.385105
3466.000000;3.586360
3465.000000;4.153435
3464.000000;4.114973
3463.000000;3.724625
3462.000000;3.578027
3461.000000;3.584066
3460.000000;3.769609
3459.000000;4.221989
3458.000000;3.973793
3457.000000;3.644910
3456.000000;3.587602
3455.000000;3.706755
3454.000000;3.786326
3453.000000;3.620517
3452.000000;3.510542
3451.000000;3.556471
3450.000000;3.778958
3449.000000;3.820938
3448.000000;3.713696
3447.000000;3.812659
3446.000000;3.978226
3445.000000;4.102861
3444.000000;4.128214
3443.000000;3.895494
3442.000000;3.575969
3441.000000;3.378796
3440.000000;3.298523
3439.000000;3.310277
3438.000000;3.403203
3437.000000;3.552200
3436.000000;4.026480
3435.000000;4.377429
3434.000000;3.789983
3433.000000;3.890567
3432.000000;4.212475
3431.000000;4.062498
3430.000000;3.819555
3429.000000;3.670209
3428.000000;3.583216
3427.000000;3.526764
3426.000000;3.541838
3425.000000;3.819466
3424.000000;4.083185
3423.000000;3.591856
3422.000000;3.384658
3421.000000;3.339695
3420.000000;3.364392
3419.000000;3.438755
3418.000000;3.507293
3417.000000;3.545005
3416.000000;3.560171
3415.000000;3.556221
3414.000000;3.580203
3413.000000;3.632080
3412.000000;3.949031
3411.000000;4.498530
3410.000000;3.818553
3409.000000;3.664076
3408.000000;3.683209
3407.000000;3.767646
3406.000000;3.791469
3405.000000;3.661182
3404.000000;3.590297
3403.000000;3.594342
3402.000000;3.735649
3401.000000;3.694640
3400.000000;3.412620
3399.000000;3.259669
3398.000000;3.255248
3397.000000;3.283146
3396.000000;3.265970
3395.000000;3.272049
3394.000000;3.424973
3393.000000;3.763166
3392.000000;3.682707
3391.000000;3.508081
3390.000000;3.509194
3389.000000;3.546794
3388.000000;3.602775
3387.000000;3.818380
3386.000000;4.017409
3385.000000;3.783194
3384.000000;3.809086
3383.000000;3.891909
3382.000000;3.725303
3381.000000;3.641851
3380.000000;3.705949
3379.000000;3.829769
3378.000000;3.771436
3377.000000;3.633311
3376.000000;3.582195
3375.000000;3.578246
3374.000000;3.647531
3373.000000;3.713744
3372.000000;3.512803
3371.000000;3.343797
3370.000000;3.332276
3369.000000;3.449374
3368.000000;3.622975
3367.000000;3.733188
3366.000000;3.782420
3365.000000;4.005575
3364.000000;4.616534
3363.000000;4.169137
3362.000000;3.941530
3361.000000;3.833058
3360.000000;3.733780
3359.000000;3.718421
3358.000000;3.745734
3357.000000;3.787869
3356.000000;3.889631
3355.000000;4.045507
3354.000000;3.861085
3353.000000;3.653536
3352.000000;3.627237
3351.000000;3.705790
3350.000000;3.774627
3349.000000;3.631155
3348.000000;3.447940
3347.000000;3.379339
3346.000000;3.470856
3345.000000;3.876427
3344.000000;4.136679
3343.000000;3.850790
3342.000000;3.908627
3341.000000;3.985023
3340.000000;3.841022
3339.000000;3.751662
3338.000000;3.857449
3337.000000;4.103010
3336.000000;3.967108
3335.000000;3.681225
3334.000000;3.487463
3333.000000;3.418436
3332.000000;3.500649
3331.000000;3.702034
3330.000000;3.782071
3329.000000;3.712687
3328.000000;3.741037
3327.000000;3.864996
3326.000000;3.953037
3325.000000;3.909119
3324.000000;3.897060
3323.000000;3.916069
3322.000000;3.864748
3321.000000;3.774406
3320.000000;3.755098
3319.000000;3.775689
3318.000000;3.607213
3317.000000;3.411965
3316.000000;3.337082
3315.000000;3.387214
3314.000000;3.564198
3313.000000;3.941866
3312.000000;4.261162
3311.000000;3.865415
3310.000000;3.658437
3309.000000;3.577815
3308.000000;3.577585
3307.000000;3.653259
3306.000000;3.739656
3305.000000;3.778467
3304.000000;3.776868
3303.000000;3.851773
3302.000000;3.926252
3301.000000;3.788235
3300.000000;3.646714
3299.000000;3.588391
3298.000000;3.599341
3297.000000;3.714395
3296.000000;3.804741
3295.000000;3.730073
3294.000000;3.690633
3293.000000;3.677234
3292.000000;3.633842
3291.000000;3.653795
3290.000000;3.760640
3289.000000;3.693549
3288.000000;3.467817
3287.000000;3.347800
3286.000000;3.358504
3285.000000;3.507665
3284.000000;3.863620
3283.000000;3.984032
3282.000000;3.747250
3281.000000;3.734498
3280.000000;3.796947
3279.000000;3.838798
3278.000000;4.028334
3277.000000;4.110811
3276.000000;3.840588
3275.000000;3.735986
3274.000000;3.767447
3273.000000;3.866636
3272.000000;3.827282
3271.000000;3.725333
3270.000000;3.661228
3269.000000;3.455935
3268.000000;3.251698
3267.000000;3.178628
3266.000000;3.232816
3265.000000;3.409842
3264.000000;3.817691
3263.000000;4.026461
3262.000000;3.676410
3261.000000;3.510094
3260.000000;3.428765
3259.000000;3.424462
3258.000000;3.496881
3257.000000;3.552776
3256.000000;3.510772
3255.000000;3.437483
3254.000000;3.414038
3253.000000;3.468912
3252.000000;3.639253
3251.000000;3.885503
3250.000000;3.879479
3249.000000;3.783260
3248.000000;3.758780
3247.000000;3.708375
3246.000000;3.642095
3245.000000;3.604575
3244.000000;3.634603
3243.000000;3.677742
3242.000000;3.674236
3241.000000;3.668200
3240.000000;3.781636
3239.000000;4.303936
3238.000000;4.231965
3237.000000;3.864788
3236.000000;3.794239
3235.000000;3.746091
3234.000000;3.695507
3233.000000;3.613722
3232.000000;3.531720
3231.000000;3.473325
3230.000000;3.432401
3229.000000;3.395460
3228.000000;3.379950
3227.000000;3.411860
3226.000000;3.475457
3225.000000;3.527963
3224.000000;3.535625
3223.000000;3.512216
3222.000000;3.523728
3221.000000;3.617303
3220.000000;3.710564
3219.000000;3.732623
3218.000000;3.795676
3217.000000;3.881649
3216.000000;3.913063
3215.000000;3.926025
3214.000000;3.918613
3213.000000;3.718647
3212.000000;3.503268
3211.000000;3.426136
3210.000000;3.450705
3209.000000;3.542273
3208.000000;3.670748
3207.000000;3.714134
3206.000000;3.687046
3205.000000;3.708563
3204.000000;3.753374
3203.000000;3.841925
3202.000000;4.005162
3201.000000;3.881178
3200.000000;3.727136
3199.000000;3.783473
3198.000000;4.069089
3197.000000;4.487905
3196.000000;4.106823
3195.000000;3.753875
3194.000000;3.612090
3193.000000;3.652867
3192.000000;3.969139
3191.000000;3.915384
3190.000000;3.534846
3189.000000;3.408730
3188.000000;3.376525
3187.000000;3.421801
3186.000000;3.550967
3185.000000;3.733958
3184.000000;3.791103
3183.000000;3.921531
3182.000000;4.222496
3181.000000;3.681392
3180.000000;3.463729
3179.000000;3.516991
3178.000000;3.811854
3177.000000;4.224565
3176.000000;3.886219
3175.000000;3.831031
3174.000000;3.779103
3173.000000;3.622882
3172.000000;3.572878
3171.000000;3.576872
3170.000000;3.589029
3169.000000;3.644334
3168.000000;3.721668
3167.000000;3.767601
3166.000000;3.902891
3165.000000;4.274277
3164.000000;4.163078
3163.000000;3.828509
3162.000000;3.724761
3161.000000;3.696629
3160.000000;3.707162
3159.000000;3.720546
3158.000000;3.797673
3157.000000;4.081652
3156.000000;4.080280
3155.000000;3.808280
3154.000000;3.696490
3153.000000;3.670515
3152.000000;3.742577
3151.000000;4.069505
3150.000000;4.208696
3149.000000;4.057125
3148.000000;3.977224
3147.000000;3.642131
3146.000000;3.554763
3145.000000;3.703369
3144.000000;3.840147
3143.000000;3.767116
3142.000000;3.852818
3141.000000;4.213225
3140.000000;4.164702
3139.000000;3.840949
3138.000000;3.796205
3137.000000;3.807831
3136.000000;3.784215
3135.000000;3.700475
3134.000000;3.531528
3133.000000;3.386135
3132.000000;3.314071
3131.000000;3.296206
3130.000000;3.310022
3129.000000;3.341977
3128.000000;3.401883
3127.000000;3.507660
3126.000000;3.684526
3125.000000;3.908472
3124.000000;4.153981
3123.000000;4.567611
3122.000000;4.072492
3121.000000;4.068106
3120.000000;4.055184
3119.000000;3.737953
3118.000000;3.658201
3117.000000;3.922837
3116.000000;4.727257
3115.000000;3.865889
3114.000000;3.750351
3113.000000;3.687390
3112.000000;3.622366
3111.000000;3.639389
3110.000000;3.870770
3109.000000;4.231048
3108.000000;3.974565
3107.000000;3.860183
3106.000000;3.848778
3105.000000;3.834145
3104.000000;3.978854
3103.000000;3.932179
3102.000000;3.808258
3101.000000;3.893074
3100.000000;3.609208
3099.000000;3.355905
3098.000000;3.290875
3097.000000;3.375122
3096.000000;3.630434
3095.000000;4.240142
3094.000000;4.171232
3093.000000;3.766830
3092.000000;3.593907
3091.000000;3.544562
3090.000000;3.629192
3089.000000;3.814728
3088.000000;4.252400
3087.000000;4.702411
3086.000000;3.860126
3085.000000;3.649882
3084.000000;3.525879
3083.000000;3.504285
3082.000000;3.578625
3081.000000;4.081798
3080.000000;4.259735
3079.000000;3.698302
3078.000000;3.630809
3077.000000;3.612214
3076.000000;3.604106
3075.000000;3.634188
3074.000000;3.776651
3073.000000;4.057098
3072.000000;4.846352
3071.000000;4.420723
3070.000000;3.972367
3069.000000;3.803633
3068.000000;3.773687
3067.000000;3.717380
3066.000000;3.540144
3065.000000;3.436536
3064.000000;3.447696
3063.000000;3.550178
3062.000000;3.706415
3061.000000;3.872826
3060.000000;4.191197
3059.000000;4.316351
3058.000000;3.797331
3057.000000;3.631778
3056.000000;3.702973
3055.000000;3.959905
3054.000000;4.164489
3053.000000;4.310221
3052.000000;4.305985
3051.000000;4.287479
3050.000000;3.981960
3049.000000;3.755785
3048.000000;3.741095
3047.000000;3.815842
3046.000000;4.021966
3045.000000;4.514993
3044.000000;3.964385
3043.000000;3.732828
3042.000000;3.698414
3041.000000;3.722374
3040.000000;3.799463
3039.000000;3.900235
3038.000000;3.809386
3037.000000;3.651756
3036.000000;3.575963
3035.000000;3.586670
3034.000000;3.690278
3033.000000;3.702173
3032.000000;3.518868
3031.000000;3.423374
3030.000000;3.457030
3029.000000;3.629399
3028.000000;3.796199
3027.000000;3.656733
3026.000000;3.523316
3025.000000;3.531162
3024.000000;3.664511
3023.000000;3.669597
3022.000000;3.561213
3021.000000;3.602893
3020.000000;3.878248
3019.000000;4.540749
3018.000000;4.204918
3017.000000;3.995623
3016.000000;3.826958
3015.000000;3.717340
3014.000000;3.689599
3013.000000;3.677339
3012.000000;3.704785
3011.000000;3.822598
3010.000000;3.989728
3009.000000;3.974054
3008.000000;3.813568
3007.000000;3.704049
3006.000000;3.865890
3005.000000;4.130074
3004.000000;3.601177
3003.000000;3.366801
3002.000000;3.304352
3001.000000;3.359032
3000.000000;3.493531
2999.000000;3.661785
2998.000000;3.764769
2997.000000;3.725031
2996.000000;3.687704
2995.000000;3.723927
2994.000000;4.182608
2993.000000;3.987323
2992.000000;3.539845
2991.000000;3.359066
2990.000000;3.308757
2989.000000;3.397111
2988.000000;3.657764
2987.000000;3.791266
2986.000000;3.684421
2985.000000;3.731934
2984.000000;3.729708
2983.000000;3.575176
2982.000000;3.499060
2981.000000;3.538454
2980.000000;3.741144
2979.000000;4.265395
2978.000000;4.256671
2977.000000;3.913701
2976.000000;3.855216
2975.000000;3.889116
2974.000000;4.075329
2973.000000;4.102377
2972.000000;3.955885
2971.000000;3.868702
2970.000000;3.896178
2969.000000;3.932612
2968.000000;4.256921
2967.000000;3.965910
2966.000000;3.535738
2965.000000;3.380310
2964.000000;3.368073
2963.000000;3.426577
2962.000000;3.492516
2961.000000;3.573368
2960.000000;3.728477
2959.000000;4.062588
2958.000000;4.510141
2957.000000;4.210101
2956.000000;3.969430
2955.000000;3.987471
2954.000000;3.825159
2953.000000;3.561906
2952.000000;3.525553
2951.000000;3.638759
2950.000000;4.048185
2949.000000;4.517387
2948.000000;3.867639
2947.000000;3.728807
2946.000000;3.777258
2945.000000;3.962409
2944.000000;4.247271
2943.000000;3.955839
2942.000000;3.584850
2941.000000;3.434462
2940.000000;3.408853
2939.000000;3.460468
2938.000000;3.553091
2937.000000;3.692159
2936.000000;3.920217
2935.000000;3.999724
2934.000000;3.672181
2933.000000;3.505688
2932.000000;3.506052
2931.000000;3.604086
2930.000000;3.605083
2929.000000;3.487773
2928.000000;3.435050
2927.000000;3.500993
2926.000000;3.881418
2925.000000;4.651597
2924.000000;3.813579
2923.000000;3.793960
2922.000000;3.789518
2921.000000;3.811283
2920.000000;3.814394
2919.000000;3.876638
2918.000000;3.819583
2917.000000;3.611456
2916.000000;3.460665
2915.000000;3.397572
2914.000000;3.397016
2913.000000;3.416659
2912.000000;3.416135
2911.000000;3.389079
2910.000000;3.408293
2909.000000;3.556201
2908.000000;4.105608
2907.000000;4.145785
2906.000000;4.027158
2905.000000;5.060780
2904.000000;3.840912
2903.000000;3.603782
2902.000000;3.510903
2901.000000;3.524499
2900.000000;3.635553
2899.000000;3.755043
2898.000000;3.726179
2897.000000;3.737432
2896.000000;4.063872
2895.000000;4.584512
2894.000000;4.089801
2893.000000;3.898657
2892.000000;3.714272
2891.000000;3.658664
2890.000000;3.734454
2889.000000;3.908725
2888.000000;3.968932
2887.000000;3.887655
2886.000000;3.801561
2885.000000;3.723668
2884.000000;3.672692
2883.000000;3.646717
2882.000000;3.645021
2881.000000;3.675282
2880.000000;3.706941
2879.000000;3.715227
2878.000000;3.739980
2877.000000;3.709013
2876.000000;3.593073
2875.000000;3.524739
2874.000000;3.515074
2873.000000;3.527157
2872.000000;3.536124
2871.000000;3.536588
2870.000000;3.533688
2869.000000;3.546890
2868.000000;3.596750
2867.000000;3.677086
2866.000000;3.727533
2865.000000;3.715799
2864.000000;3.697208
2863.000000;3.669067
2862.000000;3.577696
2861.000000;3.470104
2860.000000;3.425587
2859.000000;3.459514
2858.000000;3.545965
2857.000000;3.643912
2856.000000;3.781120
2855.000000;3.716928
2854.000000;3.508789
2853.000000;3.466472
2852.000000;3.654145
2851.000000;4.079860
2850.000000;3.719262
2849.000000;3.649498
2848.000000;3.624717
2847.000000;3.527830
2846.000000;3.492656
2845.000000;3.593100
2844.000000;3.790251
2843.000000;3.766029
2842.000000;3.577643
2841.000000;3.467714
2840.000000;3.439860
2839.000000;3.488853
2838.000000;3.605904
2837.000000;3.829966
2836.000000;3.927569
2835.000000;3.836602
2834.000000;3.848140
2833.000000;4.098981
2832.000000;4.290483
2831.000000;3.866853
2830.000000;3.670030
2829.000000;3.623341
2828.000000;3.678564
2827.000000;3.842360
2826.000000;4.141015
2825.000000;4.427279
2824.000000;4.164165
2823.000000;3.993039
2822.000000;3.917353
2821.000000;3.890013
2820.000000;3.783147
2819.000000;3.654439
2818.000000;3.607693
2817.000000;3.647423
2816.000000;3.685883
2815.000000;3.729730
2814.000000;3.742197
2813.000000;3.604359
2812.000000;3.552627
2811.000000;3.716208
2810.000000;4.135144
2809.000000;3.885702
2808.000000;3.647614
2807.000000;3.560633
2806.000000;3.411006
2805.000000;3.312877
2804.000000;3.329825
2803.000000;3.461319
2802.000000;3.624537
2801.000000;3.663935
2800.000000;3.633826
2799.000000;3.651784
2798.000000;3.765652
2797.000000;3.977321
2796.000000;4.181300
2795.000000;4.348069
2794.000000;4.381995
2793.000000;4.398615
2792.000000;4.576405
2791.000000;3.944388
2790.000000;3.624794
2789.000000;3.489092
2788.000000;3.485161
2787.000000;3.587922
2786.000000;3.703957
2785.000000;3.683220
2784.000000;3.686239
2783.000000;3.814866
2782.000000;4.302112
2781.000000;4.168003
2780.000000;3.728047
2779.000000;3.494884
2778.000000;3.349227
2777.000000;3.335974
2776.000000;3.465714
2775.000000;3.750409
2774.000000;3.971247
2773.000000;3.910981
2772.000000;3.804074
2771.000000;3.740257
2770.000000;3.771888
2769.000000;3.891363
2768.000000;3.853923
2767.000000;3.619106
2766.000000;3.472857
2765.000000;3.425115
2764.000000;3.469994
2763.000000;3.604009
2762.000000;3.881550
2761.000000;4.257310
2760.000000;4.181651
2759.000000;3.969157
2758.000000;3.696041
2757.000000;3.555603
2756.000000;3.626398
2755.000000;3.894481
2754.000000;3.892364
2753.000000;3.835680
2752.000000;3.950911
2751.000000;3.941689
2750.000000;3.901598
2749.000000;3.987140
2748.000000;4.480662
2747.000000;4.439433
2746.000000;5.017427
2745.000000;4.087354
2744.000000;3.787065
2743.000000;3.680554
2742.000000;3.624679
2741.000000;3.585316
2740.000000;3.586549
2739.000000;3.628409
2738.000000;3.603575
2737.000000;3.479671
2736.000000;3.410186
2735.000000;3.432107
2734.000000;3.516579
2733.000000;3.607866
2732.000000;3.703950
2731.000000;3.822608
2730.000000;4.343503
2729.000000;4.385868
2728.000000;3.831020
2727.000000;3.627202
2726.000000;3.490437
2725.000000;3.442271
2724.000000;3.466398
2723.000000;3.522367
2722.000000;3.558501
2721.000000;3.606592
2720.000000;3.725724
2719.000000;3.916147
2718.000000;3.994144
2717.000000;3.809116
2716.000000;3.613696
2715.000000;3.538630
2714.000000;3.565766
2713.000000;3.590282
2712.000000;3.532932
2711.000000;3.483247
2710.000000;3.513785
2709.000000;3.690014
2708.000000;3.827574
2707.000000;3.622808
2706.000000;3.514449
2705.000000;3.545499
2704.000000;3.694455
2703.000000;3.894733
2702.000000;3.972425
2701.000000;3.915745
2700.000000;3.890601
2699.000000;3.878537
2698.000000;3.798103
2697.000000;3.717470
2696.000000;3.661504
2695.000000;3.606377
2694.000000;3.578649
2693.000000;3.618670
2692.000000;3.731368
2691.000000;3.905561
2690.000000;4.218780
2689.000000;4.836237
2688.000000;4.179366
2687.000000;4.162850
2686.000000;3.954335
2685.000000;3.719738
2684.000000;3.717276
2683.000000;3.812505
2682.000000;3.815162
2681.000000;3.811325
2680.000000;3.871230
2679.000000;3.956863
2678.000000;4.030913
2677.000000;4.022523
2676.000000;3.950546
2675.000000;3.889804
2674.000000;3.854722
2673.000000;3.759538
2672.000000;3.592906
2671.000000;3.426897
2670.000000;3.312122
2669.000000;3.266964
2668.000000;3.274661
2667.000000;3.313296
2666.000000;3.393798
2665.000000;3.548940
2664.000000;3.607630
2663.000000;3.467812
2662.000000;3.407133
2661.000000;3.453269
2660.000000;3.549917
2659.000000;3.568908
2658.000000;3.500264
2657.000000;3.473998
2656.000000;3.533080
2655.000000;3.708161
2654.000000;3.907848
2653.000000;3.784470
2652.000000;3.685137
2651.000000;3.715896
2650.000000;3.770406
2649.000000;3.776226
2648.000000;3.705401
2647.000000;3.685598
2646.000000;3.943212
2645.000000;4.272347
2644.000000;3.792542
2643.000000;3.594457
2642.000000;3.582447
2641.000000;3.666935
2640.000000;3.734202
2639.000000;3.618153
2638.000000;3.507686
2637.000000;3.472273
2636.000000;3.503960
2635.000000;3.612340
2634.000000;3.751161
2633.000000;3.801425
2632.000000;3.895737
2631.000000;3.993142
2630.000000;3.755136
2629.000000;3.598849
2628.000000;3.627976
2627.000000;3.894188
2626.000000;4.512397
2625.000000;4.954222
2624.000000;4.154574
2623.000000;3.748904
2622.000000;3.636522
2621.000000;3.821138
2620.000000;4.183564
2619.000000;3.798593
2618.000000;3.670690
2617.000000;3.830402
2616.000000;4.077803
2615.000000;4.577113
2614.000000;4.296084
2613.000000;3.989261
2612.000000;3.714857
2611.000000;3.530447
2610.000000;3.492783
2609.000000;3.557955
2608.000000;3.648810
2607.000000;3.685779
2606.000000;3.686503
2605.000000;3.714939
2604.000000;3.771845
2603.000000;3.798084
2602.000000;3.868308
2601.000000;4.091861
2600.000000;4.038510
2599.000000;3.842906
2598.000000;3.736547
2597.000000;3.568285
2596.000000;3.474079
2595.000000;3.519579
2594.000000;3.696588
2593.000000;3.756859
2592.000000;3.638240
2591.000000;3.536932
2590.000000;3.436424
2589.000000;3.361399
2588.000000;3.344555
2587.000000;3.389937
2586.000000;3.489157
2585.000000;3.646224
2584.000000;3.918979
2583.000000;4.326419
2582.000000;4.101215
2581.000000;3.779872
2580.000000;3.559479
2579.000000;3.444356
2578.000000;3.428800
2577.000000;3.485243
2576.000000;3.566453
2575.000000;3.648613
2574.000000;3.724071
2573.000000;3.612294
2572.000000;3.445286
2571.000000;3.428863
2570.000000;3.623619
2569.000000;4.118578
2568.000000;4.045822
2567.000000;3.877867
2566.000000;4.032599
2565.000000;4.140772
2564.000000;4.008265
2563.000000;3.857880
2562.000000;3.797045
2561.000000;3.764564
2560.000000;3.733635
2559.000000;3.741505
2558.000000;3.846538
2557.000000;4.064835
2556.000000;4.214747
2555.000000;3.994207
2554.000000;3.931308
2553.000000;4.039822
2552.000000;3.779949
2551.000000;3.538237
2550.000000;3.451951
2549.000000;3.471978
2548.000000;3.580318
2547.000000;3.742596
2546.000000;3.885585
2545.000000;3.937494
2544.000000;3.846466
2543.000000;3.707394
2542.000000;3.656762
2541.000000;3.681438
2540.000000;3.671959
2539.000000;3.666636
2538.000000;3.731120
2537.000000;3.795884
2536.000000;3.906606
2535.000000;3.962313
2534.000000;3.782040
2533.000000;3.643168
2532.000000;3.578284
2531.000000;3.542387
2530.000000;3.548753
2529.000000;3.619303
2528.000000;3.703223
2527.000000;3.655070
2526.000000;3.536136
2525.000000;3.482454
2524.000000;3.508948
2523.000000;3.587274
2522.000000;3.670908
2521.000000;3.737722
2520.000000;4.047517
2519.000000;4.190522
2518.000000;3.780098
2517.000000;3.807293
2516.000000;3.780017
2515.000000;3.555637
2514.000000;3.439408
2513.000000;3.430515
2512.000000;3.495019
2511.000000;3.623392
2510.000000;3.841771
2509.000000;4.081177
2508.000000;3.940743
2507.000000;3.734104
2506.000000;3.665865
2505.000000;3.699733
2504.000000;3.695671
2503.000000;3.624608
2502.000000;3.595683
2501.000000;3.842126
2500.000000;4.436418
2499.000000;3.706686
2498.000000;3.591881
2497.000000;3.620083
2496.000000;3.668300
2495.000000;3.785344
2494.000000;3.854161
2493.000000;3.936587
2492.000000;3.978083
2491.000000;3.740028
2490.000000;3.619557
2489.000000;3.643521
2488.000000;3.708315
2487.000000;3.870993
2486.000000;4.133692
2485.000000;4.078635
2484.000000;3.888113
2483.000000;3.647373
2482.000000;3.527138
2481.000000;3.610758
2480.000000;3.832411
2479.000000;3.899779
2478.000000;3.675803
2477.000000;3.534776
2476.000000;3.578721
2475.000000;3.845891
2474.000000;4.353752
2473.000000;4.059320
2472.000000;3.674065
2471.000000;3.511199
2470.000000;3.500873
2469.000000;3.616477
2468.000000;3.794403
2467.000000;3.802814
2466.000000;3.676328
2465.000000;3.638395
2464.000000;3.703346
2463.000000;3.965636
2462.000000;4.336573
2461.000000;4.266671
2460.000000;4.226214
2459.000000;4.207826
2458.000000;4.443545
2457.000000;4.021802
2456.000000;3.671247
2455.000000;3.661249
2454.000000;4.053194
2453.000000;4.038088
2452.000000;3.646779
2451.000000;3.534819
2450.000000;3.540478
2449.000000;3.681461
2448.000000;3.909751
2447.000000;3.794453
2446.000000;3.642687
2445.000000;3.762246
2444.000000;3.977482
2443.000000;3.616903
2442.000000;3.468781
2441.000000;3.535453
2440.000000;3.703580
2439.000000;3.801458
2438.000000;3.760939
2437.000000;3.726817
2436.000000;3.667055
2435.000000;3.570881
2434.000000;3.511857
2433.000000;3.533586
2432.000000;3.581484
2431.000000;3.593424
2430.000000;3.598233
2429.000000;3.598158
2428.000000;3.552251
2427.000000;3.531787
2426.000000;3.571564
2425.000000;3.775434
2424.000000;4.512288
2423.000000;4.061252
2422.000000;3.893855
2421.000000;4.031727
2420.000000;3.775237
2419.000000;3.486929
2418.000000;3.339519
2417.000000;3.308692
2416.000000;3.381707
2415.000000;3.560053
2414.000000;3.755191
2413.000000;3.715003
2412.000000;3.501305
2411.000000;3.326132
2410.000000;3.244520
2409.000000;3.237192
2408.000000;3.278576
2407.000000;3.374186
2406.000000;3.606491
2405.000000;3.906735
2404.000000;3.721633
2403.000000;3.545096
2402.000000;3.516332
2401.000000;3.561274
2400.000000;3.683082
2399.000000;3.831602
2398.000000;3.888243
2397.000000;3.779781
2396.000000;3.635396
2395.000000;3.557691
2394.000000;3.541408
2393.000000;3.515623
2392.000000;3.457968
2391.000000;3.435133
2390.000000;3.491767
2389.000000;3.605593
2388.000000;3.609961
2387.000000;3.462225
2386.000000;3.334975
2385.000000;3.268263
2384.000000;3.256146
2383.000000;3.314863
2382.000000;3.493928
2381.000000;3.675442
2380.000000;3.676924
2379.000000;3.790940
2378.000000;3.981592
2377.000000;3.931206
2376.000000;3.795442
2375.000000;3.662445
2374.000000;3.568706
2373.000000;3.520780
2372.000000;3.500576
2371.000000;3.497137
2370.000000;3.504650
2369.000000;3.520139
2368.000000;3.531954
2367.000000;3.529296
2366.000000;3.535525
2365.000000;3.594792
2364.000000;3.752691
2363.000000;3.964352
2362.000000;4.006184
2361.000000;3.974042
2360.000000;3.881461
2359.000000;3.697661
2358.000000;3.576775
2357.000000;3.547258
2356.000000;3.548269
2355.000000;3.544119
2354.000000;3.503162
2353.000000;3.408026
2352.000000;3.301885
2351.000000;3.365642
2350.000000;3.881574
2349.000000;4.150865
2348.000000;3.923126
2347.000000;4.013550
2346.000000;3.926494
2345.000000;3.927868
2344.000000;4.096051
2343.000000;4.458009
2342.000000;4.336866
2341.000000;3.861317
2340.000000;3.637002
2339.000000;3.579997
2338.000000;3.625868
2337.000000;3.725647
2336.000000;3.795697
2335.000000;3.804808
2334.000000;3.857302
2333.000000;3.729222
2332.000000;3.471309
2331.000000;3.335450
2330.000000;3.321797
2329.000000;3.410893
2328.000000;3.543880
2327.000000;3.637947
2326.000000;3.619246
2325.000000;3.480163
2324.000000;3.360315
2323.000000;3.314954
2322.000000;3.325562
2321.000000;3.366001
2320.000000;3.459138
2319.000000;3.647499
2318.000000;4.052769
2317.000000;4.391714
2316.000000;3.862223
2315.000000;3.562974
2314.000000;3.403462
2313.000000;3.353564
2312.000000;3.441656
2311.000000;3.803026
2310.000000;4.160206
2309.000000;3.994319
2308.000000;3.952282
2307.000000;3.700105
2306.000000;3.643084
2305.000000;3.704474
2304.000000;3.802679
2303.000000;3.738978
2302.000000;3.544055
2301.000000;3.499208
2300.000000;3.529417
2299.000000;3.576459
2298.000000;3.638975
2297.000000;3.648383
2296.000000;3.531132
2295.000000;3.395669
2294.000000;3.298181
2293.000000;3.244205
2292.000000;3.254494
2291.000000;3.362245
2290.000000;3.577493
2289.000000;3.698422
2288.000000;3.603045
2287.000000;3.520297
2286.000000;3.562241
2285.000000;3.750454
2284.000000;4.020957
2283.000000;4.330951
2282.000000;4.123090
2281.000000;3.885323
2280.000000;3.968610
2279.000000;4.135666
2278.000000;4.097216
2277.000000;4.061288
2276.000000;4.007668
2275.000000;3.898043
2274.000000;3.838223
2273.000000;3.805334
2272.000000;3.725486
2271.000000;3.620725
2270.000000;3.547084
2269.000000;3.504390
2268.000000;3.451387
2267.000000;3.403328
2266.000000;3.428523
2265.000000;3.609826
2264.000000;4.089505
2263.000000;4.366780
2262.000000;3.835038
2261.000000;3.574153
2260.000000;3.564336
2259.000000;3.783066
2258.000000;3.817324
2257.000000;3.617297
2256.000000;3.522376
2255.000000;3.451521
2254.000000;3.424208
2253.000000;3.476792
2252.000000;3.713690
2251.000000;4.084269
2250.000000;3.861062
2249.000000;3.672196
2248.000000;3.659261
2247.000000;3.810858
2246.000000;3.979480
2245.000000;3.783383
2244.000000;3.740711
2243.000000;4.052682
2242.000000;3.990589
2241.000000;3.633579
2240.000000;3.463253
2239.000000;3.365479
2238.000000;3.339597
2237.000000;3.389746
2236.000000;3.539781
2235.000000;3.963184
2234.000000;4.232695
2233.000000;3.840557
2232.000000;3.807501
2231.000000;3.993623
2230.000000;4.317579
2229.000000;4.072393
2228.000000;3.710789
2227.000000;3.536990
2226.000000;3.422264
2225.000000;3.364358
2224.000000;3.373609
2223.000000;3.395203
2222.000000;3.367614
2221.000000;3.368805
2220.000000;3.456233
2219.000000;3.764218
2218.000000;4.285377
2217.000000;4.160940
2216.000000;4.412942
2215.000000;4.035547
2214.000000;3.703933
2213.000000;3.699207
2212.000000;3.774493
2211.000000;3.887593
2210.000000;3.973483
2209.000000;3.943831
2208.000000;3.761530
2207.000000;3.636173
2206.000000;3.631717
2205.000000;3.668931
2204.000000;3.686197
2203.000000;3.722494
2202.000000;3.923608
2201.000000;4.043882
2200.000000;3.838494
2199.000000;3.742930
2198.000000;3.637860
2197.000000;3.529699
2196.000000;3.480636
2195.000000;3.489937
2194.000000;3.576302
2193.000000;3.715322
2192.000000;3.838722
2191.000000;3.905471
2190.000000;3.951880
2189.000000;3.967847
2188.000000;3.929972
2187.000000;3.948860
2186.000000;4.011222
2185.000000;3.910214
2184.000000;3.777988
2183.000000;3.691192
2182.000000;3.594666
2181.000000;3.492582
2180.000000;3.452295
2179.000000;3.547109
2178.000000;3.783019
2177.000000;3.876641
2176.000000;3.709000
2175.000000;3.596775
2174.000000;3.622078
2173.000000;3.671473
2172.000000;3.561877
2171.000000;3.452459
2170.000000;3.420699
2169.000000;3.456571
2168.000000;3.595584
2167.000000;3.832818
2166.000000;3.898835
2165.000000;3.720851
2164.000000;3.605419
2163.000000;3.618307
2162.000000;3.641490
2161.000000;3.524557
2160.000000;3.417874
2159.000000;3.381374
2158.000000;3.371174
2157.000000;3.373516
2156.000000;3.405717
2155.000000;3.451733
2154.000000;3.429746
2153.000000;3.378966
2152.000000;3.382290
2151.000000;3.449058
2150.000000;3.571124
2149.000000;3.736940
2148.000000;3.869962
2147.000000;3.918438
2146.000000;3.975167
2145.000000;3.929523
2144.000000;3.916739
2143.000000;4.084252
2142.000000;3.911200
2141.000000;3.722005
2140.000000;3.703536
2139.000000;3.728864
2138.000000;3.756976
2137.000000;3.880738
2136.000000;4.465723
2135.000000;4.360202
2134.000000;3.980305
2133.000000;3.922559
2132.000000;3.796424
2131.000000;3.702995
2130.000000;3.637828
2129.000000;3.643083
2128.000000;3.695462
2127.000000;3.656713
2126.000000;3.606749
2125.000000;3.614082
2124.000000;3.630498
2123.000000;3.639675
2122.000000;3.656663
2121.000000;3.683232
2120.000000;3.701179
2119.000000;3.699599
2118.000000;3.702676
2117.000000;3.729263
2116.000000;3.789294
2115.000000;3.788986
2114.000000;3.660827
2113.000000;3.525399
2112.000000;3.447749
2111.000000;3.439959
2110.000000;3.515158
2109.000000;3.702753
2108.000000;3.917363
2107.000000;4.026794
2106.000000;4.085376
2105.000000;3.898831
2104.000000;3.739133
2103.000000;3.708043
2102.000000;3.918336
2101.000000;4.219106
2100.000000;3.981344
2099.000000;3.888993
2098.000000;3.992829
2097.000000;4.103751
2096.000000;3.730146
2095.000000;3.497005
2094.000000;3.498524
2093.000000;3.641536
2092.000000;4.097666
2091.000000;4.841438
2090.000000;3.963611
2089.000000;3.689542
2088.000000;3.525649
2087.000000;3.448380
2086.000000;3.446809
2085.000000;3.540772
2084.000000;3.969283
2083.000000;3.932830
2082.000000;3.603035
2081.000000;3.625708
2080.000000;3.761470
2079.000000;3.985552
2078.000000;4.171722
2077.000000;3.885317
2076.000000;3.596258
2075.000000;3.446214
2074.000000;3.420194
2073.000000;3.541632
2072.000000;3.706188
2071.000000;3.633942
2070.000000;3.665430
2069.000000;3.949865
2068.000000;3.968640
2067.000000;3.849091
2066.000000;4.114659
2065.000000;4.139545
2064.000000;3.686149
2063.000000;3.504095
2062.000000;3.416200
2061.000000;3.379198
2060.000000;3.386255
2059.000000;3.432590
2058.000000;3.538860
2057.000000;3.711899
2056.000000;4.064415
2055.000000;4.327101
2054.000000;3.947224
2053.000000;3.743255
2052.000000;3.627933
2051.000000;3.587916
2050.000000;3.624974
2049.000000;3.822210
2048.000000;4.269109
2047.000000;3.876660
2046.000000;3.616821
2045.000000;3.586177
2044.000000;3.672352
2043.000000;3.859119
2042.000000;3.956903
2041.000000;4.050058
2040.000000;4.065035
2039.000000;3.945477
2038.000000;3.927642
2037.000000;3.838287
2036.000000;3.734921
2035.000000;3.712656
2034.000000;3.793313
2033.000000;4.068577
2032.000000;3.851504
2031.000000;3.619367
2030.000000;3.625941
2029.000000;3.735206
2028.000000;3.724380
2027.000000;3.596591
2026.000000;3.488490
2025.000000;3.584445
2024.000000;4.267788
2023.000000;3.889340
2022.000000;3.591567
2021.000000;3.693432
2020.000000;3.798676
2019.000000;3.831430
2018.000000;3.813700
2017.000000;3.745834
2016.000000;3.582424
2015.000000;3.468048
2014.000000;3.444897
2013.000000;3.494280
2012.000000;3.536637
2011.000000;3.484053
2010.000000;3.390318
2009.000000;3.330476
2008.000000;3.329569
2007.000000;3.375919
2006.000000;3.418817
2005.000000;3.423873
2004.000000;3.422507
2003.000000;3.470709
2002.000000;3.587387
2001.000000;3.666380
2000.000000;3.642276
1999.000000;3.730783
1998.000000;3.866018
1997.000000;3.723377
1996.000000;3.690338
1995.000000;3.935094
1994.000000;4.268353
1993.000000;4.121092
1992.000000;3.765819
1991.000000;3.484721
1990.000000;3.341847
1989.000000;3.335137
1988.000000;3.436358
1987.000000;3.567433
1986.000000;3.605860
1985.000000;3.591235
1984.000000;3.636214
1983.000000;3.706659
1982.000000;3.654567
1981.000000;3.574960
1980.000000;3.587333
1979.000000;3.652716
1978.000000;3.629773
1977.000000;3.530781
1976.000000;3.501715
1975.000000;3.533166
1974.000000;3.486641
1973.000000;3.350720
1972.000000;3.242333
1971.000000;3.208998
1970.000000;3.252045
1969.000000;3.326878
1968.000000;3.350304
1967.000000;3.325222
1966.000000;3.345526
1965.000000;3.448225
1964.000000;3.560242
1963.000000;3.525814
1962.000000;3.371203
1961.000000;3.288510
1960.000000;3.326060
1959.000000;3.432398
1958.000000;3.499116
1957.000000;3.481139
1956.000000;3.484661
1955.000000;3.630087
1954.000000;3.993840
1953.000000;4.079514
1952.000000;3.923504
1951.000000;3.878576
1950.000000;3.814001
1949.000000;4.021955
1948.000000;4.359132
1947.000000;4.053383
1946.000000;3.813616
1945.000000;3.616917
1944.000000;3.459160
1943.000000;3.358749
1942.000000;3.304909
1941.000000;3.288344
1940.000000;3.266084
1939.000000;3.232815
1938.000000;3.262918
1937.000000;3.397568
1936.000000;3.600144
1935.000000;3.751303
1934.000000;3.804539
1933.000000;3.831999
1932.000000;3.679750
1931.000000;3.519086
1930.000000;3.523861
1929.000000;3.548676
1928.000000;3.473663
1927.000000;3.442505
1926.000000;3.523745
1925.000000;3.639390
1924.000000;3.688829
1923.000000;3.824114
1922.000000;3.953189
1921.000000;3.835040
1920.000000;3.828641
1919.000000;3.927668
1918.000000;3.924773
1917.000000;3.769479
1916.000000;3.635735
1915.000000;3.611800
1914.000000;3.724951
1913.000000;3.926631
1912.000000;4.253892
1911.000000;4.606667
1910.000000;4.043984
1909.000000;3.801071
1908.000000;3.634990
1907.000000;3.527034
1906.000000;3.548207
1905.000000;3.679612
1904.000000;3.831768
1903.000000;3.781275
1902.000000;3.657317
1901.000000;3.596898
1900.000000;3.618374
1899.000000;3.672336
1898.000000;3.826333
1897.000000;4.264681
1896.000000;3.853945
1895.000000;3.505326
1894.000000;3.473465
1893.000000;3.601983
1892.000000;3.779378
1891.000000;3.877160
1890.000000;3.803090
1889.000000;3.609903
1888.000000;3.527894
1887.000000;3.623198
1886.000000;3.799889
1885.000000;3.800171
1884.000000;3.691723
1883.000000;3.636608
1882.000000;3.679705
1881.000000;3.933095
1880.000000;4.367745
1879.000000;4.234852
1878.000000;4.131655
1877.000000;4.395299
1876.000000;4.410748
1875.000000;3.861472
1874.000000;3.672572
1873.000000;3.591747
1872.000000;3.560575
1871.000000;3.599751
1870.000000;3.715962
1869.000000;4.096055
1868.000000;4.564047
1867.000000;4.168546
1866.000000;3.939589
1865.000000;3.887627
1864.000000;3.979201
1863.000000;3.995424
1862.000000;4.033858
1861.000000;4.418325
1860.000000;4.592425
1859.000000;4.185776
1858.000000;4.078044
1857.000000;3.903285
1856.000000;3.669773
1855.000000;3.555112
1854.000000;3.534466
1853.000000;3.546926
1852.000000;3.568344
1851.000000;3.597267
1850.000000;3.615500
1849.000000;3.648095
1848.000000;3.716185
1847.000000;3.847992
1846.000000;3.948061
1845.000000;3.820024
1844.000000;3.694318
1843.000000;3.691674
1842.000000;3.739246
1841.000000;3.855549
1840.000000;4.322592
1839.000000;4.246178
1838.000000;3.899224
1837.000000;3.850114
1836.000000;3.823710
1835.000000;3.732761
1834.000000;3.561357
1833.000000;3.429463
1832.000000;3.406189
1831.000000;3.526250
1830.000000;3.820451
1829.000000;4.080065
1828.000000;4.320076
1827.000000;4.297984
1826.000000;4.034385
1825.000000;3.927470
1824.000000;3.771351
1823.000000;3.662208
1822.000000;3.633353
1821.000000;3.698839
1820.000000;3.859607
1819.000000;4.053569
1818.000000;4.498029
1817.000000;4.284575
1816.000000;3.845417
1815.000000;3.753406
1814.000000;3.759514
1813.000000;3.815922
1812.000000;3.868658
1811.000000;3.899137
1810.000000;3.858703
1809.000000;3.934891
1808.000000;4.435713
1807.000000;4.093528
1806.000000;3.883412
1805.000000;3.845709
1804.000000;3.730121
1803.000000;3.652812
1802.000000;3.631721
1801.000000;3.676314
1800.000000;3.734829
1799.000000;3.750142
1798.000000;3.765204
1797.000000;3.896048
1796.000000;3.861328
1795.000000;3.541461
1794.000000;3.387591
1793.000000;3.367680
1792.000000;3.445242
1791.000000;3.590023
1790.000000;3.690391
1789.000000;3.724681
1788.000000;3.767044
1787.000000;3.797843
1786.000000;3.816431
1785.000000;3.862018
1784.000000;3.860152
1783.000000;3.770759
1782.000000;3.696976
1781.000000;3.697872
1780.000000;3.786281
1779.000000;4.008212
1778.000000;4.303985
1777.000000;3.962510
1776.000000;3.631269
1775.000000;3.472022
1774.000000;3.441346
1773.000000;3.508315
1772.000000;3.628830
1771.000000;3.635209
1770.000000;3.550215
1769.000000;3.559223
1768.000000;3.620247
1767.000000;3.649847
1766.000000;3.664294
1765.000000;3.727858
1764.000000;3.782180
1763.000000;3.739848
1762.000000;3.619718
1761.000000;3.508856
1760.000000;3.456315
1759.000000;3.465007
1758.000000;3.489842
1757.000000;3.484423
1756.000000;3.476135
1755.000000;3.568549
1754.000000;3.943340
1753.000000;4.152482
1752.000000;3.839886
1751.000000;3.692882
1750.000000;3.707533
1749.000000;4.079789
1748.000000;3.948375
1747.000000;3.574829
1746.000000;3.492472
1745.000000;3.493400
1744.000000;3.515322
1743.000000;3.587272
1742.000000;3.794936
1741.000000;4.135829
1740.000000;4.442434
1739.000000;4.515060
1738.000000;4.399528
1737.000000;4.168901
1736.000000;3.926054
1735.000000;4.081612
1734.000000;4.420593
1733.000000;4.098369
1732.000000;4.310944
1731.000000;4.121324
1730.000000;3.774491
1729.000000;3.755959
1728.000000;3.778446
1727.000000;3.631544
1726.000000;3.486243
1725.000000;3.456381
1724.000000;3.522119
1723.000000;3.705193
1722.000000;4.105986
1721.000000;3.937786
1720.000000;3.629595
1719.000000;3.522225
1718.000000;3.523983
1717.000000;3.672454
1716.000000;3.897326
1715.000000;3.907891
1714.000000;3.885575
1713.000000;3.876598
1712.000000;4.004766
1711.000000;4.422354
1710.000000;4.098585
1709.000000;3.837785
1708.000000;3.812696
1707.000000;3.719580
1706.000000;3.595749
1705.000000;3.516230
1704.000000;3.532206
1703.000000;3.583507
1702.000000;3.546775
1701.000000;3.437649
1700.000000;3.351671
1699.000000;3.354402
1698.000000;3.345602
1697.000000;3.352653
1696.000000;3.429702
1695.000000;3.737347
1694.000000;3.901108
1693.000000;3.516327
1692.000000;3.489194
1691.000000;3.613356
1690.000000;4.015597
1689.000000;3.950074
1688.000000;3.475114
1687.000000;3.405927
1686.000000;3.471276
1685.000000;3.530808
1684.000000;3.475622
1683.000000;3.395037
1682.000000;3.390703
1681.000000;3.448299
1680.000000;3.533494
1679.000000;3.670096
1678.000000;3.985021
1677.000000;4.027139
1676.000000;3.745649
1675.000000;3.630491
1674.000000;3.651221
1673.000000;3.653789
1672.000000;3.634507
1671.000000;3.645789
1670.000000;3.622064
1669.000000;3.597344
1668.000000;3.566329
1667.000000;3.496527
1666.000000;3.443678
1665.000000;3.456290
1664.000000;3.550497
1663.000000;3.686585
1662.000000;3.682952
1661.000000;3.629712
1660.000000;3.783917
1659.000000;4.212776
1658.000000;3.884978
1657.000000;3.575606
1656.000000;3.589115
1655.000000;3.760378
1654.000000;3.868569
1653.000000;3.753945
1652.000000;3.719826
1651.000000;3.901056
1650.000000;3.948068
1649.000000;3.854329
1648.000000;3.832514
1647.000000;3.857451
1646.000000;3.965378
1645.000000;4.145374
1644.000000;4.364991
1643.000000;4.310344
1642.000000;3.947121
1641.000000;3.688177
1640.000000;3.574813
1639.000000;3.575696
1638.000000;3.580184
1637.000000;3.558563
1636.000000;3.579590
1635.000000;3.650120
1634.000000;3.781302
1633.000000;3.968952
1632.000000;4.175380
1631.000000;4.179642
1630.000000;4.149645
1629.000000;4.410154
1628.000000;3.941225
1627.000000;3.592328
1626.000000;3.554980
1625.000000;3.748673
1624.000000;3.949763
1623.000000;3.739942
1622.000000;3.628802
1621.000000;3.671379
1620.000000;3.791894
1619.000000;4.105033
1618.000000;4.108931
1617.000000;3.724911
1616.000000;3.575986
1615.000000;3.663360
1614.000000;3.975426
1613.000000;3.837456
1612.000000;3.722033
1611.000000;3.822050
1610.000000;3.983511
1609.000000;3.888212
1608.000000;3.797165
1607.000000;3.775705
1606.000000;3.697021
1605.000000;3.546295
1604.000000;3.446982
1603.000000;3.445930
1602.000000;3.577237
1601.000000;3.846346
1600.000000;3.852894
1599.000000;3.690295
1598.000000;3.585748
1597.000000;3.495066
1596.000000;3.473397
1595.000000;3.524332
1594.000000;3.643086
1593.000000;3.823837
1592.000000;4.067919
1591.000000;4.342545
1590.000000;4.604232
1589.000000;4.844665
1588.000000;4.764311
1587.000000;4.214393
1586.000000;3.897438
1585.000000;3.797970
1584.000000;3.897196
1583.000000;4.115531
1582.000000;4.251571
1581.000000;4.265784
1580.000000;4.056634
1579.000000;3.977138
1578.000000;4.122310
1577.000000;4.090797
1576.000000;3.798518
1575.000000;3.660033
1574.000000;3.635022
1573.000000;3.633850
1572.000000;3.607156
1571.000000;3.610694
1570.000000;3.697644
1569.000000;3.824537
1568.000000;3.945756
1567.000000;3.928010
1566.000000;3.860559
1565.000000;3.848874
1564.000000;3.855895
1563.000000;3.869826
1562.000000;3.781154
1561.000000;3.754432
1560.000000;3.799070
1559.000000;3.756419
1558.000000;3.612645
1557.000000;3.596432
1556.000000;3.686714
1555.000000;3.877779
1554.000000;4.289321
1553.000000;4.239998
1552.000000;3.912955
1551.000000;3.822464
1550.000000;3.749648
1549.000000;3.669913
1548.000000;3.593422
1547.000000;3.577497
1546.000000;3.557560
1545.000000;3.440910
1544.000000;3.322936
1543.000000;3.304085
1542.000000;3.399548
1541.000000;3.518679
1540.000000;3.610479
1539.000000;3.755456
1538.000000;3.911756
1537.000000;3.921005
1536.000000;3.920038
1535.000000;3.974847
1534.000000;3.843501
1533.000000;3.701422
1532.000000;3.720124
1531.000000;3.873635
1530.000000;3.824341
1529.000000;3.734124
1528.000000;3.761190
1527.000000;3.852708
1526.000000;3.883273
1525.000000;3.693562
1524.000000;3.614825
1523.000000;3.671779
1522.000000;3.739310
1521.000000;3.878241
1520.000000;3.902290
1519.000000;3.751586
1518.000000;3.750550
1517.000000;3.762206
1516.000000;3.740810
1515.000000;3.741457
1514.000000;3.745976
1513.000000;3.776012
1512.000000;3.845696
1511.000000;3.948185
1510.000000;4.192530
1509.000000;4.611414
1508.000000;3.976889
1507.000000;3.776060
1506.000000;3.721899
1505.000000;3.698241
1504.000000;3.643604
1503.000000;3.594278
1502.000000;3.593883
1501.000000;3.639859
1500.000000;3.698626
1499.000000;3.699444
1498.000000;3.624816
1497.000000;3.556346
1496.000000;3.543346
1495.000000;3.608089
1494.000000;3.764466
1493.000000;3.972609
1492.000000;4.056058
1491.000000;3.920177
1490.000000;3.749319
1489.000000;3.696647
1488.000000;3.829096
1487.000000;4.106557
1486.000000;3.852263
1485.000000;3.635487
1484.000000;3.572574
1483.000000;3.597694
1482.000000;3.679095
1481.000000;3.776610
1480.000000;3.931272
1479.000000;4.024504
1478.000000;3.876807
1477.000000;3.804791
1476.000000;3.803711
1475.000000;3.797306
1474.000000;3.719687
1473.000000;3.597998
1472.000000;3.461190
1471.000000;3.359951
1470.000000;3.345654
1469.000000;3.440473
1468.000000;3.651091
1467.000000;3.930956
1466.000000;4.073183
1465.000000;4.112055
1464.000000;4.091862
1463.000000;3.943993
1462.000000;3.859874
1461.000000;3.897600
1460.000000;4.075337
1459.000000;4.512486
1458.000000;5.057841
1457.000000;4.397411
1456.000000;3.894576
1455.000000;3.645432
1454.000000;3.532807
1453.000000;3.479183
1452.000000;3.481587
1451.000000;3.558621
1450.000000;3.624517
1449.000000;3.591753
1448.000000;3.595020
1447.000000;3.689445
1446.000000;3.835336
1445.000000;3.918236
1444.000000;3.892908
1443.000000;3.827866
1442.000000;3.736917
1441.000000;3.635229
1440.000000;3.534208
1439.000000;3.436528
1438.000000;3.381617
1437.000000;3.382129
1436.000000;3.449940
1435.000000;3.577001
1434.000000;3.610283
1433.000000;3.497272
1432.000000;3.401875
1431.000000;3.416049
1430.000000;3.582735
1429.000000;3.931763
1428.000000;3.768056
1427.000000;3.660475
1426.000000;3.783200
1425.000000;4.221268
1424.000000;4.468401
1423.000000;4.066082
1422.000000;3.920552
1421.000000;3.725657
1420.000000;3.589754
1419.000000;3.531745
1418.000000;3.588344
1417.000000;3.827611
1416.000000;4.194771
1415.000000;3.902452
1414.000000;3.630971
1413.000000;3.558153
1412.000000;3.630260
1411.000000;3.867537
1410.000000;4.206832
1409.000000;4.935812
1408.000000;4.392359
1407.000000;3.974899
1406.000000;3.819693
1405.000000;3.748035
1404.000000;3.762570
1403.000000;3.872294
1402.000000;4.120431
1401.000000;4.736191
1400.000000;4.814212
1399.000000;4.562981
1398.000000;4.387720
1397.000000;4.080537
1396.000000;3.824021
1395.000000;3.689409
1394.000000;3.678431
1393.000000;3.778934
1392.000000;4.025436
1391.000000;4.547418
1390.000000;4.379068
1389.000000;4.142936
1388.000000;4.075584
1387.000000;3.843595
1386.000000;3.682312
1385.000000;3.699176
1384.000000;3.879923
1383.000000;4.006967
1382.000000;4.049280
1381.000000;4.164144
1380.000000;4.374663
1379.000000;3.841773
1378.000000;3.549163
1377.000000;3.456089
1376.000000;3.486376
1375.000000;3.674619
1374.000000;3.997692
1373.000000;3.892804
1372.000000;3.935731
1371.000000;4.405736
1370.000000;4.087310
1369.000000;3.940170
1368.000000;4.112407
1367.000000;4.248541
1366.000000;3.915472
1365.000000;3.889117
1364.000000;4.050213
1363.000000;4.221573
1362.000000;4.062622
1361.000000;3.981558
1360.000000;4.065812
1359.000000;4.223364
1358.000000;4.061391
1357.000000;3.851944
1356.000000;3.788264
1355.000000;3.784009
1354.000000;3.699141
1353.000000;3.574345
1352.000000;3.509167
1351.000000;3.510096
1350.000000;3.561680
1349.000000;3.656136
1348.000000;3.791383
1347.000000;3.932665
1346.000000;3.981045
1345.000000;3.897074
1344.000000;3.769508
1343.000000;3.664637
1342.000000;3.618181
1341.000000;3.658130
1340.000000;3.826693
1339.000000;4.201080
1338.000000;4.201385
1337.000000;3.904167
1336.000000;3.842131
1335.000000;3.845347
1334.000000;3.828038
1333.000000;3.723670
1332.000000;3.611622
1331.000000;3.600161
1330.000000;3.725785
1329.000000;4.209837
1328.000000;4.508045
1327.000000;4.251138
1326.000000;4.637902
1325.000000;4.093266
1324.000000;3.887188
1323.000000;4.003312
1322.000000;4.750998
1321.000000;4.126384
1320.000000;3.990356
1319.000000;3.959480
1318.000000;3.771007
1317.000000;3.673966
1316.000000;3.645441
1315.000000;3.631914
1314.000000;3.702384
1313.000000;3.854897
1312.000000;3.945445
1311.000000;4.002289
1310.000000;3.957025
1309.000000;3.831764
1308.000000;3.759225
1307.000000;3.722155
1306.000000;3.711094
1305.000000;3.717540
1304.000000;3.737681
1303.000000;3.761578
1302.000000;3.785092
1301.000000;3.798808
1300.000000;3.817184
1299.000000;3.788364
1298.000000;3.716531
1297.000000;3.711474
1296.000000;3.826050
1295.000000;4.036457
1294.000000;4.528366
1293.000000;3.977833
1292.000000;3.686184
1291.000000;3.615474
1290.000000;3.704569
1289.000000;3.883416
1288.000000;3.920560
1287.000000;4.058005
1286.000000;4.290125
1285.000000;3.959332
1284.000000;3.923114
1283.000000;4.075080
1282.000000;4.083781
1281.000000;3.910797
1280.000000;3.856813
1279.000000;3.867618
1278.000000;4.086942
1277.000000;4.216017
1276.000000;3.825300
1275.000000;3.605219
1274.000000;3.518693
1273.000000;3.521786
1272.000000;3.585695
1271.000000;3.632546
1270.000000;3.587699
1269.000000;3.539579
1268.000000;3.594199
1267.000000;3.784394
1266.000000;3.943290
1265.000000;3.917352
1264.000000;3.973653
1263.000000;4.071043
1262.000000;4.085979
1261.000000;4.055171
1260.000000;4.027060
1259.000000;4.161985
1258.000000;4.182916
1257.000000;3.995130
1256.000000;4.187951
1255.000000;4.183573
1254.000000;3.857667
1253.000000;3.783984
1252.000000;3.713449
1251.000000;3.630659
1250.000000;3.563381
1249.000000;3.523865
1248.000000;3.520863
1247.000000;3.586087
1246.000000;3.766329
1245.000000;4.208017
1244.000000;4.416424
1243.000000;4.187451
1242.000000;4.039494
1241.000000;3.981435
1240.000000;3.817972
1239.000000;3.660473
1238.000000;3.619197
1237.000000;3.637969
1236.000000;3.684229
1235.000000;3.752584
1234.000000;3.793783
1233.000000;3.778578
1232.000000;3.775076
1231.000000;3.798614
1230.000000;3.744225
1229.000000;3.647105
1228.000000;3.617038
1227.000000;3.678581
1226.000000;3.812842
1225.000000;3.900532
1224.000000;3.864431
1223.000000;3.792281
1222.000000;3.712103
1221.000000;3.662438
1220.000000;3.690745
1219.000000;3.778544
1218.000000;3.851685
1217.000000;3.937542
1216.000000;4.063372
1215.000000;4.228665
1214.000000;4.533302
1213.000000;5.175539
1212.000000;4.417967
1211.000000;4.097785
1210.000000;3.959236
1209.000000;3.892966
1208.000000;3.877722
1207.000000;3.880392
1206.000000;3.873308
1205.000000;3.886501
1204.000000;3.854504
1203.000000;3.733436
1202.000000;3.589915
1201.000000;3.527022
1200.000000;3.480464
