Criado como novo conjunto de dados;"Jao_teste_celulas.spp","7803.7 Secs"
cm-1;Abs
10000.000000;1.457058
9999.000000;1.455564
9998.000000;1.454075
9997.000000;1.452592
9996.000000;1.451113
9995.000000;1.449639
9994.000000;1.448170
9993.000000;1.446707
9992.000000;1.445244
9991.000000;1.444051
9990.000000;1.443735
9989.000000;1.444676
9988.000000;1.446518
9987.000000;1.448045
9986.000000;1.447907
9985.000000;1.445792
9984.000000;1.442848
9983.000000;1.440812
9982.000000;1.440638
9981.000000;1.441785
9980.000000;1.442688
9979.000000;1.442078
9978.000000;1.440081
9977.000000;1.437983
9976.000000;1.436821
9975.000000;1.436378
9974.000000;1.435773
9973.000000;1.434859
9972.000000;1.434533
9971.000000;1.435540
9970.000000;1.437405
9969.000000;1.438870
9968.000000;1.439213
9967.000000;1.438798
9966.000000;1.438353
9965.000000;1.438077
9964.000000;1.437579
9963.000000;1.436526
9962.000000;1.435176
9961.000000;1.434156
9960.000000;1.433747
9959.000000;1.433537
9958.000000;1.432979
9957.000000;1.432173
9956.000000;1.431717
9955.000000;1.431708
9954.000000;1.431362
9953.000000;1.429970
9952.000000;1.427957
9951.000000;1.426513
9950.000000;1.426226
9949.000000;1.426513
9948.000000;1.426490
9947.000000;1.426007
9946.000000;1.425538
9945.000000;1.425344
9944.000000;1.425167
9943.000000;1.424737
9942.000000;1.424181
9941.000000;1.423700
9940.000000;1.423106
9939.000000;1.422040
9938.000000;1.420641
9937.000000;1.419656
9936.000000;1.419665
9935.000000;1.420444
9934.000000;1.421347
9933.000000;1.422105
9932.000000;1.422866
9931.000000;1.423515
9930.000000;1.423449
9929.000000;1.422321
9928.000000;1.420685
9927.000000;1.419552
9926.000000;1.419380
9925.000000;1.419715
9924.000000;1.419714
9923.000000;1.418840
9922.000000;1.417182
9921.000000;1.415380
9920.000000;1.414233
9919.000000;1.414092
9918.000000;1.414519
9917.000000;1.414689
9916.000000;1.414227
9915.000000;1.413521
9914.000000;1.413164
9913.000000;1.413300
9912.000000;1.413635
9911.000000;1.413905
9910.000000;1.414071
9909.000000;1.414057
9908.000000;1.413579
9907.000000;1.412400
9906.000000;1.410694
9905.000000;1.408988
9904.000000;1.407762
9903.000000;1.407163
9902.000000;1.406993
9901.000000;1.406885
9900.000000;1.406566
9899.000000;1.406097
9898.000000;1.405856
9897.000000;1.406122
9896.000000;1.406684
9895.000000;1.407030
9894.000000;1.406919
9893.000000;1.406580
9892.000000;1.406269
9891.000000;1.405910
9890.000000;1.405294
9889.000000;1.404383
9888.000000;1.403169
9887.000000;1.401432
9886.000000;1.399044
9885.000000;1.396482
9884.000000;1.394693
9883.000000;1.394309
9882.000000;1.395147
9881.000000;1.396500
9880.000000;1.397737
9879.000000;1.398560
9878.000000;1.398899
9877.000000;1.398797
9876.000000;1.398403
9875.000000;1.397908
9874.000000;1.397427
9873.000000;1.396946
9872.000000;1.396367
9871.000000;1.395582
9870.000000;1.394526
9869.000000;1.393242
9868.000000;1.391937
9867.000000;1.390935
9866.000000;1.390418
9865.000000;1.390105
9864.000000;1.389385
9863.000000;1.388059
9862.000000;1.386840
9861.000000;1.386695
9860.000000;1.387618
9859.000000;1.388473
9858.000000;1.388308
9857.000000;1.387427
9856.000000;1.386754
9855.000000;1.386545
9854.000000;1.386343
9853.000000;1.385974
9852.000000;1.385875
9851.000000;1.386315
9850.000000;1.386832
9849.000000;1.386706
9848.000000;1.385718
9847.000000;1.384280
9846.000000;1.383018
9845.000000;1.382345
9844.000000;1.382218
9843.000000;1.382227
9842.000000;1.382055
9841.000000;1.381828
9840.000000;1.381773
9839.000000;1.381736
9838.000000;1.381399
9837.000000;1.380868
9836.000000;1.380512
9835.000000;1.380292
9834.000000;1.379891
9833.000000;1.379493
9832.000000;1.379623
9831.000000;1.380012
9830.000000;1.379458
9829.000000;1.377403
9828.000000;1.374986
9827.000000;1.373805
9826.000000;1.374045
9825.000000;1.374497
9824.000000;1.374169
9823.000000;1.373153
9822.000000;1.371949
9821.000000;1.370771
9820.000000;1.369768
9819.000000;1.369314
9818.000000;1.369623
9817.000000;1.370338
9816.000000;1.370830
9815.000000;1.370846
9814.000000;1.370691
9813.000000;1.370786
9812.000000;1.371169
9811.000000;1.371423
9810.000000;1.371093
9809.000000;1.370166
9808.000000;1.369112
9807.000000;1.368432
9806.000000;1.368207
9805.000000;1.368112
9804.000000;1.367755
9803.000000;1.367007
9802.000000;1.366136
9801.000000;1.365668
9800.000000;1.365898
9799.000000;1.366464
9798.000000;1.366641
9797.000000;1.366188
9796.000000;1.365636
9795.000000;1.365533
9794.000000;1.365674
9793.000000;1.365383
9792.000000;1.364350
9791.000000;1.362902
9790.000000;1.361597
9789.000000;1.360838
9788.000000;1.360753
9787.000000;1.361039
9786.000000;1.361016
9785.000000;1.360234
9784.000000;1.359076
9783.000000;1.358403
9782.000000;1.358512
9781.000000;1.358744
9780.000000;1.358247
9779.000000;1.356896
9778.000000;1.355352
9777.000000;1.354417
9776.000000;1.354421
9775.000000;1.355028
9774.000000;1.355435
9773.000000;1.354939
9772.000000;1.353543
9771.000000;1.352035
9770.000000;1.351354
9769.000000;1.351792
9768.000000;1.352728
9767.000000;1.353119
9766.000000;1.352344
9765.000000;1.350709
9764.000000;1.349145
9763.000000;1.348392
9762.000000;1.348456
9761.000000;1.348802
9760.000000;1.348921
9759.000000;1.348690
9758.000000;1.348304
9757.000000;1.348016
9756.000000;1.347905
9755.000000;1.347802
9754.000000;1.347487
9753.000000;1.346998
9752.000000;1.346624
9751.000000;1.346482
9750.000000;1.346248
9749.000000;1.345487
9748.000000;1.344208
9747.000000;1.342911
9746.000000;1.342114
9745.000000;1.341964
9744.000000;1.342236
9743.000000;1.342550
9742.000000;1.342596
9741.000000;1.342286
9740.000000;1.341767
9739.000000;1.341238
9738.000000;1.340772
9737.000000;1.340348
9736.000000;1.339984
9735.000000;1.339725
9734.000000;1.339525
9733.000000;1.339243
9732.000000;1.338755
9731.000000;1.338086
9730.000000;1.337435
9729.000000;1.337040
9728.000000;1.336884
9727.000000;1.336607
9726.000000;1.335927
9725.000000;1.335173
9724.000000;1.335083
9723.000000;1.335937
9722.000000;1.337112
9721.000000;1.337664
9720.000000;1.337140
9719.000000;1.335694
9718.000000;1.333727
9717.000000;1.331734
9716.000000;1.330292
9715.000000;1.329744
9714.000000;1.329882
9713.000000;1.330185
9712.000000;1.330360
9711.000000;1.330410
9710.000000;1.330243
9709.000000;1.329581
9708.000000;1.328342
9707.000000;1.326934
9706.000000;1.326044
9705.000000;1.326124
9704.000000;1.326969
9703.000000;1.327733
9702.000000;1.327532
9701.000000;1.326234
9700.000000;1.324548
9699.000000;1.323215
9698.000000;1.322327
9697.000000;1.321569
9696.000000;1.320853
9695.000000;1.320381
9694.000000;1.320280
9693.000000;1.320525
9692.000000;1.321102
9691.000000;1.321865
9690.000000;1.322358
9689.000000;1.322184
9688.000000;1.321547
9687.000000;1.321025
9686.000000;1.320865
9685.000000;1.320861
9684.000000;1.320808
9683.000000;1.320579
9682.000000;1.319769
9681.000000;1.318003
9680.000000;1.315817
9679.000000;1.314552
9678.000000;1.314963
9677.000000;1.316316
9676.000000;1.317208
9675.000000;1.317031
9674.000000;1.316248
9673.000000;1.315543
9672.000000;1.315209
9671.000000;1.315216
9670.000000;1.315286
9669.000000;1.314914
9668.000000;1.313808
9667.000000;1.312423
9666.000000;1.311654
9665.000000;1.311828
9664.000000;1.312276
9663.000000;1.312122
9662.000000;1.311318
9661.000000;1.310605
9660.000000;1.310539
9659.000000;1.310867
9658.000000;1.310907
9657.000000;1.310332
9656.000000;1.309403
9655.000000;1.308550
9654.000000;1.307996
9653.000000;1.307798
9652.000000;1.307959
9651.000000;1.308271
9650.000000;1.308226
9649.000000;1.307404
9648.000000;1.305972
9647.000000;1.304541
9646.000000;1.303470
9645.000000;1.302564
9644.000000;1.301571
9643.000000;1.300731
9642.000000;1.300553
9641.000000;1.301135
9640.000000;1.301885
9639.000000;1.302012
9638.000000;1.301228
9637.000000;1.299986
9636.000000;1.299054
9635.000000;1.298835
9634.000000;1.299100
9633.000000;1.299367
9632.000000;1.299486
9631.000000;1.299710
9630.000000;1.300252
9629.000000;1.300913
9628.000000;1.301182
9627.000000;1.300659
9626.000000;1.299370
9625.000000;1.297807
9624.000000;1.296660
9623.000000;1.296384
9622.000000;1.296903
9621.000000;1.297763
9620.000000;1.298500
9619.000000;1.298751
9618.000000;1.298196
9617.000000;1.296780
9616.000000;1.295034
9615.000000;1.293791
9614.000000;1.293329
9613.000000;1.293009
9612.000000;1.292007
9611.000000;1.290318
9610.000000;1.288793
9609.000000;1.288292
9608.000000;1.288962
9607.000000;1.290257
9606.000000;1.291419
9605.000000;1.291961
9604.000000;1.291864
9603.000000;1.291403
9602.000000;1.290794
9601.000000;1.290062
9600.000000;1.289237
9599.000000;1.288470
9598.000000;1.287811
9597.000000;1.287084
9596.000000;1.286212
9595.000000;1.285547
9594.000000;1.285549
9593.000000;1.286147
9592.000000;1.286700
9591.000000;1.286680
9590.000000;1.286142
9589.000000;1.285415
9588.000000;1.284606
9587.000000;1.283666
9586.000000;1.282726
9585.000000;1.282063
9584.000000;1.281758
9583.000000;1.281629
9582.000000;1.281521
9581.000000;1.281442
9580.000000;1.281330
9579.000000;1.280953
9578.000000;1.280232
9577.000000;1.279468
9576.000000;1.278985
9575.000000;1.278628
9574.000000;1.277905
9573.000000;1.276677
9572.000000;1.275452
9571.000000;1.274843
9570.000000;1.274912
9569.000000;1.275206
9568.000000;1.275339
9567.000000;1.275331
9566.000000;1.275406
9565.000000;1.275632
9564.000000;1.275796
9563.000000;1.275600
9562.000000;1.274985
9561.000000;1.274294
9560.000000;1.274004
9559.000000;1.274176
9558.000000;1.274247
9557.000000;1.273506
9556.000000;1.271799
9555.000000;1.269692
9554.000000;1.268018
9553.000000;1.267355
9552.000000;1.267778
9551.000000;1.268829
9550.000000;1.269702
9549.000000;1.269713
9548.000000;1.268750
9547.000000;1.267270
9546.000000;1.265858
9545.000000;1.264845
9544.000000;1.264286
9543.000000;1.264068
9542.000000;1.264004
9541.000000;1.263982
9540.000000;1.264073
9539.000000;1.264364
9538.000000;1.264695
9537.000000;1.264768
9536.000000;1.264574
9535.000000;1.264450
9534.000000;1.264534
9533.000000;1.264390
9532.000000;1.263412
9531.000000;1.261551
9530.000000;1.259453
9529.000000;1.257900
9528.000000;1.257252
9527.000000;1.257330
9526.000000;1.257650
9525.000000;1.257806
9524.000000;1.257779
9523.000000;1.257896
9522.000000;1.258394
9521.000000;1.259060
9520.000000;1.259382
9519.000000;1.259059
9518.000000;1.258264
9517.000000;1.257403
9516.000000;1.256682
9515.000000;1.255958
9514.000000;1.254990
9513.000000;1.253828
9512.000000;1.252876
9511.000000;1.252513
9510.000000;1.252657
9509.000000;1.252864
9508.000000;1.252858
9507.000000;1.252755
9506.000000;1.252699
9505.000000;1.252513
9504.000000;1.251956
9503.000000;1.251196
9502.000000;1.250757
9501.000000;1.251011
9500.000000;1.251834
9499.000000;1.252680
9498.000000;1.252850
9497.000000;1.251865
9496.000000;1.249898
9495.000000;1.247841
9494.000000;1.246665
9493.000000;1.246573
9492.000000;1.246901
9491.000000;1.246891
9490.000000;1.246396
9489.000000;1.245770
9488.000000;1.245298
9487.000000;1.244979
9486.000000;1.244764
9485.000000;1.244735
9484.000000;1.244934
9483.000000;1.245128
9482.000000;1.244948
9481.000000;1.244327
9480.000000;1.243703
9479.000000;1.243580
9478.000000;1.243815
9477.000000;1.243584
9476.000000;1.242277
9475.000000;1.240336
9474.000000;1.238885
9473.000000;1.238536
9472.000000;1.238837
9471.000000;1.238955
9470.000000;1.238623
9469.000000;1.238184
9468.000000;1.237970
9467.000000;1.238010
9466.000000;1.238283
9465.000000;1.238842
9464.000000;1.239543
9463.000000;1.239894
9462.000000;1.239428
9461.000000;1.238211
9460.000000;1.236865
9459.000000;1.236075
9458.000000;1.236057
9457.000000;1.236416
9456.000000;1.236473
9455.000000;1.235834
9454.000000;1.234746
9453.000000;1.233866
9452.000000;1.233596
9451.000000;1.233658
9450.000000;1.233384
9449.000000;1.232412
9448.000000;1.231071
9447.000000;1.230078
9446.000000;1.229915
9445.000000;1.230459
9444.000000;1.231110
9443.000000;1.231287
9442.000000;1.230872
9441.000000;1.230194
9440.000000;1.229580
9439.000000;1.229010
9438.000000;1.228276
9437.000000;1.227364
9436.000000;1.226489
9435.000000;1.225763
9434.000000;1.225092
9433.000000;1.224486
9432.000000;1.224228
9431.000000;1.224491
9430.000000;1.224964
9429.000000;1.225150
9428.000000;1.224981
9427.000000;1.224812
9426.000000;1.224805
9425.000000;1.224643
9424.000000;1.223981
9423.000000;1.222942
9422.000000;1.221957
9421.000000;1.221291
9420.000000;1.220912
9419.000000;1.220693
9418.000000;1.220520
9417.000000;1.220248
9416.000000;1.219750
9415.000000;1.219048
9414.000000;1.218333
9413.000000;1.217865
9412.000000;1.217901
9411.000000;1.218532
9410.000000;1.219442
9409.000000;1.219925
9408.000000;1.219451
9407.000000;1.218262
9406.000000;1.217211
9405.000000;1.216922
9404.000000;1.217232
9403.000000;1.217458
9402.000000;1.217083
9401.000000;1.216168
9400.000000;1.215248
9399.000000;1.214874
9398.000000;1.215106
9397.000000;1.215345
9396.000000;1.214837
9395.000000;1.213497
9394.000000;1.212129
9393.000000;1.211646
9392.000000;1.212142
9391.000000;1.212877
9390.000000;1.213109
9389.000000;1.212719
9388.000000;1.212018
9387.000000;1.211240
9386.000000;1.210477
9385.000000;1.209962
9384.000000;1.210071
9383.000000;1.210853
9382.000000;1.211682
9381.000000;1.211603
9380.000000;1.210160
9379.000000;1.207907
9378.000000;1.206016
9377.000000;1.205351
9376.000000;1.205874
9375.000000;1.206846
9374.000000;1.207518
9373.000000;1.207658
9372.000000;1.207473
9371.000000;1.207175
9370.000000;1.206705
9369.000000;1.205912
9368.000000;1.204890
9367.000000;1.204035
9366.000000;1.203706
9365.000000;1.203868
9364.000000;1.204113
9363.000000;1.204057
9362.000000;1.203687
9361.000000;1.203330
9360.000000;1.203319
9359.000000;1.203677
9358.000000;1.204061
9357.000000;1.204014
9356.000000;1.203284
9355.000000;1.202014
9354.000000;1.200679
9353.000000;1.199788
9352.000000;1.199514
9351.000000;1.199502
9350.000000;1.199105
9349.000000;1.197966
9348.000000;1.196438
9347.000000;1.195299
9346.000000;1.195020
9345.000000;1.195370
9344.000000;1.195769
9343.000000;1.195904
9342.000000;1.195871
9341.000000;1.195811
9340.000000;1.195649
9339.000000;1.195234
9338.000000;1.194567
9337.000000;1.193780
9336.000000;1.192982
9335.000000;1.192231
9334.000000;1.191634
9333.000000;1.191398
9332.000000;1.191687
9331.000000;1.192367
9330.000000;1.192914
9329.000000;1.192753
9328.000000;1.191839
9327.000000;1.190828
9326.000000;1.190452
9325.000000;1.190728
9324.000000;1.190972
9323.000000;1.190635
9322.000000;1.189887
9321.000000;1.189276
9320.000000;1.189059
9319.000000;1.189072
9318.000000;1.189120
9317.000000;1.189204
9316.000000;1.189312
9315.000000;1.189215
9314.000000;1.188612
9313.000000;1.187468
9312.000000;1.186155
9311.000000;1.185253
9310.000000;1.185114
9309.000000;1.185522
9308.000000;1.185826
9307.000000;1.185495
9306.000000;1.184536
9305.000000;1.183351
9304.000000;1.182313
9303.000000;1.181634
9302.000000;1.181474
9301.000000;1.181907
9300.000000;1.182737
9299.000000;1.183532
9298.000000;1.183925
9297.000000;1.183838
9296.000000;1.183444
9295.000000;1.183020
9294.000000;1.182798
9293.000000;1.182758
9292.000000;1.182551
9291.000000;1.181823
9290.000000;1.180664
9289.000000;1.179565
9288.000000;1.178865
9287.000000;1.178433
9286.000000;1.178004
9285.000000;1.177581
9284.000000;1.177293
9283.000000;1.177016
9282.000000;1.176476
9281.000000;1.175730
9280.000000;1.175248
9279.000000;1.175339
9278.000000;1.175671
9277.000000;1.175580
9276.000000;1.174857
9275.000000;1.174047
9274.000000;1.173866
9273.000000;1.174377
9272.000000;1.174867
9271.000000;1.174563
9270.000000;1.173397
9269.000000;1.171967
9268.000000;1.170867
9267.000000;1.170236
9266.000000;1.169948
9265.000000;1.169972
9264.000000;1.170387
9263.000000;1.171137
9262.000000;1.171943
9261.000000;1.172452
9260.000000;1.172435
9259.000000;1.171923
9258.000000;1.171198
9257.000000;1.170545
9256.000000;1.169922
9255.000000;1.169021
9254.000000;1.167778
9253.000000;1.166630
9252.000000;1.166028
9251.000000;1.165826
9250.000000;1.165513
9249.000000;1.165017
9248.000000;1.164878
9247.000000;1.165469
9246.000000;1.166390
9245.000000;1.166895
9244.000000;1.166708
9243.000000;1.166141
9242.000000;1.165546
9241.000000;1.164987
9240.000000;1.164459
9239.000000;1.164075
9238.000000;1.163914
9237.000000;1.163857
9236.000000;1.163710
9235.000000;1.163386
9234.000000;1.162919
9233.000000;1.162395
9232.000000;1.161939
9231.000000;1.161672
9230.000000;1.161608
9229.000000;1.161642
9228.000000;1.161650
9227.000000;1.161544
9226.000000;1.161232
9225.000000;1.160677
9224.000000;1.160017
9223.000000;1.159471
9222.000000;1.159052
9221.000000;1.158539
9220.000000;1.157850
9219.000000;1.157275
9218.000000;1.157145
9217.000000;1.157390
9216.000000;1.157629
9215.000000;1.157618
9214.000000;1.157404
9213.000000;1.157075
9212.000000;1.156628
9211.000000;1.156101
9210.000000;1.155589
9209.000000;1.155027
9208.000000;1.154208
9207.000000;1.153138
9206.000000;1.152180
9205.000000;1.151699
9204.000000;1.151731
9203.000000;1.152126
9202.000000;1.152834
9201.000000;1.153792
9200.000000;1.154653
9199.000000;1.154943
9198.000000;1.154524
9197.000000;1.153677
9196.000000;1.152696
9195.000000;1.151607
9194.000000;1.150355
9193.000000;1.149104
9192.000000;1.148206
9191.000000;1.147940
9190.000000;1.148275
9189.000000;1.148843
9188.000000;1.149165
9187.000000;1.149022
9186.000000;1.148613
9185.000000;1.148206
9184.000000;1.147723
9183.000000;1.146892
9182.000000;1.145826
9181.000000;1.145137
9180.000000;1.145259
9179.000000;1.145866
9178.000000;1.146190
9177.000000;1.145865
9176.000000;1.145239
9175.000000;1.144860
9174.000000;1.144904
9173.000000;1.145152
9172.000000;1.145313
9171.000000;1.145218
9170.000000;1.144830
9169.000000;1.144221
9168.000000;1.143533
9167.000000;1.142866
9166.000000;1.142224
9165.000000;1.141629
9164.000000;1.141232
9163.000000;1.141190
9162.000000;1.141397
9161.000000;1.141474
9160.000000;1.141148
9159.000000;1.140593
9158.000000;1.140227
9157.000000;1.140192
9156.000000;1.140183
9155.000000;1.139882
9154.000000;1.139364
9153.000000;1.138952
9152.000000;1.138765
9151.000000;1.138632
9150.000000;1.138401
9149.000000;1.138128
9148.000000;1.137924
9147.000000;1.137760
9146.000000;1.137540
9145.000000;1.137252
9144.000000;1.136964
9143.000000;1.136705
9142.000000;1.136416
9141.000000;1.136008
9140.000000;1.135478
9139.000000;1.134983
9138.000000;1.134733
9137.000000;1.134772
9136.000000;1.134919
9135.000000;1.135010
9134.000000;1.135068
9133.000000;1.135059
9132.000000;1.134641
9131.000000;1.133487
9130.000000;1.131867
9129.000000;1.130576
9128.000000;1.130156
9127.000000;1.130454
9126.000000;1.130995
9125.000000;1.131463
9124.000000;1.131647
9123.000000;1.131287
9122.000000;1.130377
9121.000000;1.129393
9120.000000;1.128832
9119.000000;1.128636
9118.000000;1.128418
9117.000000;1.128145
9116.000000;1.128149
9115.000000;1.128458
9114.000000;1.128577
9113.000000;1.128129
9112.000000;1.127404
9111.000000;1.127020
9110.000000;1.127203
9109.000000;1.127587
9108.000000;1.127601
9107.000000;1.126939
9106.000000;1.125772
9105.000000;1.124623
9104.000000;1.123940
9103.000000;1.123714
9102.000000;1.123607
9101.000000;1.123436
9100.000000;1.123324
9099.000000;1.123333
9098.000000;1.123241
9097.000000;1.122897
9096.000000;1.122541
9095.000000;1.122468
9094.000000;1.122519
9093.000000;1.122266
9092.000000;1.121650
9091.000000;1.121117
9090.000000;1.121030
9089.000000;1.121233
9088.000000;1.121311
9087.000000;1.121071
9086.000000;1.120578
9085.000000;1.119907
9084.000000;1.119106
9083.000000;1.118359
9082.000000;1.117944
9081.000000;1.117977
9080.000000;1.118268
9079.000000;1.118482
9078.000000;1.118359
9077.000000;1.117807
9076.000000;1.116900
9075.000000;1.115853
9074.000000;1.114951
9073.000000;1.114384
9072.000000;1.114168
9071.000000;1.114192
9070.000000;1.114288
9069.000000;1.114233
9068.000000;1.113826
9067.000000;1.113118
9066.000000;1.112508
9065.000000;1.112412
9064.000000;1.112807
9063.000000;1.113237
9062.000000;1.113361
9061.000000;1.113326
9060.000000;1.113421
9059.000000;1.113505
9058.000000;1.113080
9057.000000;1.111976
9056.000000;1.110720
9055.000000;1.110012
9054.000000;1.109964
9053.000000;1.110042
9052.000000;1.109761
9051.000000;1.109240
9050.000000;1.108961
9049.000000;1.109114
9048.000000;1.109352
9047.000000;1.109194
9046.000000;1.108523
9045.000000;1.107602
9044.000000;1.106778
9043.000000;1.106290
9042.000000;1.106268
9041.000000;1.106662
9040.000000;1.107121
9039.000000;1.107147
9038.000000;1.106547
9037.000000;1.105688
9036.000000;1.105198
9035.000000;1.105420
9034.000000;1.106176
9033.000000;1.106964
9032.000000;1.107268
9031.000000;1.106784
9030.000000;1.105568
9029.000000;1.104058
9028.000000;1.102853
9027.000000;1.102329
9026.000000;1.102421
9025.000000;1.102752
9024.000000;1.102952
9023.000000;1.102895
9022.000000;1.102681
9021.000000;1.102439
9020.000000;1.102187
9019.000000;1.101892
9018.000000;1.101605
9017.000000;1.101401
9016.000000;1.101203
9015.000000;1.100807
9014.000000;1.100166
9013.000000;1.099501
9012.000000;1.099040
9011.000000;1.098766
9010.000000;1.098572
9009.000000;1.098539
9008.000000;1.098842
9007.000000;1.099405
9006.000000;1.099871
9005.000000;1.099916
9004.000000;1.099444
9003.000000;1.098500
9002.000000;1.097256
9001.000000;1.096092
9000.000000;1.095410
8999.000000;1.095174
8998.000000;1.094862
8997.000000;1.094066
8996.000000;1.093033
8995.000000;1.092371
8994.000000;1.092345
8993.000000;1.092682
8992.000000;1.093024
8991.000000;1.093297
8990.000000;1.093542
8989.000000;1.093652
8988.000000;1.093469
8987.000000;1.093094
8986.000000;1.092870
8985.000000;1.093013
8984.000000;1.093339
8983.000000;1.093409
8982.000000;1.092952
8981.000000;1.092122
8980.000000;1.091339
8979.000000;1.090904
8978.000000;1.090778
8977.000000;1.090705
8976.000000;1.090497
8975.000000;1.090156
8974.000000;1.089776
8973.000000;1.089406
8972.000000;1.089059
8971.000000;1.088790
8970.000000;1.088707
8969.000000;1.088851
8968.000000;1.089113
8967.000000;1.089310
8966.000000;1.089337
8965.000000;1.089185
8964.000000;1.088811
8963.000000;1.088090
8962.000000;1.087002
8961.000000;1.085835
8960.000000;1.085095
8959.000000;1.085098
8958.000000;1.085682
8957.000000;1.086353
8956.000000;1.086690
8955.000000;1.086560
8954.000000;1.086037
8953.000000;1.085245
8952.000000;1.084330
8951.000000;1.083474
8950.000000;1.082809
8949.000000;1.082334
8948.000000;1.081985
8947.000000;1.081757
8946.000000;1.081677
8945.000000;1.081670
8944.000000;1.081584
8943.000000;1.081392
8942.000000;1.081266
8941.000000;1.081360
8940.000000;1.081593
8939.000000;1.081740
8938.000000;1.081669
8937.000000;1.081339
8936.000000;1.080671
8935.000000;1.079640
8934.000000;1.078542
8933.000000;1.077902
8932.000000;1.077956
8931.000000;1.078366
8930.000000;1.078593
8929.000000;1.078512
8928.000000;1.078442
8927.000000;1.078607
8926.000000;1.078762
8925.000000;1.078488
8924.000000;1.077745
8923.000000;1.076963
8922.000000;1.076580
8921.000000;1.076579
8920.000000;1.076566
8919.000000;1.076271
8918.000000;1.075838
8917.000000;1.075564
8916.000000;1.075481
8915.000000;1.075359
8914.000000;1.075068
8913.000000;1.074717
8912.000000;1.074421
8911.000000;1.074143
8910.000000;1.073876
8909.000000;1.073773
8908.000000;1.073949
8907.000000;1.074263
8906.000000;1.074469
8905.000000;1.074490
8904.000000;1.074367
8903.000000;1.074056
8902.000000;1.073482
8901.000000;1.072772
8900.000000;1.072202
8899.000000;1.071889
8898.000000;1.071687
8897.000000;1.071413
8896.000000;1.071010
8895.000000;1.070490
8894.000000;1.069898
8893.000000;1.069395
8892.000000;1.069208
8891.000000;1.069378
8890.000000;1.069662
8889.000000;1.069789
8888.000000;1.069749
8887.000000;1.069734
8886.000000;1.069859
8885.000000;1.069996
8884.000000;1.069868
8883.000000;1.069269
8882.000000;1.068260
8881.000000;1.067191
8880.000000;1.066508
8879.000000;1.066447
8878.000000;1.066895
8877.000000;1.067506
8876.000000;1.067934
8875.000000;1.067981
8874.000000;1.067639
8873.000000;1.067042
8872.000000;1.066390
8871.000000;1.065880
8870.000000;1.065645
8869.000000;1.065660
8868.000000;1.065735
8867.000000;1.065698
8866.000000;1.065611
8865.000000;1.065637
8864.000000;1.065665
8863.000000;1.065271
8862.000000;1.064253
8861.000000;1.063045
8860.000000;1.062337
8859.000000;1.062361
8858.000000;1.062779
8857.000000;1.063199
8856.000000;1.063509
8855.000000;1.063715
8854.000000;1.063782
8853.000000;1.063744
8852.000000;1.063687
8851.000000;1.063497
8850.000000;1.062869
8849.000000;1.061758
8848.000000;1.060576
8847.000000;1.059789
8846.000000;1.059467
8845.000000;1.059434
8844.000000;1.059623
8843.000000;1.060022
8842.000000;1.060406
8841.000000;1.060440
8840.000000;1.060083
8839.000000;1.059639
8838.000000;1.059402
8837.000000;1.059403
8836.000000;1.059525
8835.000000;1.059649
8834.000000;1.059621
8833.000000;1.059274
8832.000000;1.058602
8831.000000;1.057873
8830.000000;1.057449
8829.000000;1.057533
8828.000000;1.058051
8827.000000;1.058708
8826.000000;1.059126
8825.000000;1.059031
8824.000000;1.058404
8823.000000;1.057508
8822.000000;1.056750
8821.000000;1.056465
8820.000000;1.056705
8819.000000;1.057172
8818.000000;1.057414
8817.000000;1.057229
8816.000000;1.056865
8815.000000;1.056766
8814.000000;1.057108
8813.000000;1.057647
8812.000000;1.057973
8811.000000;1.057841
8810.000000;1.057287
8809.000000;1.056534
8808.000000;1.055824
8807.000000;1.055267
8806.000000;1.054801
8805.000000;1.054373
8804.000000;1.054132
8803.000000;1.054343
8802.000000;1.055036
8801.000000;1.055834
8800.000000;1.056231
8799.000000;1.056033
8798.000000;1.055447
8797.000000;1.054781
8796.000000;1.054191
8795.000000;1.053706
8794.000000;1.053343
8793.000000;1.053083
8792.000000;1.052832
8791.000000;1.052533
8790.000000;1.052294
8789.000000;1.052280
8788.000000;1.052469
8787.000000;1.052640
8786.000000;1.052645
8785.000000;1.052570
8784.000000;1.052568
8783.000000;1.052659
8782.000000;1.052802
8781.000000;1.053028
8780.000000;1.053325
8779.000000;1.053460
8778.000000;1.053178
8777.000000;1.052585
8776.000000;1.052130
8775.000000;1.052080
8774.000000;1.052226
8773.000000;1.052221
8772.000000;1.052050
8771.000000;1.051964
8770.000000;1.052024
8769.000000;1.051974
8768.000000;1.051636
8767.000000;1.051218
8766.000000;1.051095
8765.000000;1.051351
8764.000000;1.051714
8763.000000;1.051925
8762.000000;1.052043
8761.000000;1.052276
8760.000000;1.052609
8759.000000;1.052758
8758.000000;1.052525
8757.000000;1.052072
8756.000000;1.051736
8755.000000;1.051656
8754.000000;1.051671
8753.000000;1.051566
8752.000000;1.051289
8751.000000;1.050917
8750.000000;1.050512
8749.000000;1.050071
8748.000000;1.049571
8747.000000;1.049063
8746.000000;1.048730
8745.000000;1.048808
8744.000000;1.049323
8743.000000;1.049934
8742.000000;1.050189
8741.000000;1.049993
8740.000000;1.049695
8739.000000;1.049624
8738.000000;1.049680
8737.000000;1.049542
8736.000000;1.049199
8735.000000;1.049070
8734.000000;1.049510
8733.000000;1.050322
8732.000000;1.050890
8731.000000;1.050798
8730.000000;1.050213
8729.000000;1.049630
8728.000000;1.049328
8727.000000;1.049199
8726.000000;1.049035
8725.000000;1.048806
8724.000000;1.048598
8723.000000;1.048449
8722.000000;1.048360
8721.000000;1.048362
8720.000000;1.048431
8719.000000;1.048431
8718.000000;1.048287
8717.000000;1.048168
8716.000000;1.048305
8715.000000;1.048663
8714.000000;1.048951
8713.000000;1.048970
8712.000000;1.048769
8711.000000;1.048496
8710.000000;1.048274
8709.000000;1.048231
8708.000000;1.048426
8707.000000;1.048671
8706.000000;1.048638
8705.000000;1.048239
8704.000000;1.047730
8703.000000;1.047364
8702.000000;1.047140
8701.000000;1.046973
8700.000000;1.046887
8699.000000;1.046874
8698.000000;1.046770
8697.000000;1.046465
8696.000000;1.046117
8695.000000;1.045963
8694.000000;1.046009
8693.000000;1.046078
8692.000000;1.046065
8691.000000;1.045985
8690.000000;1.045844
8689.000000;1.045673
8688.000000;1.045605
8687.000000;1.045726
8686.000000;1.045878
8685.000000;1.045844
8684.000000;1.045667
8683.000000;1.045598
8682.000000;1.045739
8681.000000;1.045927
8680.000000;1.045979
8679.000000;1.045866
8678.000000;1.045627
8677.000000;1.045268
8676.000000;1.044806
8675.000000;1.044259
8674.000000;1.043608
8673.000000;1.042888
8672.000000;1.042319
8671.000000;1.042151
8670.000000;1.042351
8669.000000;1.042634
8668.000000;1.042844
8667.000000;1.043111
8666.000000;1.043535
8665.000000;1.043900
8664.000000;1.043910
8663.000000;1.043583
8662.000000;1.043238
8661.000000;1.043120
8660.000000;1.043152
8659.000000;1.043066
8658.000000;1.042694
8657.000000;1.042133
8656.000000;1.041671
8655.000000;1.041542
8654.000000;1.041713
8653.000000;1.041923
8652.000000;1.041954
8651.000000;1.041781
8650.000000;1.041475
8649.000000;1.041065
8648.000000;1.040610
8647.000000;1.040293
8646.000000;1.040276
8645.000000;1.040455
8644.000000;1.040505
8643.000000;1.040207
8642.000000;1.039678
8641.000000;1.039217
8640.000000;1.039018
8639.000000;1.039072
8638.000000;1.039278
8637.000000;1.039535
8636.000000;1.039721
8635.000000;1.039673
8634.000000;1.039281
8633.000000;1.038598
8632.000000;1.037834
8631.000000;1.037206
8630.000000;1.036799
8629.000000;1.036556
8628.000000;1.036395
8627.000000;1.036293
8626.000000;1.036261
8625.000000;1.036245
8624.000000;1.036104
8623.000000;1.035746
8622.000000;1.035300
8621.000000;1.035066
8620.000000;1.035252
8619.000000;1.035744
8618.000000;1.036185
8617.000000;1.036300
8616.000000;1.036090
8615.000000;1.035721
8614.000000;1.035288
8613.000000;1.034736
8612.000000;1.033993
8611.000000;1.033146
8610.000000;1.032443
8609.000000;1.032107
8608.000000;1.032113
8607.000000;1.032204
8606.000000;1.032140
8605.000000;1.031922
8604.000000;1.031713
8603.000000;1.031583
8602.000000;1.031430
8601.000000;1.031148
8600.000000;1.030746
8599.000000;1.030277
8598.000000;1.029754
8597.000000;1.029179
8596.000000;1.028603
8595.000000;1.028115
8594.000000;1.027830
8593.000000;1.027881
8592.000000;1.028287
8591.000000;1.028800
8590.000000;1.029031
8589.000000;1.028836
8588.000000;1.028476
8587.000000;1.028284
8586.000000;1.028286
8585.000000;1.028268
8584.000000;1.028095
8583.000000;1.027811
8582.000000;1.027523
8581.000000;1.027351
8580.000000;1.027434
8579.000000;1.027736
8578.000000;1.027893
8577.000000;1.027478
8576.000000;1.026517
8575.000000;1.025541
8574.000000;1.025048
8573.000000;1.025050
8572.000000;1.025212
8571.000000;1.025272
8570.000000;1.025179
8569.000000;1.024939
8568.000000;1.024526
8567.000000;1.023968
8566.000000;1.023380
8565.000000;1.022872
8564.000000;1.022476
8563.000000;1.022175
8562.000000;1.021946
8561.000000;1.021779
8560.000000;1.021656
8559.000000;1.021553
8558.000000;1.021430
8557.000000;1.021240
8556.000000;1.020954
8555.000000;1.020584
8554.000000;1.020187
8553.000000;1.019871
8552.000000;1.019740
8551.000000;1.019784
8550.000000;1.019816
8549.000000;1.019629
8548.000000;1.019243
8547.000000;1.018919
8546.000000;1.018884
8545.000000;1.019080
8544.000000;1.019235
8543.000000;1.019133
8542.000000;1.018726
8541.000000;1.018072
8540.000000;1.017283
8539.000000;1.016546
8538.000000;1.016065
8537.000000;1.015887
8536.000000;1.015871
8535.000000;1.015872
8534.000000;1.015891
8533.000000;1.015960
8532.000000;1.015947
8531.000000;1.015634
8530.000000;1.014983
8529.000000;1.014222
8528.000000;1.013626
8527.000000;1.013327
8526.000000;1.013354
8525.000000;1.013668
8524.000000;1.014058
8523.000000;1.014141
8522.000000;1.013700
8521.000000;1.012994
8520.000000;1.012521
8519.000000;1.012458
8518.000000;1.012483
8517.000000;1.012187
8516.000000;1.011513
8515.000000;1.010734
8514.000000;1.010139
8513.000000;1.009845
8512.000000;1.009803
8511.000000;1.009841
8510.000000;1.009766
8509.000000;1.009519
8508.000000;1.009210
8507.000000;1.008968
8506.000000;1.008818
8505.000000;1.008742
8504.000000;1.008723
8503.000000;1.008673
8502.000000;1.008433
8501.000000;1.007960
8500.000000;1.007409
8499.000000;1.006928
8498.000000;1.006492
8497.000000;1.006054
8496.000000;1.005747
8495.000000;1.005725
8494.000000;1.005881
8493.000000;1.005932
8492.000000;1.005769
8491.000000;1.005544
8490.000000;1.005396
8489.000000;1.005268
8488.000000;1.005062
8487.000000;1.004811
8486.000000;1.004631
8485.000000;1.004584
8484.000000;1.004637
8483.000000;1.004665
8482.000000;1.004505
8481.000000;1.004100
8480.000000;1.003608
8479.000000;1.003226
8478.000000;1.002931
8477.000000;1.002508
8476.000000;1.001869
8475.000000;1.001197
8474.000000;1.000719
8473.000000;1.000499
8472.000000;1.000486
8471.000000;1.000603
8470.000000;1.000692
8469.000000;1.000550
8468.000000;1.000145
8467.000000;0.999692
8466.000000;0.999386
8465.000000;0.999174
8464.000000;0.998919
8463.000000;0.998673
8462.000000;0.998602
8461.000000;0.998674
8460.000000;0.998636
8459.000000;0.998310
8458.000000;0.997781
8457.000000;0.997247
8456.000000;0.996827
8455.000000;0.996574
8454.000000;0.996545
8453.000000;0.996714
8452.000000;0.996885
8451.000000;0.996811
8450.000000;0.996434
8449.000000;0.995940
8448.000000;0.995548
8447.000000;0.995273
8446.000000;0.994942
8445.000000;0.994402
8444.000000;0.993696
8443.000000;0.993046
8442.000000;0.992705
8441.000000;0.992794
8440.000000;0.993169
8439.000000;0.993435
8438.000000;0.993226
8437.000000;0.992561
8436.000000;0.991854
8435.000000;0.991473
8434.000000;0.991350
8433.000000;0.991150
8432.000000;0.990749
8431.000000;0.990341
8430.000000;0.990079
8429.000000;0.989837
8428.000000;0.989438
8427.000000;0.988957
8426.000000;0.988646
8425.000000;0.988640
8424.000000;0.988818
8423.000000;0.988932
8422.000000;0.988773
8421.000000;0.988299
8420.000000;0.987683
8419.000000;0.987196
8418.000000;0.986957
8417.000000;0.986846
8416.000000;0.986717
8415.000000;0.986599
8414.000000;0.986590
8413.000000;0.986637
8412.000000;0.986568
8411.000000;0.986318
8410.000000;0.985981
8409.000000;0.985644
8408.000000;0.985313
8407.000000;0.985026
8406.000000;0.984910
8405.000000;0.985047
8404.000000;0.985321
8403.000000;0.985461
8402.000000;0.985212
8401.000000;0.984529
8400.000000;0.983668
8399.000000;0.983069
8398.000000;0.983041
8397.000000;0.983474
8396.000000;0.983926
8395.000000;0.984013
8394.000000;0.983683
8393.000000;0.983106
8392.000000;0.982414
8391.000000;0.981630
8390.000000;0.980813
8389.000000;0.980145
8388.000000;0.979809
8387.000000;0.979775
8386.000000;0.979778
8385.000000;0.979542
8384.000000;0.979019
8383.000000;0.978390
8382.000000;0.977863
8381.000000;0.977523
8380.000000;0.977375
8379.000000;0.977400
8378.000000;0.977499
8377.000000;0.977504
8376.000000;0.977336
8375.000000;0.977086
8374.000000;0.976828
8373.000000;0.976464
8372.000000;0.975900
8371.000000;0.975321
8370.000000;0.975067
8369.000000;0.975205
8368.000000;0.975405
8367.000000;0.975315
8366.000000;0.974902
8365.000000;0.974355
8364.000000;0.973826
8363.000000;0.973404
8362.000000;0.973198
8361.000000;0.973234
8360.000000;0.973320
8359.000000;0.973186
8358.000000;0.972768
8357.000000;0.972261
8356.000000;0.971892
8355.000000;0.971787
8354.000000;0.971977
8353.000000;0.972352
8352.000000;0.972570
8351.000000;0.972238
8350.000000;0.971333
8349.000000;0.970313
8348.000000;0.969662
8347.000000;0.969406
8346.000000;0.969205
8345.000000;0.968850
8344.000000;0.968459
8343.000000;0.968170
8342.000000;0.967879
8341.000000;0.967401
8340.000000;0.966761
8339.000000;0.966171
8338.000000;0.965790
8337.000000;0.965651
8336.000000;0.965775
8335.000000;0.966170
8334.000000;0.966669
8333.000000;0.966936
8332.000000;0.966737
8331.000000;0.966166
8330.000000;0.965512
8329.000000;0.964986
8328.000000;0.964622
8327.000000;0.964387
8326.000000;0.964253
8325.000000;0.964184
8324.000000;0.964135
8323.000000;0.964080
8322.000000;0.963978
8321.000000;0.963753
8320.000000;0.963372
8319.000000;0.962937
8318.000000;0.962597
8317.000000;0.962369
8316.000000;0.962121
8315.000000;0.961742
8314.000000;0.961264
8313.000000;0.960806
8312.000000;0.960479
8311.000000;0.960344
8310.000000;0.960384
8309.000000;0.960459
8308.000000;0.960373
8307.000000;0.960033
8306.000000;0.959493
8305.000000;0.958828
8304.000000;0.958054
8303.000000;0.957224
8302.000000;0.956520
8301.000000;0.956114
8300.000000;0.955966
8299.000000;0.955822
8298.000000;0.955441
8297.000000;0.954822
8296.000000;0.954237
8295.000000;0.954038
8294.000000;0.954355
8293.000000;0.954901
8292.000000;0.955141
8291.000000;0.954757
8290.000000;0.953936
8289.000000;0.953160
8288.000000;0.952725
8287.000000;0.952541
8286.000000;0.952376
8285.000000;0.952151
8284.000000;0.951951
8283.000000;0.951827
8282.000000;0.951680
8281.000000;0.951382
8280.000000;0.950961
8279.000000;0.950603
8278.000000;0.950457
8277.000000;0.950451
8276.000000;0.950364
8275.000000;0.950061
8274.000000;0.949582
8273.000000;0.949012
8272.000000;0.948389
8271.000000;0.947793
8270.000000;0.947401
8269.000000;0.947296
8268.000000;0.947299
8267.000000;0.947122
8266.000000;0.946700
8265.000000;0.946228
8264.000000;0.945865
8263.000000;0.945550
8262.000000;0.945165
8261.000000;0.944750
8260.000000;0.944446
8259.000000;0.944292
8258.000000;0.944196
8257.000000;0.944086
8256.000000;0.943995
8255.000000;0.943963
8254.000000;0.943908
8253.000000;0.943648
8252.000000;0.943084
8251.000000;0.942324
8250.000000;0.941628
8249.000000;0.941181
8248.000000;0.940947
8247.000000;0.940768
8246.000000;0.940559
8245.000000;0.940361
8244.000000;0.940201
8243.000000;0.940015
8242.000000;0.939743
8241.000000;0.939434
8240.000000;0.939193
8239.000000;0.939042
8238.000000;0.938908
8237.000000;0.938699
8236.000000;0.938364
8235.000000;0.937885
8234.000000;0.937297
8233.000000;0.936711
8232.000000;0.936274
8231.000000;0.936057
8230.000000;0.936010
8229.000000;0.936015
8228.000000;0.935960
8227.000000;0.935771
8226.000000;0.935423
8225.000000;0.934982
8224.000000;0.934604
8223.000000;0.934431
8222.000000;0.934450
8221.000000;0.934474
8220.000000;0.934284
8219.000000;0.933794
8218.000000;0.933064
8217.000000;0.932227
8216.000000;0.931431
8215.000000;0.930822
8214.000000;0.930479
8213.000000;0.930349
8212.000000;0.930284
8211.000000;0.930185
8210.000000;0.930058
8209.000000;0.929923
8208.000000;0.929762
8207.000000;0.929558
8206.000000;0.929333
8205.000000;0.929065
8204.000000;0.928662
8203.000000;0.928095
8202.000000;0.927494
8201.000000;0.927019
8200.000000;0.926691
8199.000000;0.926432
8198.000000;0.926207
8197.000000;0.926004
8196.000000;0.925738
8195.000000;0.925349
8194.000000;0.924987
8193.000000;0.924903
8192.000000;0.925103
8191.000000;0.925264
8190.000000;0.925090
8189.000000;0.924622
8188.000000;0.924109
8187.000000;0.923681
8186.000000;0.923288
8185.000000;0.922862
8184.000000;0.922407
8183.000000;0.921973
8182.000000;0.921626
8181.000000;0.921415
8180.000000;0.921261
8179.000000;0.920944
8178.000000;0.920315
8177.000000;0.919517
8176.000000;0.918871
8175.000000;0.918536
8174.000000;0.918369
8173.000000;0.918139
8172.000000;0.917783
8171.000000;0.917414
8170.000000;0.917154
8169.000000;0.917016
8168.000000;0.916929
8167.000000;0.916834
8166.000000;0.916716
8165.000000;0.916569
8164.000000;0.916354
8163.000000;0.916040
8162.000000;0.915658
8161.000000;0.915285
8160.000000;0.914953
8159.000000;0.914631
8158.000000;0.914318
8157.000000;0.914078
8156.000000;0.913932
8155.000000;0.913779
8154.000000;0.913502
8153.000000;0.913097
8152.000000;0.912658
8151.000000;0.912271
8150.000000;0.911997
8149.000000;0.911906
8148.000000;0.912014
8147.000000;0.912173
8146.000000;0.912127
8145.000000;0.911708
8144.000000;0.910979
8143.000000;0.910192
8142.000000;0.909614
8141.000000;0.909333
8140.000000;0.909170
8139.000000;0.908812
8138.000000;0.908117
8137.000000;0.907276
8136.000000;0.906617
8135.000000;0.906281
8134.000000;0.906154
8133.000000;0.906058
8132.000000;0.905900
8131.000000;0.905637
8130.000000;0.905243
8129.000000;0.904788
8128.000000;0.904476
8127.000000;0.904506
8126.000000;0.904886
8125.000000;0.905386
8124.000000;0.905663
8123.000000;0.905469
8122.000000;0.904804
8121.000000;0.903921
8120.000000;0.903152
8119.000000;0.902699
8118.000000;0.902551
8117.000000;0.902527
8116.000000;0.902394
8115.000000;0.902021
8114.000000;0.901499
8113.000000;0.901073
8112.000000;0.900867
8111.000000;0.900700
8110.000000;0.900296
8109.000000;0.899622
8108.000000;0.898929
8107.000000;0.898446
8106.000000;0.898171
8105.000000;0.897976
8104.000000;0.897783
8103.000000;0.897565
8102.000000;0.897303
8101.000000;0.897020
8100.000000;0.896810
8099.000000;0.896715
8098.000000;0.896637
8097.000000;0.896458
8096.000000;0.896216
8095.000000;0.896048
8094.000000;0.895973
8093.000000;0.895815
8092.000000;0.895389
8091.000000;0.894725
8090.000000;0.894078
8089.000000;0.893702
8088.000000;0.893620
8087.000000;0.893626
8086.000000;0.893495
8085.000000;0.893180
8084.000000;0.892762
8083.000000;0.892293
8082.000000;0.891759
8081.000000;0.891180
8080.000000;0.890653
8079.000000;0.890226
8078.000000;0.889834
8077.000000;0.889411
8076.000000;0.889005
8075.000000;0.888727
8074.000000;0.888609
8073.000000;0.888567
8072.000000;0.888470
8071.000000;0.888201
8070.000000;0.887691
8069.000000;0.886986
8068.000000;0.886260
8067.000000;0.885708
8066.000000;0.885396
8065.000000;0.885235
8064.000000;0.885104
8063.000000;0.884961
8062.000000;0.884849
8061.000000;0.884790
8060.000000;0.884701
8059.000000;0.884439
8058.000000;0.883952
8057.000000;0.883369
8056.000000;0.882879
8055.000000;0.882531
8054.000000;0.882203
8053.000000;0.881788
8052.000000;0.881318
8051.000000;0.880878
8050.000000;0.880481
8049.000000;0.880115
8048.000000;0.879835
8047.000000;0.879710
8046.000000;0.879698
8045.000000;0.879656
8044.000000;0.879486
8043.000000;0.879219
8042.000000;0.878939
8041.000000;0.878702
8040.000000;0.878502
8039.000000;0.878267
8038.000000;0.877915
8037.000000;0.877451
8036.000000;0.877024
8035.000000;0.876792
8034.000000;0.876753
8033.000000;0.876741
8032.000000;0.876602
8031.000000;0.876324
8030.000000;0.875981
8029.000000;0.875616
8028.000000;0.875213
8027.000000;0.874747
8026.000000;0.874241
8025.000000;0.873775
8024.000000;0.873436
8023.000000;0.873221
8022.000000;0.873021
8021.000000;0.872733
8020.000000;0.872391
8019.000000;0.872122
8018.000000;0.871962
8017.000000;0.871782
8016.000000;0.871421
8015.000000;0.870841
8014.000000;0.870133
8013.000000;0.869407
8012.000000;0.868752
8011.000000;0.868256
8010.000000;0.868001
8009.000000;0.867974
8008.000000;0.867999
8007.000000;0.867800
8006.000000;0.867207
8005.000000;0.866335
8004.000000;0.865521
8003.000000;0.865041
8002.000000;0.864894
8001.000000;0.864910
8000.000000;0.864985
7999.000000;0.865124
7998.000000;0.865240
7997.000000;0.865115
7996.000000;0.864649
7995.000000;0.864053
7994.000000;0.863656
7993.000000;0.863535
7992.000000;0.863462
7991.000000;0.863197
7990.000000;0.862721
7989.000000;0.862157
7988.000000;0.861593
7987.000000;0.861067
7986.000000;0.860632
7985.000000;0.860329
7984.000000;0.860095
7983.000000;0.859812
7982.000000;0.859445
7981.000000;0.859062
7980.000000;0.858706
7979.000000;0.858309
7978.000000;0.857827
7977.000000;0.857368
7976.000000;0.857099
7975.000000;0.857018
7974.000000;0.856916
7973.000000;0.856613
7972.000000;0.856173
7971.000000;0.855809
7970.000000;0.855632
7969.000000;0.855577
7968.000000;0.855553
7967.000000;0.855550
7966.000000;0.855551
7965.000000;0.855443
7964.000000;0.855108
7963.000000;0.854545
7962.000000;0.853836
7961.000000;0.853032
7960.000000;0.852173
7959.000000;0.851409
7958.000000;0.850972
7957.000000;0.850945
7956.000000;0.851116
7955.000000;0.851154
7954.000000;0.850910
7953.000000;0.850531
7952.000000;0.850264
7951.000000;0.850208
7950.000000;0.850239
7949.000000;0.850130
7948.000000;0.849749
7947.000000;0.849157
7946.000000;0.848538
7945.000000;0.848013
7944.000000;0.847556
7943.000000;0.847078
7942.000000;0.846556
7941.000000;0.846065
7940.000000;0.845707
7939.000000;0.845549
7938.000000;0.845584
7937.000000;0.845682
7936.000000;0.845609
7935.000000;0.845214
7934.000000;0.844621
7933.000000;0.844149
7932.000000;0.843957
7931.000000;0.843852
7930.000000;0.843521
7929.000000;0.842910
7928.000000;0.842264
7927.000000;0.841807
7926.000000;0.841520
7925.000000;0.841258
7924.000000;0.840976
7923.000000;0.840743
7922.000000;0.840584
7921.000000;0.840416
7920.000000;0.840137
7919.000000;0.839711
7918.000000;0.839177
7917.000000;0.838621
7916.000000;0.838163
7915.000000;0.837888
7914.000000;0.837745
7913.000000;0.837560
7912.000000;0.837186
7911.000000;0.836654
7910.000000;0.836128
7909.000000;0.835730
7908.000000;0.835442
7907.000000;0.835177
7906.000000;0.834924
7905.000000;0.834777
7904.000000;0.834844
7903.000000;0.835112
7902.000000;0.835424
7901.000000;0.835579
7900.000000;0.835463
7899.000000;0.835105
7898.000000;0.834603
7897.000000;0.834046
7896.000000;0.833501
7895.000000;0.833046
7894.000000;0.832721
7893.000000;0.832472
7892.000000;0.832182
7891.000000;0.831806
7890.000000;0.831437
7889.000000;0.831206
7888.000000;0.831117
7887.000000;0.831035
7886.000000;0.830803
7885.000000;0.830364
7884.000000;0.829764
7883.000000;0.829094
7882.000000;0.828451
7881.000000;0.827925
7880.000000;0.827573
7879.000000;0.827388
7878.000000;0.827279
7877.000000;0.827108
7876.000000;0.826750
7875.000000;0.826176
7874.000000;0.825504
7873.000000;0.824947
7872.000000;0.824663
7871.000000;0.824619
7870.000000;0.824612
7869.000000;0.824435
7868.000000;0.824043
7867.000000;0.823576
7866.000000;0.823220
7865.000000;0.823068
7864.000000;0.823079
7863.000000;0.823136
7862.000000;0.823134
7861.000000;0.823027
7860.000000;0.822815
7859.000000;0.822493
7858.000000;0.822033
7857.000000;0.821453
7856.000000;0.820864
7855.000000;0.820411
7854.000000;0.820120
7853.000000;0.819863
7852.000000;0.819524
7851.000000;0.819153
7850.000000;0.818896
7849.000000;0.818791
7848.000000;0.818719
7847.000000;0.818572
7846.000000;0.818390
7845.000000;0.818272
7844.000000;0.818223
7843.000000;0.818142
7842.000000;0.817953
7841.000000;0.817673
7840.000000;0.817355
7839.000000;0.817033
7838.000000;0.816708
7837.000000;0.816344
7836.000000;0.815883
7835.000000;0.815301
7834.000000;0.814676
7833.000000;0.814147
7832.000000;0.813806
7831.000000;0.813633
7830.000000;0.813538
7829.000000;0.813438
7828.000000;0.813279
7827.000000;0.813038
7826.000000;0.812738
7825.000000;0.812447
7824.000000;0.812237
7823.000000;0.812102
7822.000000;0.811935
7821.000000;0.811588
7820.000000;0.811025
7819.000000;0.810421
7818.000000;0.810046
7817.000000;0.809979
7816.000000;0.809990
7815.000000;0.809794
7814.000000;0.809380
7813.000000;0.809000
7812.000000;0.808819
7811.000000;0.808730
7810.000000;0.808553
7809.000000;0.808312
7808.000000;0.808156
7807.000000;0.808090
7806.000000;0.807934
7805.000000;0.807581
7804.000000;0.807158
7803.000000;0.806859
7802.000000;0.806690
7801.000000;0.806486
7800.000000;0.806127
7799.000000;0.805689
7798.000000;0.805347
7797.000000;0.805163
7796.000000;0.805018
7795.000000;0.804740
7794.000000;0.804311
7793.000000;0.803903
7792.000000;0.803694
7791.000000;0.803640
7790.000000;0.803495
7789.000000;0.803072
7788.000000;0.802440
7787.000000;0.801839
7786.000000;0.801431
7785.000000;0.801184
7784.000000;0.800957
7783.000000;0.800642
7782.000000;0.800236
7781.000000;0.799837
7780.000000;0.799593
7779.000000;0.799575
7778.000000;0.799661
7777.000000;0.799587
7776.000000;0.799188
7775.000000;0.798555
7774.000000;0.797950
7773.000000;0.797570
7772.000000;0.797426
7771.000000;0.797401
7770.000000;0.797357
7769.000000;0.797212
7768.000000;0.796999
7767.000000;0.796834
7766.000000;0.796777
7765.000000;0.796716
7764.000000;0.796472
7763.000000;0.796047
7762.000000;0.795667
7761.000000;0.795538
7760.000000;0.795605
7759.000000;0.795631
7758.000000;0.795457
7757.000000;0.795114
7756.000000;0.794720
7755.000000;0.794368
7754.000000;0.794102
7753.000000;0.793908
7752.000000;0.793712
7751.000000;0.793432
7750.000000;0.793076
7749.000000;0.792758
7748.000000;0.792579
7747.000000;0.792542
7746.000000;0.792574
7745.000000;0.792582
7744.000000;0.792463
7743.000000;0.792126
7742.000000;0.791583
7741.000000;0.790987
7740.000000;0.790533
7739.000000;0.790283
7738.000000;0.790135
7737.000000;0.789961
7736.000000;0.789754
7735.000000;0.789595
7734.000000;0.789538
7733.000000;0.789555
7732.000000;0.789592
7731.000000;0.789593
7730.000000;0.789467
7729.000000;0.789111
7728.000000;0.788548
7727.000000;0.787998
7726.000000;0.787710
7725.000000;0.787721
7724.000000;0.787815
7723.000000;0.787750
7722.000000;0.787467
7721.000000;0.787068
7720.000000;0.786678
7719.000000;0.786353
7718.000000;0.786074
7717.000000;0.785772
7716.000000;0.785426
7715.000000;0.785136
7714.000000;0.785055
7713.000000;0.785203
7712.000000;0.785392
7711.000000;0.785416
7710.000000;0.785244
7709.000000;0.784982
7708.000000;0.784709
7707.000000;0.784465
7706.000000;0.784323
7705.000000;0.784354
7704.000000;0.784497
7703.000000;0.784587
7702.000000;0.784512
7701.000000;0.784280
7700.000000;0.783926
7699.000000;0.783465
7698.000000;0.782956
7697.000000;0.782535
7696.000000;0.782310
7695.000000;0.782278
7694.000000;0.782350
7693.000000;0.782416
7692.000000;0.782372
7691.000000;0.782165
7690.000000;0.781837
7689.000000;0.781497
7688.000000;0.781205
7687.000000;0.780950
7686.000000;0.780723
7685.000000;0.780543
7684.000000;0.780391
7683.000000;0.780187
7682.000000;0.779890
7681.000000;0.779556
7680.000000;0.779257
7679.000000;0.778995
7678.000000;0.778728
7677.000000;0.778454
7676.000000;0.778209
7675.000000;0.778026
7674.000000;0.777917
7673.000000;0.777851
7672.000000;0.777741
7671.000000;0.777510
7670.000000;0.777199
7669.000000;0.776974
7668.000000;0.776974
7667.000000;0.777165
7666.000000;0.777359
7665.000000;0.777350
7664.000000;0.777032
7663.000000;0.776497
7662.000000;0.776011
7661.000000;0.775817
7660.000000;0.775885
7659.000000;0.775933
7658.000000;0.775742
7657.000000;0.775390
7656.000000;0.775121
7655.000000;0.775056
7654.000000;0.775132
7653.000000;0.775232
7652.000000;0.775277
7651.000000;0.775215
7650.000000;0.775039
7649.000000;0.774826
7648.000000;0.774652
7647.000000;0.774485
7646.000000;0.774211
7645.000000;0.773775
7644.000000;0.773226
7643.000000;0.772658
7642.000000;0.772195
7641.000000;0.771995
7640.000000;0.772143
7639.000000;0.772509
7638.000000;0.772817
7637.000000;0.772911
7636.000000;0.772898
7635.000000;0.772964
7634.000000;0.773131
7633.000000;0.773272
7632.000000;0.773291
7631.000000;0.773201
7630.000000;0.773032
7629.000000;0.772780
7628.000000;0.772476
7627.000000;0.772239
7626.000000;0.772178
7625.000000;0.772248
7624.000000;0.772266
7623.000000;0.772095
7622.000000;0.771815
7621.000000;0.771652
7620.000000;0.771742
7619.000000;0.771986
7618.000000;0.772151
7617.000000;0.772100
7616.000000;0.771884
7615.000000;0.771636
7614.000000;0.771421
7613.000000;0.771212
7612.000000;0.770973
7611.000000;0.770738
7610.000000;0.770591
7609.000000;0.770578
7608.000000;0.770639
7607.000000;0.770664
7606.000000;0.770610
7605.000000;0.770554
7604.000000;0.770588
7603.000000;0.770690
7602.000000;0.770728
7601.000000;0.770613
7600.000000;0.770394
7599.000000;0.770196
7598.000000;0.770096
7597.000000;0.770085
7596.000000;0.770133
7595.000000;0.770226
7594.000000;0.770350
7593.000000;0.770450
7592.000000;0.770466
7591.000000;0.770386
7590.000000;0.770250
7589.000000;0.770097
7588.000000;0.769936
7587.000000;0.769781
7586.000000;0.769681
7585.000000;0.769676
7584.000000;0.769720
7583.000000;0.769705
7582.000000;0.769580
7581.000000;0.769421
7580.000000;0.769370
7579.000000;0.769479
7578.000000;0.769651
7577.000000;0.769706
7576.000000;0.769527
7575.000000;0.769143
7574.000000;0.768710
7573.000000;0.768404
7572.000000;0.768318
7571.000000;0.768433
7570.000000;0.768652
7569.000000;0.768868
7568.000000;0.769024
7567.000000;0.769117
7566.000000;0.769153
7565.000000;0.769095
7564.000000;0.768893
7563.000000;0.768570
7562.000000;0.768259
7561.000000;0.768112
7560.000000;0.768196
7559.000000;0.768455
7558.000000;0.768764
7557.000000;0.768968
7556.000000;0.768955
7555.000000;0.768741
7554.000000;0.768503
7553.000000;0.768421
7552.000000;0.768499
7551.000000;0.768587
7550.000000;0.768585
7549.000000;0.768551
7548.000000;0.768571
7547.000000;0.768616
7546.000000;0.768607
7545.000000;0.768550
7544.000000;0.768528
7543.000000;0.768574
7542.000000;0.768630
7541.000000;0.768647
7540.000000;0.768649
7539.000000;0.768685
7538.000000;0.768764
7537.000000;0.768850
7536.000000;0.768906
7535.000000;0.768915
7534.000000;0.768893
7533.000000;0.768882
7532.000000;0.768925
7531.000000;0.769027
7530.000000;0.769154
7529.000000;0.769259
7528.000000;0.769316
7527.000000;0.769327
7526.000000;0.769328
7525.000000;0.769383
7524.000000;0.769549
7523.000000;0.769842
7522.000000;0.770241
7521.000000;0.770711
7520.000000;0.771184
7519.000000;0.771528
7518.000000;0.771604
7517.000000;0.771401
7516.000000;0.771108
7515.000000;0.770975
7514.000000;0.771088
7513.000000;0.771293
7512.000000;0.771367
7511.000000;0.771239
7510.000000;0.771020
7509.000000;0.770850
7508.000000;0.770769
7507.000000;0.770735
7506.000000;0.770713
7505.000000;0.770708
7504.000000;0.770739
7503.000000;0.770815
7502.000000;0.770926
7501.000000;0.771044
7500.000000;0.771133
7499.000000;0.771193
7498.000000;0.771288
7497.000000;0.771494
7496.000000;0.771805
7495.000000;0.772123
7494.000000;0.772323
7493.000000;0.772359
7492.000000;0.772243
7491.000000;0.772074
7490.000000;0.771931
7489.000000;0.771858
7488.000000;0.771892
7487.000000;0.772033
7486.000000;0.772246
7485.000000;0.772471
7484.000000;0.772676
7483.000000;0.772870
7482.000000;0.773053
7481.000000;0.773157
7480.000000;0.773107
7479.000000;0.772939
7478.000000;0.772818
7477.000000;0.772880
7476.000000;0.773102
7475.000000;0.773363
7474.000000;0.773604
7473.000000;0.773851
7472.000000;0.774103
7471.000000;0.774268
7470.000000;0.774269
7469.000000;0.774160
7468.000000;0.774100
7467.000000;0.774202
7466.000000;0.774405
7465.000000;0.774530
7464.000000;0.774448
7463.000000;0.774210
7462.000000;0.773991
7461.000000;0.773940
7460.000000;0.774079
7459.000000;0.774335
7458.000000;0.774610
7457.000000;0.774818
7456.000000;0.774925
7455.000000;0.774976
7454.000000;0.775044
7453.000000;0.775148
7452.000000;0.775263
7451.000000;0.775385
7450.000000;0.775534
7449.000000;0.775664
7448.000000;0.775680
7447.000000;0.775599
7446.000000;0.775593
7445.000000;0.775803
7444.000000;0.776159
7443.000000;0.776448
7442.000000;0.776529
7441.000000;0.776421
7440.000000;0.776223
7439.000000;0.776058
7438.000000;0.776039
7437.000000;0.776198
7436.000000;0.776427
7435.000000;0.776565
7434.000000;0.776567
7433.000000;0.776524
7432.000000;0.776513
7431.000000;0.776517
7430.000000;0.776491
7429.000000;0.776466
7428.000000;0.776533
7427.000000;0.776745
7426.000000;0.777048
7425.000000;0.777327
7424.000000;0.777548
7423.000000;0.777780
7422.000000;0.778063
7421.000000;0.778327
7420.000000;0.778496
7419.000000;0.778609
7418.000000;0.778753
7417.000000;0.778891
7416.000000;0.778901
7415.000000;0.778789
7414.000000;0.778737
7413.000000;0.778872
7412.000000;0.779096
7411.000000;0.779235
7410.000000;0.779271
7409.000000;0.779276
7408.000000;0.779214
7407.000000;0.778965
7406.000000;0.778537
7405.000000;0.778108
7404.000000;0.777868
7403.000000;0.777856
7402.000000;0.777987
7401.000000;0.778152
7400.000000;0.778275
7399.000000;0.778351
7398.000000;0.778467
7397.000000;0.778622
7396.000000;0.778669
7395.000000;0.778589
7394.000000;0.778600
7393.000000;0.778763
7392.000000;0.778777
7391.000000;0.778400
7390.000000;0.777949
7389.000000;0.778005
7388.000000;0.778665
7387.000000;0.779416
7386.000000;0.779764
7385.000000;0.779680
7384.000000;0.779474
7383.000000;0.779446
7382.000000;0.779641
7381.000000;0.779903
7380.000000;0.780074
7379.000000;0.780129
7378.000000;0.780105
7377.000000;0.779956
7376.000000;0.779659
7375.000000;0.779418
7374.000000;0.779535
7373.000000;0.780033
7372.000000;0.780542
7371.000000;0.780614
7370.000000;0.780174
7369.000000;0.779560
7368.000000;0.779178
7367.000000;0.779277
7366.000000;0.779916
7365.000000;0.780786
7364.000000;0.781293
7363.000000;0.781144
7362.000000;0.780612
7361.000000;0.780230
7360.000000;0.780357
7359.000000;0.780938
7358.000000;0.781520
7357.000000;0.781584
7356.000000;0.781043
7355.000000;0.780341
7354.000000;0.780076
7353.000000;0.780437
7352.000000;0.781081
7351.000000;0.781519
7350.000000;0.781549
7349.000000;0.781333
7348.000000;0.781189
7347.000000;0.781298
7346.000000;0.781510
7345.000000;0.781526
7344.000000;0.781357
7343.000000;0.781514
7342.000000;0.782441
7341.000000;0.783795
7340.000000;0.784713
7339.000000;0.784814
7338.000000;0.784616
7337.000000;0.784666
7336.000000;0.784817
7335.000000;0.784668
7334.000000;0.784172
7333.000000;0.783626
7332.000000;0.783395
7331.000000;0.783565
7330.000000;0.783831
7329.000000;0.783849
7328.000000;0.783669
7327.000000;0.783689
7326.000000;0.784149
7325.000000;0.784852
7324.000000;0.785332
7323.000000;0.785374
7322.000000;0.785290
7321.000000;0.785536
7320.000000;0.786138
7319.000000;0.786712
7318.000000;0.787047
7317.000000;0.787330
7316.000000;0.787696
7315.000000;0.788000
7314.000000;0.788045
7313.000000;0.787950
7312.000000;0.788197
7311.000000;0.789097
7310.000000;0.790285
7309.000000;0.791012
7308.000000;0.790879
7307.000000;0.790236
7306.000000;0.789840
7305.000000;0.790221
7304.000000;0.791292
7303.000000;0.792287
7302.000000;0.792435
7301.000000;0.791702
7300.000000;0.790783
7299.000000;0.790548
7298.000000;0.791362
7297.000000;0.792807
7296.000000;0.793987
7295.000000;0.794332
7294.000000;0.794179
7293.000000;0.794377
7292.000000;0.795436
7291.000000;0.797068
7290.000000;0.798548
7289.000000;0.799546
7288.000000;0.800329
7287.000000;0.801164
7286.000000;0.801867
7285.000000;0.802137
7284.000000;0.802119
7283.000000;0.802201
7282.000000;0.802587
7281.000000;0.803284
7280.000000;0.804218
7279.000000;0.805274
7278.000000;0.806276
7277.000000;0.807122
7276.000000;0.807983
7275.000000;0.809113
7274.000000;0.810442
7273.000000;0.811666
7272.000000;0.812656
7271.000000;0.813521
7270.000000;0.814329
7269.000000;0.815040
7268.000000;0.815707
7267.000000;0.816529
7266.000000;0.817645
7265.000000;0.819009
7264.000000;0.820489
7263.000000;0.821988
7262.000000;0.823429
7261.000000;0.824747
7260.000000;0.825924
7259.000000;0.826970
7258.000000;0.827959
7257.000000;0.829064
7256.000000;0.830432
7255.000000;0.832022
7254.000000;0.833633
7253.000000;0.835126
7252.000000;0.836479
7251.000000;0.837768
7250.000000;0.839129
7249.000000;0.840567
7248.000000;0.842079
7247.000000;0.843783
7246.000000;0.845701
7245.000000;0.847609
7244.000000;0.849311
7243.000000;0.850914
7242.000000;0.852757
7241.000000;0.855079
7240.000000;0.857700
7239.000000;0.860044
7238.000000;0.861714
7237.000000;0.863050
7236.000000;0.864779
7235.000000;0.867159
7234.000000;0.869740
7233.000000;0.871965
7232.000000;0.873654
7231.000000;0.875148
7230.000000;0.877001
7229.000000;0.879308
7228.000000;0.881751
7227.000000;0.884146
7226.000000;0.886463
7225.000000;0.888710
7224.000000;0.890993
7223.000000;0.893392
7222.000000;0.895750
7221.000000;0.897898
7220.000000;0.900037
7219.000000;0.902489
7218.000000;0.905235
7217.000000;0.908037
7216.000000;0.910839
7215.000000;0.913706
7214.000000;0.916567
7213.000000;0.919347
7212.000000;0.922166
7211.000000;0.925186
7210.000000;0.928343
7209.000000;0.931432
7208.000000;0.934484
7207.000000;0.937739
7206.000000;0.941224
7205.000000;0.944740
7204.000000;0.948239
7203.000000;0.951843
7202.000000;0.955486
7201.000000;0.958924
7200.000000;0.962135
7199.000000;0.965333
7198.000000;0.968626
7197.000000;0.971975
7196.000000;0.975422
7195.000000;0.979099
7194.000000;0.982985
7193.000000;0.986936
7192.000000;0.990868
7191.000000;0.994724
7190.000000;0.998356
7189.000000;1.001708
7188.000000;1.005071
7187.000000;1.008802
7186.000000;1.012910
7185.000000;1.017043
7184.000000;1.020872
7183.000000;1.024401
7182.000000;1.027930
7181.000000;1.031836
7180.000000;1.036404
7179.000000;1.041579
7178.000000;1.046813
7177.000000;1.051513
7176.000000;1.055691
7175.000000;1.059832
7174.000000;1.064257
7173.000000;1.068948
7172.000000;1.073728
7171.000000;1.078467
7170.000000;1.083100
7169.000000;1.087675
7168.000000;1.092306
7167.000000;1.096988
7166.000000;1.101735
7165.000000;1.106657
7164.000000;1.111580
7163.000000;1.115908
7162.000000;1.119291
7161.000000;1.122324
7160.000000;1.126157
7159.000000;1.131250
7158.000000;1.136869
7157.000000;1.142019
7156.000000;1.146579
7155.000000;1.151154
7154.000000;1.156150
7153.000000;1.161469
7152.000000;1.166745
7151.000000;1.171630
7150.000000;1.176089
7149.000000;1.180413
7148.000000;1.184812
7147.000000;1.189212
7146.000000;1.193549
7145.000000;1.198069
7144.000000;1.203162
7143.000000;1.208766
7142.000000;1.214173
7141.000000;1.218673
7140.000000;1.222351
7139.000000;1.225960
7138.000000;1.230126
7137.000000;1.234880
7136.000000;1.239885
7135.000000;1.244858
7134.000000;1.249681
7133.000000;1.254374
7132.000000;1.259033
7131.000000;1.263707
7130.000000;1.268354
7129.000000;1.272864
7128.000000;1.277143
7127.000000;1.281255
7126.000000;1.285432
7125.000000;1.289870
7124.000000;1.294483
7123.000000;1.298935
7122.000000;1.303058
7121.000000;1.307049
7120.000000;1.311111
7119.000000;1.315102
7118.000000;1.318858
7117.000000;1.322768
7116.000000;1.327533
7115.000000;1.333096
7114.000000;1.338376
7113.000000;1.342500
7112.000000;1.345848
7111.000000;1.349438
7110.000000;1.353676
7109.000000;1.358156
7108.000000;1.362386
7107.000000;1.366178
7106.000000;1.369506
7105.000000;1.372542
7104.000000;1.375660
7103.000000;1.379208
7102.000000;1.383216
7101.000000;1.387379
7100.000000;1.391414
7099.000000;1.395256
7098.000000;1.398778
7097.000000;1.401685
7096.000000;1.404011
7095.000000;1.406477
7094.000000;1.410024
7093.000000;1.414883
7092.000000;1.420239
7091.000000;1.424912
7090.000000;1.428306
7089.000000;1.430711
7088.000000;1.432811
7087.000000;1.435055
7086.000000;1.437562
7085.000000;1.440382
7084.000000;1.443535
7083.000000;1.446839
7082.000000;1.450020
7081.000000;1.453108
7080.000000;1.456461
7079.000000;1.460182
7078.000000;1.463664
7077.000000;1.466188
7076.000000;1.467941
7075.000000;1.469921
7074.000000;1.472808
7073.000000;1.476365
7072.000000;1.479953
7071.000000;1.483229
7070.000000;1.486199
7069.000000;1.488914
7068.000000;1.491398
7067.000000;1.493707
7066.000000;1.495964
7065.000000;1.498373
7064.000000;1.501117
7063.000000;1.504037
7062.000000;1.506512
7061.000000;1.507964
7060.000000;1.508595
7059.000000;1.509399
7058.000000;1.511257
7057.000000;1.514277
7056.000000;1.518107
7055.000000;1.522298
7054.000000;1.526088
7053.000000;1.528449
7052.000000;1.529018
7051.000000;1.528839
7050.000000;1.529602
7049.000000;1.532026
7048.000000;1.535287
7047.000000;1.538073
7046.000000;1.539953
7045.000000;1.541576
7044.000000;1.543781
7043.000000;1.546837
7042.000000;1.550445
7041.000000;1.554090
7040.000000;1.557308
7039.000000;1.559892
7038.000000;1.561893
7037.000000;1.563304
7036.000000;1.563828
7035.000000;1.563289
7034.000000;1.562334
7033.000000;1.562371
7032.000000;1.564358
7031.000000;1.567777
7030.000000;1.571171
7029.000000;1.573699
7028.000000;1.575735
7027.000000;1.577862
7026.000000;1.579884
7025.000000;1.581214
7024.000000;1.581852
7023.000000;1.582415
7022.000000;1.583326
7021.000000;1.584449
7020.000000;1.585542
7019.000000;1.586672
7018.000000;1.588059
7017.000000;1.589765
7016.000000;1.591599
7015.000000;1.593202
7014.000000;1.594251
7013.000000;1.594785
7012.000000;1.595324
7011.000000;1.596454
7010.000000;1.598266
7009.000000;1.600318
7008.000000;1.602176
7007.000000;1.603872
7006.000000;1.605777
7005.000000;1.608061
7004.000000;1.610292
7003.000000;1.611648
7002.000000;1.611695
7001.000000;1.611011
7000.000000;1.610804
6999.000000;1.611751
6998.000000;1.613433
6997.000000;1.615119
6996.000000;1.616865
6995.000000;1.619328
6994.000000;1.622502
6993.000000;1.625169
6992.000000;1.626006
6991.000000;1.625024
6990.000000;1.623557
6989.000000;1.622893
6988.000000;1.623276
6987.000000;1.624147
6986.000000;1.624999
6985.000000;1.625719
6984.000000;1.626246
6983.000000;1.626388
6982.000000;1.626197
6981.000000;1.626223
6980.000000;1.626929
6979.000000;1.627941
6978.000000;1.628363
6977.000000;1.628087
6976.000000;1.628310
6975.000000;1.630304
6974.000000;1.633852
6973.000000;1.637369
6972.000000;1.639532
6971.000000;1.640350
6970.000000;1.640526
6969.000000;1.640359
6968.000000;1.639768
6967.000000;1.639040
6966.000000;1.638952
6965.000000;1.639972
6964.000000;1.641619
6963.000000;1.642882
6962.000000;1.643258
6961.000000;1.643216
6960.000000;1.643709
6959.000000;1.645294
6958.000000;1.647632
6957.000000;1.649792
6956.000000;1.651056
6955.000000;1.651440
6954.000000;1.651523
6953.000000;1.651898
6952.000000;1.652812
6951.000000;1.654139
6950.000000;1.655452
6949.000000;1.656168
6948.000000;1.655944
6947.000000;1.655054
6946.000000;1.654195
6945.000000;1.653787
6944.000000;1.653589
6943.000000;1.653169
6942.000000;1.652582
6941.000000;1.652280
6940.000000;1.652501
6939.000000;1.653087
6938.000000;1.653818
6937.000000;1.654495
6936.000000;1.654661
6935.000000;1.653867
6934.000000;1.652513
6933.000000;1.651943
6932.000000;1.653193
6931.000000;1.655793
6930.000000;1.658181
6929.000000;1.659295
6928.000000;1.659353
6927.000000;1.659085
6926.000000;1.658805
6925.000000;1.658467
6924.000000;1.658240
6923.000000;1.658661
6922.000000;1.660225
6921.000000;1.662811
6920.000000;1.665435
6919.000000;1.666723
6918.000000;1.665944
6917.000000;1.663602
6916.000000;1.660902
6915.000000;1.658744
6914.000000;1.657387
6913.000000;1.656854
6912.000000;1.657246
6911.000000;1.658554
6910.000000;1.660422
6909.000000;1.662164
6908.000000;1.663017
6907.000000;1.662536
6906.000000;1.660989
6905.000000;1.659210
6904.000000;1.657773
6903.000000;1.656447
6902.000000;1.654905
6901.000000;1.653702
6900.000000;1.653861
6899.000000;1.655496
6898.000000;1.657455
6897.000000;1.658533
6896.000000;1.658643
6895.000000;1.658392
6894.000000;1.657898
6893.000000;1.656685
6892.000000;1.654717
6891.000000;1.653012
6890.000000;1.652883
6889.000000;1.654592
6888.000000;1.657000
6887.000000;1.658654
6886.000000;1.659077
6885.000000;1.658833
6884.000000;1.658465
6883.000000;1.657846
6882.000000;1.656704
6881.000000;1.655334
6880.000000;1.654351
6879.000000;1.653954
6878.000000;1.653773
6877.000000;1.653382
6876.000000;1.652689
6875.000000;1.651868
6874.000000;1.651229
6873.000000;1.651111
6872.000000;1.651565
6871.000000;1.652225
6870.000000;1.652799
6869.000000;1.653540
6868.000000;1.654817
6867.000000;1.656270
6866.000000;1.656859
6865.000000;1.655880
6864.000000;1.653593
6863.000000;1.650883
6862.000000;1.648692
6861.000000;1.647698
6860.000000;1.648012
6859.000000;1.649005
6858.000000;1.649765
6857.000000;1.649908
6856.000000;1.649742
6855.000000;1.649639
6854.000000;1.649578
6853.000000;1.649310
6852.000000;1.648611
6851.000000;1.647366
6850.000000;1.645731
6849.000000;1.644167
6848.000000;1.642898
6847.000000;1.641420
6846.000000;1.639075
6845.000000;1.636202
6844.000000;1.634138
6843.000000;1.633867
6842.000000;1.635067
6841.000000;1.636627
6840.000000;1.637740
6839.000000;1.638304
6838.000000;1.638552
6837.000000;1.638541
6836.000000;1.637929
6835.000000;1.636249
6834.000000;1.633636
6833.000000;1.631112
6832.000000;1.629657
6831.000000;1.629087
6830.000000;1.628375
6829.000000;1.627052
6828.000000;1.625609
6827.000000;1.624445
6826.000000;1.623243
6825.000000;1.621756
6824.000000;1.620449
6823.000000;1.619775
6822.000000;1.619377
6821.000000;1.618651
6820.000000;1.617689
6819.000000;1.617007
6818.000000;1.616583
6817.000000;1.615827
6816.000000;1.614432
6815.000000;1.612668
6814.000000;1.610820
6813.000000;1.608889
6812.000000;1.606920
6811.000000;1.605116
6810.000000;1.603434
6809.000000;1.601457
6808.000000;1.598977
6807.000000;1.596473
6806.000000;1.594678
6805.000000;1.593697
6804.000000;1.592819
6803.000000;1.591345
6802.000000;1.589451
6801.000000;1.587936
6800.000000;1.587157
6799.000000;1.586545
6798.000000;1.585310
6797.000000;1.583427
6796.000000;1.581604
6795.000000;1.580392
6794.000000;1.579710
6793.000000;1.579155
6792.000000;1.578335
6791.000000;1.576904
6790.000000;1.574743
6789.000000;1.572244
6788.000000;1.570053
6787.000000;1.568397
6786.000000;1.566878
6785.000000;1.564998
6784.000000;1.562646
6783.000000;1.560016
6782.000000;1.557345
6781.000000;1.554863
6780.000000;1.552715
6779.000000;1.550771
6778.000000;1.548751
6777.000000;1.546665
6776.000000;1.544859
6775.000000;1.543485
6774.000000;1.542206
6773.000000;1.540578
6772.000000;1.538558
6771.000000;1.536504
6770.000000;1.534805
6769.000000;1.533538
6768.000000;1.532392
6767.000000;1.530911
6766.000000;1.528996
6765.000000;1.527104
6764.000000;1.525643
6763.000000;1.524242
6762.000000;1.522091
6761.000000;1.519098
6760.000000;1.516222
6759.000000;1.514417
6758.000000;1.513580
6757.000000;1.512739
6756.000000;1.510957
6755.000000;1.507910
6754.000000;1.504001
6753.000000;1.500249
6752.000000;1.497704
6751.000000;1.496512
6750.000000;1.495633
6749.000000;1.493840
6748.000000;1.490937
6747.000000;1.487699
6746.000000;1.484795
6745.000000;1.482238
6744.000000;1.479840
6743.000000;1.477707
6742.000000;1.476028
6741.000000;1.474612
6740.000000;1.472947
6739.000000;1.470771
6738.000000;1.468362
6737.000000;1.466156
6736.000000;1.464161
6735.000000;1.461968
6734.000000;1.459383
6733.000000;1.456765
6732.000000;1.454511
6731.000000;1.452412
6730.000000;1.449837
6729.000000;1.446526
6728.000000;1.442919
6727.000000;1.439679
6726.000000;1.437108
6725.000000;1.435071
6724.000000;1.433239
6723.000000;1.431325
6722.000000;1.429253
6721.000000;1.427155
6720.000000;1.425123
6719.000000;1.423049
6718.000000;1.420927
6717.000000;1.419154
6716.000000;1.418159
6715.000000;1.417698
6714.000000;1.416885
6713.000000;1.415064
6712.000000;1.412353
6711.000000;1.409298
6710.000000;1.406238
6709.000000;1.403275
6708.000000;1.400463
6707.000000;1.397743
6706.000000;1.395119
6705.000000;1.392766
6704.000000;1.390878
6703.000000;1.389375
6702.000000;1.387894
6701.000000;1.386101
6700.000000;1.383879
6699.000000;1.381102
6698.000000;1.377693
6697.000000;1.373972
6696.000000;1.370569
6695.000000;1.367891
6694.000000;1.365799
6693.000000;1.363988
6692.000000;1.362392
6691.000000;1.361000
6690.000000;1.359511
6689.000000;1.357481
6688.000000;1.354776
6687.000000;1.351736
6686.000000;1.348903
6685.000000;1.346600
6684.000000;1.344638
6683.000000;1.342431
6682.000000;1.339584
6681.000000;1.336409
6680.000000;1.333658
6679.000000;1.331724
6678.000000;1.330300
6677.000000;1.328805
6676.000000;1.326884
6675.000000;1.324482
6674.000000;1.321793
6673.000000;1.319242
6672.000000;1.317201
6671.000000;1.315564
6670.000000;1.313848
6669.000000;1.311772
6668.000000;1.309437
6667.000000;1.306856
6666.000000;1.303759
6665.000000;1.300145
6664.000000;1.296611
6663.000000;1.293763
6662.000000;1.291545
6661.000000;1.289446
6660.000000;1.287221
6659.000000;1.285074
6658.000000;1.283249
6657.000000;1.281720
6656.000000;1.280228
6655.000000;1.278449
6654.000000;1.276197
6653.000000;1.273639
6652.000000;1.271171
6651.000000;1.268962
6650.000000;1.266758
6649.000000;1.264256
6648.000000;1.261496
6647.000000;1.258713
6646.000000;1.256040
6645.000000;1.253559
6644.000000;1.251436
6643.000000;1.249695
6642.000000;1.247988
6641.000000;1.245860
6640.000000;1.243212
6639.000000;1.240324
6638.000000;1.237517
6637.000000;1.234937
6636.000000;1.232536
6635.000000;1.230097
6634.000000;1.227391
6633.000000;1.224526
6632.000000;1.221984
6631.000000;1.220096
6630.000000;1.218599
6629.000000;1.216930
6628.000000;1.214871
6627.000000;1.212658
6626.000000;1.210535
6625.000000;1.208470
6624.000000;1.206296
6623.000000;1.203914
6622.000000;1.201354
6621.000000;1.198800
6620.000000;1.196524
6619.000000;1.194624
6618.000000;1.192840
6617.000000;1.190795
6616.000000;1.188392
6615.000000;1.185866
6614.000000;1.183476
6613.000000;1.181283
6612.000000;1.179196
6611.000000;1.177082
6610.000000;1.174863
6609.000000;1.172587
6608.000000;1.170367
6607.000000;1.168198
6606.000000;1.165918
6605.000000;1.163454
6604.000000;1.160961
6603.000000;1.158604
6602.000000;1.156331
6601.000000;1.154017
6600.000000;1.151704
6599.000000;1.149520
6598.000000;1.147458
6597.000000;1.145430
6596.000000;1.143486
6595.000000;1.141755
6594.000000;1.140197
6593.000000;1.138600
6592.000000;1.136805
6591.000000;1.134791
6590.000000;1.132586
6589.000000;1.130240
6588.000000;1.127847
6587.000000;1.125444
6586.000000;1.122953
6585.000000;1.120383
6584.000000;1.118006
6583.000000;1.116116
6582.000000;1.114622
6581.000000;1.113081
6580.000000;1.111140
6579.000000;1.108814
6578.000000;1.106343
6577.000000;1.103974
6576.000000;1.101915
6575.000000;1.100266
6574.000000;1.098884
6573.000000;1.097431
6572.000000;1.095650
6571.000000;1.093554
6570.000000;1.091308
6569.000000;1.089053
6568.000000;1.086882
6567.000000;1.084854
6566.000000;1.082948
6565.000000;1.081039
6564.000000;1.079003
6563.000000;1.076842
6562.000000;1.074664
6561.000000;1.072583
6560.000000;1.070656
6559.000000;1.068882
6558.000000;1.067205
6557.000000;1.065511
6556.000000;1.063640
6555.000000;1.061484
6554.000000;1.059130
6553.000000;1.056851
6552.000000;1.054845
6551.000000;1.053000
6550.000000;1.051040
6549.000000;1.048916
6548.000000;1.046898
6547.000000;1.045216
6546.000000;1.043754
6545.000000;1.042208
6544.000000;1.040417
6543.000000;1.038414
6542.000000;1.036245
6541.000000;1.033922
6540.000000;1.031510
6539.000000;1.029134
6538.000000;1.026908
6537.000000;1.024911
6536.000000;1.023168
6535.000000;1.021577
6534.000000;1.019931
6533.000000;1.018141
6532.000000;1.016361
6531.000000;1.014760
6530.000000;1.013262
6529.000000;1.011636
6528.000000;1.009799
6527.000000;1.007873
6526.000000;1.005960
6525.000000;1.004017
6524.000000;1.001972
6523.000000;0.999843
6522.000000;0.997722
6521.000000;0.995717
6520.000000;0.993894
6519.000000;0.992207
6518.000000;0.990524
6517.000000;0.988807
6516.000000;0.987199
6515.000000;0.985820
6514.000000;0.984527
6513.000000;0.983033
6512.000000;0.981231
6511.000000;0.979248
6510.000000;0.977206
6509.000000;0.975131
6508.000000;0.973099
6507.000000;0.971278
6506.000000;0.969718
6505.000000;0.968220
6504.000000;0.966539
6503.000000;0.964638
6502.000000;0.962686
6501.000000;0.960866
6500.000000;0.959260
6499.000000;0.957838
6498.000000;0.956473
6497.000000;0.954997
6496.000000;0.953313
6495.000000;0.951472
6494.000000;0.949611
6493.000000;0.947816
6492.000000;0.946053
6491.000000;0.944245
6490.000000;0.942408
6489.000000;0.940687
6488.000000;0.939220
6487.000000;0.937965
6486.000000;0.936715
6485.000000;0.935322
6484.000000;0.933818
6483.000000;0.932298
6482.000000;0.930751
6481.000000;0.929115
6480.000000;0.927428
6479.000000;0.925791
6478.000000;0.924208
6477.000000;0.922576
6476.000000;0.920843
6475.000000;0.919077
6474.000000;0.917358
6473.000000;0.915699
6472.000000;0.914075
6471.000000;0.912466
6470.000000;0.910845
6469.000000;0.909192
6468.000000;0.907533
6467.000000;0.905942
6466.000000;0.904466
6465.000000;0.903090
6464.000000;0.901775
6463.000000;0.900477
6462.000000;0.899108
6461.000000;0.897552
6460.000000;0.895754
6459.000000;0.893820
6458.000000;0.891990
6457.000000;0.890471
6456.000000;0.889245
6455.000000;0.888063
6454.000000;0.886666
6453.000000;0.885053
6452.000000;0.883455
6451.000000;0.882042
6450.000000;0.880747
6449.000000;0.879420
6448.000000;0.878021
6447.000000;0.876580
6446.000000;0.875077
6445.000000;0.873496
6444.000000;0.871931
6443.000000;0.870498
6442.000000;0.869158
6441.000000;0.867756
6440.000000;0.866216
6439.000000;0.864598
6438.000000;0.862989
6437.000000;0.861460
6436.000000;0.860117
6435.000000;0.859031
6434.000000;0.858098
6433.000000;0.857083
6432.000000;0.855852
6431.000000;0.854454
6430.000000;0.852964
6429.000000;0.851380
6428.000000;0.849732
6427.000000;0.848151
6426.000000;0.846738
6425.000000;0.845447
6424.000000;0.844175
6423.000000;0.842899
6422.000000;0.841630
6421.000000;0.840306
6420.000000;0.838854
6419.000000;0.837342
6418.000000;0.835948
6417.000000;0.834767
6416.000000;0.833698
6415.000000;0.832544
6414.000000;0.831187
6413.000000;0.829666
6412.000000;0.828131
6411.000000;0.826714
6410.000000;0.825448
6409.000000;0.824260
6408.000000;0.823045
6407.000000;0.821736
6406.000000;0.820319
6405.000000;0.818826
6404.000000;0.817334
6403.000000;0.815937
6402.000000;0.814690
6401.000000;0.813575
6400.000000;0.812520
6399.000000;0.811454
6398.000000;0.810334
6397.000000;0.809147
6396.000000;0.807907
6395.000000;0.806643
6394.000000;0.805397
6393.000000;0.804202
6392.000000;0.803048
6391.000000;0.801852
6390.000000;0.800524
6389.000000;0.799088
6388.000000;0.797699
6387.000000;0.796485
6386.000000;0.795405
6385.000000;0.794314
6384.000000;0.793140
6383.000000;0.791928
6382.000000;0.790706
6381.000000;0.789430
6380.000000;0.788091
6379.000000;0.786809
6378.000000;0.785718
6377.000000;0.784807
6376.000000;0.783905
6375.000000;0.782843
6374.000000;0.781594
6373.000000;0.780274
6372.000000;0.779023
6371.000000;0.777892
6370.000000;0.776812
6369.000000;0.775684
6368.000000;0.774480
6367.000000;0.773253
6366.000000;0.772054
6365.000000;0.770882
6364.000000;0.769726
6363.000000;0.768599
6362.000000;0.767500
6361.000000;0.766371
6360.000000;0.765152
6359.000000;0.763863
6358.000000;0.762598
6357.000000;0.761430
6356.000000;0.760365
6355.000000;0.759385
6354.000000;0.758509
6353.000000;0.757744
6352.000000;0.757011
6351.000000;0.756139
6350.000000;0.754988
6349.000000;0.753582
6348.000000;0.752121
6347.000000;0.750844
6346.000000;0.749860
6345.000000;0.749095
6344.000000;0.748380
6343.000000;0.747595
6342.000000;0.746721
6341.000000;0.745791
6340.000000;0.744801
6339.000000;0.743719
6338.000000;0.742552
6337.000000;0.741376
6336.000000;0.740265
6335.000000;0.739229
6334.000000;0.738222
6333.000000;0.737216
6332.000000;0.736203
6331.000000;0.735160
6330.000000;0.734076
6329.000000;0.733009
6328.000000;0.732066
6327.000000;0.731260
6326.000000;0.730456
6325.000000;0.729500
6324.000000;0.728389
6323.000000;0.727275
6322.000000;0.726278
6321.000000;0.725358
6320.000000;0.724358
6319.000000;0.723174
6318.000000;0.721865
6317.000000;0.720623
6316.000000;0.719631
6315.000000;0.718913
6314.000000;0.718323
6313.000000;0.717665
6312.000000;0.716841
6311.000000;0.715891
6310.000000;0.714903
6309.000000;0.713927
6308.000000;0.712958
6307.000000;0.711988
6306.000000;0.711047
6305.000000;0.710181
6304.000000;0.709402
6303.000000;0.708665
6302.000000;0.707906
6301.000000;0.707080
6300.000000;0.706159
6299.000000;0.705130
6298.000000;0.704020
6297.000000;0.702920
6296.000000;0.701925
6295.000000;0.701042
6294.000000;0.700184
6293.000000;0.699271
6292.000000;0.698313
6291.000000;0.697378
6290.000000;0.696506
6289.000000;0.695689
6288.000000;0.694914
6287.000000;0.694173
6286.000000;0.693450
6285.000000;0.692703
6284.000000;0.691873
6283.000000;0.690916
6282.000000;0.689848
6281.000000;0.688753
6280.000000;0.687737
6279.000000;0.686826
6278.000000;0.685948
6277.000000;0.685015
6276.000000;0.684027
6275.000000;0.683074
6274.000000;0.682255
6273.000000;0.681599
6272.000000;0.681065
6271.000000;0.680570
6270.000000;0.680013
6269.000000;0.679313
6268.000000;0.678449
6267.000000;0.677498
6266.000000;0.676591
6265.000000;0.675810
6264.000000;0.675101
6263.000000;0.674324
6262.000000;0.673398
6261.000000;0.672372
6260.000000;0.671351
6259.000000;0.670387
6258.000000;0.669501
6257.000000;0.668732
6256.000000;0.668090
6255.000000;0.667475
6254.000000;0.666732
6253.000000;0.665824
6252.000000;0.664873
6251.000000;0.664012
6250.000000;0.663252
6249.000000;0.662521
6248.000000;0.661766
6247.000000;0.660984
6246.000000;0.660180
6245.000000;0.659363
6244.000000;0.658533
6243.000000;0.657671
6242.000000;0.656767
6241.000000;0.655881
6240.000000;0.655128
6239.000000;0.654563
6238.000000;0.654126
6237.000000;0.653727
6236.000000;0.653329
6235.000000;0.652907
6234.000000;0.652390
6233.000000;0.651713
6232.000000;0.650905
6231.000000;0.650064
6230.000000;0.649264
6229.000000;0.648535
6228.000000;0.647890
6227.000000;0.647310
6226.000000;0.646707
6225.000000;0.645989
6224.000000;0.645166
6223.000000;0.644342
6222.000000;0.643594
6221.000000;0.642898
6220.000000;0.642177
6219.000000;0.641371
6218.000000;0.640453
6217.000000;0.639430
6216.000000;0.638366
6215.000000;0.637390
6214.000000;0.636626
6213.000000;0.636109
6212.000000;0.635746
6211.000000;0.635366
6210.000000;0.634834
6209.000000;0.634132
6208.000000;0.633338
6207.000000;0.632530
6206.000000;0.631739
6205.000000;0.631006
6204.000000;0.630419
6203.000000;0.630031
6202.000000;0.629782
6201.000000;0.629522
6200.000000;0.629137
6199.000000;0.628604
6198.000000;0.627970
6197.000000;0.627316
6196.000000;0.626719
6195.000000;0.626197
6194.000000;0.625660
6193.000000;0.624990
6192.000000;0.624168
6191.000000;0.623302
6190.000000;0.622516
6189.000000;0.621831
6188.000000;0.621171
6187.000000;0.620440
6186.000000;0.619592
6185.000000;0.618666
6184.000000;0.617780
6183.000000;0.617062
6182.000000;0.616546
6181.000000;0.616143
6180.000000;0.615706
6179.000000;0.615134
6178.000000;0.614409
6177.000000;0.613582
6176.000000;0.612742
6175.000000;0.611965
6174.000000;0.611272
6173.000000;0.610623
6172.000000;0.609967
6171.000000;0.609289
6170.000000;0.608613
6169.000000;0.607985
6168.000000;0.607453
6167.000000;0.607043
6166.000000;0.606713
6165.000000;0.606349
6164.000000;0.605850
6163.000000;0.605217
6162.000000;0.604563
6161.000000;0.604008
6160.000000;0.603584
6159.000000;0.603221
6158.000000;0.602818
6157.000000;0.602304
6156.000000;0.601656
6155.000000;0.600892
6154.000000;0.600069
6153.000000;0.599260
6152.000000;0.598522
6151.000000;0.597861
6150.000000;0.597239
6149.000000;0.596606
6148.000000;0.595929
6147.000000;0.595196
6146.000000;0.594418
6145.000000;0.593629
6144.000000;0.592888
6143.000000;0.592264
6142.000000;0.591797
6141.000000;0.591455
6140.000000;0.591142
6139.000000;0.590755
6138.000000;0.590264
6137.000000;0.589718
6136.000000;0.589173
6135.000000;0.588649
6134.000000;0.588150
6133.000000;0.587698
6132.000000;0.587309
6131.000000;0.586948
6130.000000;0.586549
6129.000000;0.586078
6128.000000;0.585543
6127.000000;0.584960
6126.000000;0.584330
6125.000000;0.583670
6124.000000;0.583017
6123.000000;0.582411
6122.000000;0.581879
6121.000000;0.581436
6120.000000;0.581073
6119.000000;0.580740
6118.000000;0.580367
6117.000000;0.579916
6116.000000;0.579395
6115.000000;0.578815
6114.000000;0.578179
6113.000000;0.577496
6112.000000;0.576798
6111.000000;0.576120
6110.000000;0.575484
6109.000000;0.574896
6108.000000;0.574343
6107.000000;0.573796
6106.000000;0.573242
6105.000000;0.572700
6104.000000;0.572186
6103.000000;0.571667
6102.000000;0.571093
6101.000000;0.570484
6100.000000;0.569927
6099.000000;0.569484
6098.000000;0.569141
6097.000000;0.568854
6096.000000;0.568592
6095.000000;0.568321
6094.000000;0.567988
6093.000000;0.567572
6092.000000;0.567121
6091.000000;0.566695
6090.000000;0.566292
6089.000000;0.565860
6088.000000;0.565354
6087.000000;0.564772
6086.000000;0.564144
6085.000000;0.563491
6084.000000;0.562811
6083.000000;0.562086
6082.000000;0.561333
6081.000000;0.560634
6080.000000;0.560090
6079.000000;0.559728
6078.000000;0.559462
6077.000000;0.559163
6076.000000;0.558740
6075.000000;0.558174
6074.000000;0.557512
6073.000000;0.556863
6072.000000;0.556339
6071.000000;0.555962
6070.000000;0.555655
6069.000000;0.555324
6068.000000;0.554945
6067.000000;0.554536
6066.000000;0.554094
6065.000000;0.553605
6064.000000;0.553090
6063.000000;0.552609
6062.000000;0.552198
6061.000000;0.551838
6060.000000;0.551477
6059.000000;0.551073
6058.000000;0.550641
6057.000000;0.550241
6056.000000;0.549919
6055.000000;0.549632
6054.000000;0.549270
6053.000000;0.548772
6052.000000;0.548204
6051.000000;0.547700
6050.000000;0.547346
6049.000000;0.547112
6048.000000;0.546884
6047.000000;0.546525
6046.000000;0.545964
6045.000000;0.545257
6044.000000;0.544558
6043.000000;0.543999
6042.000000;0.543579
6041.000000;0.543196
6040.000000;0.542765
6039.000000;0.542300
6038.000000;0.541873
6037.000000;0.541519
6036.000000;0.541188
6035.000000;0.540780
6034.000000;0.540251
6033.000000;0.539674
6032.000000;0.539192
6031.000000;0.538890
6030.000000;0.538724
6029.000000;0.538576
6028.000000;0.538360
6027.000000;0.538064
6026.000000;0.537721
6025.000000;0.537360
6024.000000;0.536982
6023.000000;0.536560
6022.000000;0.536076
6021.000000;0.535550
6020.000000;0.535056
6019.000000;0.534670
6018.000000;0.534429
6017.000000;0.534308
6016.000000;0.534237
6015.000000;0.534130
6014.000000;0.533921
6013.000000;0.533586
6012.000000;0.533141
6011.000000;0.532613
6010.000000;0.532054
6009.000000;0.531532
6008.000000;0.531091
6007.000000;0.530701
6006.000000;0.530304
6005.000000;0.529905
6004.000000;0.529572
6003.000000;0.529359
6002.000000;0.529230
6001.000000;0.529102
6000.000000;0.528906
5999.000000;0.528602
5998.000000;0.528185
5997.000000;0.527684
5996.000000;0.527131
5995.000000;0.526529
5994.000000;0.525887
5993.000000;0.525293
5992.000000;0.524886
5991.000000;0.524708
5990.000000;0.524626
5989.000000;0.524458
5988.000000;0.524151
5987.000000;0.523793
5986.000000;0.523478
5985.000000;0.523217
5984.000000;0.522962
5983.000000;0.522681
5982.000000;0.522373
5981.000000;0.522063
5980.000000;0.521780
5979.000000;0.521543
5978.000000;0.521354
5977.000000;0.521199
5976.000000;0.521057
5975.000000;0.520901
5974.000000;0.520709
5973.000000;0.520482
5972.000000;0.520229
5971.000000;0.519927
5970.000000;0.519533
5969.000000;0.519056
5968.000000;0.518590
5967.000000;0.518258
5966.000000;0.518116
5965.000000;0.518122
5964.000000;0.518166
5963.000000;0.518139
5962.000000;0.517982
5961.000000;0.517720
5960.000000;0.517425
5959.000000;0.517142
5958.000000;0.516850
5957.000000;0.516516
5956.000000;0.516152
5955.000000;0.515803
5954.000000;0.515495
5953.000000;0.515213
5952.000000;0.514928
5951.000000;0.514613
5950.000000;0.514258
5949.000000;0.513865
5948.000000;0.513442
5947.000000;0.513000
5946.000000;0.512577
5945.000000;0.512255
5944.000000;0.512100
5943.000000;0.512078
5942.000000;0.512065
5941.000000;0.511958
5940.000000;0.511751
5939.000000;0.511494
5938.000000;0.511229
5937.000000;0.510996
5936.000000;0.510841
5935.000000;0.510770
5934.000000;0.510714
5933.000000;0.510595
5932.000000;0.510410
5931.000000;0.510209
5930.000000;0.510024
5929.000000;0.509862
5928.000000;0.509754
5927.000000;0.509740
5926.000000;0.509792
5925.000000;0.509801
5924.000000;0.509679
5923.000000;0.509438
5922.000000;0.509156
5921.000000;0.508876
5920.000000;0.508566
5919.000000;0.508193
5918.000000;0.507801
5917.000000;0.507497
5916.000000;0.507344
5915.000000;0.507284
5914.000000;0.507195
5913.000000;0.507015
5912.000000;0.506794
5911.000000;0.506620
5910.000000;0.506532
5909.000000;0.506507
5908.000000;0.506496
5907.000000;0.506444
5906.000000;0.506318
5905.000000;0.506122
5904.000000;0.505886
5903.000000;0.505620
5902.000000;0.505307
5901.000000;0.504963
5900.000000;0.504654
5899.000000;0.504441
5898.000000;0.504305
5897.000000;0.504177
5896.000000;0.504013
5895.000000;0.503823
5894.000000;0.503635
5893.000000;0.503468
5892.000000;0.503354
5891.000000;0.503331
5890.000000;0.503411
5889.000000;0.503531
5888.000000;0.503571
5887.000000;0.503417
5886.000000;0.503058
5885.000000;0.502617
5884.000000;0.502275
5883.000000;0.502140
5882.000000;0.502187
5881.000000;0.502310
5880.000000;0.502399
5879.000000;0.502372
5878.000000;0.502187
5877.000000;0.501870
5876.000000;0.501532
5875.000000;0.501300
5874.000000;0.501236
5873.000000;0.501294
5872.000000;0.501364
5871.000000;0.501343
5870.000000;0.501198
5869.000000;0.500975
5868.000000;0.500751
5867.000000;0.500577
5866.000000;0.500466
5865.000000;0.500411
5864.000000;0.500399
5863.000000;0.500405
5862.000000;0.500418
5861.000000;0.500468
5860.000000;0.500586
5859.000000;0.500725
5858.000000;0.500783
5857.000000;0.500724
5856.000000;0.500625
5855.000000;0.500577
5854.000000;0.500559
5853.000000;0.500471
5852.000000;0.500248
5851.000000;0.499904
5850.000000;0.499497
5849.000000;0.499097
5848.000000;0.498784
5847.000000;0.498621
5846.000000;0.498609
5845.000000;0.498686
5844.000000;0.498764
5843.000000;0.498779
5842.000000;0.498718
5841.000000;0.498632
5840.000000;0.498604
5839.000000;0.498688
5838.000000;0.498875
5837.000000;0.499109
5836.000000;0.499326
5835.000000;0.499468
5834.000000;0.499497
5833.000000;0.499428
5832.000000;0.499346
5831.000000;0.499348
5830.000000;0.499460
5829.000000;0.499635
5828.000000;0.499806
5827.000000;0.499934
5826.000000;0.500009
5825.000000;0.500040
5824.000000;0.500045
5823.000000;0.500044
5822.000000;0.500044
5821.000000;0.500034
5820.000000;0.499981
5819.000000;0.499869
5818.000000;0.499732
5817.000000;0.499657
5816.000000;0.499709
5815.000000;0.499864
5814.000000;0.500035
5813.000000;0.500158
5812.000000;0.500236
5811.000000;0.500303
5810.000000;0.500388
5809.000000;0.500509
5808.000000;0.500656
5807.000000;0.500796
5806.000000;0.500911
5805.000000;0.501046
5804.000000;0.501262
5803.000000;0.501534
5802.000000;0.501749
5801.000000;0.501838
5800.000000;0.501841
5799.000000;0.501845
5798.000000;0.501882
5797.000000;0.501929
5796.000000;0.501965
5795.000000;0.501991
5794.000000;0.502021
5793.000000;0.502079
5792.000000;0.502191
5791.000000;0.502347
5790.000000;0.502504
5789.000000;0.502627
5788.000000;0.502711
5787.000000;0.502763
5786.000000;0.502813
5785.000000;0.502949
5784.000000;0.503271
5783.000000;0.503768
5782.000000;0.504299
5781.000000;0.504731
5780.000000;0.505063
5779.000000;0.505360
5778.000000;0.505639
5777.000000;0.505854
5776.000000;0.505966
5775.000000;0.505978
5774.000000;0.505940
5773.000000;0.505962
5772.000000;0.506166
5771.000000;0.506578
5770.000000;0.507082
5769.000000;0.507538
5768.000000;0.507909
5767.000000;0.508234
5766.000000;0.508532
5765.000000;0.508784
5764.000000;0.509005
5763.000000;0.509233
5762.000000;0.509483
5761.000000;0.509745
5760.000000;0.510040
5759.000000;0.510398
5758.000000;0.510812
5757.000000;0.511258
5756.000000;0.511744
5755.000000;0.512281
5754.000000;0.512805
5753.000000;0.513213
5752.000000;0.513477
5751.000000;0.513677
5750.000000;0.513904
5749.000000;0.514194
5748.000000;0.514550
5747.000000;0.514960
5746.000000;0.515372
5745.000000;0.515708
5744.000000;0.515933
5743.000000;0.516103
5742.000000;0.516314
5741.000000;0.516608
5740.000000;0.516945
5739.000000;0.517238
5738.000000;0.517420
5737.000000;0.517491
5736.000000;0.517524
5735.000000;0.517623
5734.000000;0.517864
5733.000000;0.518268
5732.000000;0.518794
5731.000000;0.519358
5730.000000;0.519876
5729.000000;0.520342
5728.000000;0.520837
5727.000000;0.521441
5726.000000;0.522139
5725.000000;0.522832
5724.000000;0.523434
5723.000000;0.523939
5722.000000;0.524406
5721.000000;0.524896
5720.000000;0.525415
5719.000000;0.525900
5718.000000;0.526288
5717.000000;0.526601
5716.000000;0.526948
5715.000000;0.527402
5714.000000;0.527933
5713.000000;0.528465
5712.000000;0.528966
5711.000000;0.529450
5710.000000;0.529910
5709.000000;0.530338
5708.000000;0.530760
5707.000000;0.531222
5706.000000;0.531724
5705.000000;0.532223
5704.000000;0.532706
5703.000000;0.533201
5702.000000;0.533726
5701.000000;0.534254
5700.000000;0.534764
5699.000000;0.535278
5698.000000;0.535839
5697.000000;0.536471
5696.000000;0.537169
5695.000000;0.537902
5694.000000;0.538610
5693.000000;0.539262
5692.000000;0.539824
5691.000000;0.540322
5690.000000;0.540809
5689.000000;0.541342
5688.000000;0.541932
5687.000000;0.542532
5686.000000;0.543090
5685.000000;0.543624
5684.000000;0.544196
5683.000000;0.544815
5682.000000;0.545416
5681.000000;0.545967
5680.000000;0.546527
5679.000000;0.547151
5678.000000;0.547811
5677.000000;0.548444
5676.000000;0.549051
5675.000000;0.549677
5674.000000;0.550313
5673.000000;0.550884
5672.000000;0.551339
5671.000000;0.551687
5670.000000;0.551972
5669.000000;0.552241
5668.000000;0.552537
5667.000000;0.552890
5666.000000;0.553304
5665.000000;0.553786
5664.000000;0.554351
5663.000000;0.554978
5662.000000;0.555604
5661.000000;0.556208
5660.000000;0.556843
5659.000000;0.557533
5658.000000;0.558158
5657.000000;0.558554
5656.000000;0.558711
5655.000000;0.558798
5654.000000;0.558977
5653.000000;0.559287
5652.000000;0.559706
5651.000000;0.560228
5650.000000;0.560829
5649.000000;0.561405
5648.000000;0.561833
5647.000000;0.562069
5646.000000;0.562183
5645.000000;0.562310
5644.000000;0.562574
5643.000000;0.563028
5642.000000;0.563635
5641.000000;0.564309
5640.000000;0.564967
5639.000000;0.565537
5638.000000;0.565944
5637.000000;0.566158
5636.000000;0.566246
5635.000000;0.566330
5634.000000;0.566473
5633.000000;0.566648
5632.000000;0.566810
5631.000000;0.566973
5630.000000;0.567184
5629.000000;0.567461
5628.000000;0.567777
5627.000000;0.568087
5626.000000;0.568370
5625.000000;0.568643
5624.000000;0.568938
5623.000000;0.569263
5622.000000;0.569593
5621.000000;0.569907
5620.000000;0.570214
5619.000000;0.570530
5618.000000;0.570842
5617.000000;0.571125
5616.000000;0.571374
5615.000000;0.571589
5614.000000;0.571743
5613.000000;0.571791
5612.000000;0.571717
5611.000000;0.571568
5610.000000;0.571434
5609.000000;0.571386
5608.000000;0.571425
5607.000000;0.571482
5606.000000;0.571492
5605.000000;0.571477
5604.000000;0.571530
5603.000000;0.571686
5602.000000;0.571863
5601.000000;0.571947
5600.000000;0.571911
5599.000000;0.571814
5598.000000;0.571721
5597.000000;0.571652
5596.000000;0.571582
5595.000000;0.571446
5594.000000;0.571175
5593.000000;0.570805
5592.000000;0.570489
5591.000000;0.570352
5590.000000;0.570360
5589.000000;0.570385
5588.000000;0.570390
5587.000000;0.570445
5586.000000;0.570573
5585.000000;0.570673
5584.000000;0.570626
5583.000000;0.570415
5582.000000;0.570119
5581.000000;0.569842
5580.000000;0.569658
5579.000000;0.569564
5578.000000;0.569479
5577.000000;0.569316
5576.000000;0.569092
5575.000000;0.568911
5574.000000;0.568834
5573.000000;0.568812
5572.000000;0.568762
5571.000000;0.568645
5570.000000;0.568472
5569.000000;0.568262
5568.000000;0.568045
5567.000000;0.567854
5566.000000;0.567698
5565.000000;0.567539
5564.000000;0.567316
5563.000000;0.566988
5562.000000;0.566560
5561.000000;0.566082
5560.000000;0.565621
5559.000000;0.565219
5558.000000;0.564865
5557.000000;0.564544
5556.000000;0.564264
5555.000000;0.564018
5554.000000;0.563746
5553.000000;0.563426
5552.000000;0.563143
5551.000000;0.562995
5550.000000;0.562944
5549.000000;0.562856
5548.000000;0.562655
5547.000000;0.562383
5546.000000;0.562102
5545.000000;0.561815
5544.000000;0.561506
5543.000000;0.561174
5542.000000;0.560831
5541.000000;0.560520
5540.000000;0.560300
5539.000000;0.560163
5538.000000;0.560000
5537.000000;0.559738
5536.000000;0.559428
5535.000000;0.559131
5534.000000;0.558805
5533.000000;0.558403
5532.000000;0.558015
5531.000000;0.557773
5530.000000;0.557653
5529.000000;0.557509
5528.000000;0.557248
5527.000000;0.556913
5526.000000;0.556592
5525.000000;0.556327
5524.000000;0.556132
5523.000000;0.555988
5522.000000;0.555820
5521.000000;0.555600
5520.000000;0.555402
5519.000000;0.555275
5518.000000;0.555148
5517.000000;0.554901
5516.000000;0.554546
5515.000000;0.554182
5514.000000;0.553796
5513.000000;0.553288
5512.000000;0.552687
5511.000000;0.552175
5510.000000;0.551890
5509.000000;0.551831
5508.000000;0.551913
5507.000000;0.552038
5506.000000;0.552098
5505.000000;0.552008
5504.000000;0.551816
5503.000000;0.551628
5502.000000;0.551426
5501.000000;0.551166
5500.000000;0.550911
5499.000000;0.550712
5498.000000;0.550545
5497.000000;0.550355
5496.000000;0.550146
5495.000000;0.549959
5494.000000;0.549789
5493.000000;0.549666
5492.000000;0.549681
5491.000000;0.549868
5490.000000;0.550077
5489.000000;0.550105
5488.000000;0.549941
5487.000000;0.549711
5486.000000;0.549457
5485.000000;0.549112
5484.000000;0.548711
5483.000000;0.548468
5482.000000;0.548423
5481.000000;0.548423
5480.000000;0.548473
5479.000000;0.548681
5478.000000;0.549023
5477.000000;0.549301
5476.000000;0.549399
5475.000000;0.549404
5474.000000;0.549434
5473.000000;0.549488
5472.000000;0.549482
5471.000000;0.549373
5470.000000;0.549193
5469.000000;0.549091
5468.000000;0.549268
5467.000000;0.549701
5466.000000;0.550130
5465.000000;0.550406
5464.000000;0.550704
5463.000000;0.551193
5462.000000;0.551615
5461.000000;0.551668
5460.000000;0.551560
5459.000000;0.551595
5458.000000;0.551607
5457.000000;0.551372
5456.000000;0.551130
5455.000000;0.551207
5454.000000;0.551558
5453.000000;0.551984
5452.000000;0.552429
5451.000000;0.552884
5450.000000;0.553257
5449.000000;0.553705
5448.000000;0.554524
5447.000000;0.555543
5446.000000;0.556318
5445.000000;0.556863
5444.000000;0.557540
5443.000000;0.558386
5442.000000;0.559018
5441.000000;0.559283
5440.000000;0.559591
5439.000000;0.560293
5438.000000;0.561162
5437.000000;0.561882
5436.000000;0.562538
5435.000000;0.563243
5434.000000;0.563960
5433.000000;0.564801
5432.000000;0.565827
5431.000000;0.566739
5430.000000;0.567332
5429.000000;0.567879
5428.000000;0.568722
5427.000000;0.569853
5426.000000;0.571014
5425.000000;0.571974
5424.000000;0.572709
5423.000000;0.573342
5422.000000;0.574086
5421.000000;0.575112
5420.000000;0.576384
5419.000000;0.577787
5418.000000;0.579266
5417.000000;0.580849
5416.000000;0.582570
5415.000000;0.584364
5414.000000;0.586150
5413.000000;0.587919
5412.000000;0.589721
5411.000000;0.591481
5410.000000;0.593062
5409.000000;0.594591
5408.000000;0.596323
5407.000000;0.598190
5406.000000;0.599873
5405.000000;0.601344
5404.000000;0.602979
5403.000000;0.604890
5402.000000;0.606905
5401.000000;0.608986
5400.000000;0.611108
5399.000000;0.613309
5398.000000;0.615739
5397.000000;0.618485
5396.000000;0.621522
5395.000000;0.624679
5394.000000;0.627752
5393.000000;0.630662
5392.000000;0.633519
5391.000000;0.636515
5390.000000;0.639642
5389.000000;0.642733
5388.000000;0.645775
5387.000000;0.648980
5386.000000;0.652485
5385.000000;0.656323
5384.000000;0.660477
5383.000000;0.664721
5382.000000;0.668865
5381.000000;0.673022
5380.000000;0.677316
5379.000000;0.681758
5378.000000;0.686349
5377.000000;0.691027
5376.000000;0.695716
5375.000000;0.700522
5374.000000;0.705629
5373.000000;0.710915
5372.000000;0.716111
5371.000000;0.721316
5370.000000;0.726868
5369.000000;0.732793
5368.000000;0.738777
5367.000000;0.744678
5366.000000;0.750660
5365.000000;0.756939
5364.000000;0.763531
5363.000000;0.770337
5362.000000;0.777430
5361.000000;0.784796
5360.000000;0.792166
5359.000000;0.799529
5358.000000;0.807327
5357.000000;0.815826
5356.000000;0.824714
5355.000000;0.833588
5354.000000;0.842468
5353.000000;0.851617
5352.000000;0.861108
5351.000000;0.870734
5350.000000;0.880453
5349.000000;0.890570
5348.000000;0.901166
5347.000000;0.911926
5346.000000;0.922708
5345.000000;0.933600
5344.000000;0.944712
5343.000000;0.956324
5342.000000;0.968715
5341.000000;0.981504
5340.000000;0.994042
5339.000000;1.006400
5338.000000;1.019172
5337.000000;1.032608
5336.000000;1.046283
5335.000000;1.059741
5334.000000;1.073174
5333.000000;1.087244
5332.000000;1.102096
5331.000000;1.117060
5330.000000;1.131750
5329.000000;1.146496
5328.000000;1.161538
5327.000000;1.176835
5326.000000;1.192546
5325.000000;1.208728
5324.000000;1.224928
5323.000000;1.240824
5322.000000;1.256978
5321.000000;1.274160
5320.000000;1.292132
5319.000000;1.309869
5318.000000;1.326926
5317.000000;1.343767
5316.000000;1.360721
5315.000000;1.377588
5314.000000;1.394207
5313.000000;1.410769
5312.000000;1.427395
5311.000000;1.443843
5310.000000;1.459906
5309.000000;1.475603
5308.000000;1.490781
5307.000000;1.505149
5306.000000;1.518997
5305.000000;1.533167
5304.000000;1.547936
5303.000000;1.562523
5302.000000;1.575857
5301.000000;1.587370
5300.000000;1.597111
5299.000000;1.605787
5298.000000;1.614652
5297.000000;1.624460
5296.000000;1.634642
5295.000000;1.644144
5294.000000;1.652589
5293.000000;1.660115
5292.000000;1.666611
5291.000000;1.671981
5290.000000;1.676975
5289.000000;1.682592
5288.000000;1.688611
5287.000000;1.693643
5286.000000;1.696813
5285.000000;1.698589
5284.000000;1.699924
5283.000000;1.701551
5282.000000;1.704075
5281.000000;1.707703
5280.000000;1.711680
5279.000000;1.714790
5278.000000;1.716564
5277.000000;1.717371
5276.000000;1.717579
5275.000000;1.717502
5274.000000;1.717788
5273.000000;1.718839
5272.000000;1.720118
5271.000000;1.720677
5270.000000;1.720397
5269.000000;1.720191
5268.000000;1.720920
5267.000000;1.722734
5266.000000;1.725259
5265.000000;1.727582
5264.000000;1.728168
5263.000000;1.726157
5262.000000;1.722892
5261.000000;1.720950
5260.000000;1.721768
5259.000000;1.724694
5258.000000;1.727674
5257.000000;1.728582
5256.000000;1.726565
5255.000000;1.722750
5254.000000;1.719618
5253.000000;1.719066
5252.000000;1.721045
5251.000000;1.724022
5250.000000;1.726379
5249.000000;1.727314
5248.000000;1.726830
5247.000000;1.725831
5246.000000;1.725678
5245.000000;1.726583
5244.000000;1.727025
5243.000000;1.725719
5242.000000;1.723580
5241.000000;1.722538
5240.000000;1.723085
5239.000000;1.724112
5238.000000;1.724583
5237.000000;1.724362
5236.000000;1.723628
5235.000000;1.722431
5234.000000;1.721266
5233.000000;1.721185
5232.000000;1.722440
5231.000000;1.723776
5230.000000;1.723958
5229.000000;1.723464
5228.000000;1.723687
5227.000000;1.724949
5226.000000;1.726074
5225.000000;1.725792
5224.000000;1.724383
5223.000000;1.723567
5222.000000;1.724706
5221.000000;1.727372
5220.000000;1.729668
5219.000000;1.730038
5218.000000;1.728675
5217.000000;1.727048
5216.000000;1.726259
5215.000000;1.726269
5214.000000;1.726547
5213.000000;1.726619
5212.000000;1.726169
5211.000000;1.725532
5210.000000;1.725834
5209.000000;1.727781
5208.000000;1.730449
5207.000000;1.732042
5206.000000;1.731799
5205.000000;1.730434
5204.000000;1.728765
5203.000000;1.726972
5202.000000;1.725346
5201.000000;1.724679
5200.000000;1.725388
5199.000000;1.726864
5198.000000;1.728013
5197.000000;1.728170
5196.000000;1.727445
5195.000000;1.726643
5194.000000;1.726882
5193.000000;1.728602
5192.000000;1.730889
5191.000000;1.732299
5190.000000;1.732422
5189.000000;1.732091
5188.000000;1.732081
5187.000000;1.732240
5186.000000;1.732069
5185.000000;1.731574
5184.000000;1.731215
5183.000000;1.731374
5182.000000;1.732100
5181.000000;1.733103
5180.000000;1.733869
5179.000000;1.734045
5178.000000;1.733785
5177.000000;1.733521
5176.000000;1.733485
5175.000000;1.733700
5174.000000;1.734220
5173.000000;1.735077
5172.000000;1.736096
5171.000000;1.736969
5170.000000;1.737431
5169.000000;1.737257
5168.000000;1.736411
5167.000000;1.735357
5166.000000;1.734874
5165.000000;1.735222
5164.000000;1.735807
5163.000000;1.736006
5162.000000;1.735871
5161.000000;1.735625
5160.000000;1.735068
5159.000000;1.734099
5158.000000;1.733248
5157.000000;1.732981
5156.000000;1.733013
5155.000000;1.733009
5154.000000;1.733434
5153.000000;1.734769
5152.000000;1.736310
5151.000000;1.736785
5150.000000;1.736110
5149.000000;1.735554
5148.000000;1.735948
5147.000000;1.736658
5146.000000;1.736619
5145.000000;1.735758
5144.000000;1.734921
5143.000000;1.734728
5142.000000;1.734901
5141.000000;1.734614
5140.000000;1.733449
5139.000000;1.732113
5138.000000;1.731967
5137.000000;1.733482
5136.000000;1.735472
5135.000000;1.736399
5134.000000;1.736274
5133.000000;1.736476
5132.000000;1.737802
5131.000000;1.739562
5130.000000;1.740661
5129.000000;1.740721
5128.000000;1.739945
5127.000000;1.738732
5126.000000;1.737760
5125.000000;1.737716
5124.000000;1.738547
5123.000000;1.739441
5122.000000;1.739757
5121.000000;1.739547
5120.000000;1.738991
5119.000000;1.738001
5118.000000;1.736763
5117.000000;1.735987
5116.000000;1.736036
5115.000000;1.736273
5114.000000;1.735937
5113.000000;1.735347
5112.000000;1.735488
5111.000000;1.736598
5110.000000;1.737915
5109.000000;1.738891
5108.000000;1.739856
5107.000000;1.741092
5106.000000;1.741892
5105.000000;1.741344
5104.000000;1.739809
5103.000000;1.738832
5102.000000;1.739468
5101.000000;1.741218
5100.000000;1.742739
5099.000000;1.743257
5098.000000;1.742935
5097.000000;1.742121
5096.000000;1.740818
5095.000000;1.738974
5094.000000;1.737010
5093.000000;1.735840
5092.000000;1.736305
5091.000000;1.738438
5090.000000;1.741185
5089.000000;1.743122
5088.000000;1.743758
5087.000000;1.743876
5086.000000;1.744294
5085.000000;1.744713
5084.000000;1.744306
5083.000000;1.743049
5082.000000;1.741729
5081.000000;1.740911
5080.000000;1.740708
5079.000000;1.741391
5078.000000;1.743215
5077.000000;1.745508
5076.000000;1.746953
5075.000000;1.747203
5074.000000;1.747289
5073.000000;1.747958
5072.000000;1.748592
5071.000000;1.748377
5070.000000;1.747589
5069.000000;1.746901
5068.000000;1.746211
5067.000000;1.745165
5066.000000;1.744141
5065.000000;1.743579
5064.000000;1.742822
5063.000000;1.740919
5062.000000;1.738529
5061.000000;1.737783
5060.000000;1.739925
5059.000000;1.743878
5058.000000;1.747229
5057.000000;1.748167
5056.000000;1.746485
5055.000000;1.743374
5054.000000;1.740669
5053.000000;1.739855
5052.000000;1.741227
5051.000000;1.743889
5050.000000;1.746547
5049.000000;1.748285
5048.000000;1.748875
5047.000000;1.748668
5046.000000;1.748138
5045.000000;1.747270
5044.000000;1.745653
5043.000000;1.743486
5042.000000;1.741996
5041.000000;1.742305
5040.000000;1.744130
5039.000000;1.746098
5038.000000;1.747176
5037.000000;1.747312
5036.000000;1.746899
5035.000000;1.746355
5034.000000;1.746099
5033.000000;1.746213
5032.000000;1.746141
5031.000000;1.745447
5030.000000;1.744836
5029.000000;1.745512
5028.000000;1.747376
5027.000000;1.748791
5026.000000;1.748603
5025.000000;1.747639
5024.000000;1.747540
5023.000000;1.748613
5022.000000;1.749551
5021.000000;1.749068
5020.000000;1.747225
5019.000000;1.745081
5018.000000;1.743563
5017.000000;1.742890
5016.000000;1.742752
5015.000000;1.742735
5014.000000;1.742578
5013.000000;1.742201
5012.000000;1.741687
5011.000000;1.741314
5010.000000;1.741512
5009.000000;1.742571
5008.000000;1.744285
5007.000000;1.745825
5006.000000;1.745992
5005.000000;1.743863
5004.000000;1.739739
5003.000000;1.735530
5002.000000;1.733640
5001.000000;1.734941
5000.000000;1.737943
4999.000000;1.740268
4998.000000;1.740915
4997.000000;1.740643
4996.000000;1.740378
4995.000000;1.740171
4994.000000;1.739712
4993.000000;1.739025
4992.000000;1.738242
4991.000000;1.737308
4990.000000;1.736345
4989.000000;1.735912
4988.000000;1.736373
4987.000000;1.737283
4986.000000;1.737861
4985.000000;1.737923
4984.000000;1.737826
4983.000000;1.737568
4982.000000;1.736511
4981.000000;1.734270
4980.000000;1.731589
4979.000000;1.729899
4978.000000;1.730025
4977.000000;1.731525
4976.000000;1.733220
4975.000000;1.734120
4974.000000;1.733830
4973.000000;1.732470
4972.000000;1.730650
4971.000000;1.729443
4970.000000;1.729813
4969.000000;1.731654
4968.000000;1.733601
4967.000000;1.734105
4966.000000;1.732731
4965.000000;1.730317
4964.000000;1.728119
4963.000000;1.727039
4962.000000;1.727314
4961.000000;1.728416
4960.000000;1.729300
4959.000000;1.729199
4958.000000;1.728245
4957.000000;1.727088
4956.000000;1.726009
4955.000000;1.724825
4954.000000;1.723535
4953.000000;1.722542
4952.000000;1.722164
4951.000000;1.722361
4950.000000;1.723028
4949.000000;1.724087
4948.000000;1.725091
4947.000000;1.725137
4946.000000;1.723635
4945.000000;1.721056
4944.000000;1.718607
4943.000000;1.717173
4942.000000;1.716681
4941.000000;1.716383
4940.000000;1.715611
4939.000000;1.714367
4938.000000;1.713276
4937.000000;1.712896
4936.000000;1.712997
4935.000000;1.712672
4934.000000;1.711405
4933.000000;1.709904
4932.000000;1.709471
4931.000000;1.710388
4930.000000;1.711267
4929.000000;1.710396
4928.000000;1.707561
4927.000000;1.704087
4926.000000;1.701142
4925.000000;1.698519
4924.000000;1.695450
4923.000000;1.692222
4922.000000;1.690250
4921.000000;1.690430
4920.000000;1.691966
4919.000000;1.693219
4918.000000;1.693370
4917.000000;1.692741
4916.000000;1.691694
4915.000000;1.689954
4914.000000;1.687210
4913.000000;1.683947
4912.000000;1.681333
4911.000000;1.680357
4910.000000;1.681117
4909.000000;1.682770
4908.000000;1.684084
4907.000000;1.684243
4906.000000;1.683242
4905.000000;1.681535
4904.000000;1.679425
4903.000000;1.676994
4902.000000;1.674447
4901.000000;1.672174
4900.000000;1.670398
4899.000000;1.669027
4898.000000;1.667883
4897.000000;1.666767
4896.000000;1.665278
4895.000000;1.663076
4894.000000;1.660621
4893.000000;1.659144
4892.000000;1.659250
4891.000000;1.659691
4890.000000;1.658274
4889.000000;1.654285
4888.000000;1.649458
4887.000000;1.646162
4886.000000;1.645141
4885.000000;1.645385
4884.000000;1.645697
4883.000000;1.645630
4882.000000;1.644887
4881.000000;1.642789
4880.000000;1.639092
4879.000000;1.634956
4878.000000;1.632233
4877.000000;1.631706
4876.000000;1.632411
4875.000000;1.632709
4874.000000;1.631716
4873.000000;1.629598
4872.000000;1.626995
4871.000000;1.624502
4870.000000;1.622439
4869.000000;1.620732
4868.000000;1.619014
4867.000000;1.617065
4866.000000;1.615143
4865.000000;1.613657
4864.000000;1.612503
4863.000000;1.610945
4862.000000;1.608295
4861.000000;1.604630
4860.000000;1.600802
4859.000000;1.597762
4858.000000;1.595881
4857.000000;1.594774
4856.000000;1.593721
4855.000000;1.592247
4854.000000;1.590328
4853.000000;1.588154
4852.000000;1.585833
4851.000000;1.583324
4850.000000;1.580520
4849.000000;1.577396
4848.000000;1.574244
4847.000000;1.571729
4846.000000;1.570388
4845.000000;1.569913
4844.000000;1.569182
4843.000000;1.567303
4842.000000;1.564487
4841.000000;1.561624
4840.000000;1.559141
4839.000000;1.556661
4838.000000;1.553778
4837.000000;1.550717
4836.000000;1.548012
4835.000000;1.545878
4834.000000;1.544113
4833.000000;1.542427
4832.000000;1.540620
4831.000000;1.538513
4830.000000;1.535966
4829.000000;1.533031
4828.000000;1.529964
4827.000000;1.527014
4826.000000;1.524280
4825.000000;1.521796
4824.000000;1.519665
4823.000000;1.517958
4822.000000;1.516451
4821.000000;1.514597
4820.000000;1.511870
4819.000000;1.508218
4818.000000;1.504154
4817.000000;1.500409
4816.000000;1.497450
4815.000000;1.495235
4814.000000;1.493348
4813.000000;1.491341
4812.000000;1.489034
4811.000000;1.486564
4810.000000;1.484171
4809.000000;1.481957
4808.000000;1.479868
4807.000000;1.477762
4806.000000;1.475447
4805.000000;1.472750
4804.000000;1.469726
4803.000000;1.466760
4802.000000;1.464220
4801.000000;1.462018
4800.000000;1.459689
4799.000000;1.456998
4798.000000;1.454229
4797.000000;1.451738
4796.000000;1.449445
4795.000000;1.446976
4794.000000;1.444184
4793.000000;1.441308
4792.000000;1.438611
4791.000000;1.436085
4790.000000;1.433564
4789.000000;1.430983
4788.000000;1.428466
4787.000000;1.426182
4786.000000;1.424150
4785.000000;1.422172
4784.000000;1.419985
4783.000000;1.417436
4782.000000;1.414472
4781.000000;1.411047
4780.000000;1.407255
4779.000000;1.403595
4778.000000;1.400799
4777.000000;1.399151
4776.000000;1.398069
4775.000000;1.396594
4774.000000;1.394308
4773.000000;1.391609
4772.000000;1.389125
4771.000000;1.387047
4770.000000;1.385013
4769.000000;1.382455
4768.000000;1.379074
4767.000000;1.375152
4766.000000;1.371402
4765.000000;1.368352
4764.000000;1.365854
4763.000000;1.363342
4762.000000;1.360566
4761.000000;1.357862
4760.000000;1.355672
4759.000000;1.354004
4758.000000;1.352483
4757.000000;1.350758
4756.000000;1.348729
4755.000000;1.346492
4754.000000;1.344212
4753.000000;1.342001
4752.000000;1.339794
4751.000000;1.337373
4750.000000;1.334606
4749.000000;1.331607
4748.000000;1.328619
4747.000000;1.325801
4746.000000;1.323210
4745.000000;1.320885
4744.000000;1.318813
4743.000000;1.316849
4742.000000;1.314750
4741.000000;1.312318
4740.000000;1.309473
4739.000000;1.306264
4738.000000;1.302888
4737.000000;1.299672
4736.000000;1.296958
4735.000000;1.294951
4734.000000;1.293590
4733.000000;1.292472
4732.000000;1.290939
4731.000000;1.288524
4730.000000;1.285456
4729.000000;1.282600
4728.000000;1.280687
4727.000000;1.279594
4726.000000;1.278509
4725.000000;1.276766
4724.000000;1.274388
4723.000000;1.271835
4722.000000;1.269430
4721.000000;1.267156
4720.000000;1.264877
4719.000000;1.262580
4718.000000;1.260348
4717.000000;1.258168
4716.000000;1.255850
4715.000000;1.253245
4714.000000;1.250579
4713.000000;1.248400
4712.000000;1.247054
4711.000000;1.246222
4710.000000;1.245155
4709.000000;1.243402
4708.000000;1.241181
4707.000000;1.238958
4706.000000;1.236884
4705.000000;1.234741
4704.000000;1.232330
4703.000000;1.229690
4702.000000;1.226984
4701.000000;1.224361
4700.000000;1.222009
4699.000000;1.220183
4698.000000;1.219004
4697.000000;1.218215
4696.000000;1.217246
4695.000000;1.215664
4694.000000;1.213561
4693.000000;1.211444
4692.000000;1.209685
4691.000000;1.208162
4690.000000;1.206481
4689.000000;1.204504
4688.000000;1.202527
4687.000000;1.200883
4686.000000;1.199506
4685.000000;1.197984
4684.000000;1.196010
4683.000000;1.193693
4682.000000;1.191422
4681.000000;1.189518
4680.000000;1.188047
4679.000000;1.186896
4678.000000;1.185910
4677.000000;1.184903
4676.000000;1.183620
4675.000000;1.181851
4674.000000;1.179683
4673.000000;1.177540
4672.000000;1.175833
4671.000000;1.174583
4670.000000;1.173480
4669.000000;1.172281
4668.000000;1.171010
4667.000000;1.169760
4666.000000;1.168497
4665.000000;1.167147
4664.000000;1.165719
4663.000000;1.164211
4662.000000;1.162516
4661.000000;1.160613
4660.000000;1.158747
4659.000000;1.157223
4658.000000;1.156033
4657.000000;1.154867
4656.000000;1.153526
4655.000000;1.152153
4654.000000;1.150986
4653.000000;1.150032
4652.000000;1.149070
4651.000000;1.147887
4650.000000;1.146432
4649.000000;1.144795
4648.000000;1.143138
4647.000000;1.141610
4646.000000;1.140261
4645.000000;1.139053
4644.000000;1.137960
4643.000000;1.137022
4642.000000;1.136259
4641.000000;1.135588
4640.000000;1.134851
4639.000000;1.133916
4638.000000;1.132748
4637.000000;1.131443
4636.000000;1.130216
4635.000000;1.129288
4634.000000;1.128680
4633.000000;1.128146
4632.000000;1.127349
4631.000000;1.126142
4630.000000;1.124672
4629.000000;1.123244
4628.000000;1.122095
4627.000000;1.121265
4626.000000;1.120647
4625.000000;1.120123
4624.000000;1.119634
4623.000000;1.119116
4622.000000;1.118455
4621.000000;1.117593
4620.000000;1.116643
4619.000000;1.115806
4618.000000;1.115162
4617.000000;1.114608
4616.000000;1.114012
4615.000000;1.113336
4614.000000;1.112600
4613.000000;1.111818
4612.000000;1.111028
4611.000000;1.110322
4610.000000;1.109780
4609.000000;1.109374
4608.000000;1.108938
4607.000000;1.108221
4606.000000;1.107043
4605.000000;1.105532
4604.000000;1.104180
4603.000000;1.103482
4602.000000;1.103449
4601.000000;1.103594
4600.000000;1.103439
4599.000000;1.102935
4598.000000;1.102322
4597.000000;1.101753
4596.000000;1.101206
4595.000000;1.100624
4594.000000;1.099962
4593.000000;1.099173
4592.000000;1.098337
4591.000000;1.097743
4590.000000;1.097665
4589.000000;1.098011
4588.000000;1.098357
4587.000000;1.098352
4586.000000;1.097988
4585.000000;1.097479
4584.000000;1.097017
4583.000000;1.096695
4582.000000;1.096549
4581.000000;1.096560
4580.000000;1.096651
4579.000000;1.096730
4578.000000;1.096746
4577.000000;1.096688
4576.000000;1.096584
4575.000000;1.096487
4574.000000;1.096460
4573.000000;1.096554
4572.000000;1.096784
4571.000000;1.097058
4570.000000;1.097154
4569.000000;1.096867
4568.000000;1.096255
4567.000000;1.095619
4566.000000;1.095191
4565.000000;1.094968
4564.000000;1.094918
4563.000000;1.095168
4562.000000;1.095791
4561.000000;1.096541
4560.000000;1.097084
4559.000000;1.097447
4558.000000;1.097947
4557.000000;1.098650
4556.000000;1.099184
4555.000000;1.099236
4554.000000;1.098995
4553.000000;1.098937
4552.000000;1.099303
4551.000000;1.099960
4550.000000;1.100655
4549.000000;1.101262
4548.000000;1.101820
4547.000000;1.102457
4546.000000;1.103248
4545.000000;1.104102
4544.000000;1.104817
4543.000000;1.105307
4542.000000;1.105707
4541.000000;1.106231
4540.000000;1.107003
4539.000000;1.108035
4538.000000;1.109230
4537.000000;1.110348
4536.000000;1.111106
4535.000000;1.111444
4534.000000;1.111613
4533.000000;1.111910
4532.000000;1.112407
4531.000000;1.113022
4530.000000;1.113705
4529.000000;1.114418
4528.000000;1.115023
4527.000000;1.115396
4526.000000;1.115643
4525.000000;1.116049
4524.000000;1.116785
4523.000000;1.117739
4522.000000;1.118639
4521.000000;1.119277
4520.000000;1.119636
4519.000000;1.119908
4518.000000;1.120388
4517.000000;1.121238
4516.000000;1.122312
4515.000000;1.123247
4514.000000;1.123769
4513.000000;1.123928
4512.000000;1.124082
4511.000000;1.124674
4510.000000;1.125919
4509.000000;1.127612
4508.000000;1.129266
4507.000000;1.130513
4506.000000;1.131364
4505.000000;1.132039
4504.000000;1.132647
4503.000000;1.133143
4502.000000;1.133535
4501.000000;1.133929
4500.000000;1.134369
4499.000000;1.134792
4498.000000;1.135217
4497.000000;1.135854
4496.000000;1.136915
4495.000000;1.138347
4494.000000;1.139843
4493.000000;1.141112
4492.000000;1.142086
4491.000000;1.142883
4490.000000;1.143648
4489.000000;1.144477
4488.000000;1.145422
4487.000000;1.146488
4486.000000;1.147644
4485.000000;1.148882
4484.000000;1.150275
4483.000000;1.151887
4482.000000;1.153606
4481.000000;1.155196
4480.000000;1.156578
4479.000000;1.157981
4478.000000;1.159665
4477.000000;1.161566
4476.000000;1.163380
4475.000000;1.164945
4474.000000;1.166370
4473.000000;1.167762
4472.000000;1.169035
4471.000000;1.170095
4470.000000;1.171051
4469.000000;1.172144
4468.000000;1.173563
4467.000000;1.175377
4466.000000;1.177502
4465.000000;1.179662
4464.000000;1.181576
4463.000000;1.183294
4462.000000;1.185195
4461.000000;1.187474
4460.000000;1.189772
4459.000000;1.191570
4458.000000;1.192869
4457.000000;1.194253
4456.000000;1.196250
4455.000000;1.198825
4454.000000;1.201533
4453.000000;1.203996
4452.000000;1.206175
4451.000000;1.208279
4450.000000;1.210508
4449.000000;1.212884
4448.000000;1.215316
4447.000000;1.217789
4446.000000;1.220387
4445.000000;1.223056
4444.000000;1.225455
4443.000000;1.227243
4442.000000;1.228488
4441.000000;1.229665
4440.000000;1.231235
4439.000000;1.233343
4438.000000;1.235883
4437.000000;1.238667
4436.000000;1.241503
4435.000000;1.244209
4434.000000;1.246701
4433.000000;1.249043
4432.000000;1.251394
4431.000000;1.253880
4430.000000;1.256481
4429.000000;1.259020
4428.000000;1.261327
4427.000000;1.263445
4426.000000;1.265621
4425.000000;1.268071
4424.000000;1.270839
4423.000000;1.273875
4422.000000;1.277059
4421.000000;1.280077
4420.000000;1.282502
4419.000000;1.284270
4418.000000;1.285934
4417.000000;1.288163
4416.000000;1.291044
4415.000000;1.294106
4414.000000;1.297010
4413.000000;1.299870
4412.000000;1.302824
4411.000000;1.305628
4410.000000;1.307987
4409.000000;1.310123
4408.000000;1.312668
4407.000000;1.315924
4406.000000;1.319428
4405.000000;1.322439
4404.000000;1.324791
4403.000000;1.327120
4402.000000;1.330159
4401.000000;1.333954
4400.000000;1.337898
4399.000000;1.341437
4398.000000;1.344489
4397.000000;1.347188
4396.000000;1.349559
4395.000000;1.351677
4394.000000;1.353904
4393.000000;1.356685
4392.000000;1.360185
4391.000000;1.364302
4390.000000;1.368825
4389.000000;1.373334
4388.000000;1.377174
4387.000000;1.379961
4386.000000;1.382099
4385.000000;1.384444
4384.000000;1.387404
4383.000000;1.390668
4382.000000;1.393817
4381.000000;1.396817
4380.000000;1.399874
4379.000000;1.403131
4378.000000;1.406666
4377.000000;1.410482
4376.000000;1.414355
4375.000000;1.417932
4374.000000;1.421154
4373.000000;1.424344
4372.000000;1.427744
4371.000000;1.431246
4370.000000;1.434739
4369.000000;1.438420
4368.000000;1.442461
4367.000000;1.446580
4366.000000;1.450239
4365.000000;1.453181
4364.000000;1.455630
4363.000000;1.458155
4362.000000;1.461504
4361.000000;1.466216
4360.000000;1.471986
4359.000000;1.477602
4358.000000;1.482003
4357.000000;1.485399
4356.000000;1.488935
4355.000000;1.493245
4354.000000;1.497821
4353.000000;1.501860
4352.000000;1.505268
4351.000000;1.508572
4350.000000;1.512245
4349.000000;1.516497
4348.000000;1.521448
4347.000000;1.527041
4346.000000;1.532810
4345.000000;1.538120
4344.000000;1.542760
4343.000000;1.547045
4342.000000;1.551288
4341.000000;1.555392
4340.000000;1.559117
4339.000000;1.562540
4338.000000;1.566029
4337.000000;1.569810
4336.000000;1.573737
4335.000000;1.577485
4334.000000;1.580930
4333.000000;1.584376
4332.000000;1.588468
4331.000000;1.593799
4330.000000;1.600434
4329.000000;1.607775
4328.000000;1.614997
4327.000000;1.621567
4326.000000;1.627197
4325.000000;1.631541
4324.000000;1.634468
4323.000000;1.636685
4322.000000;1.639634
4321.000000;1.644463
4320.000000;1.651141
4319.000000;1.658604
4318.000000;1.665521
4317.000000;1.670935
4316.000000;1.674668
4315.000000;1.677525
4314.000000;1.680835
4313.000000;1.685341
4312.000000;1.690549
4311.000000;1.695469
4310.000000;1.699931
4309.000000;1.704662
4308.000000;1.710089
4307.000000;1.715778
4306.000000;1.721236
4305.000000;1.726671
4304.000000;1.732590
4303.000000;1.738977
4302.000000;1.745265
4301.000000;1.750871
4300.000000;1.755484
4299.000000;1.759186
4298.000000;1.762785
4297.000000;1.767633
4296.000000;1.774340
4295.000000;1.781604
4294.000000;1.787003
4293.000000;1.789419
4292.000000;1.790403
4291.000000;1.792748
4290.000000;1.798023
4289.000000;1.805630
4288.000000;1.813684
4287.000000;1.820498
4286.000000;1.825555
4285.000000;1.829596
4284.000000;1.833926
4283.000000;1.839407
4282.000000;1.845785
4281.000000;1.851864
4280.000000;1.856457
4279.000000;1.859472
4278.000000;1.862231
4277.000000;1.866525
4276.000000;1.873072
4275.000000;1.880835
4274.000000;1.888113
4273.000000;1.894358
4272.000000;1.900389
4271.000000;1.906694
4270.000000;1.912307
4269.000000;1.916061
4268.000000;1.918621
4267.000000;1.922219
4266.000000;1.928352
4265.000000;1.936516
4264.000000;1.945000
4263.000000;1.952056
4262.000000;1.956499
4261.000000;1.958631
4260.000000;1.960995
4259.000000;1.966749
4258.000000;1.976224
4257.000000;1.985701
4256.000000;1.990817
4255.000000;1.991077
4254.000000;1.989757
4253.000000;1.989940
4252.000000;1.992401
4251.000000;1.996942
4250.000000;2.003994
4249.000000;2.014138
4248.000000;2.026624
4247.000000;2.038928
4246.000000;2.047875
4245.000000;2.051746
4244.000000;2.052008
4243.000000;2.052582
4242.000000;2.056837
4241.000000;2.065118
4240.000000;2.075031
4239.000000;2.083633
4238.000000;2.089224
4237.000000;2.091993
4236.000000;2.094073
4235.000000;2.098355
4234.000000;2.105753
4233.000000;2.113703
4232.000000;2.118726
4231.000000;2.120498
4230.000000;2.121816
4229.000000;2.124794
4228.000000;2.129052
4227.000000;2.133418
4226.000000;2.137116
4225.000000;2.139221
4224.000000;2.139449
4223.000000;2.140218
4222.000000;2.145631
4221.000000;2.157182
4220.000000;2.171681
4219.000000;2.184437
4218.000000;2.193466
4217.000000;2.199448
4216.000000;2.203567
4215.000000;2.207359
4214.000000;2.212791
4213.000000;2.220591
4212.000000;2.229237
4211.000000;2.236467
4210.000000;2.241168
4209.000000;2.242933
4208.000000;2.241533
4207.000000;2.238816
4206.000000;2.238913
4205.000000;2.244301
4204.000000;2.253071
4203.000000;2.261561
4202.000000;2.268177
4201.000000;2.272616
4200.000000;2.273540
4199.000000;2.270793
4198.000000;2.268460
4197.000000;2.271694
4196.000000;2.280904
4195.000000;2.291875
4194.000000;2.301696
4193.000000;2.311195
4192.000000;2.320742
4191.000000;2.328211
4190.000000;2.332542
4189.000000;2.335818
4188.000000;2.340191
4187.000000;2.345297
4186.000000;2.350213
4185.000000;2.355157
4184.000000;2.359653
4183.000000;2.362423
4182.000000;2.364219
4181.000000;2.368502
4180.000000;2.377928
4179.000000;2.390227
4178.000000;2.399484
4177.000000;2.402624
4176.000000;2.402880
4175.000000;2.405176
4174.000000;2.410594
4173.000000;2.417287
4172.000000;2.423315
4171.000000;2.426866
4170.000000;2.426639
4169.000000;2.423932
4168.000000;2.423494
4167.000000;2.429707
4166.000000;2.441262
4165.000000;2.450813
4164.000000;2.452395
4163.000000;2.449037
4162.000000;2.448706
4161.000000;2.453785
4160.000000;2.459287
4159.000000;2.462675
4158.000000;2.469865
4157.000000;2.487140
4156.000000;2.511413
4155.000000;2.531071
4154.000000;2.537279
4153.000000;2.531779
4152.000000;2.522097
4151.000000;2.515243
4150.000000;2.515927
4149.000000;2.526509
4148.000000;2.546217
4147.000000;2.569767
4146.000000;2.588042
4145.000000;2.593213
4144.000000;2.584382
4143.000000;2.566961
4142.000000;2.549621
4141.000000;2.541768
4140.000000;2.548640
4139.000000;2.567070
4138.000000;2.587725
4137.000000;2.601711
4136.000000;2.605571
4135.000000;2.603344
4134.000000;2.603363
4133.000000;2.611296
4132.000000;2.626084
4131.000000;2.641480
4130.000000;2.651737
4129.000000;2.654734
4128.000000;2.650985
4127.000000;2.643699
4126.000000;2.637524
4125.000000;2.635155
4124.000000;2.635051
4123.000000;2.634472
4122.000000;2.634559
4121.000000;2.639239
4120.000000;2.650807
4119.000000;2.669296
4118.000000;2.693858
4117.000000;2.720213
4116.000000;2.736567
4115.000000;2.732907
4114.000000;2.716498
4113.000000;2.705136
4112.000000;2.708710
4111.000000;2.722736
4110.000000;2.735884
4109.000000;2.740040
4108.000000;2.731438
4107.000000;2.709622
4106.000000;2.681700
4105.000000;2.660506
4104.000000;2.655525
4103.000000;2.666718
4102.000000;2.685810
4101.000000;2.703345
4100.000000;2.715024
4099.000000;2.722476
4098.000000;2.728057
4097.000000;2.729247
4096.000000;2.721578
4095.000000;2.708674
4094.000000;2.704597
4093.000000;2.720778
4092.000000;2.753557
4091.000000;2.787750
4090.000000;2.810229
4089.000000;2.816082
4088.000000;2.809763
4087.000000;2.798145
4086.000000;2.784565
4085.000000;2.775683
4084.000000;2.777632
4083.000000;2.784277
4082.000000;2.783304
4081.000000;2.774564
4080.000000;2.770898
4079.000000;2.780821
4078.000000;2.799761
4077.000000;2.819975
4076.000000;2.843500
4075.000000;2.873510
4074.000000;2.895642
4073.000000;2.889096
4072.000000;2.857662
4071.000000;2.827651
4070.000000;2.820494
4069.000000;2.837265
4068.000000;2.862611
4067.000000;2.878325
4066.000000;2.877475
4065.000000;2.866125
4064.000000;2.850675
4063.000000;2.836039
4062.000000;2.829688
4061.000000;2.835502
4060.000000;2.850008
4059.000000;2.866062
4058.000000;2.877023
4057.000000;2.879399
4056.000000;2.875578
4055.000000;2.871108
4054.000000;2.868674
4053.000000;2.869375
4052.000000;2.872653
4051.000000;2.874288
4050.000000;2.870436
4049.000000;2.862600
4048.000000;2.859474
4047.000000;2.872023
4046.000000;2.903424
4045.000000;2.941702
4044.000000;2.964110
4043.000000;2.959260
4042.000000;2.944807
4041.000000;2.938833
4040.000000;2.936171
4039.000000;2.926693
4038.000000;2.913840
4037.000000;2.908948
4036.000000;2.917178
4035.000000;2.931357
4034.000000;2.940156
4033.000000;2.943311
4032.000000;2.945640
4031.000000;2.944637
4030.000000;2.938357
4029.000000;2.934010
4028.000000;2.941296
4027.000000;2.960867
4026.000000;2.978603
4025.000000;2.975639
4024.000000;2.952987
4023.000000;2.931289
4022.000000;2.928403
4021.000000;2.949152
4020.000000;2.984063
4019.000000;3.015117
4018.000000;3.031125
4017.000000;3.039203
4016.000000;3.048761
4015.000000;3.056776
4014.000000;3.056396
4013.000000;3.039014
4012.000000;3.001938
4011.000000;2.961548
4010.000000;2.942084
4009.000000;2.955274
4008.000000;2.993597
4007.000000;3.038868
4006.000000;3.077754
4005.000000;3.109410
4004.000000;3.134297
4003.000000;3.137725
4002.000000;3.116234
4001.000000;3.104636
4000.000000;3.125061
3999.000000;3.153912
3998.000000;3.150658
3997.000000;3.118147
3996.000000;3.095048
3995.000000;3.099272
3994.000000;3.118681
3993.000000;3.132272
3992.000000;3.129084
3991.000000;3.118413
3990.000000;3.115337
3989.000000;3.122192
3988.000000;3.129993
3987.000000;3.127576
3986.000000;3.113586
3985.000000;3.097458
3984.000000;3.084429
3983.000000;3.065904
3982.000000;3.039637
3981.000000;3.029675
3980.000000;3.059143
3979.000000;3.118494
3978.000000;3.165480
3977.000000;3.177981
3976.000000;3.169016
3975.000000;3.143131
3974.000000;3.110343
3973.000000;3.087853
3972.000000;3.081393
3971.000000;3.084707
3970.000000;3.091321
3969.000000;3.107818
3968.000000;3.147423
3967.000000;3.208410
3966.000000;3.270473
3965.000000;3.294236
3964.000000;3.267042
3963.000000;3.245689
3962.000000;3.261634
3961.000000;3.298324
3960.000000;3.345316
3959.000000;3.401812
3958.000000;3.436367
3957.000000;3.424146
3956.000000;3.387998
3955.000000;3.349928
3954.000000;3.326653
3953.000000;3.313416
3952.000000;3.293150
3951.000000;3.270983
3950.000000;3.253277
3949.000000;3.236505
3948.000000;3.237039
3947.000000;3.274181
3946.000000;3.345550
3945.000000;3.426979
3944.000000;3.464299
3943.000000;3.425041
3942.000000;3.357845
3941.000000;3.315832
3940.000000;3.311914
3939.000000;3.331033
3938.000000;3.348811
3937.000000;3.350281
3936.000000;3.350387
3935.000000;3.385629
3934.000000;3.456809
3933.000000;3.518257
3932.000000;3.556965
3931.000000;3.604299
3930.000000;3.679530
3929.000000;3.780353
3928.000000;3.869377
3927.000000;3.902994
3926.000000;4.033610
3925.000000;4.074356
3924.000000;3.775612
3923.000000;3.637069
3922.000000;3.607456
3921.000000;3.624117
3920.000000;3.638149
3919.000000;3.647125
3918.000000;3.698431
3917.000000;3.849006
3916.000000;4.209632
3915.000000;4.907011
3914.000000;5.047948
3913.000000;4.226580
3912.000000;3.782404
3911.000000;3.565760
3910.000000;3.482944
3909.000000;3.497943
3908.000000;3.555752
3907.000000;3.576293
3906.000000;3.566561
3905.000000;3.598957
3904.000000;3.700057
3903.000000;3.853869
3902.000000;4.029154
3901.000000;4.146706
3900.000000;4.143759
3899.000000;4.088645
3898.000000;4.035094
3897.000000;4.016729
3896.000000;3.972800
3895.000000;3.823710
3894.000000;3.707221
3893.000000;3.685243
3892.000000;3.711705
3891.000000;3.731783
3890.000000;3.733522
3889.000000;3.757402
3888.000000;3.850885
3887.000000;4.037170
3886.000000;4.242840
3885.000000;4.365688
3884.000000;4.616743
3883.000000;4.569968
3882.000000;4.282105
3881.000000;4.159117
3880.000000;4.053812
3879.000000;3.932694
3878.000000;3.819037
3877.000000;3.774600
3876.000000;3.827122
3875.000000;3.910729
3874.000000;3.912988
3873.000000;3.843187
3872.000000;3.815407
3871.000000;3.863483
3870.000000;3.936730
3869.000000;4.029022
3868.000000;4.052384
3867.000000;3.964826
3866.000000;4.010316
3865.000000;4.237748
3864.000000;4.371902
3863.000000;4.182096
3862.000000;3.932255
3861.000000;3.807965
3860.000000;3.787555
3859.000000;3.816549
3858.000000;3.782464
3857.000000;3.723108
3856.000000;3.778056
3855.000000;4.026186
3854.000000;4.599060
3853.000000;4.293746
3852.000000;4.058231
3851.000000;4.260173
3850.000000;4.364754
3849.000000;4.263718
3848.000000;4.364915
3847.000000;4.096491
3846.000000;3.960464
3845.000000;3.974308
3844.000000;3.992635
3843.000000;3.904997
3842.000000;3.809424
3841.000000;3.914428
3840.000000;4.058978
3839.000000;3.752164
3838.000000;3.551833
3837.000000;3.473972
3836.000000;3.495317
3835.000000;3.500367
3834.000000;3.453238
3833.000000;3.528977
3832.000000;3.729077
3831.000000;3.921364
3830.000000;4.034365
3829.000000;4.263499
3828.000000;3.946586
3827.000000;3.684219
3826.000000;3.664042
3825.000000;3.800834
3824.000000;4.142867
3823.000000;4.096635
3822.000000;3.798608
3821.000000;3.660131
3820.000000;3.548676
3819.000000;3.421466
3818.000000;3.362835
3817.000000;3.422233
3816.000000;3.568075
3815.000000;3.623687
3814.000000;3.923810
3813.000000;4.350237
3812.000000;3.642496
3811.000000;3.606206
3810.000000;3.631582
3809.000000;3.639178
3808.000000;3.650195
3807.000000;3.608805
3806.000000;3.511394
3805.000000;3.603395
3804.000000;3.998678
3803.000000;3.749605
3802.000000;3.702071
3801.000000;3.902594
3800.000000;3.483179
3799.000000;3.164589
3798.000000;3.163058
3797.000000;3.408681
3796.000000;3.687828
3795.000000;3.775480
3794.000000;3.750518
3793.000000;3.858777
3792.000000;4.246862
3791.000000;4.107390
3790.000000;3.804102
3789.000000;3.704113
3788.000000;3.657381
3787.000000;3.654960
3786.000000;3.680933
3785.000000;4.058721
3784.000000;4.393055
3783.000000;3.681628
3782.000000;3.566055
3781.000000;3.721615
3780.000000;4.090048
3779.000000;3.984756
3778.000000;3.748709
3777.000000;3.711911
3776.000000;3.838523
3775.000000;4.190505
3774.000000;3.836470
3773.000000;3.514329
3772.000000;3.390683
3771.000000;3.386677
3770.000000;3.445210
3769.000000;3.447665
3768.000000;3.386138
3767.000000;3.369309
3766.000000;3.442808
3765.000000;3.533966
3764.000000;3.544739
3763.000000;3.520289
3762.000000;3.561428
3761.000000;3.661316
3760.000000;3.678478
3759.000000;3.571473
3758.000000;3.502915
3757.000000;3.559074
3756.000000;3.643979
3755.000000;3.668518
3754.000000;3.709890
3753.000000;3.715760
3752.000000;3.650831
3751.000000;3.573007
3750.000000;3.534529
3749.000000;3.547524
3748.000000;3.818014
3747.000000;4.108899
3746.000000;3.748022
3745.000000;3.744862
3744.000000;3.896665
3743.000000;4.181593
3742.000000;4.377322
3741.000000;4.033367
3740.000000;4.020351
3739.000000;4.114430
3738.000000;3.904854
3737.000000;3.763845
3736.000000;3.841197
3735.000000;4.274457
3734.000000;4.683596
3733.000000;4.261251
3732.000000;4.265545
3731.000000;4.338648
3730.000000;4.335575
3729.000000;4.367715
3728.000000;4.455368
3727.000000;4.328171
3726.000000;4.151080
3725.000000;4.114044
3724.000000;4.118913
3723.000000;4.142727
3722.000000;4.080182
3721.000000;3.972296
3720.000000;3.777615
3719.000000;3.687931
3718.000000;3.691281
3717.000000;3.841750
3716.000000;4.370421
3715.000000;3.889312
3714.000000;3.622196
3713.000000;3.615725
3712.000000;3.626766
3711.000000;3.637999
3710.000000;3.648079
3709.000000;3.834897
3708.000000;3.879394
3707.000000;3.590169
3706.000000;3.583806
3705.000000;3.790505
3704.000000;3.745281
3703.000000;3.591134
3702.000000;3.643356
3701.000000;3.841676
3700.000000;4.025624
3699.000000;4.002893
3698.000000;3.895850
3697.000000;3.889691
3696.000000;3.906237
3695.000000;3.962696
3694.000000;4.123422
3693.000000;3.890222
3692.000000;3.598773
3691.000000;3.507398
3690.000000;3.518622
3689.000000;3.641967
3688.000000;3.686842
3687.000000;3.711249
3686.000000;4.098377
3685.000000;3.808528
3684.000000;3.510602
3683.000000;3.469116
3682.000000;3.473126
3681.000000;3.620958
3680.000000;3.924700
3679.000000;3.788578
3678.000000;3.531388
3677.000000;3.460197
3676.000000;3.447407
3675.000000;3.440216
3674.000000;3.401991
3673.000000;3.469377
3672.000000;3.730756
3671.000000;3.987935
3670.000000;4.048508
3669.000000;4.052604
3668.000000;4.373790
3667.000000;3.848733
3666.000000;3.507585
3665.000000;3.474217
3664.000000;3.520196
3663.000000;3.581277
3662.000000;3.586338
3661.000000;3.553751
3660.000000;3.511271
3659.000000;3.508579
3658.000000;3.592999
3657.000000;3.737731
3656.000000;3.994653
3655.000000;4.298950
3654.000000;3.928798
3653.000000;3.707531
3652.000000;3.701208
3651.000000;3.766756
3650.000000;3.855738
3649.000000;3.926933
3648.000000;4.034810
3647.000000;4.101013
3646.000000;4.194097
3645.000000;4.357357
3644.000000;4.018415
3643.000000;3.745502
3642.000000;3.758934
3641.000000;4.028565
3640.000000;3.961083
3639.000000;3.804005
3638.000000;4.004986
3637.000000;4.122898
3636.000000;3.857695
3635.000000;3.734369
3634.000000;3.756424
3633.000000;3.822990
3632.000000;3.882996
3631.000000;3.980977
3630.000000;4.153625
3629.000000;4.369430
3628.000000;4.408236
3627.000000;4.121287
3626.000000;3.896177
3625.000000;3.817196
3624.000000;3.846661
3623.000000;3.921993
3622.000000;4.048210
3621.000000;4.366206
3620.000000;4.409104
3619.000000;4.209195
3618.000000;4.185953
3617.000000;4.054906
3616.000000;3.935604
3615.000000;3.941523
3614.000000;4.016005
3613.000000;4.087856
3612.000000;4.190160
3611.000000;4.461957
3610.000000;5.150292
3609.000000;4.582589
3608.000000;4.120009
3607.000000;3.930663
3606.000000;3.926872
3605.000000;4.063762
3604.000000;3.996253
3603.000000;3.847032
3602.000000;3.970174
3601.000000;4.144501
3600.000000;3.955268
3599.000000;3.882653
3598.000000;3.741543
3597.000000;3.601205
3596.000000;3.605520
3595.000000;3.667606
3594.000000;3.708934
3593.000000;3.733087
3592.000000;3.797954
3591.000000;3.939967
3590.000000;4.208599
3589.000000;4.330352
3588.000000;4.254250
3587.000000;4.293464
3586.000000;4.313219
3585.000000;4.238248
3584.000000;4.133914
3583.000000;4.083205
3582.000000;4.177589
3581.000000;4.184818
3580.000000;3.873224
3579.000000;3.641268
3578.000000;3.547803
3577.000000;3.525013
3576.000000;3.490741
3575.000000;3.442575
3574.000000;3.422076
3573.000000;3.431024
3572.000000;3.454107
3571.000000;3.464652
3570.000000;3.487898
3569.000000;3.582480
3568.000000;3.748335
3567.000000;3.934665
3566.000000;4.112148
3565.000000;4.365418
3564.000000;4.725452
3563.000000;4.438455
3562.000000;4.209047
3561.000000;4.094212
3560.000000;3.913355
3559.000000;3.790363
3558.000000;3.758833
3557.000000;3.811069
3556.000000;4.000620
3555.000000;4.136082
3554.000000;4.314250
3553.000000;4.503588
3552.000000;3.844432
3551.000000;3.593511
3550.000000;3.545558
3549.000000;3.684121
3548.000000;3.971684
3547.000000;3.873706
3546.000000;3.792814
3545.000000;3.967652
3544.000000;4.341493
3543.000000;4.111105
3542.000000;3.761098
3541.000000;3.621979
3540.000000;3.618800
3539.000000;3.693389
3538.000000;3.690047
3537.000000;3.765503
3536.000000;4.019035
3535.000000;4.035574
3534.000000;3.965515
3533.000000;3.889383
3532.000000;3.763271
3531.000000;3.732370
3530.000000;3.781274
3529.000000;3.756620
3528.000000;3.723029
3527.000000;3.746689
3526.000000;3.978736
3525.000000;4.551191
3524.000000;4.774043
3523.000000;4.698582
3522.000000;4.038102
3521.000000;3.805199
3520.000000;3.741264
3519.000000;3.642600
3518.000000;3.568023
3517.000000;3.583473
3516.000000;3.829872
3515.000000;4.175136
3514.000000;3.788065
3513.000000;3.536514
3512.000000;3.474259
3511.000000;3.545538
3510.000000;3.726490
3509.000000;3.829473
3508.000000;3.850686
3507.000000;3.866276
3506.000000;3.842716
3505.000000;3.849694
3504.000000;4.017648
3503.000000;4.193697
3502.000000;4.048963
3501.000000;3.940352
3500.000000;3.874567
3499.000000;3.801890
3498.000000;3.743521
3497.000000;3.691640
3496.000000;3.678170
3495.000000;3.714649
3494.000000;3.769800
3493.000000;3.772715
3492.000000;3.692771
3491.000000;3.559916
3490.000000;3.463697
3489.000000;3.437630
3488.000000;3.487777
3487.000000;3.618258
3486.000000;3.818061
3485.000000;4.311834
3484.000000;4.335970
3483.000000;3.853147
3482.000000;3.755223
3481.000000;3.787856
3480.000000;3.904531
3479.000000;4.073270
3478.000000;4.293194
3477.000000;4.296753
3476.000000;3.982951
3475.000000;3.778414
3474.000000;3.724828
3473.000000;3.777229
3472.000000;3.976233
3471.000000;4.173474
3470.000000;3.892169
3469.000000;3.711833
3468.000000;3.729712
3467.000000;3.881054
3466.000000;3.718270
3465.000000;3.443700
3464.000000;3.347753
3463.000000;3.384535
3462.000000;3.547597
3461.000000;3.667577
3460.000000;3.579015
3459.000000;3.531243
3458.000000;3.578311
3457.000000;3.703367
3456.000000;3.889961
3455.000000;3.971560
3454.000000;3.901274
3453.000000;3.848994
3452.000000;3.893332
3451.000000;3.919774
3450.000000;3.847794
3449.000000;3.817304
3448.000000;4.053459
3447.000000;4.307158
3446.000000;3.851261
3445.000000;3.654760
3444.000000;3.657074
3443.000000;3.766033
3442.000000;4.039072
3441.000000;4.324421
3440.000000;4.034119
3439.000000;3.868547
3438.000000;3.854036
3437.000000;3.874066
3436.000000;3.850300
3435.000000;3.698093
3434.000000;3.596759
3433.000000;3.665448
3432.000000;3.856290
3431.000000;3.806133
3430.000000;3.743238
3429.000000;3.948365
3428.000000;4.150404
3427.000000;4.054926
3426.000000;3.982663
3425.000000;3.941476
3424.000000;3.911517
3423.000000;3.910187
3422.000000;3.930742
3421.000000;3.915154
3420.000000;3.979687
3419.000000;4.160926
3418.000000;4.128401
3417.000000;4.054917
3416.000000;4.020877
3415.000000;3.918351
3414.000000;3.812324
3413.000000;3.745673
3412.000000;3.748895
3411.000000;3.776868
3410.000000;3.767652
3409.000000;3.783079
3408.000000;3.884141
3407.000000;4.076739
3406.000000;4.275920
3405.000000;4.116716
3404.000000;3.813172
3403.000000;3.682222
3402.000000;3.721682
3401.000000;3.976511
3400.000000;4.703141
3399.000000;4.588933
3398.000000;4.187463
3397.000000;4.079998
3396.000000;3.864282
3395.000000;3.649422
3394.000000;3.553466
3393.000000;3.609732
3392.000000;3.745401
3391.000000;3.692843
3390.000000;3.560710
3389.000000;3.498102
3388.000000;3.491999
3387.000000;3.553107
3386.000000;3.720464
3385.000000;4.056407
3384.000000;4.498887
3383.000000;4.463342
3382.000000;4.087824
3381.000000;3.996987
3380.000000;3.929174
3379.000000;3.707704
3378.000000;3.594693
3377.000000;3.649715
3376.000000;4.054591
3375.000000;4.374291
3374.000000;3.928242
3373.000000;3.910406
3372.000000;4.149254
3371.000000;4.191312
3370.000000;3.906210
3369.000000;3.773063
3368.000000;3.773631
3367.000000;3.815708
3366.000000;3.821227
3365.000000;3.801347
3364.000000;3.748858
3363.000000;3.651004
3362.000000;3.578537
3361.000000;3.584020
3360.000000;3.641715
3359.000000;3.950011
3358.000000;4.567772
3357.000000;4.156051
3356.000000;4.277428
3355.000000;4.011871
3354.000000;3.759007
3353.000000;3.763974
3352.000000;3.778765
3351.000000;3.691911
3350.000000;3.557807
3349.000000;3.509651
3348.000000;3.542696
3347.000000;3.562877
3346.000000;3.514155
3345.000000;3.488236
3344.000000;3.525224
3343.000000;3.582130
3342.000000;3.603463
3341.000000;3.615817
3340.000000;3.715670
3339.000000;3.831517
3338.000000;3.794922
3337.000000;3.757530
3336.000000;3.798705
3335.000000;3.868477
3334.000000;4.049729
3333.000000;4.329188
3332.000000;4.058951
3331.000000;3.816720
3330.000000;3.712075
3329.000000;3.676445
3328.000000;3.733597
3327.000000;3.882407
3326.000000;4.054614
3325.000000;3.954473
3324.000000;3.736359
3323.000000;3.639606
3322.000000;3.687839
3321.000000;4.007117
3320.000000;4.371861
3319.000000;3.897786
3318.000000;3.661899
3317.000000;3.588655
3316.000000;3.647885
3315.000000;3.939552
3314.000000;3.911775
3313.000000;3.694046
3312.000000;3.665805
3311.000000;3.899021
3310.000000;4.350076
3309.000000;3.810217
3308.000000;3.641002
3307.000000;3.639622
3306.000000;3.620570
3305.000000;3.597748
3304.000000;3.596469
3303.000000;3.728733
3302.000000;3.965502
3301.000000;3.872468
3300.000000;3.707915
3299.000000;3.634795
3298.000000;3.574395
3297.000000;3.580268
3296.000000;3.706001
3295.000000;4.177337
3294.000000;4.556587
3293.000000;4.149709
3292.000000;4.196565
3291.000000;4.190814
3290.000000;4.278975
3289.000000;4.724359
3288.000000;4.352140
3287.000000;4.031429
3286.000000;3.820352
3285.000000;3.654312
3284.000000;3.643436
3283.000000;3.797437
3282.000000;3.743573
3281.000000;3.534548
3280.000000;3.502110
3279.000000;3.642965
3278.000000;4.024785
3277.000000;4.770760
3276.000000;4.195987
3275.000000;3.840160
3274.000000;3.719725
3273.000000;3.755804
3272.000000;3.898846
3271.000000;3.936402
3270.000000;3.845994
3269.000000;3.801862
3268.000000;3.812563
3267.000000;3.834891
3266.000000;3.837198
3265.000000;3.816075
3264.000000;3.795319
3263.000000;3.805832
3262.000000;3.891867
3261.000000;4.059009
3260.000000;4.223530
3259.000000;4.517402
3258.000000;4.388977
3257.000000;3.860016
3256.000000;3.568958
3255.000000;3.422301
3254.000000;3.391575
3253.000000;3.472787
3252.000000;3.661556
3251.000000;3.750081
3250.000000;3.591030
3249.000000;3.498554
3248.000000;3.485183
3247.000000;3.475102
3246.000000;3.454694
3245.000000;3.514052
3244.000000;3.708886
3243.000000;3.654134
3242.000000;3.430598
3241.000000;3.352014
3240.000000;3.352522
3239.000000;3.393753
3238.000000;3.473097
3237.000000;3.618343
3236.000000;3.862204
3235.000000;4.245431
3234.000000;4.770160
3233.000000;4.317453
3232.000000;3.939256
3231.000000;3.779317
3230.000000;3.761169
3229.000000;3.735799
3228.000000;3.599578
3227.000000;3.503677
3226.000000;3.488118
3225.000000;3.528200
3224.000000;3.591191
3223.000000;3.643221
3222.000000;3.661925
3221.000000;3.680081
3220.000000;3.743795
3219.000000;3.870030
3218.000000;4.213347
3217.000000;4.084898
3216.000000;3.680610
3215.000000;3.575908
3214.000000;3.629988
3213.000000;3.840352
3212.000000;4.219359
3211.000000;4.160095
3210.000000;3.776197
3209.000000;3.571251
3208.000000;3.524140
3207.000000;3.674306
3206.000000;4.010814
3205.000000;3.822506
3204.000000;3.633691
3203.000000;3.594831
3202.000000;3.621965
3201.000000;3.725544
3200.000000;3.800335
3199.000000;3.764114
3198.000000;3.773202
3197.000000;4.024215
3196.000000;4.209087
3195.000000;3.841202
3194.000000;3.765501
3193.000000;4.006244
3192.000000;4.415305
3191.000000;3.995170
3190.000000;3.761404
3189.000000;3.637935
3188.000000;3.557856
3187.000000;3.546280
3186.000000;3.597178
3185.000000;3.688804
3184.000000;3.727285
3183.000000;3.706303
3182.000000;3.708256
3181.000000;3.802483
3180.000000;4.016554
3179.000000;4.062234
3178.000000;3.979035
3177.000000;4.133081
3176.000000;4.281447
3175.000000;3.865689
3174.000000;3.693759
3173.000000;3.727578
3172.000000;4.070540
3171.000000;4.513529
3170.000000;3.907179
3169.000000;3.848722
3168.000000;3.959731
3167.000000;3.936175
3166.000000;3.746867
3165.000000;3.633689
3164.000000;3.584494
3163.000000;3.543266
3162.000000;3.500631
3161.000000;3.483912
3160.000000;3.526999
3159.000000;3.629281
3158.000000;3.773076
3157.000000;4.060977
3156.000000;3.946680
3155.000000;3.660743
3154.000000;3.587150
3153.000000;3.628932
3152.000000;3.740264
3151.000000;3.839776
3150.000000;3.807967
3149.000000;3.716812
3148.000000;3.663119
3147.000000;3.650217
3146.000000;3.652462
3145.000000;3.682550
3144.000000;3.761639
3143.000000;3.788106
3142.000000;3.713360
3141.000000;3.680462
3140.000000;3.747820
3139.000000;4.038885
3138.000000;4.307141
3137.000000;4.012814
3136.000000;3.909373
3135.000000;3.808323
3134.000000;3.734018
3133.000000;3.754769
3132.000000;3.882205
3131.000000;4.179129
3130.000000;4.440805
3129.000000;4.418114
3128.000000;4.449849
3127.000000;4.238890
3126.000000;3.927670
3125.000000;3.742572
3124.000000;3.643111
3123.000000;3.558455
3122.000000;3.494460
3121.000000;3.509250
3120.000000;3.681305
3119.000000;4.107246
3118.000000;4.079058
3117.000000;3.915480
3116.000000;3.990153
3115.000000;4.103653
3114.000000;4.422541
3113.000000;4.474665
3112.000000;3.982358
3111.000000;3.843948
3110.000000;3.892990
3109.000000;4.209854
3108.000000;4.002049
3107.000000;3.720504
3106.000000;3.732458
3105.000000;3.892663
3104.000000;4.134264
3103.000000;4.302230
3102.000000;4.932531
3101.000000;4.343567
3100.000000;4.020316
3099.000000;4.050492
3098.000000;4.022480
3097.000000;3.867319
3096.000000;3.850677
3095.000000;4.029255
3094.000000;4.042905
3093.000000;3.786832
3092.000000;3.656627
3091.000000;3.616479
3090.000000;3.602288
3089.000000;3.612434
3088.000000;3.702813
3087.000000;4.040388
3086.000000;4.600561
3085.000000;4.353243
3084.000000;4.126925
3083.000000;3.816049
3082.000000;3.721634
3081.000000;3.776790
3080.000000;4.196173
3079.000000;4.354710
3078.000000;3.970634
3077.000000;3.989186
3076.000000;4.032810
3075.000000;3.990883
3074.000000;4.108602
3073.000000;4.514950
3072.000000;3.969571
3071.000000;3.668608
3070.000000;3.540651
3069.000000;3.487866
3068.000000;3.486160
3067.000000;3.496503
3066.000000;3.507472
3065.000000;3.547697
3064.000000;3.666339
3063.000000;3.903163
3062.000000;4.121761
3061.000000;4.062281
3060.000000;4.082067
3059.000000;4.428371
3058.000000;4.435875
3057.000000;4.021604
3056.000000;3.984477
3055.000000;3.988253
3054.000000;4.190662
3053.000000;4.011868
3052.000000;3.634930
3051.000000;3.517273
3050.000000;3.562789
3049.000000;3.772531
3048.000000;4.191788
3047.000000;4.047946
3046.000000;3.885903
3045.000000;3.995125
3044.000000;3.799498
3043.000000;3.581341
3042.000000;3.584228
3041.000000;3.889513
3040.000000;4.512811
3039.000000;4.112339
3038.000000;4.199925
3037.000000;3.858334
3036.000000;3.648964
3035.000000;3.555090
3034.000000;3.540739
3033.000000;3.607940
3032.000000;3.838333
3031.000000;4.303054
3030.000000;4.075869
3029.000000;3.838964
3028.000000;3.837130
3027.000000;3.996563
3026.000000;4.155565
3025.000000;4.230790
3024.000000;4.489349
3023.000000;4.153050
3022.000000;4.088161
3021.000000;3.860181
3020.000000;3.590449
3019.000000;3.515408
3018.000000;3.547774
3017.000000;3.601022
3016.000000;3.620787
3015.000000;3.658269
3014.000000;3.782052
3013.000000;3.840158
3012.000000;3.692347
3011.000000;3.608373
3010.000000;3.630956
3009.000000;3.718890
3008.000000;3.726831
3007.000000;3.622595
3006.000000;3.569336
3005.000000;3.626465
3004.000000;3.781436
3003.000000;3.908069
3002.000000;3.862555
3001.000000;3.726442
3000.000000;3.592766
2999.000000;3.531819
2998.000000;3.602312
2997.000000;3.877257
2996.000000;4.599407
2995.000000;4.580611
2994.000000;4.017975
2993.000000;3.773362
2992.000000;3.657441
2991.000000;3.602458
2990.000000;3.616309
2989.000000;3.745261
2988.000000;4.053413
2987.000000;4.830060
2986.000000;4.010863
2985.000000;3.779052
2984.000000;3.709504
2983.000000;3.664780
2982.000000;3.580087
2981.000000;3.520403
2980.000000;3.504106
2979.000000;3.506544
2978.000000;3.516935
2977.000000;3.547502
2976.000000;3.600749
2975.000000;3.659056
2974.000000;3.751382
2973.000000;3.817126
2972.000000;3.776827
2971.000000;3.638467
2970.000000;3.509822
2969.000000;3.512475
2968.000000;3.672288
2967.000000;4.004734
2966.000000;4.445855
2965.000000;4.424023
2964.000000;4.022272
2963.000000;3.827471
2962.000000;3.820762
2961.000000;3.985631
2960.000000;4.379952
2959.000000;4.883344
2958.000000;4.336837
2957.000000;4.070765
2956.000000;3.909137
2955.000000;3.835814
2954.000000;3.829880
2953.000000;3.951904
2952.000000;4.331226
2951.000000;4.097088
2950.000000;3.727297
2949.000000;3.628758
2948.000000;3.650228
2947.000000;3.787492
2946.000000;4.068811
2945.000000;4.461049
2944.000000;4.080604
2943.000000;3.773128
2942.000000;3.660676
2941.000000;3.661798
2940.000000;3.766370
2939.000000;3.911737
2938.000000;3.951133
2937.000000;3.930167
2936.000000;3.993462
2935.000000;4.225019
2934.000000;4.281445
2933.000000;4.070585
2932.000000;4.053965
2931.000000;4.208573
2930.000000;4.533475
2929.000000;4.574732
2928.000000;4.265113
2927.000000;4.407751
2926.000000;4.736308
2925.000000;4.279504
2924.000000;4.216064
2923.000000;4.285351
2922.000000;4.345401
2921.000000;4.494875
2920.000000;4.815815
2919.000000;4.374802
2918.000000;4.150563
2917.000000;4.067541
2916.000000;4.511561
2915.000000;4.323873
2914.000000;3.968840
2913.000000;4.013205
2912.000000;4.155369
2911.000000;4.304448
2910.000000;4.063846
2909.000000;3.921701
2908.000000;4.003277
2907.000000;4.423964
2906.000000;4.375150
2905.000000;4.353790
2904.000000;4.542682
2903.000000;3.824400
2902.000000;3.630987
2901.000000;3.652659
2900.000000;3.826101
2899.000000;3.704868
2898.000000;3.492796
2897.000000;3.416290
2896.000000;3.439327
2895.000000;3.556497
2894.000000;3.865097
2893.000000;4.250614
2892.000000;3.942182
2891.000000;3.778794
2890.000000;3.693109
2889.000000;3.667496
2888.000000;3.773606
2887.000000;4.169561
2886.000000;3.789772
2885.000000;3.516710
2884.000000;3.483418
2883.000000;3.585987
2882.000000;3.833637
2881.000000;4.208870
2880.000000;4.848489
2879.000000;4.355800
2878.000000;4.035956
2877.000000;4.000593
2876.000000;4.238237
2875.000000;3.905304
2874.000000;3.678219
2873.000000;3.679512
2872.000000;3.950035
2871.000000;4.527924
2870.000000;4.252946
2869.000000;4.272583
2868.000000;4.235566
2867.000000;3.879530
2866.000000;3.571784
2865.000000;3.451930
2864.000000;3.481312
2863.000000;3.659301
2862.000000;3.832136
2861.000000;3.740429
2860.000000;3.687269
2859.000000;3.772570
2858.000000;3.864539
2857.000000;3.767836
2856.000000;3.598401
2855.000000;3.494350
2854.000000;3.486440
2853.000000;3.545280
2852.000000;3.582565
2851.000000;3.590648
2850.000000;3.664144
2849.000000;3.864285
2848.000000;4.131529
2847.000000;4.083672
2846.000000;4.043423
2845.000000;4.240564
2844.000000;4.104717
2843.000000;3.828084
2842.000000;3.845967
2841.000000;4.003535
2840.000000;4.081120
2839.000000;4.001086
2838.000000;3.930276
2837.000000;3.910100
2836.000000;3.948046
2835.000000;4.223265
2834.000000;4.469943
2833.000000;3.977110
2832.000000;3.774124
2831.000000;3.769531
2830.000000;3.888395
2829.000000;4.483013
2828.000000;4.291945
2827.000000;3.976030
2826.000000;3.864771
2825.000000;3.804126
2824.000000;3.866165
2823.000000;4.085884
2822.000000;4.184850
2821.000000;3.742045
2820.000000;3.520949
2819.000000;3.467940
2818.000000;3.497454
2817.000000;3.486810
2816.000000;3.447971
2815.000000;3.461725
2814.000000;3.598880
2813.000000;3.827842
2812.000000;3.678632
2811.000000;3.502879
2810.000000;3.501012
2809.000000;3.554098
2808.000000;3.649734
2807.000000;3.759749
2806.000000;4.398673
2805.000000;4.128640
2804.000000;3.715759
2803.000000;3.623858
2802.000000;3.598978
2801.000000;3.633847
2800.000000;3.777188
2799.000000;4.070840
2798.000000;4.001656
2797.000000;3.925510
2796.000000;3.951256
2795.000000;3.884981
2794.000000;3.836868
2793.000000;3.871811
2792.000000;4.003277
2791.000000;4.200031
2790.000000;4.282118
2789.000000;4.180055
2788.000000;4.017999
2787.000000;3.902835
2786.000000;3.823481
2785.000000;3.788501
2784.000000;3.821993
2783.000000;4.013415
2782.000000;4.031509
2781.000000;3.824097
2780.000000;3.783111
2779.000000;4.032224
2778.000000;4.339065
2777.000000;3.844659
2776.000000;3.634738
2775.000000;3.571515
2774.000000;3.589654
2773.000000;3.650193
2772.000000;3.633698
2771.000000;3.620467
2770.000000;3.732975
2769.000000;4.025885
2768.000000;4.124110
2767.000000;4.066195
2766.000000;4.081067
2765.000000;3.743995
2764.000000;3.499682
2763.000000;3.384434
2762.000000;3.397232
2761.000000;3.563294
2760.000000;3.973181
2759.000000;4.337218
2758.000000;4.159065
2757.000000;3.963206
2756.000000;3.821332
2755.000000;3.829814
2754.000000;3.924683
2753.000000;4.060862
2752.000000;3.807637
2751.000000;3.618269
2750.000000;3.637131
2749.000000;3.854674
2748.000000;4.448099
2747.000000;4.804513
2746.000000;4.333210
2745.000000;4.173476
2744.000000;4.161801
2743.000000;3.890969
2742.000000;3.695145
2741.000000;3.619005
2740.000000;3.613912
2739.000000;3.641091
2738.000000;3.646283
2737.000000;3.606721
2736.000000;3.591038
2735.000000;3.657828
2734.000000;3.788845
2733.000000;3.864140
2732.000000;3.831625
2731.000000;3.745376
2730.000000;3.651083
2729.000000;3.596127
2728.000000;3.575828
2727.000000;3.508811
2726.000000;3.394418
2725.000000;3.351869
2724.000000;3.461638
2723.000000;3.811551
2722.000000;4.654653
2721.000000;4.288170
2720.000000;3.958552
2719.000000;3.923244
2718.000000;4.246430
2717.000000;3.826438
2716.000000;3.548321
2715.000000;3.435380
2714.000000;3.413580
2713.000000;3.443689
2712.000000;3.507408
2711.000000;3.647179
2710.000000;3.976599
2709.000000;4.277641
2708.000000;4.282380
2707.000000;4.162224
2706.000000;3.870593
2705.000000;3.894951
2704.000000;4.415444
2703.000000;4.191342
2702.000000;3.785355
2701.000000;3.736565
2700.000000;3.678685
2699.000000;3.566992
2698.000000;3.457697
2697.000000;3.442378
2696.000000;3.533706
2695.000000;3.717252
2694.000000;3.939862
2693.000000;4.398125
2692.000000;3.981978
2691.000000;3.630781
2690.000000;3.481260
2689.000000;3.427618
2688.000000;3.430534
2687.000000;3.479301
2686.000000;3.568361
2685.000000;3.685274
2684.000000;3.809320
2683.000000;3.867802
2682.000000;3.816565
2681.000000;3.724138
2680.000000;3.638123
2679.000000;3.591491
2678.000000;3.571073
2677.000000;3.550229
2676.000000;3.552610
2675.000000;3.606378
2674.000000;3.703909
2673.000000;3.813446
2672.000000;3.916536
2671.000000;4.031289
2670.000000;4.074692
2669.000000;4.299645
2668.000000;4.129411
2667.000000;3.818689
2666.000000;3.801688
2665.000000;4.040937
2664.000000;4.468707
2663.000000;4.419845
2662.000000;4.026636
2661.000000;3.789175
2660.000000;3.677502
2659.000000;3.656244
2658.000000;3.728059
2657.000000;3.889184
2656.000000;3.954182
2655.000000;3.804534
2654.000000;3.698272
2653.000000;3.740346
2652.000000;3.952678
2651.000000;4.074017
2650.000000;4.030351
2649.000000;4.090639
2648.000000;4.201083
2647.000000;4.420476
2646.000000;4.001214
2645.000000;3.643088
2644.000000;3.502716
2643.000000;3.507206
2642.000000;3.663695
2641.000000;3.928929
2640.000000;3.841330
2639.000000;3.758456
2638.000000;3.822101
2637.000000;3.900637
2636.000000;3.897949
2635.000000;3.867438
2634.000000;3.904812
2633.000000;4.014410
2632.000000;4.076892
2631.000000;4.068366
2630.000000;4.102242
2629.000000;4.160061
2628.000000;4.075614
2627.000000;3.848064
2626.000000;3.662511
2625.000000;3.573428
2624.000000;3.582611
2623.000000;3.680660
2622.000000;3.791142
2621.000000;3.770484
2620.000000;3.715595
2619.000000;3.755618
2618.000000;3.885479
2617.000000;4.008423
2616.000000;4.059134
2615.000000;4.049490
2614.000000;3.949182
2613.000000;3.735569
2612.000000;3.559887
2611.000000;3.469958
2610.000000;3.419201
2609.000000;3.373577
2608.000000;3.366987
2607.000000;3.460702
2606.000000;3.721367
2605.000000;4.064400
2604.000000;4.372371
2603.000000;4.446545
2602.000000;3.825292
2601.000000;3.690781
2600.000000;3.676643
2599.000000;3.745213
2598.000000;3.868693
2597.000000;3.996990
2596.000000;4.094031
2595.000000;4.093038
2594.000000;3.923553
2593.000000;3.743030
2592.000000;3.635707
2591.000000;3.611608
2590.000000;3.685351
2589.000000;3.800616
2588.000000;3.706328
2587.000000;3.580182
2586.000000;3.583610
2585.000000;3.728116
2584.000000;4.002746
2583.000000;4.081975
2582.000000;4.196752
2581.000000;4.863484
2580.000000;4.164886
2579.000000;3.752117
2578.000000;3.539482
2577.000000;3.456035
2576.000000;3.466236
2575.000000;3.552250
2574.000000;3.719913
2573.000000;4.024654
2572.000000;4.332435
2571.000000;3.985020
2570.000000;3.731322
2569.000000;3.708555
2568.000000;3.883935
2567.000000;4.195908
2566.000000;4.198737
2565.000000;3.893763
2564.000000;3.676522
2563.000000;3.576046
2562.000000;3.566224
2561.000000;3.621339
2560.000000;3.658338
2559.000000;3.649526
2558.000000;3.675207
2557.000000;3.827830
2556.000000;4.127637
2555.000000;3.939185
2554.000000;3.851913
2553.000000;4.045235
2552.000000;4.338783
2551.000000;4.368144
2550.000000;4.140184
2549.000000;3.870811
2548.000000;3.733677
2547.000000;3.702857
2546.000000;3.781903
2545.000000;3.952501
2544.000000;4.019704
2543.000000;3.925010
2542.000000;3.798975
2541.000000;3.654741
2540.000000;3.571506
2539.000000;3.623290
2538.000000;3.782362
2537.000000;3.742754
2536.000000;3.654912
2535.000000;3.826986
2534.000000;4.708844
2533.000000;4.486541
2532.000000;4.264628
2531.000000;3.795543
2530.000000;3.610821
2529.000000;3.593844
2528.000000;3.627506
2527.000000;3.716834
2526.000000;3.835667
2525.000000;3.937904
2524.000000;3.925200
2523.000000;3.812417
2522.000000;3.726702
2521.000000;3.738658
2520.000000;3.864643
2519.000000;4.011674
2518.000000;3.991723
2517.000000;3.940589
2516.000000;4.043368
2515.000000;4.320424
2514.000000;4.483711
2513.000000;4.810924
2512.000000;4.400208
2511.000000;4.106028
2510.000000;4.582706
2509.000000;4.232910
2508.000000;3.771242
2507.000000;3.655754
2506.000000;3.709943
2505.000000;3.929803
2504.000000;4.159055
2503.000000;4.040437
2502.000000;4.005477
2501.000000;3.854984
2500.000000;3.574377
2499.000000;3.443662
2498.000000;3.455603
2497.000000;3.577457
2496.000000;3.767075
2495.000000;3.903658
2494.000000;3.840342
2493.000000;3.726735
2492.000000;3.726436
2491.000000;3.987390
2490.000000;4.058017
2489.000000;3.717668
2488.000000;3.653045
2487.000000;3.987352
2486.000000;4.207255
2485.000000;3.746121
2484.000000;3.628984
2483.000000;3.647676
2482.000000;3.705761
2481.000000;3.737822
2480.000000;3.797553
2479.000000;4.259361
2478.000000;4.079008
2477.000000;3.738555
2476.000000;3.741477
2475.000000;3.966905
2474.000000;4.545520
2473.000000;3.984098
2472.000000;3.566487
2471.000000;3.398719
2470.000000;3.370545
2469.000000;3.458827
2468.000000;3.636106
2467.000000;3.764617
2466.000000;3.688413
2465.000000;3.589720
2464.000000;3.608198
2463.000000;3.936645
2462.000000;4.340746
2461.000000;3.969226
2460.000000;3.789897
2459.000000;3.637736
2458.000000;3.612180
2457.000000;3.752332
2456.000000;3.720630
2455.000000;3.525495
2454.000000;3.438592
2453.000000;3.466565
2452.000000;3.580788
2451.000000;3.702028
2450.000000;3.769227
2449.000000;3.814527
2448.000000;3.827256
2447.000000;3.816278
2446.000000;4.030382
2445.000000;4.390003
2444.000000;3.835461
2443.000000;3.633449
2442.000000;3.557749
2441.000000;3.535185
2440.000000;3.567320
2439.000000;3.627376
2438.000000;3.696945
2437.000000;3.700967
2436.000000;3.687578
2435.000000;3.745625
2434.000000;3.787400
2433.000000;3.696827
2432.000000;3.606657
2431.000000;3.607765
2430.000000;3.687256
2429.000000;3.771252
2428.000000;3.785402
2427.000000;3.767623
2426.000000;3.785279
2425.000000;3.765797
2424.000000;3.657495
2423.000000;3.560336
2422.000000;3.587067
2421.000000;3.686826
2420.000000;3.572422
2419.000000;3.452336
2418.000000;3.478875
2417.000000;3.643390
2416.000000;3.930253
2415.000000;4.064523
2414.000000;4.070526
2413.000000;4.478367
2412.000000;4.520909
2411.000000;4.030318
2410.000000;3.829261
2409.000000;3.662667
2408.000000;3.604409
2407.000000;3.644781
2406.000000;3.752259
2405.000000;3.808440
2404.000000;3.811332
2403.000000;4.049293
2402.000000;4.075618
2401.000000;3.813140
2400.000000;3.790782
2399.000000;3.834132
2398.000000;3.758686
2397.000000;3.589963
2396.000000;3.484247
2395.000000;3.483128
2394.000000;3.670597
2393.000000;4.136168
2392.000000;3.930479
2391.000000;3.731119
2390.000000;3.897640
2389.000000;4.378273
2388.000000;3.977174
2387.000000;3.757829
2386.000000;3.817619
2385.000000;3.981808
2384.000000;4.044095
2383.000000;3.887226
2382.000000;3.794582
2381.000000;3.821686
2380.000000;3.934247
2379.000000;3.959374
2378.000000;3.858483
2377.000000;3.799831
2376.000000;3.816717
2375.000000;3.871478
2374.000000;3.895297
2373.000000;3.879223
2372.000000;3.891382
2371.000000;4.032668
2370.000000;4.352338
2369.000000;4.267465
2368.000000;4.049435
2367.000000;3.955859
2366.000000;3.903848
2365.000000;3.874001
2364.000000;3.857672
2363.000000;3.853264
2362.000000;3.851975
2361.000000;3.878046
2360.000000;3.958140
2359.000000;4.185865
2358.000000;4.681655
2357.000000;4.521009
2356.000000;4.186708
2355.000000;4.081817
2354.000000;4.042020
2353.000000;4.108586
2352.000000;4.381235
2351.000000;4.292308
2350.000000;3.919645
2349.000000;3.832090
2348.000000;3.945841
2347.000000;4.082339
2346.000000;4.216036
2345.000000;4.122599
2344.000000;4.001565
2343.000000;4.078825
2342.000000;4.060731
2341.000000;3.898322
2340.000000;3.867914
2339.000000;3.970604
2338.000000;4.009515
2337.000000;3.928422
2336.000000;3.948268
2335.000000;4.147132
2334.000000;4.612776
2333.000000;5.241690
2332.000000;5.040950
2331.000000;4.531468
2330.000000;4.174454
2329.000000;4.046286
2328.000000;4.037483
2327.000000;4.090736
2326.000000;4.312058
2325.000000;4.621097
2324.000000;4.194380
2323.000000;3.908169
2322.000000;3.821176
2321.000000;3.837616
2320.000000;3.941380
2319.000000;4.034392
2318.000000;4.087440
2317.000000;4.359976
2316.000000;4.489288
2315.000000;4.070699
2314.000000;3.937825
2313.000000;4.001578
2312.000000;4.145340
2311.000000;4.356250
2310.000000;4.736056
2309.000000;4.269132
2308.000000;3.870196
2307.000000;3.722436
2306.000000;3.713867
2305.000000;3.782892
2304.000000;3.915647
2303.000000;3.941184
2302.000000;3.790416
2301.000000;3.700534
2300.000000;3.762442
2299.000000;4.260906
2298.000000;4.039747
2297.000000;3.573720
2296.000000;3.442456
2295.000000;3.417218
2294.000000;3.470426
2293.000000;3.568918
2292.000000;3.755190
2291.000000;3.788487
2290.000000;3.617932
2289.000000;3.570620
2288.000000;3.661826
2287.000000;3.770846
2286.000000;3.710278
2285.000000;3.627481
2284.000000;3.829715
2283.000000;4.153925
2282.000000;3.729806
2281.000000;3.683988
2280.000000;4.011614
2279.000000;3.967201
2278.000000;3.661964
2277.000000;3.615003
2276.000000;3.635325
2275.000000;3.615077
2274.000000;3.654134
2273.000000;3.812730
2272.000000;4.128218
2271.000000;4.324920
2270.000000;4.056204
2269.000000;3.744111
2268.000000;3.595279
2267.000000;3.610397
2266.000000;3.821258
2265.000000;4.176463
2264.000000;4.196042
2263.000000;4.226841
2262.000000;4.185496
2261.000000;3.997012
2260.000000;3.861511
2259.000000;3.950846
2258.000000;4.287392
2257.000000;3.818195
2256.000000;3.506466
2255.000000;3.405917
2254.000000;3.421583
2253.000000;3.529133
2252.000000;3.667365
2251.000000;3.787155
2250.000000;3.820846
2249.000000;3.756441
2248.000000;3.671000
2247.000000;3.661195
2246.000000;3.775008
2245.000000;4.102534
2244.000000;4.265147
2243.000000;4.098733
2242.000000;4.360071
2241.000000;4.286442
2240.000000;3.875743
2239.000000;3.730365
2238.000000;3.773047
2237.000000;3.958364
2236.000000;3.954141
2235.000000;3.793420
2234.000000;3.779781
2233.000000;3.836303
2232.000000;4.068840
2231.000000;4.479765
2230.000000;3.909147
2229.000000;3.634516
2228.000000;3.569334
2227.000000;3.604043
2226.000000;3.778557
2225.000000;4.120569
2224.000000;3.920621
2223.000000;3.605814
2222.000000;3.536329
2221.000000;3.568984
2220.000000;3.637675
2219.000000;3.668866
2218.000000;3.652621
2217.000000;3.668628
2216.000000;3.749144
2215.000000;3.891356
2214.000000;3.967552
2213.000000;3.755021
2212.000000;3.551615
2211.000000;3.500654
2210.000000;3.582335
2209.000000;3.785513
2208.000000;3.978391
2207.000000;3.904901
2206.000000;3.762211
2205.000000;3.678821
2204.000000;3.663670
2203.000000;3.724042
2202.000000;3.886372
2201.000000;4.119740
2200.000000;4.121908
2199.000000;4.012650
2198.000000;3.818880
2197.000000;3.616274
2196.000000;3.558206
2195.000000;3.672120
2194.000000;3.893665
2193.000000;3.833266
2192.000000;3.663630
2191.000000;3.608607
2190.000000;3.636435
2189.000000;3.760244
2188.000000;3.920347
2187.000000;3.963160
2186.000000;3.822733
2185.000000;3.698205
2184.000000;3.740454
2183.000000;3.813317
2182.000000;3.690056
2181.000000;3.600103
2180.000000;3.640483
2179.000000;3.779093
2178.000000;3.882855
2177.000000;3.807568
2176.000000;3.699655
2175.000000;3.637297
2174.000000;3.644125
2173.000000;3.668819
2172.000000;3.654479
2171.000000;3.665721
2170.000000;3.844124
2169.000000;4.126937
2168.000000;3.949699
2167.000000;3.893692
2166.000000;4.045866
2165.000000;3.894817
2164.000000;3.781393
2163.000000;3.918966
2162.000000;4.172683
2161.000000;4.147638
2160.000000;3.867388
2159.000000;3.716755
2158.000000;3.671478
2157.000000;3.690896
2156.000000;3.710256
2155.000000;3.921019
2154.000000;4.462680
2153.000000;4.079430
2152.000000;4.175330
2151.000000;4.393367
2150.000000;3.937541
2149.000000;4.149136
2148.000000;4.816287
2147.000000;3.989510
2146.000000;3.799041
2145.000000;3.760124
2144.000000;3.735023
2143.000000;3.731254
2142.000000;3.769619
2141.000000;3.845548
2140.000000;3.769468
2139.000000;3.692931
2138.000000;3.891495
2137.000000;4.079065
2136.000000;3.752962
2135.000000;3.637623
2134.000000;3.792863
2133.000000;4.246478
2132.000000;4.211159
2131.000000;3.859141
2130.000000;3.657354
2129.000000;3.567767
2128.000000;3.610061
2127.000000;3.686189
2126.000000;3.661072
2125.000000;3.554507
2124.000000;3.507084
2123.000000;3.566502
2122.000000;3.635226
2121.000000;3.603221
2120.000000;3.608376
2119.000000;3.739863
2118.000000;4.007508
2117.000000;4.244320
2116.000000;4.043128
2115.000000;3.798889
2114.000000;3.694159
2113.000000;3.683407
2112.000000;3.764581
2111.000000;3.993765
2110.000000;3.951055
2109.000000;3.675197
2108.000000;3.591449
2107.000000;3.691456
2106.000000;3.762703
2105.000000;3.630571
2104.000000;3.519797
2103.000000;3.461805
2102.000000;3.447300
2101.000000;3.504344
2100.000000;3.612016
2099.000000;3.629307
2098.000000;3.572876
2097.000000;3.589042
2096.000000;3.788153
2095.000000;3.993199
2094.000000;3.723002
2093.000000;3.554932
2092.000000;3.500916
2091.000000;3.482370
2090.000000;3.511275
2089.000000;3.595527
2088.000000;3.830744
2087.000000;4.244385
2086.000000;3.966440
2085.000000;3.670820
2084.000000;3.585020
2083.000000;3.545115
2082.000000;3.538411
2081.000000;3.594001
2080.000000;3.749644
2079.000000;4.021542
2078.000000;4.185717
2077.000000;3.861418
2076.000000;3.581384
2075.000000;3.481972
2074.000000;3.534707
2073.000000;3.672904
2072.000000;3.776772
2071.000000;3.806774
2070.000000;3.813714
2069.000000;3.953496
2068.000000;4.125864
2067.000000;4.086491
2066.000000;4.186651
2065.000000;4.661846
2064.000000;4.398907
2063.000000;3.958757
2062.000000;3.786008
2061.000000;3.672988
2060.000000;3.591751
2059.000000;3.626685
2058.000000;3.917671
2057.000000;3.923707
2056.000000;3.630086
2055.000000;3.587668
2054.000000;3.617149
2053.000000;3.620073
2052.000000;3.608891
2051.000000;3.607407
2050.000000;3.653244
2049.000000;3.722397
2048.000000;3.797636
2047.000000;3.916903
2046.000000;3.878559
2045.000000;3.732695
2044.000000;3.736375
2043.000000;3.898191
2042.000000;4.063150
2041.000000;3.953178
2040.000000;3.787674
2039.000000;3.808792
2038.000000;4.178460
2037.000000;4.146421
2036.000000;3.760958
2035.000000;3.674376
2034.000000;3.658800
2033.000000;3.707341
2032.000000;3.774771
2031.000000;3.720789
2030.000000;3.654249
2029.000000;3.637938
2028.000000;3.621913
2027.000000;3.572803
2026.000000;3.605107
2025.000000;3.729291
2024.000000;3.994154
2023.000000;4.500131
2022.000000;4.032269
2021.000000;3.827538
2020.000000;3.865482
2019.000000;4.036737
2018.000000;4.481091
2017.000000;4.262782
2016.000000;4.096189
2015.000000;4.327516
2014.000000;4.284089
2013.000000;3.893657
2012.000000;3.695813
2011.000000;3.594561
2010.000000;3.565169
2009.000000;3.574637
2008.000000;3.583224
2007.000000;3.616028
2006.000000;3.754733
2005.000000;4.067930
2004.000000;4.114677
2003.000000;4.018890
2002.000000;4.046729
2001.000000;3.947142
2000.000000;3.932867
1999.000000;4.034122
1998.000000;4.168014
1997.000000;4.463328
1996.000000;4.237086
1995.000000;3.964256
1994.000000;3.877751
1993.000000;4.033260
1992.000000;4.336555
1991.000000;3.880056
1990.000000;3.613259
1989.000000;3.501568
1988.000000;3.456390
1987.000000;3.487756
1986.000000;3.575580
1985.000000;3.642520
1984.000000;3.622824
1983.000000;3.685058
1982.000000;4.047414
1981.000000;4.163172
1980.000000;3.817772
1979.000000;3.788971
1978.000000;4.159773
1977.000000;4.469447
1976.000000;4.008925
1975.000000;4.301488
1974.000000;4.300991
1973.000000;3.847459
1972.000000;3.815844
1971.000000;4.073132
1970.000000;4.540814
1969.000000;4.161897
1968.000000;3.980316
1967.000000;3.892478
1966.000000;3.786890
1965.000000;3.739356
1964.000000;3.690310
1963.000000;3.643764
1962.000000;3.661524
1961.000000;3.818922
1960.000000;4.033745
1959.000000;4.012050
1958.000000;4.015183
1957.000000;4.213050
1956.000000;4.595654
1955.000000;4.739396
1954.000000;4.297583
1953.000000;3.946992
1952.000000;3.740721
1951.000000;3.658148
1950.000000;3.701519
1949.000000;3.866629
1948.000000;3.862005
1947.000000;3.696048
1946.000000;3.661006
1945.000000;3.692552
1944.000000;3.643712
1943.000000;3.615650
1942.000000;3.697666
1941.000000;3.724195
1940.000000;3.626786
1939.000000;3.580900
1938.000000;3.659942
1937.000000;3.694840
1936.000000;3.557612
1935.000000;3.507974
1934.000000;3.606575
1933.000000;3.803665
1932.000000;3.918254
1931.000000;3.864433
1930.000000;3.815533
1929.000000;3.855458
1928.000000;4.117968
1927.000000;4.385934
1926.000000;4.209840
1925.000000;4.099026
1924.000000;4.142688
1923.000000;4.111837
1922.000000;3.913794
1921.000000;3.851305
1920.000000;3.958203
1919.000000;4.243146
1918.000000;4.022714
1917.000000;3.697126
1916.000000;3.576730
1915.000000;3.625939
1914.000000;3.903993
1913.000000;3.919382
1912.000000;3.699453
1911.000000;3.658475
1910.000000;3.732618
1909.000000;3.880327
1908.000000;3.961257
1907.000000;3.968194
1906.000000;4.034145
1905.000000;3.921692
1904.000000;3.690933
1903.000000;3.585538
1902.000000;3.622444
1901.000000;3.725379
1900.000000;3.719336
1899.000000;3.683362
1898.000000;3.736051
1897.000000;3.803642
1896.000000;3.770386
1895.000000;3.717048
1894.000000;3.771253
1893.000000;3.896596
1892.000000;3.952322
1891.000000;3.953843
1890.000000;3.953272
1889.000000;3.973474
1888.000000;3.952510
1887.000000;3.902771
1886.000000;3.871235
1885.000000;4.054700
1884.000000;4.625352
1883.000000;4.036592
1882.000000;3.783974
1881.000000;3.736870
1880.000000;3.821097
1879.000000;4.181409
1878.000000;4.443451
1877.000000;4.248426
1876.000000;4.011674
1875.000000;3.746141
1874.000000;3.660245
1873.000000;3.726182
1872.000000;4.015354
1871.000000;4.172767
1870.000000;3.840250
1869.000000;3.742347
1868.000000;3.809164
1867.000000;3.879336
1866.000000;3.796270
1865.000000;3.691138
1864.000000;3.677896
1863.000000;3.769108
1862.000000;3.927548
1861.000000;3.960599
1860.000000;3.868279
1859.000000;3.819325
1858.000000;3.879500
1857.000000;4.049223
1856.000000;4.253176
1855.000000;4.289831
1854.000000;4.086569
1853.000000;3.870260
1852.000000;3.696056
1851.000000;3.603045
1850.000000;3.617478
1849.000000;3.731369
1848.000000;3.882702
1847.000000;3.866209
1846.000000;3.665041
1845.000000;3.497044
1844.000000;3.437638
1843.000000;3.469980
1842.000000;3.523230
1841.000000;3.536186
1840.000000;3.517254
1839.000000;3.490016
1838.000000;3.480880
1837.000000;3.518921
1836.000000;3.618362
1835.000000;3.786368
1834.000000;3.838136
1833.000000;3.662812
1832.000000;3.496239
1831.000000;3.416626
1830.000000;3.439157
1829.000000;3.623247
1828.000000;4.102947
1827.000000;4.023983
1826.000000;3.712093
1825.000000;3.729016
1824.000000;3.979777
1823.000000;4.139126
1822.000000;3.792895
1821.000000;3.631209
1820.000000;3.627584
1819.000000;3.722244
1818.000000;3.782681
1817.000000;3.706097
1816.000000;3.635702
1815.000000;3.620327
1814.000000;3.627673
1813.000000;3.634208
1812.000000;3.697737
1811.000000;3.851805
1810.000000;3.885695
1809.000000;3.733915
1808.000000;3.640275
1807.000000;3.659822
1806.000000;3.854943
1805.000000;4.044401
1804.000000;3.801169
1803.000000;3.723742
1802.000000;3.879236
1801.000000;4.157509
1800.000000;4.156863
1799.000000;4.003726
1798.000000;3.892302
1797.000000;3.835433
1796.000000;3.952556
1795.000000;4.166261
1794.000000;4.071308
1793.000000;3.910902
1792.000000;3.742935
1791.000000;3.653724
1790.000000;3.684633
1789.000000;3.819724
1788.000000;4.214073
1787.000000;4.238610
1786.000000;3.926240
1785.000000;3.911683
1784.000000;3.978333
1783.000000;3.946739
1782.000000;3.843719
1781.000000;3.796059
1780.000000;3.795133
1779.000000;3.759593
1778.000000;3.665558
1777.000000;3.596268
1776.000000;3.625664
1775.000000;3.781319
1774.000000;4.075569
1773.000000;4.155674
1772.000000;3.937594
1771.000000;3.828323
1770.000000;3.781414
1769.000000;3.785486
1768.000000;3.827561
1767.000000;3.884856
1766.000000;3.919638
1765.000000;4.035931
1764.000000;4.446638
1763.000000;4.109457
1762.000000;3.787504
1761.000000;3.727687
1760.000000;3.722464
1759.000000;3.765070
1758.000000;3.820285
1757.000000;3.849338
1756.000000;3.856272
1755.000000;3.841607
1754.000000;3.823087
1753.000000;3.863749
1752.000000;3.860047
1751.000000;3.689230
1750.000000;3.607723
1749.000000;3.639729
1748.000000;3.717958
1747.000000;3.840900
1746.000000;4.152872
1745.000000;4.921588
1744.000000;4.210865
1743.000000;3.855456
1742.000000;3.688754
1741.000000;3.701540
1740.000000;3.812454
1739.000000;3.774349
1738.000000;3.698027
1737.000000;3.706368
1736.000000;3.729577
1735.000000;3.717573
1734.000000;3.705665
1733.000000;3.684733
1732.000000;3.603239
1731.000000;3.545607
1730.000000;3.586202
1729.000000;3.746246
1728.000000;4.085754
1727.000000;4.105510
1726.000000;3.939490
1725.000000;3.988939
1724.000000;4.174638
1723.000000;4.334659
1722.000000;4.109266
1721.000000;3.805433
1720.000000;3.604429
1719.000000;3.506347
1718.000000;3.501218
1717.000000;3.582273
1716.000000;3.721465
1715.000000;3.862622
1714.000000;3.896712
1713.000000;3.817375
1712.000000;3.763487
1711.000000;3.808612
1710.000000;3.946079
1709.000000;3.990929
1708.000000;3.852261
1707.000000;3.763312
1706.000000;3.827520
1705.000000;4.032126
1704.000000;4.188199
1703.000000;4.121746
1702.000000;4.002963
1701.000000;3.992000
1700.000000;4.034444
1699.000000;3.913527
1698.000000;3.880450
1697.000000;4.005559
1696.000000;4.305048
1695.000000;4.777817
1694.000000;3.959626
1693.000000;3.652485
1692.000000;3.538372
1691.000000;3.537933
1690.000000;3.594728
1689.000000;3.656556
1688.000000;3.741880
1687.000000;3.786741
1686.000000;3.695425
1685.000000;3.665720
1684.000000;3.833080
1683.000000;4.062891
1682.000000;4.110300
1681.000000;4.116699
1680.000000;4.056744
1679.000000;3.949790
1678.000000;3.948305
1677.000000;4.336044
1676.000000;4.199402
1675.000000;3.872190
1674.000000;3.823093
1673.000000;3.889679
1672.000000;4.222301
1671.000000;3.936899
1670.000000;3.622801
1669.000000;3.519502
1668.000000;3.515493
1667.000000;3.567775
1666.000000;3.644555
1665.000000;3.730037
1664.000000;3.781625
1663.000000;3.706197
1662.000000;3.600741
1661.000000;3.548573
1660.000000;3.547893
1659.000000;3.607768
1658.000000;3.752701
1657.000000;4.038810
1656.000000;4.323164
1655.000000;4.360405
1654.000000;4.238717
1653.000000;3.894230
1652.000000;3.704782
1651.000000;3.555658
1650.000000;3.503059
1649.000000;3.592974
1648.000000;3.819348
1647.000000;4.304950
1646.000000;4.299104
1645.000000;4.104383
1644.000000;4.168666
1643.000000;4.243640
1642.000000;3.903432
1641.000000;3.655883
1640.000000;3.526022
1639.000000;3.468541
1638.000000;3.471617
1637.000000;3.528793
1636.000000;3.617536
1635.000000;3.681923
1634.000000;3.652268
1633.000000;3.565995
1632.000000;3.557969
1631.000000;3.698417
1630.000000;4.232411
1629.000000;4.311434
1628.000000;4.043098
1627.000000;4.119432
1626.000000;3.873671
1625.000000;3.779500
1624.000000;3.869327
1623.000000;4.111404
1622.000000;4.249951
1621.000000;4.062786
1620.000000;3.863183
1619.000000;3.754635
1618.000000;3.716276
1617.000000;3.690449
1616.000000;3.694349
1615.000000;3.748342
1614.000000;3.818939
1613.000000;3.842638
1612.000000;3.827921
1611.000000;3.808924
1610.000000;3.737505
1609.000000;3.650296
1608.000000;3.634366
1607.000000;3.715762
1606.000000;3.919061
1605.000000;4.274297
1604.000000;4.424503
1603.000000;3.982858
1602.000000;3.658345
1601.000000;3.534510
1600.000000;3.578434
1599.000000;3.805339
1598.000000;3.888473
1597.000000;3.748732
1596.000000;3.733632
1595.000000;3.807313
1594.000000;3.942371
1593.000000;4.121456
1592.000000;4.164213
1591.000000;4.118819
1590.000000;4.476073
1589.000000;4.146811
1588.000000;3.826835
1587.000000;3.827076
1586.000000;4.091607
1585.000000;4.025936
1584.000000;3.844017
1583.000000;3.926758
1582.000000;4.019826
1581.000000;3.838586
1580.000000;3.779641
1579.000000;3.810490
1578.000000;3.840508
1577.000000;3.937019
1576.000000;4.435354
1575.000000;4.799743
1574.000000;4.179566
1573.000000;4.030372
1572.000000;4.418454
1571.000000;4.429356
1570.000000;4.005779
1569.000000;4.016760
1568.000000;4.093401
1567.000000;4.094294
1566.000000;4.040046
1565.000000;4.041876
1564.000000;3.960777
1563.000000;3.871453
1562.000000;3.879696
1561.000000;3.951647
1560.000000;3.981565
1559.000000;3.936073
1558.000000;3.964907
1557.000000;3.967641
1556.000000;4.060540
1555.000000;4.154102
1554.000000;3.891713
1553.000000;3.774001
1552.000000;3.775943
1551.000000;3.890867
1550.000000;3.901912
1549.000000;3.790515
1548.000000;3.748392
1547.000000;3.759199
1546.000000;3.796301
1545.000000;3.813416
1544.000000;3.771918
1543.000000;3.727831
1542.000000;3.770004
1541.000000;3.978238
1540.000000;4.345203
1539.000000;4.276464
1538.000000;4.187642
1537.000000;4.252209
1536.000000;4.018800
1535.000000;3.865238
1534.000000;3.826164
1533.000000;3.843465
1532.000000;3.915679
1531.000000;4.137929
1530.000000;4.265886
1529.000000;3.897675
1528.000000;3.793162
1527.000000;3.717291
1526.000000;3.698970
1525.000000;3.821181
1524.000000;4.224838
1523.000000;4.385714
1522.000000;4.027436
1521.000000;3.949820
1520.000000;3.881730
1519.000000;3.819749
1518.000000;3.803530
1517.000000;3.879367
1516.000000;4.007602
1515.000000;4.075780
1514.000000;3.965108
1513.000000;3.840560
1512.000000;3.840569
1511.000000;4.111240
1510.000000;4.282382
1509.000000;3.892942
1508.000000;3.822627
1507.000000;4.001038
1506.000000;4.447529
1505.000000;4.231496
1504.000000;3.791230
1503.000000;3.617342
1502.000000;3.613759
1501.000000;3.778311
1500.000000;3.998176
1499.000000;3.875861
1498.000000;3.857686
1497.000000;4.124324
1496.000000;4.246156
1495.000000;3.957077
1494.000000;3.904990
1493.000000;3.949653
1492.000000;4.147077
1491.000000;4.117848
1490.000000;3.937542
1489.000000;3.879022
1488.000000;3.868664
1487.000000;3.894827
1486.000000;3.988848
1485.000000;4.194724
1484.000000;4.235053
1483.000000;4.242313
1482.000000;4.179802
1481.000000;4.123774
1480.000000;4.106192
1479.000000;3.843041
1478.000000;3.785014
1477.000000;4.037250
1476.000000;3.850140
1475.000000;3.630965
1474.000000;3.645229
1473.000000;3.789740
1472.000000;3.967131
1471.000000;4.152867
1470.000000;4.349785
1469.000000;4.106839
1468.000000;3.986335
1467.000000;3.966781
1466.000000;3.810732
1465.000000;3.711797
1464.000000;3.755637
1463.000000;3.893418
1462.000000;4.021141
1461.000000;4.039755
1460.000000;4.015258
1459.000000;4.135956
1458.000000;4.404661
1457.000000;4.244554
1456.000000;4.175142
1455.000000;4.368449
1454.000000;4.285465
1453.000000;3.898511
1452.000000;3.718437
1451.000000;3.603984
1450.000000;3.543936
1449.000000;3.554765
1448.000000;3.642353
1447.000000;3.777078
1446.000000;3.860117
1445.000000;3.835326
1444.000000;3.768933
1443.000000;3.696435
1442.000000;3.678251
1441.000000;3.754468
1440.000000;4.071181
1439.000000;4.425426
1438.000000;3.980367
1437.000000;3.769282
1436.000000;3.743625
1435.000000;3.856620
1434.000000;4.015429
1433.000000;4.316496
1432.000000;4.453294
1431.000000;4.530274
1430.000000;4.160357
1429.000000;3.832897
1428.000000;3.723642
1427.000000;3.741235
1426.000000;3.803684
1425.000000;3.807480
1424.000000;3.752029
1423.000000;3.676037
1422.000000;3.631558
1421.000000;3.701602
1420.000000;4.085822
1419.000000;4.245296
1418.000000;3.957376
1417.000000;4.170083
1416.000000;3.887037
1415.000000;3.626800
1414.000000;3.578577
1413.000000;3.664882
1412.000000;3.942516
1411.000000;4.043758
1410.000000;3.779060
1409.000000;3.645927
1408.000000;3.602000
1407.000000;3.605072
1406.000000;3.641210
1405.000000;3.735100
1404.000000;3.878296
1403.000000;3.855680
1402.000000;3.721028
1401.000000;3.628890
1400.000000;3.599714
1399.000000;3.660697
1398.000000;3.792790
1397.000000;3.873385
1396.000000;3.806032
1395.000000;3.744402
1394.000000;3.804844
1393.000000;3.916558
1392.000000;3.866530
1391.000000;3.796803
1390.000000;3.718070
1389.000000;3.612282
1388.000000;3.552633
1387.000000;3.569224
1386.000000;3.688080
1385.000000;3.827686
1384.000000;3.732331
1383.000000;3.580327
1382.000000;3.526151
1381.000000;3.584202
1380.000000;3.791188
1379.000000;3.894732
1378.000000;3.799142
1377.000000;3.776497
1376.000000;3.750136
1375.000000;3.753228
1374.000000;3.902452
1373.000000;4.507435
1372.000000;4.120089
1371.000000;3.833764
1370.000000;3.731450
1369.000000;3.698967
1368.000000;3.662187
1367.000000;3.609687
1366.000000;3.620011
1365.000000;3.745895
1364.000000;3.902005
1363.000000;3.937756
1362.000000;3.959906
1361.000000;3.876709
1360.000000;3.740998
1359.000000;3.713507
1358.000000;3.836899
1357.000000;4.024333
1356.000000;3.956633
1355.000000;3.844961
1354.000000;3.822658
1353.000000;3.788105
1352.000000;3.811177
1351.000000;3.957144
1350.000000;5.103820
1349.000000;4.171194
1348.000000;3.853980
1347.000000;3.734408
1346.000000;3.702968
1345.000000;3.753286
1344.000000;3.849035
1343.000000;4.063109
1342.000000;4.332830
1341.000000;3.861592
1340.000000;3.778940
1339.000000;4.104720
1338.000000;4.330283
1337.000000;3.778480
1336.000000;3.784500
1335.000000;3.935975
1334.000000;4.327259
1333.000000;4.160308
1332.000000;3.919161
1331.000000;4.274738
1330.000000;4.260632
1329.000000;3.835548
1328.000000;3.741340
1327.000000;3.778582
1326.000000;3.915936
1325.000000;3.961413
1324.000000;3.957883
1323.000000;4.031544
1322.000000;4.029472
1321.000000;3.964256
1320.000000;3.879488
1319.000000;3.777152
1318.000000;3.716240
1317.000000;3.747377
1316.000000;3.917273
1315.000000;4.162659
1314.000000;4.321405
1313.000000;4.394531
1312.000000;3.990340
1311.000000;3.836004
1310.000000;3.822726
1309.000000;3.878714
1308.000000;3.945987
1307.000000;3.992972
1306.000000;4.006545
1305.000000;4.024267
1304.000000;4.251488
1303.000000;4.551590
1302.000000;4.119686
1301.000000;3.877185
1300.000000;3.815962
1299.000000;3.874808
1298.000000;4.174521
1297.000000;4.304318
1296.000000;4.070874
1295.000000;4.194316
1294.000000;4.501083
1293.000000;4.043872
1292.000000;3.744283
1291.000000;3.565332
1290.000000;3.509109
1289.000000;3.546902
1288.000000;3.654064
1287.000000;3.837134
1286.000000;4.069497
1285.000000;4.161218
1284.000000;4.045589
1283.000000;3.931468
1282.000000;3.931274
1281.000000;4.009101
1280.000000;3.881390
1279.000000;3.720317
1278.000000;3.715878
1277.000000;3.837265
1276.000000;4.043712
1275.000000;4.084999
1274.000000;3.917761
1273.000000;3.788722
1272.000000;3.763652
1271.000000;3.865462
1270.000000;4.218163
1269.000000;4.466032
1268.000000;4.323928
1267.000000;4.044320
1266.000000;3.799208
1265.000000;3.737875
1264.000000;3.803532
1263.000000;3.906232
1262.000000;3.948017
1261.000000;3.984510
1260.000000;4.079293
1259.000000;3.991801
1258.000000;3.888413
1257.000000;3.938196
1256.000000;4.210845
1255.000000;4.590324
1254.000000;4.293249
1253.000000;4.200050
1252.000000;4.062551
1251.000000;3.858537
1250.000000;3.754960
1249.000000;3.718479
1248.000000;3.695862
1247.000000;3.704306
1246.000000;3.790028
1245.000000;3.953485
1244.000000;4.077523
1243.000000;4.050085
1242.000000;3.985961
1241.000000;3.942138
1240.000000;3.897142
1239.000000;3.831974
1238.000000;3.765109
1237.000000;3.732542
1236.000000;3.749719
1235.000000;3.790105
1234.000000;3.780347
1233.000000;3.719486
1232.000000;3.697632
1231.000000;3.817144
1230.000000;4.037222
1229.000000;3.883693
1228.000000;3.698172
1227.000000;3.614235
1226.000000;3.533491
1225.000000;3.470890
1224.000000;3.482526
1223.000000;3.620123
1222.000000;3.902438
1221.000000;4.272861
1220.000000;4.565156
1219.000000;4.336155
1218.000000;4.085481
1217.000000;3.946162
1216.000000;3.951122
1215.000000;3.842630
1214.000000;3.713577
1213.000000;3.796814
1212.000000;4.179701
1211.000000;4.704711
1210.000000;4.166597
1209.000000;3.756745
1208.000000;3.596252
1207.000000;3.597568
1206.000000;3.735501
1205.000000;3.922526
1204.000000;4.227862
1203.000000;4.691771
1202.000000;4.007515
1201.000000;3.872785
1200.000000;3.959712
