Criado como novo conjunto de dados;"Jao_teste_celulas.spp","7743.4 Secs"
cm-1;Abs
10000.000000;1.440073
9999.000000;1.439462
9998.000000;1.438545
9997.000000;1.437651
9996.000000;1.437374
9995.000000;1.437867
9994.000000;1.438891
9993.000000;1.439959
9992.000000;1.440450
9991.000000;1.439835
9990.000000;1.438337
9989.000000;1.437011
9988.000000;1.436714
9987.000000;1.437136
9986.000000;1.437152
9985.000000;1.436010
9984.000000;1.433868
9983.000000;1.431394
9982.000000;1.429384
9981.000000;1.428592
9980.000000;1.429210
9979.000000;1.430384
9978.000000;1.430816
9977.000000;1.430105
9976.000000;1.429105
9975.000000;1.428802
9974.000000;1.429276
9973.000000;1.429946
9972.000000;1.430391
9971.000000;1.430571
9970.000000;1.430478
9969.000000;1.429977
9968.000000;1.428942
9967.000000;1.427372
9966.000000;1.425472
9965.000000;1.423731
9964.000000;1.422700
9963.000000;1.422553
9962.000000;1.423034
9961.000000;1.423819
9960.000000;1.424614
9959.000000;1.424897
9958.000000;1.424133
9957.000000;1.422583
9956.000000;1.421359
9955.000000;1.421180
9954.000000;1.421395
9953.000000;1.420777
9952.000000;1.419112
9951.000000;1.417433
9950.000000;1.416746
9949.000000;1.417110
9948.000000;1.417943
9947.000000;1.418722
9946.000000;1.419204
9945.000000;1.419363
9944.000000;1.419361
9943.000000;1.419360
9942.000000;1.419224
9941.000000;1.418578
9940.000000;1.417284
9939.000000;1.415676
9938.000000;1.414273
9937.000000;1.413432
9936.000000;1.413284
9935.000000;1.413709
9934.000000;1.414259
9933.000000;1.414365
9932.000000;1.413829
9931.000000;1.412994
9930.000000;1.412333
9929.000000;1.412016
9928.000000;1.411927
9927.000000;1.411821
9926.000000;1.411353
9925.000000;1.410243
9924.000000;1.408730
9923.000000;1.407680
9922.000000;1.407875
9921.000000;1.409139
9920.000000;1.410378
9919.000000;1.410531
9918.000000;1.409369
9917.000000;1.407408
9916.000000;1.405311
9915.000000;1.403514
9914.000000;1.402218
9913.000000;1.401474
9912.000000;1.401230
9911.000000;1.401370
9910.000000;1.401754
9909.000000;1.402151
9908.000000;1.402222
9907.000000;1.401714
9906.000000;1.400763
9905.000000;1.399874
9904.000000;1.399432
9903.000000;1.399292
9902.000000;1.399032
9901.000000;1.398600
9900.000000;1.398424
9899.000000;1.398771
9898.000000;1.399226
9897.000000;1.399072
9896.000000;1.398098
9895.000000;1.396717
9894.000000;1.395414
9893.000000;1.394455
9892.000000;1.394081
9891.000000;1.394457
9890.000000;1.395239
9889.000000;1.395574
9888.000000;1.394889
9887.000000;1.393520
9886.000000;1.392243
9885.000000;1.391335
9884.000000;1.390452
9883.000000;1.389360
9882.000000;1.388391
9881.000000;1.388065
9880.000000;1.388478
9879.000000;1.389228
9878.000000;1.389801
9877.000000;1.389930
9876.000000;1.389625
9875.000000;1.388952
9874.000000;1.387856
9873.000000;1.386291
9872.000000;1.384555
9871.000000;1.383308
9870.000000;1.383052
9869.000000;1.383609
9868.000000;1.384243
9867.000000;1.384301
9866.000000;1.383683
9865.000000;1.382781
9864.000000;1.382161
9863.000000;1.382175
9862.000000;1.382583
9861.000000;1.382619
9860.000000;1.381771
9859.000000;1.380501
9858.000000;1.379775
9857.000000;1.379847
9856.000000;1.379978
9855.000000;1.379594
9854.000000;1.379173
9853.000000;1.379479
9852.000000;1.380287
9851.000000;1.380572
9850.000000;1.379877
9849.000000;1.378847
9848.000000;1.378270
9847.000000;1.378196
9846.000000;1.378203
9845.000000;1.378067
9844.000000;1.377830
9843.000000;1.377502
9842.000000;1.377039
9841.000000;1.376511
9840.000000;1.376046
9839.000000;1.375675
9838.000000;1.375369
9837.000000;1.375072
9836.000000;1.374598
9835.000000;1.373711
9834.000000;1.372502
9833.000000;1.371452
9832.000000;1.370886
9831.000000;1.370556
9830.000000;1.370023
9829.000000;1.369318
9828.000000;1.368882
9827.000000;1.368878
9826.000000;1.368916
9825.000000;1.368506
9824.000000;1.367547
9823.000000;1.366345
9822.000000;1.365326
9821.000000;1.364787
9820.000000;1.364729
9819.000000;1.364859
9818.000000;1.364897
9817.000000;1.364899
9816.000000;1.365109
9815.000000;1.365474
9814.000000;1.365542
9813.000000;1.364962
9812.000000;1.363919
9811.000000;1.362927
9810.000000;1.362304
9809.000000;1.361976
9808.000000;1.361670
9807.000000;1.361109
9806.000000;1.360113
9805.000000;1.358713
9804.000000;1.357242
9803.000000;1.356218
9802.000000;1.356009
9801.000000;1.356608
9800.000000;1.357708
9799.000000;1.358887
9798.000000;1.359670
9797.000000;1.359556
9796.000000;1.358292
9795.000000;1.356271
9794.000000;1.354476
9793.000000;1.353724
9792.000000;1.353920
9791.000000;1.354205
9790.000000;1.353875
9789.000000;1.353063
9788.000000;1.352458
9787.000000;1.352575
9786.000000;1.353359
9785.000000;1.354278
9784.000000;1.354631
9783.000000;1.353976
9782.000000;1.352505
9781.000000;1.350939
9780.000000;1.349897
9779.000000;1.349442
9778.000000;1.349317
9777.000000;1.349357
9776.000000;1.349429
9775.000000;1.349183
9774.000000;1.348283
9773.000000;1.346872
9772.000000;1.345469
9771.000000;1.344451
9770.000000;1.343926
9769.000000;1.344055
9768.000000;1.344999
9767.000000;1.346395
9766.000000;1.347253
9765.000000;1.346763
9764.000000;1.345046
9763.000000;1.342928
9762.000000;1.341136
9761.000000;1.339891
9760.000000;1.339077
9759.000000;1.338500
9758.000000;1.337980
9757.000000;1.337395
9756.000000;1.336712
9755.000000;1.336004
9754.000000;1.335453
9753.000000;1.335243
9752.000000;1.335337
9751.000000;1.335472
9750.000000;1.335555
9749.000000;1.335949
9748.000000;1.337020
9747.000000;1.338399
9746.000000;1.339145
9745.000000;1.338853
9744.000000;1.338199
9743.000000;1.338004
9742.000000;1.338095
9741.000000;1.337586
9740.000000;1.336136
9739.000000;1.334405
9738.000000;1.333175
9737.000000;1.332465
9736.000000;1.331698
9735.000000;1.330485
9734.000000;1.329065
9733.000000;1.328042
9732.000000;1.327824
9731.000000;1.328235
9730.000000;1.328621
9729.000000;1.328385
9728.000000;1.327502
9727.000000;1.326494
9726.000000;1.325923
9725.000000;1.325925
9724.000000;1.326143
9723.000000;1.326065
9722.000000;1.325489
9721.000000;1.324756
9720.000000;1.324439
9719.000000;1.324735
9718.000000;1.325275
9717.000000;1.325592
9716.000000;1.325611
9715.000000;1.325477
9714.000000;1.325101
9713.000000;1.324263
9712.000000;1.323148
9711.000000;1.322325
9710.000000;1.322023
9709.000000;1.321732
9708.000000;1.320809
9707.000000;1.319321
9706.000000;1.317990
9705.000000;1.317380
9704.000000;1.317402
9703.000000;1.317641
9702.000000;1.317874
9701.000000;1.318092
9700.000000;1.318133
9699.000000;1.317601
9698.000000;1.316309
9697.000000;1.314656
9696.000000;1.313390
9695.000000;1.312969
9694.000000;1.313241
9693.000000;1.313735
9692.000000;1.314089
9691.000000;1.314180
9690.000000;1.314024
9689.000000;1.313740
9688.000000;1.313516
9687.000000;1.313413
9686.000000;1.313238
9685.000000;1.312755
9684.000000;1.312009
9683.000000;1.311267
9682.000000;1.310672
9681.000000;1.310148
9680.000000;1.309666
9679.000000;1.309396
9678.000000;1.309480
9677.000000;1.309796
9676.000000;1.310053
9675.000000;1.310034
9674.000000;1.309675
9673.000000;1.309044
9672.000000;1.308381
9671.000000;1.308018
9670.000000;1.308078
9669.000000;1.308255
9668.000000;1.308076
9667.000000;1.307405
9666.000000;1.306533
9665.000000;1.305787
9664.000000;1.305208
9663.000000;1.304711
9662.000000;1.304355
9661.000000;1.304291
9660.000000;1.304493
9659.000000;1.304686
9658.000000;1.304523
9657.000000;1.303750
9656.000000;1.302294
9655.000000;1.300427
9654.000000;1.298802
9653.000000;1.298039
9652.000000;1.298131
9651.000000;1.298423
9650.000000;1.298348
9649.000000;1.298031
9648.000000;1.297937
9647.000000;1.298038
9646.000000;1.297730
9645.000000;1.296633
9644.000000;1.295153
9643.000000;1.294075
9642.000000;1.293787
9641.000000;1.294076
9640.000000;1.294496
9639.000000;1.294714
9638.000000;1.294561
9637.000000;1.294000
9636.000000;1.293114
9635.000000;1.292080
9634.000000;1.291145
9633.000000;1.290619
9632.000000;1.290669
9631.000000;1.291012
9630.000000;1.290964
9629.000000;1.290054
9628.000000;1.288565
9627.000000;1.287278
9626.000000;1.286729
9625.000000;1.286856
9624.000000;1.287304
9623.000000;1.287787
9622.000000;1.288096
9621.000000;1.287986
9620.000000;1.287318
9619.000000;1.286282
9618.000000;1.285343
9617.000000;1.284923
9616.000000;1.285093
9615.000000;1.285475
9614.000000;1.285493
9613.000000;1.284920
9612.000000;1.284185
9611.000000;1.283962
9610.000000;1.284336
9609.000000;1.284563
9608.000000;1.283882
9607.000000;1.282464
9606.000000;1.281284
9605.000000;1.281072
9604.000000;1.281647
9603.000000;1.282310
9602.000000;1.282629
9601.000000;1.282646
9600.000000;1.282468
9599.000000;1.281951
9598.000000;1.280901
9597.000000;1.279437
9596.000000;1.278043
9595.000000;1.277247
9594.000000;1.277188
9593.000000;1.277420
9592.000000;1.277187
9591.000000;1.276086
9590.000000;1.274562
9589.000000;1.273599
9588.000000;1.273802
9587.000000;1.274803
9586.000000;1.275623
9585.000000;1.275577
9584.000000;1.274765
9583.000000;1.273763
9582.000000;1.273014
9581.000000;1.272519
9580.000000;1.271957
9579.000000;1.271075
9578.000000;1.269991
9577.000000;1.269121
9576.000000;1.268740
9575.000000;1.268658
9574.000000;1.268467
9573.000000;1.268072
9572.000000;1.267775
9571.000000;1.267815
9570.000000;1.268031
9569.000000;1.268067
9568.000000;1.267764
9567.000000;1.267187
9566.000000;1.266423
9565.000000;1.265531
9564.000000;1.264678
9563.000000;1.264134
9562.000000;1.264050
9561.000000;1.264244
9560.000000;1.264258
9559.000000;1.263693
9558.000000;1.262613
9557.000000;1.261609
9556.000000;1.261317
9555.000000;1.261758
9554.000000;1.262236
9553.000000;1.262027
9552.000000;1.261124
9551.000000;1.260190
9550.000000;1.259837
9549.000000;1.260077
9548.000000;1.260464
9547.000000;1.260570
9546.000000;1.260264
9545.000000;1.259652
9544.000000;1.258877
9543.000000;1.258041
9542.000000;1.257270
9541.000000;1.256738
9540.000000;1.256547
9539.000000;1.256592
9538.000000;1.256599
9537.000000;1.256311
9536.000000;1.255625
9535.000000;1.254638
9534.000000;1.253661
9533.000000;1.253125
9532.000000;1.253283
9531.000000;1.253934
9530.000000;1.254502
9529.000000;1.254460
9528.000000;1.253681
9527.000000;1.252474
9526.000000;1.251377
9525.000000;1.250854
9524.000000;1.250915
9523.000000;1.251010
9522.000000;1.250516
9521.000000;1.249434
9520.000000;1.248376
9519.000000;1.247810
9518.000000;1.247588
9517.000000;1.247348
9516.000000;1.247065
9515.000000;1.246939
9514.000000;1.246970
9513.000000;1.246984
9512.000000;1.246962
9511.000000;1.247057
9510.000000;1.247282
9509.000000;1.247424
9508.000000;1.247245
9507.000000;1.246646
9506.000000;1.245712
9505.000000;1.244803
9504.000000;1.244429
9503.000000;1.244719
9502.000000;1.245089
9501.000000;1.244767
9500.000000;1.243677
9499.000000;1.242491
9498.000000;1.241796
9497.000000;1.241534
9496.000000;1.241324
9495.000000;1.240943
9494.000000;1.240362
9493.000000;1.239606
9492.000000;1.238891
9491.000000;1.238684
9490.000000;1.239306
9489.000000;1.240501
9488.000000;1.241571
9487.000000;1.241904
9486.000000;1.241308
9485.000000;1.239932
9484.000000;1.238108
9483.000000;1.236266
9482.000000;1.234827
9481.000000;1.234038
9480.000000;1.233888
9479.000000;1.234156
9478.000000;1.234543
9477.000000;1.234802
9476.000000;1.234819
9475.000000;1.234582
9474.000000;1.234128
9473.000000;1.233546
9472.000000;1.232977
9471.000000;1.232513
9470.000000;1.232116
9469.000000;1.231718
9468.000000;1.231374
9467.000000;1.231156
9466.000000;1.230916
9465.000000;1.230359
9464.000000;1.229428
9463.000000;1.228484
9462.000000;1.227974
9461.000000;1.227988
9460.000000;1.228193
9459.000000;1.228145
9458.000000;1.227673
9457.000000;1.227033
9456.000000;1.226667
9455.000000;1.226720
9454.000000;1.226778
9453.000000;1.226278
9452.000000;1.225201
9451.000000;1.224178
9450.000000;1.223812
9449.000000;1.224089
9448.000000;1.224534
9447.000000;1.224746
9446.000000;1.224617
9445.000000;1.224172
9444.000000;1.223479
9443.000000;1.222703
9442.000000;1.222036
9441.000000;1.221533
9440.000000;1.221147
9439.000000;1.220929
9438.000000;1.221017
9437.000000;1.221325
9436.000000;1.221369
9435.000000;1.220600
9434.000000;1.218975
9433.000000;1.217150
9432.000000;1.216008
9431.000000;1.215946
9430.000000;1.216634
9429.000000;1.217458
9428.000000;1.218111
9427.000000;1.218673
9426.000000;1.219177
9425.000000;1.219316
9424.000000;1.218703
9423.000000;1.217313
9422.000000;1.215588
9421.000000;1.214095
9420.000000;1.213149
9419.000000;1.212723
9418.000000;1.212677
9417.000000;1.212997
9416.000000;1.213730
9415.000000;1.214663
9414.000000;1.215257
9413.000000;1.215095
9412.000000;1.214339
9411.000000;1.213486
9410.000000;1.212694
9409.000000;1.211621
9408.000000;1.210035
9407.000000;1.208281
9406.000000;1.206943
9405.000000;1.206209
9404.000000;1.205798
9403.000000;1.205445
9402.000000;1.205223
9401.000000;1.205334
9400.000000;1.205731
9399.000000;1.206079
9398.000000;1.206088
9397.000000;1.205788
9396.000000;1.205427
9395.000000;1.205110
9394.000000;1.204751
9393.000000;1.204423
9392.000000;1.204491
9391.000000;1.205090
9390.000000;1.205587
9389.000000;1.205053
9388.000000;1.203383
9387.000000;1.201546
9386.000000;1.200547
9385.000000;1.200485
9384.000000;1.200846
9383.000000;1.201314
9382.000000;1.201821
9381.000000;1.202060
9380.000000;1.201596
9379.000000;1.200511
9378.000000;1.199494
9377.000000;1.199122
9376.000000;1.199362
9375.000000;1.199828
9374.000000;1.200212
9373.000000;1.200298
9372.000000;1.199864
9371.000000;1.198862
9370.000000;1.197543
9369.000000;1.196225
9368.000000;1.195052
9367.000000;1.194134
9366.000000;1.193762
9365.000000;1.194179
9364.000000;1.195115
9363.000000;1.195813
9362.000000;1.195674
9361.000000;1.194803
9360.000000;1.193824
9359.000000;1.193226
9358.000000;1.192990
9357.000000;1.192814
9356.000000;1.192511
9355.000000;1.192106
9354.000000;1.191649
9353.000000;1.191114
9352.000000;1.190495
9351.000000;1.189873
9350.000000;1.189334
9349.000000;1.188912
9348.000000;1.188636
9347.000000;1.188541
9346.000000;1.188560
9345.000000;1.188545
9344.000000;1.188451
9343.000000;1.188381
9342.000000;1.188339
9341.000000;1.188127
9340.000000;1.187662
9339.000000;1.187245
9338.000000;1.187245
9337.000000;1.187554
9336.000000;1.187615
9335.000000;1.187066
9334.000000;1.186149
9333.000000;1.185382
9332.000000;1.184982
9331.000000;1.184734
9330.000000;1.184371
9329.000000;1.183927
9328.000000;1.183691
9327.000000;1.183833
9326.000000;1.184132
9325.000000;1.184163
9324.000000;1.183762
9323.000000;1.183171
9322.000000;1.182689
9321.000000;1.182355
9320.000000;1.182105
9319.000000;1.182015
9318.000000;1.182127
9317.000000;1.182150
9316.000000;1.181659
9315.000000;1.180574
9314.000000;1.179213
9313.000000;1.177914
9312.000000;1.176879
9311.000000;1.176317
9310.000000;1.176346
9309.000000;1.176687
9308.000000;1.176817
9307.000000;1.176611
9306.000000;1.176509
9305.000000;1.176857
9304.000000;1.177383
9303.000000;1.177572
9302.000000;1.177304
9301.000000;1.176810
9300.000000;1.176217
9299.000000;1.175522
9298.000000;1.174898
9297.000000;1.174636
9296.000000;1.174764
9295.000000;1.174998
9294.000000;1.175051
9293.000000;1.174789
9292.000000;1.174139
9291.000000;1.173163
9290.000000;1.172220
9289.000000;1.171736
9288.000000;1.171698
9287.000000;1.171593
9286.000000;1.170994
9285.000000;1.170056
9284.000000;1.169287
9283.000000;1.169003
9282.000000;1.169141
9281.000000;1.169505
9280.000000;1.169969
9279.000000;1.170438
9278.000000;1.170733
9277.000000;1.170596
9276.000000;1.169861
9275.000000;1.168658
9274.000000;1.167436
9273.000000;1.166693
9272.000000;1.166622
9271.000000;1.166987
9270.000000;1.167351
9269.000000;1.167400
9268.000000;1.167065
9267.000000;1.166424
9266.000000;1.165591
9265.000000;1.164727
9264.000000;1.164076
9263.000000;1.163833
9262.000000;1.163879
9261.000000;1.163743
9260.000000;1.163037
9259.000000;1.161966
9258.000000;1.161213
9257.000000;1.161186
9256.000000;1.161544
9255.000000;1.161612
9254.000000;1.161150
9253.000000;1.160510
9252.000000;1.160078
9251.000000;1.159839
9250.000000;1.159521
9249.000000;1.158967
9248.000000;1.158267
9247.000000;1.157632
9246.000000;1.157254
9245.000000;1.157204
9244.000000;1.157399
9243.000000;1.157661
9242.000000;1.157816
9241.000000;1.157732
9240.000000;1.157321
9239.000000;1.156620
9238.000000;1.155837
9237.000000;1.155209
9236.000000;1.154808
9235.000000;1.154566
9234.000000;1.154439
9233.000000;1.154392
9232.000000;1.154290
9231.000000;1.153983
9230.000000;1.153542
9229.000000;1.153183
9228.000000;1.152907
9227.000000;1.152411
9226.000000;1.151511
9225.000000;1.150471
9224.000000;1.149762
9223.000000;1.149571
9222.000000;1.149718
9221.000000;1.149931
9220.000000;1.150060
9219.000000;1.150049
9218.000000;1.149881
9217.000000;1.149568
9216.000000;1.149138
9215.000000;1.148630
9214.000000;1.148157
9213.000000;1.147882
9212.000000;1.147806
9211.000000;1.147634
9210.000000;1.147051
9209.000000;1.146123
9208.000000;1.145285
9207.000000;1.144866
9206.000000;1.144747
9205.000000;1.144587
9204.000000;1.144290
9203.000000;1.144138
9202.000000;1.144451
9201.000000;1.145209
9200.000000;1.146044
9199.000000;1.146544
9198.000000;1.146509
9197.000000;1.145940
9196.000000;1.144921
9195.000000;1.143610
9194.000000;1.142289
9193.000000;1.141246
9192.000000;1.140550
9191.000000;1.140008
9190.000000;1.139418
9189.000000;1.138811
9188.000000;1.138391
9187.000000;1.138303
9186.000000;1.138492
9185.000000;1.138757
9184.000000;1.138875
9183.000000;1.138716
9182.000000;1.138329
9181.000000;1.137896
9180.000000;1.137550
9179.000000;1.137263
9178.000000;1.136961
9177.000000;1.136741
9176.000000;1.136859
9175.000000;1.137479
9174.000000;1.138432
9173.000000;1.139255
9172.000000;1.139476
9171.000000;1.138917
9170.000000;1.137773
9169.000000;1.136423
9168.000000;1.135163
9167.000000;1.134139
9166.000000;1.133442
9165.000000;1.133140
9164.000000;1.133177
9163.000000;1.133321
9162.000000;1.133297
9161.000000;1.132973
9160.000000;1.132400
9159.000000;1.131730
9158.000000;1.131096
9157.000000;1.130503
9156.000000;1.129826
9155.000000;1.129026
9154.000000;1.128375
9153.000000;1.128332
9152.000000;1.129053
9151.000000;1.130124
9150.000000;1.130874
9149.000000;1.130912
9148.000000;1.130328
9147.000000;1.129502
9146.000000;1.128856
9145.000000;1.128683
9144.000000;1.128955
9143.000000;1.129283
9142.000000;1.129218
9141.000000;1.128642
9140.000000;1.127774
9139.000000;1.126871
9138.000000;1.126075
9137.000000;1.125503
9136.000000;1.125256
9135.000000;1.125244
9134.000000;1.125190
9133.000000;1.124890
9132.000000;1.124444
9131.000000;1.124142
9130.000000;1.124189
9129.000000;1.124506
9128.000000;1.124749
9127.000000;1.124550
9126.000000;1.123854
9125.000000;1.122990
9124.000000;1.122292
9123.000000;1.121710
9122.000000;1.120949
9121.000000;1.119969
9120.000000;1.119117
9119.000000;1.118756
9118.000000;1.118970
9117.000000;1.119635
9116.000000;1.120553
9115.000000;1.121396
9114.000000;1.121791
9113.000000;1.121608
9112.000000;1.121040
9111.000000;1.120286
9110.000000;1.119380
9109.000000;1.118454
9108.000000;1.117890
9107.000000;1.117911
9106.000000;1.118173
9105.000000;1.118083
9104.000000;1.117474
9103.000000;1.116702
9102.000000;1.116123
9101.000000;1.115770
9100.000000;1.115564
9099.000000;1.115528
9098.000000;1.115663
9097.000000;1.115782
9096.000000;1.115649
9095.000000;1.115219
9094.000000;1.114671
9093.000000;1.114237
9092.000000;1.113996
9091.000000;1.113802
9090.000000;1.113469
9089.000000;1.113099
9088.000000;1.113083
9087.000000;1.113617
9086.000000;1.114319
9085.000000;1.114569
9084.000000;1.114175
9083.000000;1.113457
9082.000000;1.112682
9081.000000;1.111791
9080.000000;1.110763
9079.000000;1.109879
9078.000000;1.109384
9077.000000;1.109149
9076.000000;1.108913
9075.000000;1.108678
9074.000000;1.108615
9073.000000;1.108718
9072.000000;1.108813
9071.000000;1.108801
9070.000000;1.108615
9069.000000;1.108022
9068.000000;1.106831
9067.000000;1.105341
9066.000000;1.104269
9065.000000;1.104067
9064.000000;1.104501
9063.000000;1.104998
9062.000000;1.105236
9061.000000;1.105267
9060.000000;1.105239
9059.000000;1.105232
9058.000000;1.105291
9057.000000;1.105397
9056.000000;1.105367
9055.000000;1.104953
9054.000000;1.104114
9053.000000;1.103120
9052.000000;1.102321
9051.000000;1.101853
9050.000000;1.101586
9049.000000;1.101297
9048.000000;1.100856
9047.000000;1.100288
9046.000000;1.099739
9045.000000;1.099388
9044.000000;1.099334
9043.000000;1.099493
9042.000000;1.099641
9041.000000;1.099577
9040.000000;1.099282
9039.000000;1.098880
9038.000000;1.098428
9037.000000;1.097852
9036.000000;1.097150
9035.000000;1.096615
9034.000000;1.096698
9033.000000;1.097566
9032.000000;1.098826
9031.000000;1.099752
9030.000000;1.099807
9029.000000;1.098951
9028.000000;1.097548
9027.000000;1.096036
9026.000000;1.094706
9025.000000;1.093687
9024.000000;1.093032
9023.000000;1.092765
9022.000000;1.092821
9021.000000;1.092995
9020.000000;1.093043
9019.000000;1.092901
9018.000000;1.092749
9017.000000;1.092785
9016.000000;1.092933
9015.000000;1.092879
9014.000000;1.092424
9013.000000;1.091749
9012.000000;1.091289
9011.000000;1.091353
9010.000000;1.091891
9009.000000;1.092558
9008.000000;1.092956
9007.000000;1.092834
9006.000000;1.092195
9005.000000;1.091259
9004.000000;1.090289
9003.000000;1.089436
9002.000000;1.088743
9001.000000;1.088266
9000.000000;1.088108
8999.000000;1.088275
8998.000000;1.088572
8997.000000;1.088693
8996.000000;1.088457
8995.000000;1.087946
8994.000000;1.087432
8993.000000;1.087140
8992.000000;1.087058
8991.000000;1.086983
8990.000000;1.086803
8989.000000;1.086671
8988.000000;1.086783
8987.000000;1.087002
8986.000000;1.086894
8985.000000;1.086242
8984.000000;1.085358
8983.000000;1.084709
8982.000000;1.084358
8981.000000;1.083993
8980.000000;1.083451
8979.000000;1.082964
8978.000000;1.082815
8977.000000;1.082980
8976.000000;1.083199
8975.000000;1.083231
8974.000000;1.082930
8973.000000;1.082248
8972.000000;1.081348
8971.000000;1.080610
8970.000000;1.080323
8969.000000;1.080388
8968.000000;1.080438
8967.000000;1.080238
8966.000000;1.079864
8965.000000;1.079529
8964.000000;1.079347
8963.000000;1.079269
8962.000000;1.079141
8961.000000;1.078854
8960.000000;1.078501
8959.000000;1.078323
8958.000000;1.078399
8957.000000;1.078459
8956.000000;1.078176
8955.000000;1.077623
8954.000000;1.077253
8953.000000;1.077346
8952.000000;1.077627
8951.000000;1.077524
8950.000000;1.076712
8949.000000;1.075363
8948.000000;1.073957
8947.000000;1.072955
8946.000000;1.072568
8945.000000;1.072685
8944.000000;1.073004
8943.000000;1.073289
8942.000000;1.073519
8941.000000;1.073762
8940.000000;1.073965
8939.000000;1.073923
8938.000000;1.073468
8937.000000;1.072636
8936.000000;1.071650
8935.000000;1.070793
8934.000000;1.070299
8933.000000;1.070322
8932.000000;1.070866
8931.000000;1.071670
8930.000000;1.072213
8929.000000;1.072021
8928.000000;1.071127
8927.000000;1.070108
8926.000000;1.069567
8925.000000;1.069608
8924.000000;1.069927
8923.000000;1.070285
8922.000000;1.070667
8921.000000;1.071014
8920.000000;1.071078
8919.000000;1.070674
8918.000000;1.069884
8917.000000;1.068876
8916.000000;1.067689
8915.000000;1.066372
8914.000000;1.065212
8913.000000;1.064615
8912.000000;1.064722
8911.000000;1.065286
8910.000000;1.065887
8909.000000;1.066230
8908.000000;1.066264
8907.000000;1.066104
8906.000000;1.065825
8905.000000;1.065304
8904.000000;1.064373
8903.000000;1.063199
8902.000000;1.062349
8901.000000;1.062267
8900.000000;1.062739
8899.000000;1.063082
8898.000000;1.062850
8897.000000;1.062202
8896.000000;1.061561
8895.000000;1.061163
8894.000000;1.061034
8893.000000;1.061175
8892.000000;1.061547
8891.000000;1.061924
8890.000000;1.062001
8889.000000;1.061711
8888.000000;1.061347
8887.000000;1.061269
8886.000000;1.061504
8885.000000;1.061693
8884.000000;1.061447
8883.000000;1.060751
8882.000000;1.060002
8881.000000;1.059640
8880.000000;1.059778
8879.000000;1.060180
8878.000000;1.060539
8877.000000;1.060713
8876.000000;1.060729
8875.000000;1.060635
8874.000000;1.060402
8873.000000;1.059968
8872.000000;1.059353
8871.000000;1.058716
8870.000000;1.058261
8869.000000;1.058066
8868.000000;1.058013
8867.000000;1.057905
8866.000000;1.057620
8865.000000;1.057156
8864.000000;1.056590
8863.000000;1.056045
8862.000000;1.055644
8861.000000;1.055427
8860.000000;1.055348
8859.000000;1.055363
8858.000000;1.055459
8857.000000;1.055525
8856.000000;1.055322
8855.000000;1.054730
8854.000000;1.054012
8853.000000;1.053656
8852.000000;1.053895
8851.000000;1.054463
8850.000000;1.054861
8849.000000;1.054789
8848.000000;1.054291
8847.000000;1.053587
8846.000000;1.052868
8845.000000;1.052230
8844.000000;1.051715
8843.000000;1.051361
8842.000000;1.051194
8841.000000;1.051187
8840.000000;1.051262
8839.000000;1.051341
8838.000000;1.051356
8837.000000;1.051200
8836.000000;1.050770
8835.000000;1.050148
8834.000000;1.049683
8833.000000;1.049725
8832.000000;1.050260
8831.000000;1.050885
8830.000000;1.051212
8829.000000;1.051209
8828.000000;1.051112
8827.000000;1.051072
8826.000000;1.051002
8825.000000;1.050748
8824.000000;1.050315
8823.000000;1.049860
8822.000000;1.049501
8821.000000;1.049226
8820.000000;1.049026
8819.000000;1.049009
8818.000000;1.049253
8817.000000;1.049579
8816.000000;1.049664
8815.000000;1.049444
8814.000000;1.049232
8813.000000;1.049310
8812.000000;1.049525
8811.000000;1.049462
8810.000000;1.048938
8809.000000;1.048154
8808.000000;1.047402
8807.000000;1.046806
8806.000000;1.046364
8805.000000;1.046066
8804.000000;1.045918
8803.000000;1.045946
8802.000000;1.046176
8801.000000;1.046514
8800.000000;1.046666
8799.000000;1.046343
8798.000000;1.045610
8797.000000;1.044897
8796.000000;1.044595
8795.000000;1.044727
8794.000000;1.045032
8793.000000;1.045256
8792.000000;1.045314
8791.000000;1.045259
8790.000000;1.045185
8789.000000;1.045113
8788.000000;1.044967
8787.000000;1.044693
8786.000000;1.044379
8785.000000;1.044197
8784.000000;1.044246
8783.000000;1.044528
8782.000000;1.045012
8781.000000;1.045583
8780.000000;1.045956
8779.000000;1.045865
8778.000000;1.045385
8777.000000;1.044919
8776.000000;1.044793
8775.000000;1.044985
8774.000000;1.045258
8773.000000;1.045409
8772.000000;1.045346
8771.000000;1.045080
8770.000000;1.044744
8769.000000;1.044502
8768.000000;1.044396
8767.000000;1.044364
8766.000000;1.044408
8765.000000;1.044605
8764.000000;1.044931
8763.000000;1.045260
8762.000000;1.045547
8761.000000;1.045820
8760.000000;1.045929
8759.000000;1.045565
8758.000000;1.044677
8757.000000;1.043635
8756.000000;1.042843
8755.000000;1.042357
8754.000000;1.042020
8753.000000;1.041765
8752.000000;1.041627
8751.000000;1.041652
8750.000000;1.041962
8749.000000;1.042677
8748.000000;1.043557
8747.000000;1.043955
8746.000000;1.043463
8745.000000;1.042473
8744.000000;1.041754
8743.000000;1.041596
8742.000000;1.041684
8741.000000;1.041743
8740.000000;1.041902
8739.000000;1.042366
8738.000000;1.043058
8737.000000;1.043719
8736.000000;1.044140
8735.000000;1.044197
8734.000000;1.043872
8733.000000;1.043333
8732.000000;1.042846
8731.000000;1.042482
8730.000000;1.042067
8729.000000;1.041511
8728.000000;1.041022
8727.000000;1.040872
8726.000000;1.041075
8725.000000;1.041380
8724.000000;1.041543
8723.000000;1.041532
8722.000000;1.041507
8721.000000;1.041651
8720.000000;1.041973
8719.000000;1.042276
8718.000000;1.042347
8717.000000;1.042168
8716.000000;1.041867
8715.000000;1.041519
8714.000000;1.041129
8713.000000;1.040772
8712.000000;1.040577
8711.000000;1.040570
8710.000000;1.040642
8709.000000;1.040688
8708.000000;1.040672
8707.000000;1.040548
8706.000000;1.040266
8705.000000;1.039877
8704.000000;1.039499
8703.000000;1.039192
8702.000000;1.038974
8701.000000;1.038958
8700.000000;1.039278
8699.000000;1.039839
8698.000000;1.040305
8697.000000;1.040405
8696.000000;1.040135
8695.000000;1.039655
8694.000000;1.039143
8693.000000;1.038760
8692.000000;1.038567
8691.000000;1.038415
8690.000000;1.038113
8689.000000;1.037759
8688.000000;1.037703
8687.000000;1.038047
8686.000000;1.038395
8685.000000;1.038297
8684.000000;1.037790
8683.000000;1.037288
8682.000000;1.037031
8681.000000;1.036862
8680.000000;1.036548
8679.000000;1.036125
8678.000000;1.035870
8677.000000;1.036034
8676.000000;1.036622
8675.000000;1.037384
8674.000000;1.037958
8673.000000;1.038101
8672.000000;1.037810
8671.000000;1.037288
8670.000000;1.036807
8669.000000;1.036554
8668.000000;1.036500
8667.000000;1.036431
8666.000000;1.036186
8665.000000;1.035873
8664.000000;1.035748
8663.000000;1.035873
8662.000000;1.036021
8661.000000;1.035944
8660.000000;1.035589
8659.000000;1.035050
8658.000000;1.034462
8657.000000;1.034028
8656.000000;1.033967
8655.000000;1.034294
8654.000000;1.034722
8653.000000;1.034874
8652.000000;1.034547
8651.000000;1.033742
8650.000000;1.032649
8649.000000;1.031668
8648.000000;1.031235
8647.000000;1.031420
8646.000000;1.031808
8645.000000;1.031936
8644.000000;1.031757
8643.000000;1.031520
8642.000000;1.031360
8641.000000;1.031237
8640.000000;1.031173
8639.000000;1.031275
8638.000000;1.031503
8637.000000;1.031663
8636.000000;1.031657
8635.000000;1.031573
8634.000000;1.031499
8633.000000;1.031420
8632.000000;1.031320
8631.000000;1.031196
8630.000000;1.030951
8629.000000;1.030463
8628.000000;1.029827
8627.000000;1.029348
8626.000000;1.029187
8625.000000;1.029154
8624.000000;1.028939
8623.000000;1.028448
8622.000000;1.027835
8621.000000;1.027322
8620.000000;1.027063
8619.000000;1.027081
8618.000000;1.027206
8617.000000;1.027177
8616.000000;1.026890
8615.000000;1.026511
8614.000000;1.026249
8613.000000;1.026086
8612.000000;1.025813
8611.000000;1.025316
8610.000000;1.024704
8609.000000;1.024191
8608.000000;1.023921
8607.000000;1.023925
8606.000000;1.024127
8605.000000;1.024343
8604.000000;1.024327
8603.000000;1.023927
8602.000000;1.023246
8601.000000;1.022615
8600.000000;1.022295
8599.000000;1.022206
8598.000000;1.022018
8597.000000;1.021577
8596.000000;1.021135
8595.000000;1.021020
8594.000000;1.021176
8593.000000;1.021226
8592.000000;1.020989
8591.000000;1.020718
8590.000000;1.020709
8589.000000;1.020887
8588.000000;1.020933
8587.000000;1.020697
8586.000000;1.020314
8585.000000;1.019954
8584.000000;1.019664
8583.000000;1.019444
8582.000000;1.019318
8581.000000;1.019283
8580.000000;1.019287
8579.000000;1.019288
8578.000000;1.019272
8577.000000;1.019200
8576.000000;1.019015
8575.000000;1.018707
8574.000000;1.018311
8573.000000;1.017847
8572.000000;1.017331
8571.000000;1.016854
8570.000000;1.016558
8569.000000;1.016489
8568.000000;1.016544
8567.000000;1.016578
8566.000000;1.016516
8565.000000;1.016332
8564.000000;1.016012
8563.000000;1.015561
8562.000000;1.014988
8561.000000;1.014275
8560.000000;1.013451
8559.000000;1.012730
8558.000000;1.012435
8557.000000;1.012709
8556.000000;1.013324
8555.000000;1.013850
8554.000000;1.013983
8553.000000;1.013683
8552.000000;1.013093
8551.000000;1.012430
8550.000000;1.011897
8549.000000;1.011572
8548.000000;1.011375
8547.000000;1.011202
8546.000000;1.011061
8545.000000;1.010996
8544.000000;1.010927
8543.000000;1.010690
8542.000000;1.010259
8541.000000;1.009797
8540.000000;1.009460
8539.000000;1.009240
8538.000000;1.009055
8537.000000;1.008883
8536.000000;1.008732
8535.000000;1.008543
8534.000000;1.008240
8533.000000;1.007853
8532.000000;1.007503
8531.000000;1.007255
8530.000000;1.007033
8529.000000;1.006708
8528.000000;1.006236
8527.000000;1.005703
8526.000000;1.005278
8525.000000;1.005113
8524.000000;1.005255
8523.000000;1.005603
8522.000000;1.005944
8521.000000;1.006059
8520.000000;1.005854
8519.000000;1.005408
8518.000000;1.004862
8517.000000;1.004242
8516.000000;1.003442
8515.000000;1.002444
8514.000000;1.001507
8513.000000;1.001015
8512.000000;1.001118
8511.000000;1.001597
8510.000000;1.002080
8509.000000;1.002313
8508.000000;1.002206
8507.000000;1.001794
8506.000000;1.001238
8505.000000;1.000761
8504.000000;1.000452
8503.000000;1.000162
8502.000000;0.999711
8501.000000;0.999178
8500.000000;0.998865
8499.000000;0.998953
8498.000000;0.999305
8497.000000;0.999593
8496.000000;0.999543
8495.000000;0.999061
8494.000000;0.998247
8493.000000;0.997356
8492.000000;0.996662
8491.000000;0.996284
8490.000000;0.996139
8489.000000;0.996107
8488.000000;0.996184
8487.000000;0.996427
8486.000000;0.996782
8485.000000;0.997045
8484.000000;0.997041
8483.000000;0.996822
8482.000000;0.996615
8481.000000;0.996552
8480.000000;0.996494
8479.000000;0.996182
8478.000000;0.995547
8477.000000;0.994796
8476.000000;0.994197
8475.000000;0.993878
8474.000000;0.993841
8473.000000;0.994018
8472.000000;0.994197
8471.000000;0.994044
8470.000000;0.993396
8469.000000;0.992524
8468.000000;0.991922
8467.000000;0.991801
8466.000000;0.991915
8465.000000;0.991915
8464.000000;0.991734
8463.000000;0.991542
8462.000000;0.991432
8461.000000;0.991307
8460.000000;0.991024
8459.000000;0.990574
8458.000000;0.990089
8457.000000;0.989750
8456.000000;0.989667
8455.000000;0.989788
8454.000000;0.989904
8453.000000;0.989769
8452.000000;0.989271
8451.000000;0.988507
8450.000000;0.987732
8449.000000;0.987185
8448.000000;0.986929
8447.000000;0.986810
8446.000000;0.986616
8445.000000;0.986277
8444.000000;0.985900
8443.000000;0.985645
8442.000000;0.985592
8441.000000;0.985700
8440.000000;0.985832
8439.000000;0.985814
8438.000000;0.985584
8437.000000;0.985259
8436.000000;0.985008
8435.000000;0.984809
8434.000000;0.984446
8433.000000;0.983776
8432.000000;0.982953
8431.000000;0.982293
8430.000000;0.981953
8429.000000;0.981802
8428.000000;0.981596
8427.000000;0.981255
8426.000000;0.980956
8425.000000;0.980956
8424.000000;0.981279
8423.000000;0.981602
8422.000000;0.981527
8421.000000;0.980972
8420.000000;0.980255
8419.000000;0.979776
8418.000000;0.979690
8417.000000;0.979861
8416.000000;0.980004
8415.000000;0.979852
8414.000000;0.979312
8413.000000;0.978599
8412.000000;0.978118
8411.000000;0.978111
8410.000000;0.978423
8409.000000;0.978665
8408.000000;0.978555
8407.000000;0.978080
8406.000000;0.977426
8405.000000;0.976859
8404.000000;0.976577
8403.000000;0.976527
8402.000000;0.976407
8401.000000;0.975976
8400.000000;0.975342
8399.000000;0.974816
8398.000000;0.974523
8397.000000;0.974312
8396.000000;0.974035
8395.000000;0.973748
8394.000000;0.973555
8393.000000;0.973432
8392.000000;0.973294
8391.000000;0.973146
8390.000000;0.973036
8389.000000;0.972940
8388.000000;0.972779
8387.000000;0.972533
8386.000000;0.972222
8385.000000;0.971805
8384.000000;0.971234
8383.000000;0.970596
8382.000000;0.970124
8381.000000;0.969989
8380.000000;0.970133
8379.000000;0.970324
8378.000000;0.970358
8377.000000;0.970185
8376.000000;0.969872
8375.000000;0.969496
8374.000000;0.969099
8373.000000;0.968718
8372.000000;0.968438
8371.000000;0.968348
8370.000000;0.968432
8369.000000;0.968521
8368.000000;0.968414
8367.000000;0.968068
8366.000000;0.967622
8365.000000;0.967215
8364.000000;0.966812
8363.000000;0.966280
8362.000000;0.965612
8361.000000;0.964994
8360.000000;0.964611
8359.000000;0.964430
8358.000000;0.964246
8357.000000;0.963927
8356.000000;0.963540
8355.000000;0.963235
8354.000000;0.963075
8353.000000;0.963015
8352.000000;0.963005
8351.000000;0.963023
8350.000000;0.963014
8349.000000;0.962863
8348.000000;0.962471
8347.000000;0.961856
8346.000000;0.961166
8345.000000;0.960600
8344.000000;0.960321
8343.000000;0.960390
8342.000000;0.960707
8341.000000;0.961031
8340.000000;0.961111
8339.000000;0.960857
8338.000000;0.960385
8337.000000;0.959869
8336.000000;0.959380
8335.000000;0.958919
8334.000000;0.958538
8333.000000;0.958322
8332.000000;0.958224
8331.000000;0.958039
8330.000000;0.957638
8329.000000;0.957147
8328.000000;0.956807
8327.000000;0.956668
8326.000000;0.956566
8325.000000;0.956376
8324.000000;0.956166
8323.000000;0.956047
8322.000000;0.955974
8321.000000;0.955827
8320.000000;0.955610
8319.000000;0.955460
8318.000000;0.955437
8317.000000;0.955406
8316.000000;0.955173
8315.000000;0.954683
8314.000000;0.954032
8313.000000;0.953312
8312.000000;0.952545
8311.000000;0.951779
8310.000000;0.951177
8309.000000;0.950910
8308.000000;0.950948
8307.000000;0.951033
8306.000000;0.950889
8305.000000;0.950437
8304.000000;0.949792
8303.000000;0.949127
8302.000000;0.948594
8301.000000;0.948297
8300.000000;0.948212
8299.000000;0.948166
8298.000000;0.947984
8297.000000;0.947652
8296.000000;0.947273
8295.000000;0.946896
8294.000000;0.946523
8293.000000;0.946241
8292.000000;0.946163
8291.000000;0.946214
8290.000000;0.946131
8289.000000;0.945778
8288.000000;0.945322
8287.000000;0.944996
8286.000000;0.944832
8285.000000;0.944720
8284.000000;0.944599
8283.000000;0.944439
8282.000000;0.944135
8281.000000;0.943614
8280.000000;0.943012
8279.000000;0.942576
8278.000000;0.942383
8277.000000;0.942282
8276.000000;0.942098
8275.000000;0.941771
8274.000000;0.941308
8273.000000;0.940775
8272.000000;0.940324
8271.000000;0.940076
8270.000000;0.939926
8269.000000;0.939605
8268.000000;0.939011
8267.000000;0.938342
8266.000000;0.937854
8265.000000;0.937600
8264.000000;0.937474
8263.000000;0.937408
8262.000000;0.937409
8261.000000;0.937468
8260.000000;0.937536
8259.000000;0.937556
8258.000000;0.937451
8257.000000;0.937141
8256.000000;0.936630
8255.000000;0.936059
8254.000000;0.935598
8253.000000;0.935308
8252.000000;0.935128
8251.000000;0.934941
8250.000000;0.934619
8249.000000;0.934094
8248.000000;0.933460
8247.000000;0.932943
8246.000000;0.932694
8245.000000;0.932655
8244.000000;0.932696
8243.000000;0.932788
8242.000000;0.932944
8241.000000;0.933032
8240.000000;0.932806
8239.000000;0.932162
8238.000000;0.931262
8237.000000;0.930400
8236.000000;0.929803
8235.000000;0.929565
8234.000000;0.929630
8233.000000;0.929783
8232.000000;0.929748
8231.000000;0.929391
8230.000000;0.928830
8229.000000;0.928313
8228.000000;0.927999
8227.000000;0.927860
8226.000000;0.927775
8225.000000;0.927656
8224.000000;0.927495
8223.000000;0.927304
8222.000000;0.927051
8221.000000;0.926681
8220.000000;0.926200
8219.000000;0.925690
8218.000000;0.925204
8217.000000;0.924708
8216.000000;0.924171
8215.000000;0.923653
8214.000000;0.923246
8213.000000;0.922932
8212.000000;0.922628
8211.000000;0.922358
8210.000000;0.922237
8209.000000;0.922256
8208.000000;0.922187
8207.000000;0.921807
8206.000000;0.921170
8205.000000;0.920553
8204.000000;0.920168
8203.000000;0.920005
8202.000000;0.919923
8201.000000;0.919795
8200.000000;0.919548
8199.000000;0.919149
8198.000000;0.918633
8197.000000;0.918109
8196.000000;0.917683
8195.000000;0.917361
8194.000000;0.917055
8193.000000;0.916716
8192.000000;0.916431
8191.000000;0.916346
8190.000000;0.916494
8189.000000;0.916700
8188.000000;0.916717
8187.000000;0.916450
8186.000000;0.916014
8185.000000;0.915558
8184.000000;0.915091
8183.000000;0.914529
8182.000000;0.913881
8181.000000;0.913312
8180.000000;0.912974
8179.000000;0.912810
8178.000000;0.912583
8177.000000;0.912130
8176.000000;0.911549
8175.000000;0.911108
8174.000000;0.910953
8173.000000;0.910975
8172.000000;0.910941
8171.000000;0.910710
8170.000000;0.910290
8169.000000;0.909768
8168.000000;0.909242
8167.000000;0.908831
8166.000000;0.908618
8165.000000;0.908567
8164.000000;0.908529
8163.000000;0.908365
8162.000000;0.908036
8161.000000;0.907605
8160.000000;0.907180
8159.000000;0.906881
8158.000000;0.906745
8157.000000;0.906655
8156.000000;0.906419
8155.000000;0.905980
8154.000000;0.905494
8153.000000;0.905151
8152.000000;0.904954
8151.000000;0.904732
8150.000000;0.904355
8149.000000;0.903879
8148.000000;0.903487
8147.000000;0.903310
8146.000000;0.903286
8145.000000;0.903193
8144.000000;0.902852
8143.000000;0.902307
8142.000000;0.901769
8141.000000;0.901371
8140.000000;0.901073
8139.000000;0.900832
8138.000000;0.900726
8137.000000;0.900800
8136.000000;0.900892
8135.000000;0.900744
8134.000000;0.900257
8133.000000;0.899536
8132.000000;0.898730
8131.000000;0.897968
8130.000000;0.897397
8129.000000;0.897094
8128.000000;0.896950
8127.000000;0.896786
8126.000000;0.896603
8125.000000;0.896553
8124.000000;0.896624
8123.000000;0.896575
8122.000000;0.896276
8121.000000;0.895937
8120.000000;0.895828
8119.000000;0.895896
8118.000000;0.895818
8117.000000;0.895397
8116.000000;0.894723
8115.000000;0.893992
8114.000000;0.893331
8113.000000;0.892818
8112.000000;0.892498
8111.000000;0.892320
8110.000000;0.892138
8109.000000;0.891842
8108.000000;0.891450
8107.000000;0.891062
8106.000000;0.890772
8105.000000;0.890621
8104.000000;0.890580
8103.000000;0.890542
8102.000000;0.890386
8101.000000;0.890106
8100.000000;0.889825
8099.000000;0.889662
8098.000000;0.889577
8097.000000;0.889376
8096.000000;0.888869
8095.000000;0.888069
8094.000000;0.887229
8093.000000;0.886643
8092.000000;0.886375
8091.000000;0.886201
8090.000000;0.885861
8089.000000;0.885331
8088.000000;0.884802
8087.000000;0.884442
8086.000000;0.884241
8085.000000;0.884088
8084.000000;0.883889
8083.000000;0.883614
8082.000000;0.883279
8081.000000;0.882918
8080.000000;0.882556
8079.000000;0.882198
8078.000000;0.881872
8077.000000;0.881630
8076.000000;0.881468
8075.000000;0.881266
8074.000000;0.880908
8073.000000;0.880452
8072.000000;0.880076
8071.000000;0.879848
8070.000000;0.879634
8069.000000;0.879281
8068.000000;0.878815
8067.000000;0.878388
8066.000000;0.878098
8065.000000;0.877903
8064.000000;0.877690
8063.000000;0.877367
8062.000000;0.876930
8061.000000;0.876473
8060.000000;0.876117
8059.000000;0.875897
8058.000000;0.875722
8057.000000;0.875467
8056.000000;0.875061
8055.000000;0.874499
8054.000000;0.873856
8053.000000;0.873318
8052.000000;0.873121
8051.000000;0.873332
8050.000000;0.873688
8049.000000;0.873765
8048.000000;0.873348
8047.000000;0.872619
8046.000000;0.871970
8045.000000;0.871649
8044.000000;0.871605
8043.000000;0.871609
8042.000000;0.871491
8041.000000;0.871239
8040.000000;0.870905
8039.000000;0.870485
8038.000000;0.869935
8037.000000;0.869290
8036.000000;0.868712
8035.000000;0.868359
8034.000000;0.868267
8033.000000;0.868345
8032.000000;0.868463
8031.000000;0.868500
8030.000000;0.868373
8029.000000;0.868079
8028.000000;0.867681
8027.000000;0.867209
8026.000000;0.866594
8025.000000;0.865784
8024.000000;0.864906
8023.000000;0.864212
8022.000000;0.863842
8021.000000;0.863703
8020.000000;0.863632
8019.000000;0.863601
8018.000000;0.863670
8017.000000;0.863778
8016.000000;0.863710
8015.000000;0.863321
8014.000000;0.862734
8013.000000;0.862226
8012.000000;0.861928
8011.000000;0.861718
8010.000000;0.861400
8009.000000;0.860935
8008.000000;0.860435
8007.000000;0.860014
8006.000000;0.859712
8005.000000;0.859547
8004.000000;0.859508
8003.000000;0.859461
8002.000000;0.859176
8001.000000;0.858563
8000.000000;0.857833
7999.000000;0.857315
7998.000000;0.857107
7997.000000;0.856991
7996.000000;0.856718
7995.000000;0.856284
7994.000000;0.855875
7993.000000;0.855591
7992.000000;0.855324
7991.000000;0.854916
7990.000000;0.854356
7989.000000;0.853793
7988.000000;0.853380
7987.000000;0.853162
7986.000000;0.853080
7985.000000;0.853041
7984.000000;0.852959
7983.000000;0.852774
7982.000000;0.852468
7981.000000;0.852059
7980.000000;0.851551
7979.000000;0.850943
7978.000000;0.850293
7977.000000;0.849759
7976.000000;0.849465
7975.000000;0.849350
7974.000000;0.849202
7973.000000;0.848888
7972.000000;0.848476
7971.000000;0.848111
7970.000000;0.847833
7969.000000;0.847588
7968.000000;0.847356
7967.000000;0.847171
7966.000000;0.847013
7965.000000;0.846787
7964.000000;0.846416
7963.000000;0.845927
7962.000000;0.845415
7961.000000;0.844976
7960.000000;0.844666
7959.000000;0.844452
7958.000000;0.844190
7957.000000;0.843743
7956.000000;0.843157
7955.000000;0.842668
7954.000000;0.842470
7953.000000;0.842507
7952.000000;0.842564
7951.000000;0.842502
7950.000000;0.842330
7949.000000;0.842076
7948.000000;0.841710
7947.000000;0.841226
7946.000000;0.840723
7945.000000;0.840313
7944.000000;0.839997
7943.000000;0.839689
7942.000000;0.839357
7941.000000;0.839064
7940.000000;0.838857
7939.000000;0.838671
7938.000000;0.838402
7937.000000;0.838036
7936.000000;0.837662
7935.000000;0.837345
7934.000000;0.837058
7933.000000;0.836756
7932.000000;0.836468
7931.000000;0.836237
7930.000000;0.836008
7929.000000;0.835633
7928.000000;0.835025
7927.000000;0.834278
7926.000000;0.833603
7925.000000;0.833172
7924.000000;0.833002
7923.000000;0.832955
7922.000000;0.832828
7921.000000;0.832499
7920.000000;0.832029
7919.000000;0.831596
7918.000000;0.831307
7917.000000;0.831093
7916.000000;0.830826
7915.000000;0.830488
7914.000000;0.830177
7913.000000;0.829960
7912.000000;0.829773
7911.000000;0.829485
7910.000000;0.829036
7909.000000;0.828498
7908.000000;0.828016
7907.000000;0.827702
7906.000000;0.827553
7905.000000;0.827456
7904.000000;0.827295
7903.000000;0.827045
7902.000000;0.826765
7901.000000;0.826536
7900.000000;0.826425
7899.000000;0.826466
7898.000000;0.826600
7897.000000;0.826643
7896.000000;0.826398
7895.000000;0.825845
7894.000000;0.825196
7893.000000;0.824710
7892.000000;0.824473
7891.000000;0.824357
7890.000000;0.824152
7889.000000;0.823732
7888.000000;0.823128
7887.000000;0.822489
7886.000000;0.821944
7885.000000;0.821499
7884.000000;0.821068
7883.000000;0.820621
7882.000000;0.820252
7881.000000;0.820064
7880.000000;0.820028
7879.000000;0.820009
7878.000000;0.819897
7877.000000;0.819673
7876.000000;0.819365
7875.000000;0.819010
7874.000000;0.818639
7873.000000;0.818261
7872.000000;0.817845
7871.000000;0.817377
7870.000000;0.816922
7869.000000;0.816570
7868.000000;0.816329
7867.000000;0.816121
7866.000000;0.815894
7865.000000;0.815687
7864.000000;0.815543
7863.000000;0.815421
7862.000000;0.815239
7861.000000;0.814984
7860.000000;0.814724
7859.000000;0.814531
7858.000000;0.814399
7857.000000;0.814238
7856.000000;0.813937
7855.000000;0.813452
7854.000000;0.812859
7853.000000;0.812284
7852.000000;0.811784
7851.000000;0.811319
7850.000000;0.810866
7849.000000;0.810515
7848.000000;0.810388
7847.000000;0.810488
7846.000000;0.810654
7845.000000;0.810688
7844.000000;0.810509
7843.000000;0.810192
7842.000000;0.809895
7841.000000;0.809735
7840.000000;0.809683
7839.000000;0.809581
7838.000000;0.809276
7837.000000;0.808760
7836.000000;0.808152
7835.000000;0.807579
7834.000000;0.807106
7833.000000;0.806744
7832.000000;0.806461
7831.000000;0.806171
7830.000000;0.805779
7829.000000;0.805290
7828.000000;0.804822
7827.000000;0.804485
7826.000000;0.804287
7825.000000;0.804159
7824.000000;0.804050
7823.000000;0.803933
7822.000000;0.803776
7821.000000;0.803561
7820.000000;0.803318
7819.000000;0.803076
7818.000000;0.802816
7817.000000;0.802509
7816.000000;0.802179
7815.000000;0.801862
7814.000000;0.801514
7813.000000;0.801051
7812.000000;0.800509
7811.000000;0.800071
7810.000000;0.799890
7809.000000;0.799923
7808.000000;0.799979
7807.000000;0.799875
7806.000000;0.799552
7805.000000;0.799078
7804.000000;0.798624
7803.000000;0.798362
7802.000000;0.798330
7801.000000;0.798378
7800.000000;0.798293
7799.000000;0.797973
7798.000000;0.797466
7797.000000;0.796889
7796.000000;0.796381
7795.000000;0.796071
7794.000000;0.795997
7793.000000;0.796037
7792.000000;0.795989
7791.000000;0.795736
7790.000000;0.795310
7789.000000;0.794814
7788.000000;0.794361
7787.000000;0.794067
7786.000000;0.793989
7785.000000;0.794032
7784.000000;0.793984
7783.000000;0.793724
7782.000000;0.793331
7781.000000;0.792973
7780.000000;0.792751
7779.000000;0.792676
7778.000000;0.792702
7777.000000;0.792702
7776.000000;0.792453
7775.000000;0.791807
7774.000000;0.790907
7773.000000;0.790134
7772.000000;0.789795
7771.000000;0.789872
7770.000000;0.790097
7769.000000;0.790215
7768.000000;0.790144
7767.000000;0.789912
7766.000000;0.789551
7765.000000;0.789094
7764.000000;0.788640
7763.000000;0.788322
7762.000000;0.788190
7761.000000;0.788163
7760.000000;0.788112
7759.000000;0.787957
7758.000000;0.787650
7757.000000;0.787165
7756.000000;0.786577
7755.000000;0.786114
7754.000000;0.785964
7753.000000;0.786026
7752.000000;0.785988
7751.000000;0.785692
7750.000000;0.785342
7749.000000;0.785237
7748.000000;0.785400
7747.000000;0.785574
7746.000000;0.785528
7745.000000;0.785242
7744.000000;0.784826
7743.000000;0.784378
7742.000000;0.783950
7741.000000;0.783561
7740.000000;0.783187
7739.000000;0.782792
7738.000000;0.782391
7737.000000;0.782055
7736.000000;0.781829
7735.000000;0.781680
7734.000000;0.781538
7733.000000;0.781353
7732.000000;0.781121
7731.000000;0.780873
7730.000000;0.780667
7729.000000;0.780547
7728.000000;0.780500
7727.000000;0.780490
7726.000000;0.780497
7725.000000;0.780521
7724.000000;0.780541
7723.000000;0.780512
7722.000000;0.780405
7721.000000;0.780211
7720.000000;0.779923
7719.000000;0.779560
7718.000000;0.779193
7717.000000;0.778900
7716.000000;0.778673
7715.000000;0.778420
7714.000000;0.778064
7713.000000;0.777630
7712.000000;0.777230
7711.000000;0.776980
7710.000000;0.776920
7709.000000;0.776965
7708.000000;0.776960
7707.000000;0.776809
7706.000000;0.776557
7705.000000;0.776322
7704.000000;0.776160
7703.000000;0.776042
7702.000000;0.775918
7701.000000;0.775739
7700.000000;0.775447
7699.000000;0.775023
7698.000000;0.774562
7697.000000;0.774206
7696.000000;0.774002
7695.000000;0.773892
7694.000000;0.773843
7693.000000;0.773888
7692.000000;0.774003
7691.000000;0.774037
7690.000000;0.773854
7689.000000;0.773498
7688.000000;0.773153
7687.000000;0.772965
7686.000000;0.772950
7685.000000;0.773032
7684.000000;0.773102
7683.000000;0.773060
7682.000000;0.772858
7681.000000;0.772529
7680.000000;0.772151
7679.000000;0.771795
7678.000000;0.771502
7677.000000;0.771275
7676.000000;0.771057
7675.000000;0.770762
7674.000000;0.770387
7673.000000;0.770056
7672.000000;0.769897
7671.000000;0.769894
7670.000000;0.769902
7669.000000;0.769809
7668.000000;0.769600
7667.000000;0.769286
7666.000000;0.768850
7665.000000;0.768334
7664.000000;0.767909
7663.000000;0.767768
7662.000000;0.767936
7661.000000;0.768218
7660.000000;0.768367
7659.000000;0.768274
7658.000000;0.768003
7657.000000;0.767682
7656.000000;0.767419
7655.000000;0.767281
7654.000000;0.767292
7653.000000;0.767407
7652.000000;0.767529
7651.000000;0.767581
7650.000000;0.767546
7649.000000;0.767428
7648.000000;0.767207
7647.000000;0.766864
7646.000000;0.766440
7645.000000;0.766039
7644.000000;0.765778
7643.000000;0.765710
7642.000000;0.765775
7641.000000;0.765815
7640.000000;0.765705
7639.000000;0.765496
7638.000000;0.765388
7637.000000;0.765485
7636.000000;0.765644
7635.000000;0.765614
7634.000000;0.765325
7633.000000;0.764956
7632.000000;0.764726
7631.000000;0.764699
7630.000000;0.764774
7629.000000;0.764791
7628.000000;0.764649
7627.000000;0.764383
7626.000000;0.764156
7625.000000;0.764098
7624.000000;0.764147
7623.000000;0.764107
7622.000000;0.763889
7621.000000;0.763633
7620.000000;0.763545
7619.000000;0.763675
7618.000000;0.763899
7617.000000;0.764059
7616.000000;0.764065
7615.000000;0.763917
7614.000000;0.763682
7613.000000;0.763442
7612.000000;0.763242
7611.000000;0.763068
7610.000000;0.762907
7609.000000;0.762772
7608.000000;0.762666
7607.000000;0.762570
7606.000000;0.762493
7605.000000;0.762497
7604.000000;0.762615
7603.000000;0.762784
7602.000000;0.762911
7601.000000;0.762987
7600.000000;0.763072
7599.000000;0.763168
7598.000000;0.763155
7597.000000;0.762917
7596.000000;0.762514
7595.000000;0.762201
7594.000000;0.762212
7593.000000;0.762514
7592.000000;0.762813
7591.000000;0.762845
7590.000000;0.762630
7589.000000;0.762393
7588.000000;0.762265
7587.000000;0.762184
7586.000000;0.762074
7585.000000;0.761991
7584.000000;0.762021
7583.000000;0.762109
7582.000000;0.762111
7581.000000;0.761970
7580.000000;0.761762
7579.000000;0.761574
7578.000000;0.761422
7577.000000;0.761285
7576.000000;0.761155
7575.000000;0.761044
7574.000000;0.760967
7573.000000;0.760939
7572.000000;0.760942
7571.000000;0.760921
7570.000000;0.760842
7569.000000;0.760755
7568.000000;0.760739
7567.000000;0.760812
7566.000000;0.760906
7565.000000;0.760939
7564.000000;0.760876
7563.000000;0.760728
7562.000000;0.760565
7561.000000;0.760522
7560.000000;0.760721
7559.000000;0.761130
7558.000000;0.761531
7557.000000;0.761693
7556.000000;0.761562
7555.000000;0.761279
7554.000000;0.761016
7553.000000;0.760845
7552.000000;0.760762
7551.000000;0.760765
7550.000000;0.760873
7549.000000;0.761070
7548.000000;0.761297
7547.000000;0.761484
7546.000000;0.761582
7545.000000;0.761549
7544.000000;0.761385
7543.000000;0.761182
7542.000000;0.761093
7541.000000;0.761173
7540.000000;0.761303
7539.000000;0.761325
7538.000000;0.761255
7537.000000;0.761266
7536.000000;0.761469
7535.000000;0.761765
7534.000000;0.761955
7533.000000;0.761961
7532.000000;0.761889
7531.000000;0.761892
7530.000000;0.761994
7529.000000;0.762058
7528.000000;0.761951
7527.000000;0.761736
7526.000000;0.761668
7525.000000;0.761933
7524.000000;0.762411
7523.000000;0.762778
7522.000000;0.762849
7521.000000;0.762743
7520.000000;0.762683
7519.000000;0.762724
7518.000000;0.762746
7517.000000;0.762659
7516.000000;0.762537
7515.000000;0.762543
7514.000000;0.762765
7513.000000;0.763128
7512.000000;0.763439
7511.000000;0.763531
7510.000000;0.763390
7509.000000;0.763132
7508.000000;0.762879
7507.000000;0.762685
7506.000000;0.762587
7505.000000;0.762644
7504.000000;0.762866
7503.000000;0.763157
7502.000000;0.763408
7501.000000;0.763606
7500.000000;0.763820
7499.000000;0.764014
7498.000000;0.764145
7497.000000;0.764183
7496.000000;0.764180
7495.000000;0.764209
7494.000000;0.764265
7493.000000;0.764340
7492.000000;0.764491
7491.000000;0.764781
7490.000000;0.765151
7489.000000;0.765439
7488.000000;0.765532
7487.000000;0.765463
7486.000000;0.765333
7485.000000;0.765198
7484.000000;0.765078
7483.000000;0.765036
7482.000000;0.765164
7481.000000;0.765472
7480.000000;0.765835
7479.000000;0.766086
7478.000000;0.766151
7477.000000;0.766067
7476.000000;0.765910
7475.000000;0.765742
7474.000000;0.765618
7473.000000;0.765589
7472.000000;0.765670
7471.000000;0.765832
7470.000000;0.766021
7469.000000;0.766188
7468.000000;0.766312
7467.000000;0.766409
7466.000000;0.766510
7465.000000;0.766626
7464.000000;0.766722
7463.000000;0.766752
7462.000000;0.766717
7461.000000;0.766691
7460.000000;0.766770
7459.000000;0.766989
7458.000000;0.767269
7457.000000;0.767459
7456.000000;0.767486
7455.000000;0.767449
7454.000000;0.767524
7453.000000;0.767756
7452.000000;0.768010
7451.000000;0.768138
7450.000000;0.768145
7449.000000;0.768155
7448.000000;0.768254
7447.000000;0.768420
7446.000000;0.768562
7445.000000;0.768595
7444.000000;0.768503
7443.000000;0.768357
7442.000000;0.768258
7441.000000;0.768238
7440.000000;0.768253
7439.000000;0.768288
7438.000000;0.768394
7437.000000;0.768573
7436.000000;0.768725
7435.000000;0.768773
7434.000000;0.768791
7433.000000;0.768906
7432.000000;0.769102
7431.000000;0.769238
7430.000000;0.769223
7429.000000;0.769127
7428.000000;0.769125
7427.000000;0.769379
7426.000000;0.769903
7425.000000;0.770477
7424.000000;0.770798
7423.000000;0.770801
7422.000000;0.770788
7421.000000;0.771082
7420.000000;0.771599
7419.000000;0.771923
7418.000000;0.771806
7417.000000;0.771439
7416.000000;0.771185
7415.000000;0.771179
7414.000000;0.771313
7413.000000;0.771467
7412.000000;0.771616
7411.000000;0.771735
7410.000000;0.771753
7409.000000;0.771646
7408.000000;0.771537
7407.000000;0.771598
7406.000000;0.771843
7405.000000;0.772067
7404.000000;0.772010
7403.000000;0.771596
7402.000000;0.771075
7401.000000;0.770854
7400.000000;0.771113
7399.000000;0.771611
7398.000000;0.771957
7397.000000;0.772005
7396.000000;0.771938
7395.000000;0.771926
7394.000000;0.771841
7393.000000;0.771467
7392.000000;0.770901
7391.000000;0.770534
7390.000000;0.770613
7389.000000;0.770985
7388.000000;0.771374
7387.000000;0.771742
7386.000000;0.772106
7385.000000;0.772273
7384.000000;0.772159
7383.000000;0.772181
7382.000000;0.772774
7381.000000;0.773484
7380.000000;0.773175
7379.000000;0.771532
7378.000000;0.769836
7377.000000;0.769673
7376.000000;0.771165
7375.000000;0.772882
7374.000000;0.773361
7373.000000;0.772404
7372.000000;0.770970
7371.000000;0.770225
7370.000000;0.770748
7369.000000;0.772166
7368.000000;0.773428
7367.000000;0.773738
7366.000000;0.773177
7365.000000;0.772351
7364.000000;0.771850
7363.000000;0.772089
7362.000000;0.773107
7361.000000;0.774123
7360.000000;0.773896
7359.000000;0.772125
7358.000000;0.770247
7357.000000;0.770090
7356.000000;0.771859
7355.000000;0.773942
7354.000000;0.774653
7353.000000;0.773716
7352.000000;0.772217
7351.000000;0.771607
7350.000000;0.772568
7349.000000;0.774338
7348.000000;0.775311
7347.000000;0.774753
7346.000000;0.773569
7345.000000;0.772825
7344.000000;0.772265
7343.000000;0.771275
7342.000000;0.770658
7341.000000;0.771822
7340.000000;0.774303
7339.000000;0.775784
7338.000000;0.775013
7337.000000;0.773331
7336.000000;0.772865
7335.000000;0.774224
7334.000000;0.776312
7333.000000;0.777530
7332.000000;0.776923
7331.000000;0.775024
7330.000000;0.773761
7329.000000;0.774638
7328.000000;0.776717
7327.000000;0.777387
7326.000000;0.775655
7325.000000;0.773520
7324.000000;0.773271
7323.000000;0.774652
7322.000000;0.775766
7321.000000;0.775840
7320.000000;0.775795
7319.000000;0.776581
7318.000000;0.778098
7317.000000;0.779591
7316.000000;0.780400
7315.000000;0.780438
7314.000000;0.780412
7313.000000;0.781267
7312.000000;0.782793
7311.000000;0.783342
7310.000000;0.781858
7309.000000;0.779685
7308.000000;0.779236
7307.000000;0.780988
7306.000000;0.782980
7305.000000;0.783350
7304.000000;0.782192
7303.000000;0.780869
7302.000000;0.780616
7301.000000;0.781925
7300.000000;0.784150
7299.000000;0.785455
7298.000000;0.784353
7297.000000;0.781772
7296.000000;0.780564
7295.000000;0.782318
7294.000000;0.785447
7293.000000;0.787181
7292.000000;0.786848
7291.000000;0.786236
7290.000000;0.787133
7289.000000;0.789535
7288.000000;0.792201
7287.000000;0.794001
7286.000000;0.794600
7285.000000;0.794454
7284.000000;0.794378
7283.000000;0.794892
7282.000000;0.795865
7281.000000;0.796794
7280.000000;0.797417
7279.000000;0.797915
7278.000000;0.798540
7277.000000;0.799371
7276.000000;0.800439
7275.000000;0.801788
7274.000000;0.803289
7273.000000;0.804584
7272.000000;0.805357
7271.000000;0.805673
7270.000000;0.806015
7269.000000;0.806904
7268.000000;0.808365
7267.000000;0.809833
7266.000000;0.810758
7265.000000;0.811331
7264.000000;0.812327
7263.000000;0.814113
7262.000000;0.816125
7261.000000;0.817583
7260.000000;0.818407
7259.000000;0.819087
7258.000000;0.819893
7257.000000;0.820746
7256.000000;0.821742
7255.000000;0.823294
7254.000000;0.825621
7253.000000;0.828261
7252.000000;0.830402
7251.000000;0.831822
7250.000000;0.833104
7249.000000;0.834731
7248.000000;0.836206
7247.000000;0.836541
7246.000000;0.835838
7245.000000;0.835852
7244.000000;0.838287
7243.000000;0.842616
7242.000000;0.846340
7241.000000;0.847809
7240.000000;0.848132
7239.000000;0.849566
7238.000000;0.852577
7237.000000;0.855478
7236.000000;0.856787
7235.000000;0.857244
7234.000000;0.859053
7233.000000;0.863079
7232.000000;0.867467
7231.000000;0.869582
7230.000000;0.869010
7229.000000;0.868062
7228.000000;0.869364
7227.000000;0.873341
7226.000000;0.878129
7225.000000;0.881539
7224.000000;0.882983
7223.000000;0.883670
7222.000000;0.885221
7221.000000;0.888222
7220.000000;0.891922
7219.000000;0.895118
7218.000000;0.897338
7217.000000;0.899229
7216.000000;0.901739
7215.000000;0.905037
7214.000000;0.908455
7213.000000;0.911420
7212.000000;0.914118
7211.000000;0.917099
7210.000000;0.920436
7209.000000;0.923683
7208.000000;0.926591
7207.000000;0.929518
7206.000000;0.932969
7205.000000;0.936951
7204.000000;0.940930
7203.000000;0.944381
7202.000000;0.947278
7201.000000;0.950081
7200.000000;0.953247
7199.000000;0.956786
7198.000000;0.960367
7197.000000;0.963817
7196.000000;0.967310
7195.000000;0.971001
7194.000000;0.974747
7193.000000;0.978389
7192.000000;0.982086
7191.000000;0.986051
7190.000000;0.990223
7189.000000;0.994497
7188.000000;0.998909
7187.000000;1.003190
7186.000000;1.006544
7185.000000;1.008596
7184.000000;1.010432
7183.000000;1.013815
7182.000000;1.019102
7181.000000;1.024697
7180.000000;1.029016
7179.000000;1.032334
7178.000000;1.036087
7177.000000;1.041053
7176.000000;1.046815
7175.000000;1.052555
7174.000000;1.057728
7173.000000;1.062178
7172.000000;1.066191
7171.000000;1.070351
7170.000000;1.075089
7169.000000;1.080411
7168.000000;1.085974
7167.000000;1.091197
7166.000000;1.095327
7165.000000;1.097923
7164.000000;1.099685
7163.000000;1.102309
7162.000000;1.106935
7161.000000;1.112891
7160.000000;1.118493
7159.000000;1.122990
7158.000000;1.127130
7157.000000;1.131905
7156.000000;1.137342
7155.000000;1.142685
7154.000000;1.147449
7153.000000;1.152005
7152.000000;1.157032
7151.000000;1.162631
7150.000000;1.168171
7149.000000;1.173011
7148.000000;1.177292
7147.000000;1.181835
7146.000000;1.187179
7145.000000;1.192893
7144.000000;1.198029
7143.000000;1.202232
7142.000000;1.206209
7141.000000;1.210938
7140.000000;1.216476
7139.000000;1.221827
7138.000000;1.226073
7137.000000;1.229446
7136.000000;1.233032
7135.000000;1.237514
7134.000000;1.242574
7133.000000;1.247521
7132.000000;1.252053
7131.000000;1.256310
7130.000000;1.260498
7129.000000;1.264730
7128.000000;1.269068
7127.000000;1.273486
7126.000000;1.277988
7125.000000;1.282826
7124.000000;1.288241
7123.000000;1.293768
7122.000000;1.298279
7121.000000;1.301211
7120.000000;1.303525
7119.000000;1.306770
7118.000000;1.311262
7117.000000;1.315840
7116.000000;1.319560
7115.000000;1.322903
7114.000000;1.326983
7113.000000;1.332126
7112.000000;1.337707
7111.000000;1.342954
7110.000000;1.347459
7109.000000;1.351236
7108.000000;1.354662
7107.000000;1.358249
7106.000000;1.362218
7105.000000;1.366212
7104.000000;1.369646
7103.000000;1.372451
7102.000000;1.375258
7101.000000;1.378748
7100.000000;1.382960
7099.000000;1.387308
7098.000000;1.391217
7097.000000;1.394648
7096.000000;1.397948
7095.000000;1.401390
7094.000000;1.405029
7093.000000;1.408898
7092.000000;1.413063
7091.000000;1.417358
7090.000000;1.421314
7089.000000;1.424589
7088.000000;1.427317
7087.000000;1.429857
7086.000000;1.432315
7085.000000;1.434516
7084.000000;1.436355
7083.000000;1.438088
7082.000000;1.440192
7081.000000;1.442957
7080.000000;1.446306
7079.000000;1.449955
7078.000000;1.453606
7077.000000;1.457001
7076.000000;1.459910
7075.000000;1.462324
7074.000000;1.464724
7073.000000;1.467878
7072.000000;1.472092
7071.000000;1.476706
7070.000000;1.480518
7069.000000;1.482806
7068.000000;1.483838
7067.000000;1.484523
7066.000000;1.485822
7065.000000;1.488388
7064.000000;1.492309
7063.000000;1.497000
7062.000000;1.501569
7061.000000;1.505388
7060.000000;1.508293
7059.000000;1.510336
7058.000000;1.511578
7057.000000;1.512217
7056.000000;1.512688
7055.000000;1.513469
7054.000000;1.514886
7053.000000;1.517077
7052.000000;1.519943
7051.000000;1.523159
7050.000000;1.526409
7049.000000;1.529594
7048.000000;1.532629
7047.000000;1.535177
7046.000000;1.536942
7045.000000;1.538197
7044.000000;1.539579
7043.000000;1.541319
7042.000000;1.543046
7041.000000;1.544437
7040.000000;1.545694
7039.000000;1.547267
7038.000000;1.549374
7037.000000;1.551844
7036.000000;1.554190
7035.000000;1.555862
7034.000000;1.556826
7033.000000;1.557843
7032.000000;1.559751
7031.000000;1.562455
7030.000000;1.565102
7029.000000;1.567225
7028.000000;1.569098
7027.000000;1.570958
7026.000000;1.572672
7025.000000;1.574386
7024.000000;1.576629
7023.000000;1.579231
7022.000000;1.580959
7021.000000;1.581036
7020.000000;1.580477
7019.000000;1.581032
7018.000000;1.583141
7017.000000;1.585687
7016.000000;1.587558
7015.000000;1.588733
7014.000000;1.589807
7013.000000;1.591129
7012.000000;1.592614
7011.000000;1.594042
7010.000000;1.595291
7009.000000;1.596358
7008.000000;1.597246
7007.000000;1.597902
7006.000000;1.598475
7005.000000;1.599578
7004.000000;1.601830
7003.000000;1.604925
7002.000000;1.607615
7001.000000;1.608978
7000.000000;1.609343
6999.000000;1.609611
6998.000000;1.610119
6997.000000;1.610647
6996.000000;1.611103
6995.000000;1.611608
6994.000000;1.612128
6993.000000;1.612618
6992.000000;1.613398
6991.000000;1.614895
6990.000000;1.617069
6989.000000;1.619433
6988.000000;1.621525
6987.000000;1.623058
6986.000000;1.623866
6985.000000;1.624122
6984.000000;1.624394
6983.000000;1.625093
6982.000000;1.625990
6981.000000;1.626599
6980.000000;1.626858
6979.000000;1.627136
6978.000000;1.627829
6977.000000;1.629213
6976.000000;1.631312
6975.000000;1.633529
6974.000000;1.634810
6973.000000;1.634728
6972.000000;1.634114
6971.000000;1.634071
6970.000000;1.634704
6969.000000;1.635356
6968.000000;1.635730
6967.000000;1.636049
6966.000000;1.636369
6965.000000;1.636588
6964.000000;1.637054
6963.000000;1.638357
6962.000000;1.640340
6961.000000;1.641928
6960.000000;1.642186
6959.000000;1.641193
6958.000000;1.639803
6957.000000;1.638878
6956.000000;1.638810
6955.000000;1.639428
6954.000000;1.640275
6953.000000;1.641128
6952.000000;1.642192
6951.000000;1.643629
6950.000000;1.645185
6949.000000;1.646596
6948.000000;1.648068
6947.000000;1.649755
6946.000000;1.650971
6945.000000;1.650719
6944.000000;1.649145
6943.000000;1.647793
6942.000000;1.648051
6941.000000;1.649707
6940.000000;1.651180
6939.000000;1.651064
6938.000000;1.649473
6937.000000;1.648001
6936.000000;1.648296
6935.000000;1.650477
6934.000000;1.653008
6933.000000;1.654255
6932.000000;1.653993
6931.000000;1.653124
6930.000000;1.652365
6929.000000;1.651763
6928.000000;1.651216
6927.000000;1.650804
6926.000000;1.650606
6925.000000;1.650705
6924.000000;1.651351
6923.000000;1.652627
6922.000000;1.653992
6921.000000;1.654711
6920.000000;1.654788
6919.000000;1.654955
6918.000000;1.655671
6917.000000;1.656622
6916.000000;1.657268
6915.000000;1.657406
6914.000000;1.657074
6913.000000;1.656400
6912.000000;1.655735
6911.000000;1.655553
6910.000000;1.655996
6909.000000;1.656754
6908.000000;1.657466
6907.000000;1.657928
6906.000000;1.657862
6905.000000;1.656961
6904.000000;1.655341
6903.000000;1.653638
6902.000000;1.652486
6901.000000;1.652069
6900.000000;1.652246
6899.000000;1.652822
6898.000000;1.653600
6897.000000;1.654362
6896.000000;1.654886
6895.000000;1.654917
6894.000000;1.654274
6893.000000;1.653216
6892.000000;1.652530
6891.000000;1.652788
6890.000000;1.653575
6889.000000;1.653906
6888.000000;1.653440
6887.000000;1.652870
6886.000000;1.653017
6885.000000;1.653959
6884.000000;1.655073
6883.000000;1.655565
6882.000000;1.654893
6881.000000;1.653051
6880.000000;1.650672
6879.000000;1.648604
6878.000000;1.647284
6877.000000;1.646661
6876.000000;1.646719
6875.000000;1.647648
6874.000000;1.649321
6873.000000;1.650911
6872.000000;1.651396
6871.000000;1.650465
6870.000000;1.648803
6869.000000;1.647525
6868.000000;1.647382
6867.000000;1.648317
6866.000000;1.649603
6865.000000;1.650371
6864.000000;1.650080
6863.000000;1.648625
6862.000000;1.646326
6861.000000;1.643965
6860.000000;1.642518
6859.000000;1.642438
6858.000000;1.643175
6857.000000;1.643743
6856.000000;1.643826
6855.000000;1.643996
6854.000000;1.644734
6853.000000;1.645563
6852.000000;1.645388
6851.000000;1.643631
6850.000000;1.640880
6849.000000;1.638417
6848.000000;1.637139
6847.000000;1.636912
6846.000000;1.636956
6845.000000;1.636743
6844.000000;1.636232
6843.000000;1.635245
6842.000000;1.633193
6841.000000;1.629902
6840.000000;1.626432
6839.000000;1.624427
6838.000000;1.624538
6837.000000;1.625867
6836.000000;1.627001
6835.000000;1.627264
6834.000000;1.626836
6833.000000;1.626082
6832.000000;1.625135
6831.000000;1.623997
6830.000000;1.622754
6829.000000;1.621542
6828.000000;1.620330
6827.000000;1.618812
6826.000000;1.616708
6825.000000;1.614282
6824.000000;1.612355
6823.000000;1.611552
6822.000000;1.611589
6821.000000;1.611522
6820.000000;1.610654
6819.000000;1.609043
6818.000000;1.607200
6817.000000;1.605581
6816.000000;1.604329
6815.000000;1.603230
6814.000000;1.601880
6813.000000;1.600123
6812.000000;1.598298
6811.000000;1.596891
6810.000000;1.596033
6809.000000;1.595485
6808.000000;1.594973
6807.000000;1.594227
6806.000000;1.592825
6805.000000;1.590470
6804.000000;1.587531
6803.000000;1.584955
6802.000000;1.583429
6801.000000;1.582821
6800.000000;1.582498
6799.000000;1.581907
6798.000000;1.580690
6797.000000;1.578589
6796.000000;1.575650
6795.000000;1.572493
6794.000000;1.570072
6793.000000;1.568994
6792.000000;1.569028
6791.000000;1.569256
6790.000000;1.568748
6789.000000;1.567186
6788.000000;1.564886
6787.000000;1.562315
6786.000000;1.559765
6785.000000;1.557473
6784.000000;1.555690
6783.000000;1.554379
6782.000000;1.552997
6781.000000;1.550922
6780.000000;1.548103
6779.000000;1.545100
6778.000000;1.542521
6777.000000;1.540623
6776.000000;1.539368
6775.000000;1.538494
6774.000000;1.537477
6773.000000;1.535768
6772.000000;1.533291
6771.000000;1.530608
6770.000000;1.528459
6769.000000;1.527156
6768.000000;1.526408
6767.000000;1.525587
6766.000000;1.524106
6765.000000;1.521731
6764.000000;1.518742
6763.000000;1.515723
6762.000000;1.513092
6761.000000;1.510829
6760.000000;1.508669
6759.000000;1.506500
6758.000000;1.504480
6757.000000;1.502670
6756.000000;1.500759
6755.000000;1.498392
6754.000000;1.495769
6753.000000;1.493572
6752.000000;1.492154
6751.000000;1.490994
6750.000000;1.489279
6749.000000;1.486893
6748.000000;1.484429
6747.000000;1.482275
6746.000000;1.480201
6745.000000;1.477989
6744.000000;1.475959
6743.000000;1.474452
6742.000000;1.473093
6741.000000;1.471065
6740.000000;1.468054
6739.000000;1.464558
6738.000000;1.461275
6737.000000;1.458543
6736.000000;1.456379
6735.000000;1.454682
6734.000000;1.453208
6733.000000;1.451566
6732.000000;1.449482
6731.000000;1.447043
6730.000000;1.444562
6729.000000;1.442203
6728.000000;1.439826
6727.000000;1.437153
6726.000000;1.434058
6725.000000;1.430716
6724.000000;1.427547
6723.000000;1.425025
6722.000000;1.423457
6721.000000;1.422759
6720.000000;1.422321
6719.000000;1.421265
6718.000000;1.419070
6717.000000;1.416060
6716.000000;1.413112
6715.000000;1.410858
6714.000000;1.409230
6713.000000;1.407670
6712.000000;1.405692
6711.000000;1.403140
6710.000000;1.400154
6709.000000;1.397116
6708.000000;1.394428
6707.000000;1.392295
6706.000000;1.390617
6705.000000;1.389186
6704.000000;1.387579
6703.000000;1.385369
6702.000000;1.382454
6701.000000;1.379138
6700.000000;1.375958
6699.000000;1.373116
6698.000000;1.370431
6697.000000;1.367765
6696.000000;1.365236
6695.000000;1.362881
6694.000000;1.360486
6693.000000;1.357959
6692.000000;1.355620
6691.000000;1.353815
6690.000000;1.352392
6689.000000;1.350812
6688.000000;1.348688
6687.000000;1.346015
6686.000000;1.343002
6685.000000;1.339912
6684.000000;1.337042
6683.000000;1.334595
6682.000000;1.332508
6681.000000;1.330480
6680.000000;1.328212
6679.000000;1.325656
6678.000000;1.323117
6677.000000;1.321056
6676.000000;1.319613
6675.000000;1.318326
6674.000000;1.316572
6673.000000;1.314320
6672.000000;1.312126
6671.000000;1.310303
6670.000000;1.308488
6669.000000;1.306247
6668.000000;1.303702
6667.000000;1.301191
6666.000000;1.298616
6665.000000;1.295597
6664.000000;1.292133
6663.000000;1.288675
6662.000000;1.285591
6661.000000;1.282934
6660.000000;1.280697
6659.000000;1.278887
6658.000000;1.277288
6657.000000;1.275488
6656.000000;1.273308
6655.000000;1.270985
6654.000000;1.268835
6653.000000;1.266871
6652.000000;1.264838
6651.000000;1.262539
6650.000000;1.260052
6649.000000;1.257657
6648.000000;1.255514
6647.000000;1.253370
6646.000000;1.250746
6645.000000;1.247539
6644.000000;1.244307
6643.000000;1.241769
6642.000000;1.240115
6641.000000;1.238935
6640.000000;1.237687
6639.000000;1.236017
6638.000000;1.233740
6637.000000;1.230858
6636.000000;1.227654
6635.000000;1.224549
6634.000000;1.221824
6633.000000;1.219564
6632.000000;1.217746
6631.000000;1.216183
6630.000000;1.214462
6629.000000;1.212212
6628.000000;1.209457
6627.000000;1.206515
6626.000000;1.203623
6625.000000;1.200872
6624.000000;1.198425
6623.000000;1.196471
6622.000000;1.194921
6621.000000;1.193422
6620.000000;1.191727
6619.000000;1.189854
6618.000000;1.187839
6617.000000;1.185611
6616.000000;1.183181
6615.000000;1.180702
6614.000000;1.178238
6613.000000;1.175702
6612.000000;1.173137
6611.000000;1.170833
6610.000000;1.168971
6609.000000;1.167273
6608.000000;1.165223
6607.000000;1.162604
6606.000000;1.159717
6605.000000;1.157087
6604.000000;1.154999
6603.000000;1.153276
6602.000000;1.151449
6601.000000;1.149216
6600.000000;1.146697
6599.000000;1.144218
6598.000000;1.141938
6597.000000;1.139841
6596.000000;1.137962
6595.000000;1.136336
6594.000000;1.134725
6593.000000;1.132728
6592.000000;1.130272
6591.000000;1.127756
6590.000000;1.125540
6589.000000;1.123518
6588.000000;1.121364
6587.000000;1.119004
6586.000000;1.116606
6585.000000;1.114262
6584.000000;1.111940
6583.000000;1.109693
6582.000000;1.107661
6581.000000;1.105844
6580.000000;1.104060
6579.000000;1.102166
6578.000000;1.100204
6577.000000;1.098268
6576.000000;1.096370
6575.000000;1.094461
6574.000000;1.092516
6573.000000;1.090529
6572.000000;1.088507
6571.000000;1.086475
6570.000000;1.084455
6569.000000;1.082414
6568.000000;1.080293
6567.000000;1.078091
6566.000000;1.075896
6565.000000;1.073823
6564.000000;1.071945
6563.000000;1.070264
6562.000000;1.068686
6561.000000;1.067011
6560.000000;1.065041
6559.000000;1.062758
6558.000000;1.060370
6557.000000;1.058137
6556.000000;1.056152
6555.000000;1.054323
6554.000000;1.052550
6553.000000;1.050825
6552.000000;1.049160
6551.000000;1.047457
6550.000000;1.045554
6549.000000;1.043380
6548.000000;1.041046
6547.000000;1.038756
6546.000000;1.036644
6545.000000;1.034686
6544.000000;1.032743
6543.000000;1.030699
6542.000000;1.028585
6541.000000;1.026564
6540.000000;1.024765
6539.000000;1.023128
6538.000000;1.021459
6537.000000;1.019622
6536.000000;1.017644
6535.000000;1.015650
6534.000000;1.013747
6533.000000;1.011957
6532.000000;1.010201
6531.000000;1.008368
6530.000000;1.006464
6529.000000;1.004656
6528.000000;1.003070
6527.000000;1.001556
6526.000000;0.999806
6525.000000;0.997721
6524.000000;0.995531
6523.000000;0.993485
6522.000000;0.991606
6521.000000;0.989807
6520.000000;0.988080
6519.000000;0.986414
6518.000000;0.984666
6517.000000;0.982721
6516.000000;0.980715
6515.000000;0.978921
6514.000000;0.977414
6513.000000;0.976005
6512.000000;0.974475
6511.000000;0.972759
6510.000000;0.970915
6509.000000;0.969055
6508.000000;0.967296
6507.000000;0.965640
6506.000000;0.963913
6505.000000;0.961949
6504.000000;0.959834
6503.000000;0.957845
6502.000000;0.956131
6501.000000;0.954577
6500.000000;0.952997
6499.000000;0.951338
6498.000000;0.949646
6497.000000;0.947984
6496.000000;0.946432
6495.000000;0.945052
6494.000000;0.943753
6493.000000;0.942299
6492.000000;0.940546
6491.000000;0.938620
6490.000000;0.936783
6489.000000;0.935147
6488.000000;0.933592
6487.000000;0.931941
6486.000000;0.930159
6485.000000;0.928412
6484.000000;0.926907
6483.000000;0.925668
6482.000000;0.924443
6481.000000;0.922909
6480.000000;0.921002
6479.000000;0.918978
6478.000000;0.917138
6477.000000;0.915561
6476.000000;0.914137
6475.000000;0.912741
6474.000000;0.911313
6473.000000;0.909800
6472.000000;0.908151
6471.000000;0.906364
6470.000000;0.904524
6469.000000;0.902766
6468.000000;0.901222
6467.000000;0.899942
6466.000000;0.898829
6465.000000;0.897678
6464.000000;0.896319
6463.000000;0.894735
6462.000000;0.893009
6461.000000;0.891196
6460.000000;0.889282
6459.000000;0.887284
6458.000000;0.885328
6457.000000;0.883592
6456.000000;0.882165
6455.000000;0.880953
6454.000000;0.879758
6453.000000;0.878451
6452.000000;0.877055
6451.000000;0.875646
6450.000000;0.874218
6449.000000;0.872690
6448.000000;0.871054
6447.000000;0.869433
6446.000000;0.867973
6445.000000;0.866689
6444.000000;0.865439
6443.000000;0.864043
6442.000000;0.862441
6441.000000;0.860762
6440.000000;0.859241
6439.000000;0.858014
6438.000000;0.856979
6437.000000;0.855869
6436.000000;0.854487
6435.000000;0.852858
6434.000000;0.851184
6433.000000;0.849686
6432.000000;0.848468
6431.000000;0.847423
6430.000000;0.846276
6429.000000;0.844786
6428.000000;0.842992
6427.000000;0.841212
6426.000000;0.839741
6425.000000;0.838587
6424.000000;0.837524
6423.000000;0.836352
6422.000000;0.835030
6421.000000;0.833584
6420.000000;0.832022
6419.000000;0.830397
6418.000000;0.828874
6417.000000;0.827604
6416.000000;0.826546
6415.000000;0.825472
6414.000000;0.824194
6413.000000;0.822750
6412.000000;0.821324
6411.000000;0.820037
6410.000000;0.818862
6409.000000;0.817718
6408.000000;0.816579
6407.000000;0.815459
6406.000000;0.814356
6405.000000;0.813234
6404.000000;0.812032
6403.000000;0.810684
6402.000000;0.809157
6401.000000;0.807513
6400.000000;0.805907
6399.000000;0.804484
6398.000000;0.803275
6397.000000;0.802203
6396.000000;0.801153
6395.000000;0.800047
6394.000000;0.798863
6393.000000;0.797629
6392.000000;0.796364
6391.000000;0.795042
6390.000000;0.793637
6389.000000;0.792213
6388.000000;0.790901
6387.000000;0.789750
6386.000000;0.788667
6385.000000;0.787531
6384.000000;0.786329
6383.000000;0.785115
6382.000000;0.783894
6381.000000;0.782646
6380.000000;0.781401
6379.000000;0.780223
6378.000000;0.779095
6377.000000;0.777943
6376.000000;0.776767
6375.000000;0.775671
6374.000000;0.774721
6373.000000;0.773845
6372.000000;0.772900
6371.000000;0.771797
6370.000000;0.770548
6369.000000;0.769227
6368.000000;0.767926
6367.000000;0.766708
6366.000000;0.765572
6365.000000;0.764474
6364.000000;0.763378
6363.000000;0.762266
6362.000000;0.761102
6361.000000;0.759860
6360.000000;0.758583
6359.000000;0.757382
6358.000000;0.756333
6357.000000;0.755390
6356.000000;0.754438
6355.000000;0.753386
6354.000000;0.752217
6353.000000;0.750979
6352.000000;0.749768
6351.000000;0.748679
6350.000000;0.747724
6349.000000;0.746815
6348.000000;0.745861
6347.000000;0.744871
6346.000000;0.743929
6345.000000;0.743079
6344.000000;0.742252
6343.000000;0.741325
6342.000000;0.740225
6341.000000;0.738988
6340.000000;0.737727
6339.000000;0.736558
6338.000000;0.735532
6337.000000;0.734613
6336.000000;0.733705
6335.000000;0.732722
6334.000000;0.731656
6333.000000;0.730595
6332.000000;0.729625
6331.000000;0.728724
6330.000000;0.727773
6329.000000;0.726703
6328.000000;0.725593
6327.000000;0.724565
6326.000000;0.723628
6325.000000;0.722679
6324.000000;0.721658
6323.000000;0.720626
6322.000000;0.719655
6321.000000;0.718713
6320.000000;0.717699
6319.000000;0.716571
6318.000000;0.715382
6317.000000;0.714231
6316.000000;0.713205
6315.000000;0.712346
6314.000000;0.711620
6313.000000;0.710916
6312.000000;0.710116
6311.000000;0.709180
6310.000000;0.708158
6309.000000;0.707116
6308.000000;0.706088
6307.000000;0.705101
6306.000000;0.704189
6305.000000;0.703363
6304.000000;0.702571
6303.000000;0.701739
6302.000000;0.700840
6301.000000;0.699920
6300.000000;0.699038
6299.000000;0.698211
6298.000000;0.697397
6297.000000;0.696526
6296.000000;0.695524
6295.000000;0.694357
6294.000000;0.693090
6293.000000;0.691894
6292.000000;0.690934
6291.000000;0.690220
6290.000000;0.689592
6289.000000;0.688879
6288.000000;0.688063
6287.000000;0.687257
6286.000000;0.686528
6285.000000;0.685794
6284.000000;0.684916
6283.000000;0.683883
6282.000000;0.682835
6281.000000;0.681912
6280.000000;0.681117
6279.000000;0.680333
6278.000000;0.679470
6277.000000;0.678544
6276.000000;0.677641
6275.000000;0.676831
6274.000000;0.676123
6273.000000;0.675473
6272.000000;0.674819
6271.000000;0.674121
6270.000000;0.673385
6269.000000;0.672611
6268.000000;0.671746
6267.000000;0.670744
6266.000000;0.669693
6265.000000;0.668797
6264.000000;0.668167
6263.000000;0.667662
6262.000000;0.667012
6261.000000;0.666092
6260.000000;0.665005
6259.000000;0.663920
6258.000000;0.662920
6257.000000;0.662021
6256.000000;0.661241
6255.000000;0.660579
6254.000000;0.659982
6253.000000;0.659376
6252.000000;0.658699
6251.000000;0.657902
6250.000000;0.656967
6249.000000;0.655975
6248.000000;0.655086
6247.000000;0.654391
6246.000000;0.653787
6245.000000;0.653087
6244.000000;0.652233
6243.000000;0.651352
6242.000000;0.650589
6241.000000;0.649949
6240.000000;0.649328
6239.000000;0.648658
6238.000000;0.647975
6237.000000;0.647359
6236.000000;0.646833
6235.000000;0.646333
6234.000000;0.645773
6233.000000;0.645118
6232.000000;0.644384
6231.000000;0.643596
6230.000000;0.642768
6229.000000;0.641934
6228.000000;0.641164
6227.000000;0.640500
6226.000000;0.639907
6225.000000;0.639291
6224.000000;0.638583
6223.000000;0.637784
6222.000000;0.636951
6221.000000;0.636142
6220.000000;0.635362
6219.000000;0.634549
6218.000000;0.633633
6217.000000;0.632620
6216.000000;0.631613
6215.000000;0.630749
6214.000000;0.630094
6213.000000;0.629597
6212.000000;0.629134
6211.000000;0.628587
6210.000000;0.627933
6209.000000;0.627249
6208.000000;0.626622
6207.000000;0.626053
6206.000000;0.625475
6205.000000;0.624859
6204.000000;0.624273
6203.000000;0.623800
6202.000000;0.623422
6201.000000;0.623012
6200.000000;0.622443
6199.000000;0.621709
6198.000000;0.620951
6197.000000;0.620342
6196.000000;0.619915
6195.000000;0.619510
6194.000000;0.618930
6193.000000;0.618153
6192.000000;0.617332
6191.000000;0.616597
6190.000000;0.615914
6189.000000;0.615186
6188.000000;0.614391
6187.000000;0.613577
6186.000000;0.612775
6185.000000;0.611987
6184.000000;0.611241
6183.000000;0.610565
6182.000000;0.609938
6181.000000;0.609312
6180.000000;0.608684
6179.000000;0.608091
6178.000000;0.607534
6177.000000;0.606952
6176.000000;0.606283
6175.000000;0.605519
6174.000000;0.604698
6173.000000;0.603899
6172.000000;0.603210
6171.000000;0.602665
6170.000000;0.602199
6169.000000;0.601709
6168.000000;0.601166
6167.000000;0.600626
6166.000000;0.600136
6165.000000;0.599680
6164.000000;0.599226
6163.000000;0.598780
6162.000000;0.598352
6161.000000;0.597919
6160.000000;0.597442
6159.000000;0.596919
6158.000000;0.596359
6157.000000;0.595750
6156.000000;0.595073
6155.000000;0.594356
6154.000000;0.593669
6153.000000;0.593047
6152.000000;0.592436
6151.000000;0.591743
6150.000000;0.590929
6149.000000;0.590056
6148.000000;0.589229
6147.000000;0.588516
6146.000000;0.587914
6145.000000;0.587369
6144.000000;0.586827
6143.000000;0.586266
6142.000000;0.585722
6141.000000;0.585252
6140.000000;0.584874
6139.000000;0.584535
6138.000000;0.584151
6137.000000;0.583682
6136.000000;0.583148
6135.000000;0.582592
6134.000000;0.582056
6133.000000;0.581571
6132.000000;0.581121
6131.000000;0.580622
6130.000000;0.579985
6129.000000;0.579230
6128.000000;0.578476
6127.000000;0.577826
6126.000000;0.577274
6125.000000;0.576761
6124.000000;0.576255
6123.000000;0.575759
6122.000000;0.575288
6121.000000;0.574868
6120.000000;0.574532
6119.000000;0.574248
6118.000000;0.573899
6117.000000;0.573385
6116.000000;0.572738
6115.000000;0.572090
6114.000000;0.571514
6113.000000;0.570971
6112.000000;0.570400
6111.000000;0.569814
6110.000000;0.569265
6109.000000;0.568756
6108.000000;0.568221
6107.000000;0.567588
6106.000000;0.566858
6105.000000;0.566100
6104.000000;0.565394
6103.000000;0.564779
6102.000000;0.564257
6101.000000;0.563821
6100.000000;0.563457
6099.000000;0.563119
6098.000000;0.562752
6097.000000;0.562342
6096.000000;0.561927
6095.000000;0.561554
6094.000000;0.561251
6093.000000;0.561028
6092.000000;0.560869
6091.000000;0.560687
6090.000000;0.560365
6089.000000;0.559857
6088.000000;0.559235
6087.000000;0.558583
6086.000000;0.557898
6085.000000;0.557133
6084.000000;0.556310
6083.000000;0.555516
6082.000000;0.554811
6081.000000;0.554201
6080.000000;0.553688
6079.000000;0.553284
6078.000000;0.552964
6077.000000;0.552657
6076.000000;0.552309
6075.000000;0.551914
6074.000000;0.551483
6073.000000;0.551001
6072.000000;0.550451
6071.000000;0.549859
6070.000000;0.549303
6069.000000;0.548854
6068.000000;0.548508
6067.000000;0.548160
6066.000000;0.547675
6065.000000;0.547022
6064.000000;0.546344
6063.000000;0.545834
6062.000000;0.545545
6061.000000;0.545339
6060.000000;0.545036
6059.000000;0.544586
6058.000000;0.544072
6057.000000;0.543596
6056.000000;0.543185
6055.000000;0.542806
6054.000000;0.542424
6053.000000;0.542023
6052.000000;0.541600
6051.000000;0.541162
6050.000000;0.540746
6049.000000;0.540402
6048.000000;0.540141
6047.000000;0.539894
6046.000000;0.539545
6045.000000;0.539028
6044.000000;0.538385
6043.000000;0.537727
6042.000000;0.537129
6041.000000;0.536587
6040.000000;0.536071
6039.000000;0.535585
6038.000000;0.535166
6037.000000;0.534811
6036.000000;0.534432
6035.000000;0.533921
6034.000000;0.533286
6033.000000;0.532683
6032.000000;0.532280
6031.000000;0.532088
6030.000000;0.531958
6029.000000;0.531748
6028.000000;0.531461
6027.000000;0.531209
6026.000000;0.531070
6025.000000;0.530992
6024.000000;0.530831
6023.000000;0.530453
6022.000000;0.529847
6021.000000;0.529140
6020.000000;0.528505
6019.000000;0.528041
6018.000000;0.527749
6017.000000;0.527584
6016.000000;0.527501
6015.000000;0.527436
6014.000000;0.527319
6013.000000;0.527102
6012.000000;0.526770
6011.000000;0.526308
6010.000000;0.525720
6009.000000;0.525088
6008.000000;0.524549
6007.000000;0.524160
6006.000000;0.523838
6005.000000;0.523463
6004.000000;0.523027
6003.000000;0.522627
6002.000000;0.522354
6001.000000;0.522208
6000.000000;0.522098
5999.000000;0.521895
5998.000000;0.521496
5997.000000;0.520911
5996.000000;0.520258
5995.000000;0.519649
5994.000000;0.519116
5993.000000;0.518664
5992.000000;0.518329
5991.000000;0.518129
5990.000000;0.517986
5989.000000;0.517779
5988.000000;0.517477
5987.000000;0.517151
5986.000000;0.516861
5985.000000;0.516605
5984.000000;0.516365
5983.000000;0.516139
5982.000000;0.515920
5981.000000;0.515708
5980.000000;0.515537
5979.000000;0.515445
5978.000000;0.515379
5977.000000;0.515203
5976.000000;0.514851
5975.000000;0.514416
5974.000000;0.514038
5973.000000;0.513753
5972.000000;0.513481
5971.000000;0.513158
5970.000000;0.512805
5969.000000;0.512487
5968.000000;0.512245
5967.000000;0.512080
5966.000000;0.511969
5965.000000;0.511883
5964.000000;0.511795
5963.000000;0.511684
5962.000000;0.511533
5961.000000;0.511330
5960.000000;0.511069
5959.000000;0.510762
5958.000000;0.510432
5957.000000;0.510088
5956.000000;0.509712
5955.000000;0.509279
5954.000000;0.508802
5953.000000;0.508345
5952.000000;0.507966
5951.000000;0.507653
5950.000000;0.507331
5949.000000;0.506961
5948.000000;0.506601
5947.000000;0.506346
5946.000000;0.506232
5945.000000;0.506207
5944.000000;0.506191
5943.000000;0.506114
5942.000000;0.505924
5941.000000;0.505606
5940.000000;0.505223
5939.000000;0.504891
5938.000000;0.504686
5937.000000;0.504583
5936.000000;0.504500
5935.000000;0.504385
5934.000000;0.504246
5933.000000;0.504115
5932.000000;0.504002
5931.000000;0.503890
5930.000000;0.503757
5929.000000;0.503607
5928.000000;0.503472
5927.000000;0.503376
5926.000000;0.503298
5925.000000;0.503178
5924.000000;0.502970
5923.000000;0.502682
5922.000000;0.502370
5921.000000;0.502090
5920.000000;0.501855
5919.000000;0.501636
5918.000000;0.501383
5917.000000;0.501081
5916.000000;0.500766
5915.000000;0.500500
5914.000000;0.500316
5913.000000;0.500191
5912.000000;0.500084
5911.000000;0.499985
5910.000000;0.499927
5909.000000;0.499945
5908.000000;0.500028
5907.000000;0.500108
5906.000000;0.500106
5905.000000;0.499980
5904.000000;0.499728
5903.000000;0.499366
5902.000000;0.498929
5901.000000;0.498487
5900.000000;0.498129
5899.000000;0.497908
5898.000000;0.497805
5897.000000;0.497746
5896.000000;0.497647
5895.000000;0.497468
5894.000000;0.497244
5893.000000;0.497058
5892.000000;0.496980
5891.000000;0.497008
5890.000000;0.497069
5889.000000;0.497087
5888.000000;0.497020
5887.000000;0.496854
5886.000000;0.496602
5885.000000;0.496301
5884.000000;0.495997
5883.000000;0.495716
5882.000000;0.495476
5881.000000;0.495327
5880.000000;0.495320
5879.000000;0.495426
5878.000000;0.495524
5877.000000;0.495506
5876.000000;0.495377
5875.000000;0.495226
5874.000000;0.495106
5873.000000;0.494994
5872.000000;0.494845
5871.000000;0.494647
5870.000000;0.494422
5869.000000;0.494211
5868.000000;0.494055
5867.000000;0.493977
5866.000000;0.493965
5865.000000;0.493984
5864.000000;0.494023
5863.000000;0.494098
5862.000000;0.494229
5861.000000;0.494404
5860.000000;0.494570
5859.000000;0.494658
5858.000000;0.494628
5857.000000;0.494504
5856.000000;0.494359
5855.000000;0.494240
5854.000000;0.494123
5853.000000;0.493940
5852.000000;0.493657
5851.000000;0.493314
5850.000000;0.493006
5849.000000;0.492821
5848.000000;0.492782
5847.000000;0.492821
5846.000000;0.492825
5845.000000;0.492719
5844.000000;0.492528
5843.000000;0.492352
5842.000000;0.492275
5841.000000;0.492303
5840.000000;0.492373
5839.000000;0.492424
5838.000000;0.492453
5837.000000;0.492504
5836.000000;0.492615
5835.000000;0.492771
5834.000000;0.492922
5833.000000;0.493043
5832.000000;0.493150
5831.000000;0.493269
5830.000000;0.493399
5829.000000;0.493522
5828.000000;0.493615
5827.000000;0.493661
5826.000000;0.493653
5825.000000;0.493601
5824.000000;0.493536
5823.000000;0.493493
5822.000000;0.493495
5821.000000;0.493532
5820.000000;0.493549
5819.000000;0.493473
5818.000000;0.493295
5817.000000;0.493124
5816.000000;0.493113
5815.000000;0.493311
5814.000000;0.493613
5813.000000;0.493864
5812.000000;0.493993
5811.000000;0.494043
5810.000000;0.494101
5809.000000;0.494214
5808.000000;0.494357
5807.000000;0.494470
5806.000000;0.494535
5805.000000;0.494613
5804.000000;0.494770
5803.000000;0.494990
5802.000000;0.495191
5801.000000;0.495316
5800.000000;0.495380
5799.000000;0.495407
5798.000000;0.495393
5797.000000;0.495336
5796.000000;0.495267
5795.000000;0.495232
5794.000000;0.495265
5793.000000;0.495407
5792.000000;0.495679
5791.000000;0.496028
5790.000000;0.496340
5789.000000;0.496539
5788.000000;0.496637
5787.000000;0.496685
5786.000000;0.496729
5785.000000;0.496833
5784.000000;0.497084
5783.000000;0.497506
5782.000000;0.498005
5781.000000;0.498473
5780.000000;0.498882
5779.000000;0.499246
5778.000000;0.499528
5777.000000;0.499672
5776.000000;0.499706
5775.000000;0.499746
5774.000000;0.499888
5773.000000;0.500141
5772.000000;0.500453
5771.000000;0.500766
5770.000000;0.501046
5769.000000;0.501306
5768.000000;0.501596
5767.000000;0.501936
5766.000000;0.502275
5765.000000;0.502548
5764.000000;0.502751
5763.000000;0.502938
5762.000000;0.503151
5761.000000;0.503412
5760.000000;0.503755
5759.000000;0.504204
5758.000000;0.504733
5757.000000;0.505279
5756.000000;0.505792
5755.000000;0.506249
5754.000000;0.506618
5753.000000;0.506868
5752.000000;0.507030
5751.000000;0.507183
5750.000000;0.507386
5749.000000;0.507642
5748.000000;0.507924
5747.000000;0.508213
5746.000000;0.508498
5745.000000;0.508784
5744.000000;0.509096
5743.000000;0.509452
5742.000000;0.509837
5741.000000;0.510216
5740.000000;0.510562
5739.000000;0.510850
5738.000000;0.511057
5737.000000;0.511200
5736.000000;0.511351
5735.000000;0.511586
5734.000000;0.511920
5733.000000;0.512332
5732.000000;0.512820
5731.000000;0.513369
5730.000000;0.513903
5729.000000;0.514359
5728.000000;0.514797
5727.000000;0.515367
5726.000000;0.516122
5725.000000;0.516926
5724.000000;0.517600
5723.000000;0.518092
5722.000000;0.518486
5721.000000;0.518878
5720.000000;0.519297
5719.000000;0.519731
5718.000000;0.520159
5717.000000;0.520572
5716.000000;0.520971
5715.000000;0.521371
5714.000000;0.521787
5713.000000;0.522231
5712.000000;0.522710
5711.000000;0.523231
5710.000000;0.523781
5709.000000;0.524317
5708.000000;0.524796
5707.000000;0.525215
5706.000000;0.525622
5705.000000;0.526072
5704.000000;0.526570
5703.000000;0.527060
5702.000000;0.527491
5701.000000;0.527897
5700.000000;0.528382
5699.000000;0.529024
5698.000000;0.529805
5697.000000;0.530625
5696.000000;0.531389
5695.000000;0.532062
5694.000000;0.532652
5693.000000;0.533182
5692.000000;0.533670
5691.000000;0.534143
5690.000000;0.534642
5689.000000;0.535207
5688.000000;0.535839
5687.000000;0.536481
5686.000000;0.537070
5685.000000;0.537604
5684.000000;0.538131
5683.000000;0.538688
5682.000000;0.539265
5681.000000;0.539851
5680.000000;0.540451
5679.000000;0.541051
5678.000000;0.541625
5677.000000;0.542185
5676.000000;0.542790
5675.000000;0.543465
5674.000000;0.544135
5673.000000;0.544708
5672.000000;0.545166
5671.000000;0.545553
5670.000000;0.545908
5669.000000;0.546245
5668.000000;0.546575
5667.000000;0.546911
5666.000000;0.547262
5665.000000;0.547669
5664.000000;0.548179
5663.000000;0.548765
5662.000000;0.549312
5661.000000;0.549757
5660.000000;0.550189
5659.000000;0.550755
5658.000000;0.551456
5657.000000;0.552134
5656.000000;0.552640
5655.000000;0.552977
5654.000000;0.553262
5653.000000;0.553605
5652.000000;0.554028
5651.000000;0.554485
5650.000000;0.554915
5649.000000;0.555299
5648.000000;0.555647
5647.000000;0.555951
5646.000000;0.556188
5645.000000;0.556388
5644.000000;0.556646
5643.000000;0.557032
5642.000000;0.557527
5641.000000;0.558082
5640.000000;0.558692
5639.000000;0.559321
5638.000000;0.559816
5637.000000;0.560015
5636.000000;0.559948
5635.000000;0.559848
5634.000000;0.559935
5633.000000;0.560244
5632.000000;0.560663
5631.000000;0.561075
5630.000000;0.561426
5629.000000;0.561716
5628.000000;0.561971
5627.000000;0.562219
5626.000000;0.562470
5625.000000;0.562723
5624.000000;0.562985
5623.000000;0.563259
5622.000000;0.563526
5621.000000;0.563781
5620.000000;0.564056
5619.000000;0.564369
5618.000000;0.564673
5617.000000;0.564900
5616.000000;0.565047
5615.000000;0.565175
5614.000000;0.565321
5613.000000;0.565457
5612.000000;0.565537
5611.000000;0.565549
5610.000000;0.565527
5609.000000;0.565535
5608.000000;0.565614
5607.000000;0.565730
5606.000000;0.565800
5605.000000;0.565790
5604.000000;0.565770
5603.000000;0.565831
5602.000000;0.565988
5601.000000;0.566172
5600.000000;0.566289
5599.000000;0.566259
5598.000000;0.566044
5597.000000;0.565692
5596.000000;0.565328
5595.000000;0.565053
5594.000000;0.564882
5593.000000;0.564798
5592.000000;0.564809
5591.000000;0.564890
5590.000000;0.564943
5589.000000;0.564896
5588.000000;0.564798
5587.000000;0.564737
5586.000000;0.564705
5585.000000;0.564622
5584.000000;0.564465
5583.000000;0.564276
5582.000000;0.564081
5581.000000;0.563875
5580.000000;0.563686
5579.000000;0.563561
5578.000000;0.563476
5577.000000;0.563353
5576.000000;0.563153
5575.000000;0.562902
5574.000000;0.562647
5573.000000;0.562460
5572.000000;0.562449
5571.000000;0.562642
5570.000000;0.562864
5569.000000;0.562851
5568.000000;0.562534
5567.000000;0.562104
5566.000000;0.561761
5565.000000;0.561517
5564.000000;0.561270
5563.000000;0.560975
5562.000000;0.560662
5561.000000;0.560339
5560.000000;0.559990
5559.000000;0.559624
5558.000000;0.559284
5557.000000;0.558991
5556.000000;0.558731
5555.000000;0.558493
5554.000000;0.558266
5553.000000;0.558014
5552.000000;0.557703
5551.000000;0.557367
5550.000000;0.557087
5549.000000;0.556901
5548.000000;0.556758
5547.000000;0.556576
5546.000000;0.556325
5545.000000;0.556029
5544.000000;0.555726
5543.000000;0.555446
5542.000000;0.555218
5541.000000;0.555051
5540.000000;0.554916
5539.000000;0.554782
5538.000000;0.554626
5537.000000;0.554412
5536.000000;0.554073
5535.000000;0.553580
5534.000000;0.553010
5533.000000;0.552513
5532.000000;0.552183
5531.000000;0.551995
5530.000000;0.551863
5529.000000;0.551745
5528.000000;0.551632
5527.000000;0.551460
5526.000000;0.551143
5525.000000;0.550718
5524.000000;0.550382
5523.000000;0.550286
5522.000000;0.550309
5521.000000;0.550141
5520.000000;0.549656
5519.000000;0.549074
5518.000000;0.548720
5517.000000;0.548640
5516.000000;0.548564
5515.000000;0.548260
5514.000000;0.547797
5513.000000;0.547376
5512.000000;0.547045
5511.000000;0.546748
5510.000000;0.546541
5509.000000;0.546558
5508.000000;0.546689
5507.000000;0.546563
5506.000000;0.546034
5505.000000;0.545463
5504.000000;0.545264
5503.000000;0.545360
5502.000000;0.545310
5501.000000;0.545026
5500.000000;0.544992
5499.000000;0.545500
5498.000000;0.545984
5497.000000;0.545635
5496.000000;0.544595
5495.000000;0.543938
5494.000000;0.544290
5493.000000;0.544916
5492.000000;0.544668
5491.000000;0.543533
5490.000000;0.542585
5489.000000;0.542512
5488.000000;0.542868
5487.000000;0.542883
5486.000000;0.542499
5485.000000;0.542184
5484.000000;0.542103
5483.000000;0.542173
5482.000000;0.542553
5481.000000;0.543348
5480.000000;0.543973
5479.000000;0.543620
5478.000000;0.542503
5477.000000;0.541902
5476.000000;0.542538
5475.000000;0.543462
5474.000000;0.543348
5473.000000;0.542297
5472.000000;0.541577
5471.000000;0.541943
5470.000000;0.542939
5469.000000;0.543737
5468.000000;0.544107
5467.000000;0.544326
5466.000000;0.544516
5465.000000;0.544511
5464.000000;0.544243
5463.000000;0.544014
5462.000000;0.544184
5461.000000;0.544590
5460.000000;0.544593
5459.000000;0.543913
5458.000000;0.543120
5457.000000;0.543095
5456.000000;0.544066
5455.000000;0.545258
5454.000000;0.545707
5453.000000;0.545421
5452.000000;0.545398
5451.000000;0.546296
5450.000000;0.547387
5449.000000;0.547529
5448.000000;0.547040
5447.000000;0.547414
5446.000000;0.548937
5445.000000;0.550024
5444.000000;0.549465
5443.000000;0.548347
5442.000000;0.548747
5441.000000;0.550957
5440.000000;0.553055
5439.000000;0.553433
5438.000000;0.552662
5437.000000;0.552604
5436.000000;0.554357
5435.000000;0.557127
5434.000000;0.558900
5433.000000;0.558552
5432.000000;0.557119
5431.000000;0.556654
5430.000000;0.558049
5429.000000;0.560251
5428.000000;0.561602
5427.000000;0.561699
5426.000000;0.561570
5425.000000;0.562346
5424.000000;0.564149
5423.000000;0.566138
5422.000000;0.567638
5421.000000;0.569057
5420.000000;0.571159
5419.000000;0.573689
5418.000000;0.575481
5417.000000;0.576152
5416.000000;0.576814
5415.000000;0.578477
5414.000000;0.580374
5413.000000;0.580969
5412.000000;0.580375
5411.000000;0.580350
5410.000000;0.581898
5409.000000;0.584214
5408.000000;0.586238
5407.000000;0.588107
5406.000000;0.590456
5405.000000;0.593169
5404.000000;0.595792
5403.000000;0.598237
5402.000000;0.600560
5401.000000;0.602764
5400.000000;0.605103
5399.000000;0.607866
5398.000000;0.610691
5397.000000;0.612829
5396.000000;0.614371
5395.000000;0.616380
5394.000000;0.619413
5393.000000;0.622760
5392.000000;0.625654
5391.000000;0.628319
5390.000000;0.631311
5389.000000;0.634558
5388.000000;0.637782
5387.000000;0.641310
5386.000000;0.645376
5385.000000;0.649334
5384.000000;0.652830
5383.000000;0.656736
5382.000000;0.661689
5381.000000;0.666800
5380.000000;0.670937
5379.000000;0.674572
5378.000000;0.679080
5377.000000;0.684484
5376.000000;0.689424
5375.000000;0.693375
5374.000000;0.697393
5373.000000;0.702389
5372.000000;0.708067
5371.000000;0.713902
5370.000000;0.720036
5369.000000;0.726601
5368.000000;0.733070
5367.000000;0.739087
5366.000000;0.745101
5365.000000;0.751626
5364.000000;0.758453
5363.000000;0.765043
5362.000000;0.771355
5361.000000;0.777945
5360.000000;0.785372
5359.000000;0.793622
5358.000000;0.802047
5357.000000;0.809922
5356.000000;0.817390
5355.000000;0.825653
5354.000000;0.835406
5353.000000;0.845486
5352.000000;0.854403
5351.000000;0.862775
5350.000000;0.872391
5349.000000;0.883288
5348.000000;0.893595
5347.000000;0.902661
5346.000000;0.912607
5345.000000;0.925345
5344.000000;0.939317
5343.000000;0.951336
5342.000000;0.961007
5341.000000;0.970878
5340.000000;0.982957
5339.000000;0.996866
5338.000000;1.010991
5337.000000;1.024217
5336.000000;1.036522
5335.000000;1.048921
5334.000000;1.062787
5333.000000;1.078409
5332.000000;1.094350
5331.000000;1.109084
5330.000000;1.122978
5329.000000;1.137781
5328.000000;1.154186
5327.000000;1.171029
5326.000000;1.187223
5325.000000;1.203148
5324.000000;1.219584
5323.000000;1.236556
5322.000000;1.253842
5321.000000;1.271439
5320.000000;1.289166
5319.000000;1.306553
5318.000000;1.323537
5317.000000;1.340475
5316.000000;1.357299
5315.000000;1.373689
5314.000000;1.390058
5313.000000;1.407103
5312.000000;1.424372
5311.000000;1.440715
5310.000000;1.456182
5309.000000;1.471990
5308.000000;1.488394
5307.000000;1.504089
5306.000000;1.518198
5305.000000;1.531350
5304.000000;1.544209
5303.000000;1.556470
5302.000000;1.567978
5301.000000;1.579579
5300.000000;1.592010
5299.000000;1.604738
5298.000000;1.616700
5297.000000;1.627454
5296.000000;1.636863
5295.000000;1.644539
5294.000000;1.650440
5293.000000;1.655488
5292.000000;1.660971
5291.000000;1.667436
5290.000000;1.674206
5289.000000;1.679925
5288.000000;1.683837
5287.000000;1.686627
5286.000000;1.689644
5285.000000;1.693285
5284.000000;1.696778
5283.000000;1.699628
5282.000000;1.702277
5281.000000;1.704997
5280.000000;1.707298
5279.000000;1.709076
5278.000000;1.711106
5277.000000;1.713534
5276.000000;1.715015
5275.000000;1.714612
5274.000000;1.713643
5273.000000;1.714096
5272.000000;1.716068
5271.000000;1.717992
5270.000000;1.718666
5269.000000;1.717976
5268.000000;1.716376
5267.000000;1.714737
5266.000000;1.714154
5265.000000;1.714892
5264.000000;1.715816
5263.000000;1.715872
5262.000000;1.715674
5261.000000;1.716438
5260.000000;1.717968
5259.000000;1.719108
5258.000000;1.719535
5257.000000;1.719820
5256.000000;1.720186
5255.000000;1.720277
5254.000000;1.719910
5253.000000;1.718973
5252.000000;1.717334
5251.000000;1.715808
5250.000000;1.716218
5249.000000;1.719199
5248.000000;1.722711
5247.000000;1.724088
5246.000000;1.723110
5245.000000;1.721546
5244.000000;1.720330
5243.000000;1.719216
5242.000000;1.718707
5241.000000;1.720061
5240.000000;1.723050
5239.000000;1.725631
5238.000000;1.726477
5237.000000;1.726344
5236.000000;1.726469
5235.000000;1.726938
5234.000000;1.727177
5233.000000;1.727010
5232.000000;1.726679
5231.000000;1.726305
5230.000000;1.725860
5229.000000;1.725520
5228.000000;1.725690
5227.000000;1.726617
5226.000000;1.727953
5225.000000;1.728728
5224.000000;1.728218
5223.000000;1.726962
5222.000000;1.726390
5221.000000;1.727240
5220.000000;1.728685
5219.000000;1.729332
5218.000000;1.728718
5217.000000;1.727456
5216.000000;1.726243
5215.000000;1.725291
5214.000000;1.724523
5213.000000;1.723870
5212.000000;1.723285
5211.000000;1.722772
5210.000000;1.722571
5209.000000;1.723135
5208.000000;1.724669
5207.000000;1.726656
5206.000000;1.727846
5205.000000;1.727101
5204.000000;1.724749
5203.000000;1.722767
5202.000000;1.723002
5201.000000;1.725308
5200.000000;1.727832
5199.000000;1.729174
5198.000000;1.729590
5197.000000;1.729927
5196.000000;1.730342
5195.000000;1.730480
5194.000000;1.730240
5193.000000;1.729897
5192.000000;1.729771
5191.000000;1.729972
5190.000000;1.730216
5189.000000;1.729935
5188.000000;1.729007
5187.000000;1.728170
5186.000000;1.728030
5185.000000;1.727997
5184.000000;1.727239
5183.000000;1.726414
5182.000000;1.727006
5181.000000;1.728968
5180.000000;1.730596
5179.000000;1.731132
5178.000000;1.731862
5177.000000;1.733822
5176.000000;1.735875
5175.000000;1.736249
5174.000000;1.734836
5173.000000;1.732694
5172.000000;1.730332
5171.000000;1.727867
5170.000000;1.726094
5169.000000;1.725981
5168.000000;1.727412
5167.000000;1.729401
5166.000000;1.731179
5165.000000;1.732271
5164.000000;1.732142
5163.000000;1.730869
5162.000000;1.729714
5161.000000;1.729925
5160.000000;1.731275
5159.000000;1.732686
5158.000000;1.733878
5157.000000;1.735291
5156.000000;1.736604
5155.000000;1.736599
5154.000000;1.734802
5153.000000;1.732300
5152.000000;1.730634
5151.000000;1.730537
5150.000000;1.731807
5149.000000;1.733719
5148.000000;1.735410
5147.000000;1.736268
5146.000000;1.736219
5145.000000;1.735670
5144.000000;1.735284
5143.000000;1.735705
5142.000000;1.736967
5141.000000;1.738067
5140.000000;1.737834
5139.000000;1.736533
5138.000000;1.735855
5137.000000;1.736869
5136.000000;1.738712
5135.000000;1.739842
5134.000000;1.739920
5133.000000;1.739699
5132.000000;1.739655
5131.000000;1.739625
5130.000000;1.739408
5129.000000;1.738934
5128.000000;1.738076
5127.000000;1.736907
5126.000000;1.735892
5125.000000;1.735374
5124.000000;1.735305
5123.000000;1.735771
5122.000000;1.737060
5121.000000;1.738725
5120.000000;1.739417
5119.000000;1.738497
5118.000000;1.737081
5117.000000;1.736473
5116.000000;1.736318
5115.000000;1.735439
5114.000000;1.733978
5113.000000;1.733361
5112.000000;1.734303
5111.000000;1.736049
5110.000000;1.737569
5109.000000;1.738502
5108.000000;1.738807
5107.000000;1.738524
5106.000000;1.738223
5105.000000;1.738801
5104.000000;1.740432
5103.000000;1.742194
5102.000000;1.742971
5101.000000;1.742445
5100.000000;1.741138
5099.000000;1.739864
5098.000000;1.739241
5097.000000;1.739487
5096.000000;1.740458
5095.000000;1.741882
5094.000000;1.743396
5093.000000;1.744358
5092.000000;1.744079
5091.000000;1.742620
5090.000000;1.740948
5089.000000;1.739878
5088.000000;1.739264
5087.000000;1.738657
5086.000000;1.738189
5085.000000;1.738234
5084.000000;1.738646
5083.000000;1.738996
5082.000000;1.739224
5081.000000;1.739509
5080.000000;1.739864
5079.000000;1.740483
5078.000000;1.741941
5077.000000;1.744272
5076.000000;1.746326
5075.000000;1.747002
5074.000000;1.746754
5073.000000;1.746781
5072.000000;1.747044
5071.000000;1.746225
5070.000000;1.743686
5069.000000;1.740463
5068.000000;1.738173
5067.000000;1.737799
5066.000000;1.739433
5065.000000;1.742178
5064.000000;1.744204
5063.000000;1.744073
5062.000000;1.742485
5061.000000;1.741760
5060.000000;1.743125
5059.000000;1.745233
5058.000000;1.745786
5057.000000;1.744037
5056.000000;1.741153
5055.000000;1.738699
5054.000000;1.737578
5053.000000;1.738073
5052.000000;1.739926
5051.000000;1.742222
5050.000000;1.743848
5049.000000;1.744370
5048.000000;1.744230
5047.000000;1.744007
5046.000000;1.743701
5045.000000;1.742941
5044.000000;1.741730
5043.000000;1.740658
5042.000000;1.740292
5041.000000;1.740660
5040.000000;1.741521
5039.000000;1.742854
5038.000000;1.744616
5037.000000;1.746167
5036.000000;1.746650
5035.000000;1.746131
5034.000000;1.745764
5033.000000;1.746436
5032.000000;1.747734
5031.000000;1.748679
5030.000000;1.749002
5029.000000;1.749108
5028.000000;1.749069
5027.000000;1.748333
5026.000000;1.746626
5025.000000;1.744614
5024.000000;1.743324
5023.000000;1.743121
5022.000000;1.743383
5021.000000;1.743046
5020.000000;1.741521
5019.000000;1.739305
5018.000000;1.737710
5017.000000;1.737821
5016.000000;1.739572
5015.000000;1.741726
5014.000000;1.742789
5013.000000;1.742201
5012.000000;1.740868
5011.000000;1.740442
5010.000000;1.741783
5009.000000;1.744081
5008.000000;1.745696
5007.000000;1.745882
5006.000000;1.745348
5005.000000;1.745092
5004.000000;1.745286
5003.000000;1.745414
5002.000000;1.744909
5001.000000;1.743551
5000.000000;1.741484
4999.000000;1.739448
4998.000000;1.738452
4997.000000;1.738921
4996.000000;1.740451
4995.000000;1.742457
4994.000000;1.744459
4993.000000;1.745593
4992.000000;1.744776
4991.000000;1.742045
4990.000000;1.739081
4989.000000;1.737622
4988.000000;1.737728
4987.000000;1.738165
4986.000000;1.738085
4985.000000;1.737582
4984.000000;1.736878
4983.000000;1.735909
4982.000000;1.734776
4981.000000;1.733901
4980.000000;1.733564
4979.000000;1.733704
4978.000000;1.734181
4977.000000;1.734899
4976.000000;1.735634
4975.000000;1.736155
4974.000000;1.736505
4973.000000;1.736793
4972.000000;1.736711
4971.000000;1.735709
4970.000000;1.733709
4969.000000;1.731270
4968.000000;1.729155
4967.000000;1.727943
4966.000000;1.727930
4965.000000;1.728912
4964.000000;1.730071
4963.000000;1.730532
4962.000000;1.730206
4961.000000;1.729793
4960.000000;1.729998
4959.000000;1.730905
4958.000000;1.732006
4957.000000;1.732571
4956.000000;1.732065
4955.000000;1.730503
4954.000000;1.728327
4953.000000;1.725857
4952.000000;1.723130
4951.000000;1.720418
4950.000000;1.718541
4949.000000;1.718186
4948.000000;1.719146
4947.000000;1.720540
4946.000000;1.721659
4945.000000;1.722270
4944.000000;1.722307
4943.000000;1.721683
4942.000000;1.720410
4941.000000;1.718581
4940.000000;1.716364
4939.000000;1.714234
4938.000000;1.712901
4937.000000;1.712602
4936.000000;1.712631
4935.000000;1.711994
4934.000000;1.710432
4933.000000;1.708465
4932.000000;1.706665
4931.000000;1.705309
4930.000000;1.704527
4929.000000;1.704219
4928.000000;1.703904
4927.000000;1.703226
4926.000000;1.702546
4925.000000;1.702446
4924.000000;1.702624
4923.000000;1.701948
4922.000000;1.699813
4921.000000;1.696833
4920.000000;1.693957
4919.000000;1.691538
4918.000000;1.689674
4917.000000;1.688863
4916.000000;1.689590
4915.000000;1.691415
4914.000000;1.692976
4913.000000;1.693035
4912.000000;1.691303
4911.000000;1.688346
4910.000000;1.685056
4909.000000;1.682208
4908.000000;1.680127
4907.000000;1.678583
4906.000000;1.677227
4905.000000;1.676238
4904.000000;1.676233
4903.000000;1.677304
4902.000000;1.678368
4901.000000;1.677890
4900.000000;1.675321
4899.000000;1.671531
4898.000000;1.667838
4897.000000;1.664971
4896.000000;1.662965
4895.000000;1.661505
4894.000000;1.660050
4893.000000;1.658074
4892.000000;1.655633
4891.000000;1.653413
4890.000000;1.651880
4889.000000;1.650635
4888.000000;1.648974
4887.000000;1.646836
4886.000000;1.644672
4885.000000;1.642567
4884.000000;1.640193
4883.000000;1.637695
4882.000000;1.635905
4881.000000;1.635320
4880.000000;1.635335
4879.000000;1.634826
4878.000000;1.633250
4877.000000;1.630887
4876.000000;1.628312
4875.000000;1.625993
4874.000000;1.624200
4873.000000;1.622958
4872.000000;1.622051
4871.000000;1.621172
4870.000000;1.620020
4869.000000;1.618372
4868.000000;1.616268
4867.000000;1.614049
4866.000000;1.611976
4865.000000;1.609941
4864.000000;1.607891
4863.000000;1.606240
4862.000000;1.605243
4861.000000;1.604084
4860.000000;1.601442
4859.000000;1.597225
4858.000000;1.592942
4857.000000;1.589973
4856.000000;1.588234
4855.000000;1.586958
4854.000000;1.585962
4853.000000;1.585378
4852.000000;1.584665
4851.000000;1.582942
4850.000000;1.580249
4849.000000;1.577593
4848.000000;1.575677
4847.000000;1.574202
4846.000000;1.572543
4845.000000;1.570499
4844.000000;1.568191
4843.000000;1.565689
4842.000000;1.563044
4841.000000;1.560405
4840.000000;1.557864
4839.000000;1.555348
4838.000000;1.552750
4837.000000;1.549987
4836.000000;1.546912
4835.000000;1.543397
4834.000000;1.539623
4833.000000;1.536100
4832.000000;1.533287
4831.000000;1.531248
4830.000000;1.529674
4829.000000;1.528091
4828.000000;1.526039
4827.000000;1.523293
4826.000000;1.520069
4825.000000;1.516952
4824.000000;1.514480
4823.000000;1.512738
4822.000000;1.511318
4821.000000;1.509686
4820.000000;1.507605
4819.000000;1.505242
4818.000000;1.502895
4817.000000;1.500682
4816.000000;1.498485
4815.000000;1.496068
4814.000000;1.493201
4813.000000;1.489786
4812.000000;1.486077
4811.000000;1.482632
4810.000000;1.479881
4809.000000;1.477739
4808.000000;1.475860
4807.000000;1.474141
4806.000000;1.472662
4805.000000;1.471194
4804.000000;1.469214
4803.000000;1.466606
4802.000000;1.463922
4801.000000;1.461618
4800.000000;1.459388
4799.000000;1.456587
4798.000000;1.453113
4797.000000;1.449501
4796.000000;1.446279
4795.000000;1.443553
4794.000000;1.441142
4793.000000;1.438819
4792.000000;1.436410
4791.000000;1.433906
4790.000000;1.431526
4789.000000;1.429478
4788.000000;1.427674
4787.000000;1.425790
4786.000000;1.423605
4785.000000;1.421159
4784.000000;1.418612
4783.000000;1.416058
4782.000000;1.413426
4781.000000;1.410498
4780.000000;1.407107
4779.000000;1.403433
4778.000000;1.400017
4777.000000;1.397299
4776.000000;1.395156
4775.000000;1.393003
4774.000000;1.390347
4773.000000;1.387212
4772.000000;1.384082
4771.000000;1.381488
4770.000000;1.379494
4769.000000;1.377527
4768.000000;1.374857
4767.000000;1.371379
4766.000000;1.367745
4765.000000;1.364635
4764.000000;1.362118
4763.000000;1.359863
4762.000000;1.357761
4761.000000;1.356010
4760.000000;1.354627
4759.000000;1.353173
4758.000000;1.351067
4757.000000;1.348098
4756.000000;1.344619
4755.000000;1.341274
4754.000000;1.338505
4753.000000;1.336252
4752.000000;1.334135
4751.000000;1.331925
4750.000000;1.329715
4749.000000;1.327628
4748.000000;1.325590
4747.000000;1.323501
4746.000000;1.321410
4745.000000;1.319352
4744.000000;1.317197
4743.000000;1.314853
4742.000000;1.312413
4741.000000;1.309901
4740.000000;1.307093
4739.000000;1.303914
4738.000000;1.300829
4737.000000;1.298450
4736.000000;1.296784
4735.000000;1.295208
4734.000000;1.293230
4733.000000;1.290941
4732.000000;1.288668
4731.000000;1.286478
4730.000000;1.284201
4729.000000;1.281751
4728.000000;1.279225
4727.000000;1.276767
4726.000000;1.274426
4725.000000;1.272116
4724.000000;1.269684
4723.000000;1.267096
4722.000000;1.264529
4721.000000;1.262194
4720.000000;1.260065
4719.000000;1.257902
4718.000000;1.255539
4717.000000;1.253039
4716.000000;1.250593
4715.000000;1.248371
4714.000000;1.246435
4713.000000;1.244685
4712.000000;1.242881
4711.000000;1.240850
4710.000000;1.238672
4709.000000;1.236584
4708.000000;1.234722
4707.000000;1.233036
4706.000000;1.231386
4705.000000;1.229569
4704.000000;1.227370
4703.000000;1.224799
4702.000000;1.222272
4701.000000;1.220307
4700.000000;1.219023
4699.000000;1.218088
4698.000000;1.217160
4697.000000;1.216136
4696.000000;1.214914
4695.000000;1.213213
4694.000000;1.210854
4693.000000;1.208076
4692.000000;1.205390
4691.000000;1.203161
4690.000000;1.201449
4689.000000;1.200153
4688.000000;1.199142
4687.000000;1.198224
4686.000000;1.197122
4685.000000;1.195616
4684.000000;1.193723
4683.000000;1.191696
4682.000000;1.189759
4681.000000;1.187840
4680.000000;1.185704
4679.000000;1.183396
4678.000000;1.181386
4677.000000;1.180074
4676.000000;1.179235
4675.000000;1.178169
4674.000000;1.176445
4673.000000;1.174291
4672.000000;1.172218
4671.000000;1.170467
4670.000000;1.168932
4669.000000;1.167413
4668.000000;1.165801
4667.000000;1.164114
4666.000000;1.162490
4665.000000;1.161119
4664.000000;1.160058
4663.000000;1.159138
4662.000000;1.158118
4661.000000;1.156896
4660.000000;1.155562
4659.000000;1.154289
4658.000000;1.153201
4657.000000;1.152248
4656.000000;1.151181
4655.000000;1.149763
4654.000000;1.148058
4653.000000;1.146416
4652.000000;1.145097
4651.000000;1.143984
4650.000000;1.142746
4649.000000;1.141222
4648.000000;1.139556
4647.000000;1.138011
4646.000000;1.136726
4645.000000;1.135631
4644.000000;1.134588
4643.000000;1.133589
4642.000000;1.132793
4641.000000;1.132269
4640.000000;1.131779
4639.000000;1.130959
4638.000000;1.129734
4637.000000;1.128384
4636.000000;1.127169
4635.000000;1.126090
4634.000000;1.125071
4633.000000;1.124132
4632.000000;1.123238
4631.000000;1.122206
4630.000000;1.120983
4629.000000;1.119865
4628.000000;1.119160
4627.000000;1.118743
4626.000000;1.118186
4625.000000;1.117259
4624.000000;1.116068
4623.000000;1.114770
4622.000000;1.113469
4621.000000;1.112366
4620.000000;1.111662
4619.000000;1.111207
4618.000000;1.110562
4617.000000;1.109574
4616.000000;1.108628
4615.000000;1.108122
4614.000000;1.107931
4613.000000;1.107623
4612.000000;1.107045
4611.000000;1.106392
4610.000000;1.105790
4609.000000;1.105115
4608.000000;1.104256
4607.000000;1.103281
4606.000000;1.102280
4605.000000;1.101275
4604.000000;1.100374
4603.000000;1.099820
4602.000000;1.099696
4601.000000;1.099697
4600.000000;1.099371
4599.000000;1.098584
4598.000000;1.097624
4597.000000;1.096869
4596.000000;1.096469
4595.000000;1.096349
4594.000000;1.096377
4593.000000;1.096427
4592.000000;1.096361
4591.000000;1.096079
4590.000000;1.095617
4589.000000;1.095134
4588.000000;1.094755
4587.000000;1.094454
4586.000000;1.094115
4585.000000;1.093693
4584.000000;1.093245
4583.000000;1.092792
4582.000000;1.092242
4581.000000;1.091543
4580.000000;1.090873
4579.000000;1.090557
4578.000000;1.090752
4577.000000;1.091260
4576.000000;1.091710
4575.000000;1.091881
4574.000000;1.091816
4573.000000;1.091683
4572.000000;1.091605
4571.000000;1.091593
4570.000000;1.091560
4569.000000;1.091387
4568.000000;1.091058
4567.000000;1.090736
4566.000000;1.090631
4565.000000;1.090780
4564.000000;1.091014
4563.000000;1.091157
4562.000000;1.091195
4561.000000;1.091236
4560.000000;1.091387
4559.000000;1.091738
4558.000000;1.092358
4557.000000;1.093183
4556.000000;1.093979
4555.000000;1.094553
4554.000000;1.094983
4553.000000;1.095517
4552.000000;1.096228
4551.000000;1.096931
4550.000000;1.097453
4549.000000;1.097849
4548.000000;1.098255
4547.000000;1.098696
4546.000000;1.099178
4545.000000;1.099836
4544.000000;1.100768
4543.000000;1.101767
4542.000000;1.102456
4541.000000;1.102748
4540.000000;1.103006
4539.000000;1.103624
4538.000000;1.104589
4537.000000;1.105556
4536.000000;1.106285
4535.000000;1.106834
4534.000000;1.107359
4533.000000;1.107867
4532.000000;1.108266
4531.000000;1.108562
4530.000000;1.108921
4529.000000;1.109515
4528.000000;1.110347
4527.000000;1.111280
4526.000000;1.112216
4525.000000;1.113184
4524.000000;1.114181
4523.000000;1.115011
4522.000000;1.115439
4521.000000;1.115538
4520.000000;1.115699
4519.000000;1.116215
4518.000000;1.116971
4517.000000;1.117657
4516.000000;1.118213
4515.000000;1.118868
4514.000000;1.119768
4513.000000;1.120754
4512.000000;1.121550
4511.000000;1.122049
4510.000000;1.122353
4509.000000;1.122638
4508.000000;1.123043
4507.000000;1.123624
4506.000000;1.124321
4505.000000;1.125002
4504.000000;1.125601
4503.000000;1.126203
4502.000000;1.126994
4501.000000;1.128122
4500.000000;1.129568
4499.000000;1.131091
4498.000000;1.132358
4497.000000;1.133237
4496.000000;1.133939
4495.000000;1.134772
4494.000000;1.135767
4493.000000;1.136693
4492.000000;1.137426
4491.000000;1.138129
4490.000000;1.138991
4489.000000;1.139989
4488.000000;1.141025
4487.000000;1.142126
4486.000000;1.143349
4485.000000;1.144598
4484.000000;1.145736
4483.000000;1.146841
4482.000000;1.148157
4481.000000;1.149791
4480.000000;1.151579
4479.000000;1.153270
4478.000000;1.154732
4477.000000;1.155996
4476.000000;1.157200
4475.000000;1.158530
4474.000000;1.160105
4473.000000;1.161901
4472.000000;1.163794
4471.000000;1.165673
4470.000000;1.167457
4469.000000;1.169104
4468.000000;1.170659
4467.000000;1.172276
4466.000000;1.174062
4465.000000;1.175924
4464.000000;1.177683
4463.000000;1.179305
4462.000000;1.180949
4461.000000;1.182778
4460.000000;1.184847
4459.000000;1.187114
4458.000000;1.189461
4457.000000;1.191716
4456.000000;1.193789
4455.000000;1.195791
4454.000000;1.197898
4453.000000;1.200104
4452.000000;1.202230
4451.000000;1.204160
4450.000000;1.205948
4449.000000;1.207689
4448.000000;1.209457
4447.000000;1.211390
4446.000000;1.213673
4445.000000;1.216319
4444.000000;1.219041
4443.000000;1.221445
4442.000000;1.223329
4441.000000;1.224832
4440.000000;1.226362
4439.000000;1.228373
4438.000000;1.231040
4437.000000;1.234098
4436.000000;1.237073
4435.000000;1.239715
4434.000000;1.242135
4433.000000;1.244523
4432.000000;1.246868
4431.000000;1.249051
4430.000000;1.251078
4429.000000;1.253111
4428.000000;1.255360
4427.000000;1.258012
4426.000000;1.261169
4425.000000;1.264696
4424.000000;1.268165
4423.000000;1.271083
4422.000000;1.273294
4421.000000;1.275131
4420.000000;1.277145
4419.000000;1.279617
4418.000000;1.282322
4417.000000;1.284831
4416.000000;1.287054
4415.000000;1.289383
4414.000000;1.292220
4413.000000;1.295475
4412.000000;1.298708
4411.000000;1.301675
4410.000000;1.304535
4409.000000;1.307523
4408.000000;1.310662
4407.000000;1.313849
4406.000000;1.316991
4405.000000;1.319940
4404.000000;1.322509
4403.000000;1.324761
4402.000000;1.327183
4401.000000;1.330340
4400.000000;1.334278
4399.000000;1.338377
4398.000000;1.341886
4397.000000;1.344611
4396.000000;1.347073
4395.000000;1.349956
4394.000000;1.353424
4393.000000;1.357020
4392.000000;1.360216
4391.000000;1.362928
4390.000000;1.365457
4389.000000;1.368114
4388.000000;1.371038
4387.000000;1.374230
4386.000000;1.377540
4385.000000;1.380689
4384.000000;1.383540
4383.000000;1.386305
4382.000000;1.389276
4381.000000;1.392422
4380.000000;1.395563
4379.000000;1.398874
4378.000000;1.402819
4377.000000;1.407446
4376.000000;1.412053
4375.000000;1.415818
4374.000000;1.418653
4373.000000;1.421224
4372.000000;1.424195
4371.000000;1.427611
4370.000000;1.431035
4369.000000;1.434201
4368.000000;1.437485
4367.000000;1.441552
4366.000000;1.446498
4365.000000;1.451539
4364.000000;1.455801
4363.000000;1.459257
4362.000000;1.462509
4361.000000;1.465834
4360.000000;1.468990
4359.000000;1.471986
4358.000000;1.475423
4357.000000;1.479746
4356.000000;1.484598
4355.000000;1.489245
4354.000000;1.493436
4353.000000;1.497509
4352.000000;1.501842
4351.000000;1.506476
4350.000000;1.511159
4349.000000;1.515544
4348.000000;1.519475
4347.000000;1.523236
4346.000000;1.527379
4345.000000;1.532134
4344.000000;1.537189
4343.000000;1.542160
4342.000000;1.546976
4341.000000;1.551604
4340.000000;1.555794
4339.000000;1.559420
4338.000000;1.562866
4337.000000;1.566733
4336.000000;1.571274
4335.000000;1.576358
4334.000000;1.581806
4333.000000;1.587402
4332.000000;1.592624
4331.000000;1.596906
4330.000000;1.600353
4329.000000;1.603887
4328.000000;1.608451
4327.000000;1.614082
4326.000000;1.619942
4325.000000;1.625350
4324.000000;1.630615
4323.000000;1.636517
4322.000000;1.643024
4321.000000;1.649022
4320.000000;1.653678
4319.000000;1.657612
4318.000000;1.662131
4317.000000;1.667531
4316.000000;1.672863
4315.000000;1.677361
4314.000000;1.681348
4313.000000;1.685544
4312.000000;1.690240
4311.000000;1.695425
4310.000000;1.701021
4309.000000;1.706597
4308.000000;1.711499
4307.000000;1.715772
4306.000000;1.720432
4305.000000;1.726214
4304.000000;1.732466
4303.000000;1.737847
4302.000000;1.741820
4301.000000;1.744929
4300.000000;1.747920
4299.000000;1.751183
4298.000000;1.754893
4297.000000;1.759087
4296.000000;1.763663
4295.000000;1.768653
4294.000000;1.774390
4293.000000;1.781039
4292.000000;1.788084
4291.000000;1.794736
4290.000000;1.800869
4289.000000;1.807073
4288.000000;1.813650
4287.000000;1.819945
4286.000000;1.824969
4285.000000;1.828650
4284.000000;1.832239
4283.000000;1.837296
4282.000000;1.844175
4281.000000;1.851659
4280.000000;1.858063
4279.000000;1.862540
4278.000000;1.865510
4277.000000;1.868182
4276.000000;1.871760
4275.000000;1.876637
4274.000000;1.881973
4273.000000;1.886521
4272.000000;1.890340
4271.000000;1.895052
4270.000000;1.901723
4269.000000;1.909239
4268.000000;1.915855
4267.000000;1.921763
4266.000000;1.928572
4265.000000;1.936459
4264.000000;1.943551
4263.000000;1.948398
4262.000000;1.951604
4261.000000;1.954577
4260.000000;1.958072
4259.000000;1.962319
4258.000000;1.967120
4257.000000;1.971467
4256.000000;1.974639
4255.000000;1.977974
4254.000000;1.983750
4253.000000;1.991751
4252.000000;1.998819
4251.000000;2.002910
4250.000000;2.005661
4249.000000;2.009667
4248.000000;2.015545
4247.000000;2.022582
4246.000000;2.030238
4245.000000;2.037077
4244.000000;2.040592
4243.000000;2.040630
4242.000000;2.041062
4241.000000;2.045541
4240.000000;2.053356
4239.000000;2.061421
4238.000000;2.068576
4237.000000;2.075372
4236.000000;2.081124
4235.000000;2.084493
4234.000000;2.086411
4233.000000;2.089167
4232.000000;2.092953
4231.000000;2.096366
4230.000000;2.099888
4229.000000;2.105902
4228.000000;2.114946
4227.000000;2.124429
4226.000000;2.131947
4225.000000;2.137652
4224.000000;2.142789
4223.000000;2.148414
4222.000000;2.155623
4221.000000;2.164390
4220.000000;2.172032
4219.000000;2.175801
4218.000000;2.177460
4217.000000;2.181599
4216.000000;2.188842
4215.000000;2.194620
4214.000000;2.195981
4213.000000;2.196113
4212.000000;2.199649
4211.000000;2.206956
4210.000000;2.215507
4209.000000;2.223830
4208.000000;2.230996
4207.000000;2.234485
4206.000000;2.233006
4205.000000;2.230534
4204.000000;2.233154
4203.000000;2.242352
4202.000000;2.254206
4201.000000;2.265017
4200.000000;2.275359
4199.000000;2.287533
4198.000000;2.301187
4197.000000;2.312940
4196.000000;2.319693
4195.000000;2.321264
4194.000000;2.319986
4193.000000;2.319039
4192.000000;2.321122
4191.000000;2.327366
4190.000000;2.336467
4189.000000;2.344973
4188.000000;2.349639
4187.000000;2.350167
4186.000000;2.349336
4185.000000;2.350465
4184.000000;2.354877
4183.000000;2.361614
4182.000000;2.369258
4181.000000;2.377212
4180.000000;2.384705
4179.000000;2.389403
4178.000000;2.388621
4177.000000;2.382692
4176.000000;2.375873
4175.000000;2.372998
4174.000000;2.375092
4173.000000;2.378740
4172.000000;2.381054
4171.000000;2.384056
4170.000000;2.392219
4169.000000;2.407024
4168.000000;2.425204
4167.000000;2.441418
4166.000000;2.451358
4165.000000;2.452987
4164.000000;2.448278
4163.000000;2.444011
4162.000000;2.446698
4161.000000;2.456093
4160.000000;2.466005
4159.000000;2.472602
4158.000000;2.479879
4157.000000;2.492994
4156.000000;2.508872
4155.000000;2.519263
4154.000000;2.521887
4153.000000;2.521801
4152.000000;2.522515
4151.000000;2.523404
4150.000000;2.523544
4149.000000;2.522562
4148.000000;2.519469
4147.000000;2.514123
4146.000000;2.509672
4145.000000;2.510278
4144.000000;2.516371
4143.000000;2.523631
4142.000000;2.529552
4141.000000;2.538962
4140.000000;2.555888
4139.000000;2.574962
4138.000000;2.586120
4137.000000;2.585409
4136.000000;2.578266
4135.000000;2.572624
4134.000000;2.571718
4133.000000;2.572904
4132.000000;2.572169
4131.000000;2.570064
4130.000000;2.572341
4129.000000;2.583778
4128.000000;2.601439
4127.000000;2.615234
4126.000000;2.617114
4125.000000;2.608820
4124.000000;2.598566
4123.000000;2.593502
4122.000000;2.597067
4121.000000;2.609161
4120.000000;2.625611
4119.000000;2.639582
4118.000000;2.647297
4117.000000;2.651308
4116.000000;2.656886
4115.000000;2.666977
4114.000000;2.680286
4113.000000;2.693122
4112.000000;2.702461
4111.000000;2.707955
4110.000000;2.711763
4109.000000;2.714760
4108.000000;2.713152
4107.000000;2.704997
4106.000000;2.697014
4105.000000;2.695406
4104.000000;2.698889
4103.000000;2.704866
4102.000000;2.713376
4101.000000;2.722598
4100.000000;2.725845
4099.000000;2.717360
4098.000000;2.702190
4097.000000;2.691923
4096.000000;2.689841
4095.000000;2.690659
4094.000000;2.691049
4093.000000;2.693501
4092.000000;2.701034
4091.000000;2.713246
4090.000000;2.728991
4089.000000;2.748082
4088.000000;2.767857
4087.000000;2.783361
4086.000000;2.794172
4085.000000;2.804816
4084.000000;2.814872
4083.000000;2.815259
4082.000000;2.800702
4081.000000;2.780281
4080.000000;2.769147
4079.000000;2.776024
4078.000000;2.797999
4077.000000;2.822184
4076.000000;2.837195
4075.000000;2.842750
4074.000000;2.845198
4073.000000;2.849001
4072.000000;2.852405
4071.000000;2.853720
4070.000000;2.860249
4069.000000;2.879711
4068.000000;2.902728
4067.000000;2.904681
4066.000000;2.876932
4065.000000;2.843823
4064.000000;2.830609
4063.000000;2.836922
4062.000000;2.844405
4061.000000;2.841957
4060.000000;2.833629
4059.000000;2.827694
4058.000000;2.832300
4057.000000;2.847431
4056.000000;2.860770
4055.000000;2.855910
4054.000000;2.830695
4053.000000;2.803367
4052.000000;2.792073
4051.000000;2.801899
4050.000000;2.825306
4049.000000;2.850241
4048.000000;2.871499
4047.000000;2.889553
4046.000000;2.901805
4045.000000;2.905283
4044.000000;2.904740
4043.000000;2.910975
4042.000000;2.932103
4041.000000;2.963440
4040.000000;2.981930
4039.000000;2.967062
4038.000000;2.933448
4037.000000;2.913242
4036.000000;2.922593
4035.000000;2.953611
4034.000000;2.984067
4033.000000;3.002615
4032.000000;3.010828
4031.000000;2.997106
4030.000000;2.963242
4029.000000;2.936853
4028.000000;2.930571
4027.000000;2.933352
4026.000000;2.928643
4025.000000;2.919356
4024.000000;2.927735
4023.000000;2.969645
4022.000000;3.039041
4021.000000;3.110384
4020.000000;3.117101
4019.000000;3.043908
4018.000000;2.970793
4017.000000;2.928949
4016.000000;2.915346
4015.000000;2.934847
4014.000000;2.989093
4013.000000;3.053418
4012.000000;3.077630
4011.000000;3.037783
4010.000000;2.975380
4009.000000;2.942761
4008.000000;2.956208
4007.000000;2.997263
4006.000000;3.027436
4005.000000;3.025892
4004.000000;3.014150
4003.000000;3.024306
4002.000000;3.065906
4001.000000;3.116624
4000.000000;3.134278
3999.000000;3.102005
3998.000000;3.049864
3997.000000;3.012033
3996.000000;3.000146
3995.000000;3.011509
3994.000000;3.041144
3993.000000;3.086612
3992.000000;3.154690
3991.000000;3.255631
3990.000000;3.366337
3989.000000;3.405121
3988.000000;3.340566
3987.000000;3.252332
3986.000000;3.190033
3985.000000;3.148900
3984.000000;3.117652
3983.000000;3.105507
3982.000000;3.121842
3981.000000;3.147595
3980.000000;3.147411
3979.000000;3.121719
3978.000000;3.107053
3977.000000;3.118331
3976.000000;3.133344
3975.000000;3.124095
3974.000000;3.092969
3973.000000;3.069621
3972.000000;3.082911
3971.000000;3.144113
3970.000000;3.242472
3969.000000;3.331590
3968.000000;3.342617
3967.000000;3.282389
3966.000000;3.216885
3965.000000;3.184879
3964.000000;3.197964
3963.000000;3.251311
3962.000000;3.320679
3961.000000;3.347441
3960.000000;3.298566
3959.000000;3.231640
3958.000000;3.201191
3957.000000;3.202991
3956.000000;3.187276
3955.000000;3.133849
3954.000000;3.086765
3953.000000;3.081639
3952.000000;3.108793
3951.000000;3.128236
3950.000000;3.125062
3949.000000;3.128982
3948.000000;3.173905
3947.000000;3.274245
3946.000000;3.407320
3945.000000;3.472774
3944.000000;3.412889
3943.000000;3.336546
3942.000000;3.341711
3941.000000;3.479183
3940.000000;3.823179
3939.000000;4.277597
3938.000000;4.016869
3937.000000;3.723022
3936.000000;3.603775
3935.000000;3.611329
3934.000000;3.658012
3933.000000;3.591003
3932.000000;3.434959
3931.000000;3.316500
3930.000000;3.262565
3929.000000;3.241731
3928.000000;3.202364
3927.000000;3.115187
3926.000000;3.017835
3925.000000;2.956197
3924.000000;2.946291
3923.000000;2.988524
3922.000000;3.076147
3921.000000;3.207554
3920.000000;3.398761
3919.000000;3.643214
3918.000000;3.748743
3917.000000;3.661647
3916.000000;3.600968
3915.000000;3.604378
3914.000000;3.561391
3913.000000;3.425534
3912.000000;3.313269
3911.000000;3.265759
3910.000000;3.279630
3909.000000;3.319350
3908.000000;3.282857
3907.000000;3.159689
3906.000000;3.048683
3905.000000;3.009087
3904.000000;3.064951
3903.000000;3.208615
3902.000000;3.359215
3901.000000;3.487658
3900.000000;3.634884
3899.000000;3.638585
3898.000000;3.548412
3897.000000;3.511209
3896.000000;3.525228
3895.000000;3.544375
3894.000000;3.512596
3893.000000;3.485756
3892.000000;3.527002
3891.000000;3.610971
3890.000000;3.724603
3889.000000;3.942460
3888.000000;4.069500
3887.000000;3.925754
3886.000000;3.858249
3885.000000;3.964868
3884.000000;4.139883
3883.000000;4.040708
3882.000000;4.166340
3881.000000;3.952976
3880.000000;3.793160
3879.000000;4.580466
3878.000000;3.692978
3877.000000;3.323621
3876.000000;3.190448
3875.000000;3.103207
3874.000000;2.991499
3873.000000;2.880960
3872.000000;2.856337
3871.000000;2.927610
3870.000000;3.029299
3869.000000;3.128988
3868.000000;3.282641
3867.000000;3.627794
3866.000000;4.153443
3865.000000;3.686523
3864.000000;3.367374
3863.000000;3.237340
3862.000000;3.224413
3861.000000;3.259866
3860.000000;3.297405
3859.000000;3.333242
3858.000000;3.391735
3857.000000;3.473434
3856.000000;3.495361
3855.000000;3.367621
3854.000000;3.234592
3853.000000;3.194391
3852.000000;3.248263
3851.000000;3.366309
3850.000000;3.487531
3849.000000;3.561576
3848.000000;3.626839
3847.000000;3.754004
3846.000000;3.797207
3845.000000;3.609190
3844.000000;3.410730
3843.000000;3.292209
3842.000000;3.412275
3841.000000;3.720559
3840.000000;3.299226
3839.000000;3.220493
3838.000000;3.261648
3837.000000;3.251713
3836.000000;3.211279
3835.000000;3.210050
3834.000000;3.267864
3833.000000;3.415603
3832.000000;3.617572
3831.000000;3.652650
3830.000000;3.629943
3829.000000;3.873730
3828.000000;4.325274
3827.000000;4.074278
3826.000000;3.776918
3825.000000;3.423106
3824.000000;3.258344
3823.000000;3.335393
3822.000000;3.490647
3821.000000;3.303243
3820.000000;3.159585
3819.000000;3.179633
3818.000000;3.343164
3817.000000;3.538194
3816.000000;3.627390
3815.000000;3.658120
3814.000000;3.743229
3813.000000;3.850182
3812.000000;3.880430
3811.000000;3.987573
3810.000000;3.888753
3809.000000;3.654861
3808.000000;3.658158
3807.000000;3.812359
3806.000000;4.095144
3805.000000;3.587709
3804.000000;3.274553
3803.000000;3.289647
3802.000000;3.565003
3801.000000;3.845487
3800.000000;3.630503
3799.000000;3.620164
3798.000000;4.441965
3797.000000;3.645750
3796.000000;3.341844
3795.000000;3.261833
3794.000000;3.288856
3793.000000;3.409480
3792.000000;3.600776
3791.000000;3.882349
3790.000000;4.298140
3789.000000;4.160849
3788.000000;3.970829
3787.000000;3.874266
3786.000000;3.742246
3785.000000;3.685793
3784.000000;3.804285
3783.000000;3.970148
3782.000000;3.606167
3781.000000;3.333452
3780.000000;3.238921
3779.000000;3.242045
3778.000000;3.301030
3777.000000;3.375794
3776.000000;3.427750
3775.000000;3.427826
3774.000000;3.390730
3773.000000;3.366324
3772.000000;3.381753
3771.000000;3.381459
3770.000000;3.360224
3769.000000;3.431249
3768.000000;3.725905
3767.000000;4.387332
3766.000000;3.941526
3765.000000;3.868790
3764.000000;3.842010
3763.000000;3.539979
3762.000000;3.342040
3761.000000;3.324284
3760.000000;3.616737
3759.000000;3.700077
3758.000000;3.200863
3757.000000;3.036329
3756.000000;2.946187
3755.000000;2.908956
3754.000000;2.898062
3753.000000;2.933358
3752.000000;3.154299
3751.000000;3.415092
3750.000000;3.865394
3749.000000;4.370278
3748.000000;4.182417
3747.000000;3.958424
3746.000000;4.336132
3745.000000;4.179494
3744.000000;3.460363
3743.000000;3.339797
3742.000000;3.341749
3741.000000;3.265947
3740.000000;3.161300
3739.000000;3.131677
3738.000000;3.166432
3737.000000;3.194722
3736.000000;3.172773
3735.000000;3.122597
3734.000000;3.100970
3733.000000;3.143065
3732.000000;3.246216
3731.000000;3.397573
3730.000000;3.559292
3729.000000;3.630958
3728.000000;3.509969
3727.000000;3.340181
3726.000000;3.296604
3725.000000;3.386254
3724.000000;4.071670
3723.000000;3.999606
3722.000000;3.558074
3721.000000;3.659523
3720.000000;3.774815
3719.000000;3.588295
3718.000000;3.434154
3717.000000;3.375086
3716.000000;3.336360
3715.000000;3.324959
3714.000000;3.362502
3713.000000;3.446848
3712.000000;3.630821
3711.000000;3.983734
3710.000000;3.926452
3709.000000;3.855839
3708.000000;4.025464
3707.000000;4.272322
3706.000000;3.912970
3705.000000;3.560695
3704.000000;3.375181
3703.000000;3.331506
3702.000000;3.407278
3701.000000;3.555662
3700.000000;3.783637
3699.000000;3.948054
3698.000000;3.655426
3697.000000;3.401864
3696.000000;3.328250
3695.000000;3.379204
3694.000000;4.134144
3693.000000;3.476449
3692.000000;3.064971
3691.000000;3.046088
3690.000000;3.237148
3689.000000;3.628658
3688.000000;3.557612
3687.000000;3.359523
3686.000000;3.284177
3685.000000;3.288884
3684.000000;3.348285
3683.000000;3.446067
3682.000000;3.647376
3681.000000;4.100018
3680.000000;3.799680
3679.000000;3.409262
3678.000000;3.534805
3677.000000;3.922984
3676.000000;3.443092
3675.000000;3.321279
3674.000000;3.511742
3673.000000;3.784652
3672.000000;3.531516
3671.000000;3.539948
3670.000000;3.782063
3669.000000;4.129912
3668.000000;4.258843
3667.000000;3.989490
3666.000000;3.912092
3665.000000;4.000335
3664.000000;4.407612
3663.000000;4.374091
3662.000000;3.975508
3661.000000;3.901394
3660.000000;3.806415
3659.000000;3.595641
3658.000000;3.465428
3657.000000;3.419878
3656.000000;3.419806
3655.000000;3.414798
3654.000000;3.364875
3653.000000;3.307176
3652.000000;3.308137
3651.000000;3.426658
3650.000000;3.504674
3649.000000;3.268590
3648.000000;3.156430
3647.000000;3.165176
3646.000000;3.178878
3645.000000;3.197022
3644.000000;3.273297
3643.000000;3.437903
3642.000000;3.728729
3641.000000;3.892184
3640.000000;3.726420
3639.000000;3.615568
3638.000000;3.592748
3637.000000;3.663325
3636.000000;3.689630
3635.000000;3.525034
3634.000000;3.360611
3633.000000;3.268905
3632.000000;3.300492
3631.000000;3.516660
3630.000000;3.776536
3629.000000;3.824957
3628.000000;3.856748
3627.000000;3.953014
3626.000000;3.876984
3625.000000;3.607174
3624.000000;3.452829
3623.000000;3.400021
3622.000000;3.473464
3621.000000;3.663026
3620.000000;3.807698
3619.000000;3.619321
3618.000000;3.412377
3617.000000;3.320941
3616.000000;3.281584
3615.000000;3.262424
3614.000000;3.256782
3613.000000;3.298383
3612.000000;3.445565
3611.000000;3.818795
3610.000000;4.417184
3609.000000;3.958163
3608.000000;3.696642
3607.000000;3.537967
3606.000000;3.505413
3605.000000;3.735968
3604.000000;4.458937
3603.000000;3.638902
3602.000000;3.542596
3601.000000;3.582444
3600.000000;3.605431
3599.000000;3.689386
3598.000000;3.878642
3597.000000;3.791597
3596.000000;3.513846
3595.000000;3.405014
3594.000000;3.584325
3593.000000;3.794978
3592.000000;3.492619
3591.000000;3.394279
3590.000000;3.456031
3589.000000;3.446557
3588.000000;3.398029
3587.000000;3.435752
3586.000000;3.646516
3585.000000;4.150130
3584.000000;3.660349
3583.000000;3.485807
3582.000000;3.581720
3581.000000;3.805400
3580.000000;4.099801
3579.000000;3.988832
3578.000000;3.691313
3577.000000;3.519480
3576.000000;3.496705
3575.000000;3.565831
3574.000000;3.614670
3573.000000;3.592736
3572.000000;3.698697
3571.000000;4.077403
3570.000000;3.665671
3569.000000;3.422804
3568.000000;3.506566
3567.000000;3.923628
3566.000000;4.439597
3565.000000;4.643789
3564.000000;4.321546
3563.000000;3.853127
3562.000000;3.758866
3561.000000;3.817859
3560.000000;4.074431
3559.000000;4.609309
3558.000000;4.120124
3557.000000;3.865111
3556.000000;3.802529
3555.000000;3.791516
3554.000000;4.062730
3553.000000;4.223233
3552.000000;3.784081
3551.000000;3.763163
3550.000000;4.024731
3549.000000;4.169054
3548.000000;3.827406
3547.000000;3.671687
3546.000000;3.620227
3545.000000;3.724711
3544.000000;3.879821
3543.000000;3.692972
3542.000000;3.576564
3541.000000;3.600516
3540.000000;3.684538
3539.000000;3.774495
3538.000000;3.849188
3537.000000;3.897022
3536.000000;3.909728
3535.000000;3.872398
3534.000000;3.701030
3533.000000;3.499766
3532.000000;3.409118
3531.000000;3.493364
3530.000000;3.870481
3529.000000;4.661072
3528.000000;4.378075
3527.000000;3.996391
3526.000000;4.034638
3525.000000;4.225359
3524.000000;3.879806
3523.000000;3.717481
3522.000000;3.658933
3521.000000;3.635625
3520.000000;3.630488
3519.000000;3.632924
3518.000000;3.611923
3517.000000;3.573548
3516.000000;3.613307
3515.000000;3.850040
3514.000000;3.957242
3513.000000;3.676896
3512.000000;3.565920
3511.000000;3.564678
3510.000000;3.712954
3509.000000;3.793925
3508.000000;3.570303
3507.000000;3.423521
3506.000000;3.400052
3505.000000;3.455681
3504.000000;3.550013
3503.000000;3.671478
3502.000000;3.877217
3501.000000;4.030588
3500.000000;4.094477
3499.000000;4.256863
3498.000000;4.330171
3497.000000;4.198585
3496.000000;3.860505
3495.000000;3.830561
3494.000000;4.029928
3493.000000;3.889675
3492.000000;3.747539
3491.000000;3.831293
3490.000000;4.253673
3489.000000;4.531855
3488.000000;4.212308
3487.000000;4.208449
3486.000000;3.825458
3485.000000;3.642860
3484.000000;3.660692
3483.000000;3.988089
3482.000000;4.163382
3481.000000;3.876124
3480.000000;3.907135
3479.000000;4.057410
3478.000000;3.892261
3477.000000;3.681889
3476.000000;3.592689
3475.000000;3.588611
3474.000000;3.627816
3473.000000;3.618636
3472.000000;3.579535
3471.000000;3.607410
3470.000000;3.738175
3469.000000;3.933312
3468.000000;4.050227
3467.000000;4.129037
3466.000000;4.134137
3465.000000;3.968970
3464.000000;3.838006
3463.000000;3.786701
3462.000000;3.813490
3461.000000;3.929975
3460.000000;4.285784
3459.000000;4.491342
3458.000000;4.033159
3457.000000;3.776459
3456.000000;3.643593
3455.000000;3.647334
3454.000000;3.788524
3453.000000;4.074218
3452.000000;4.317780
3451.000000;4.082334
3450.000000;3.825520
3449.000000;3.741128
3448.000000;3.832547
3447.000000;4.076832
3446.000000;4.188291
3445.000000;4.237365
3444.000000;4.119651
3443.000000;3.713030
3442.000000;3.470185
3441.000000;3.370690
3440.000000;3.396157
3439.000000;3.536826
3438.000000;3.891986
3437.000000;4.530224
3436.000000;4.023235
3435.000000;3.965728
3434.000000;4.256104
3433.000000;4.167645
3432.000000;3.869066
3431.000000;3.789384
3430.000000;3.708449
3429.000000;3.683742
3428.000000;3.730311
3427.000000;3.788843
3426.000000;3.812076
3425.000000;3.732279
3424.000000;3.593877
3423.000000;3.520298
3422.000000;3.568544
3421.000000;3.717851
3420.000000;3.908585
3419.000000;4.423515
3418.000000;4.106452
3417.000000;3.697539
3416.000000;3.532275
3415.000000;3.462119
3414.000000;3.474432
3413.000000;3.575301
3412.000000;3.741655
3411.000000;3.840814
3410.000000;3.766763
3409.000000;3.665554
3408.000000;3.643597
3407.000000;3.684622
3406.000000;3.721793
3405.000000;3.744272
3404.000000;3.808982
3403.000000;4.081680
3402.000000;4.297084
3401.000000;3.968047
3400.000000;3.756681
3399.000000;3.658371
3398.000000;3.667955
3397.000000;3.711699
3396.000000;3.707358
3395.000000;3.749072
3394.000000;3.869565
3393.000000;3.873417
3392.000000;3.717858
3391.000000;3.614587
3390.000000;3.655093
3389.000000;3.929792
3388.000000;4.352183
3387.000000;4.333893
3386.000000;4.102852
3385.000000;3.701058
3384.000000;3.588283
3383.000000;3.643218
3382.000000;3.827213
3381.000000;4.131389
3380.000000;4.333699
3379.000000;4.223378
3378.000000;4.122344
3377.000000;4.141379
3376.000000;4.149218
3375.000000;3.966605
3374.000000;3.870025
3373.000000;4.002091
3372.000000;4.167499
3371.000000;4.004529
3370.000000;3.922488
3369.000000;3.963001
3368.000000;3.975806
3367.000000;4.091603
3366.000000;4.128897
3365.000000;3.879433
3364.000000;3.758792
3363.000000;3.767341
3362.000000;3.815111
3361.000000;3.971170
3360.000000;4.402083
3359.000000;4.094814
3358.000000;3.933124
3357.000000;3.916767
3356.000000;3.771792
3355.000000;3.701614
3354.000000;3.804128
3353.000000;3.997328
3352.000000;3.889728
3351.000000;3.683150
3350.000000;3.591309
3349.000000;3.590208
3348.000000;3.689778
3347.000000;4.000428
3346.000000;4.158002
3345.000000;3.942895
3344.000000;4.067492
3343.000000;4.417539
3342.000000;4.024672
3341.000000;3.820806
3340.000000;3.747068
3339.000000;3.650684
3338.000000;3.562711
3337.000000;3.513510
3336.000000;3.508164
3335.000000;3.540375
3334.000000;3.615286
3333.000000;3.692485
3332.000000;3.726797
3331.000000;3.811449
3330.000000;3.839041
3329.000000;3.666667
3328.000000;3.498326
3327.000000;3.393837
3326.000000;3.387917
3325.000000;3.479803
3324.000000;3.626157
3323.000000;3.657404
3322.000000;3.565518
3321.000000;3.571715
3320.000000;3.736047
3319.000000;4.082786
3318.000000;4.616981
3317.000000;4.349865
3316.000000;3.880597
3315.000000;3.629581
3314.000000;3.542021
3313.000000;3.573752
3312.000000;3.619315
3311.000000;3.621091
3310.000000;3.687430
3309.000000;3.834227
3308.000000;3.845621
3307.000000;3.822493
3306.000000;4.046681
3305.000000;4.280154
3304.000000;3.930328
3303.000000;3.991718
3302.000000;4.234013
3301.000000;3.966066
3300.000000;3.809932
3299.000000;3.845090
3298.000000;4.084028
3297.000000;4.016527
3296.000000;3.791677
3295.000000;3.978823
3294.000000;4.153912
3293.000000;3.823752
3292.000000;3.717210
3291.000000;3.813546
3290.000000;4.052997
3289.000000;4.299181
3288.000000;4.199526
3287.000000;3.878110
3286.000000;3.684832
3285.000000;3.651322
3284.000000;3.824524
3283.000000;4.360002
3282.000000;3.919736
3281.000000;3.606819
3280.000000;3.488676
3279.000000;3.470723
3278.000000;3.717512
3277.000000;4.025254
3276.000000;3.505020
3275.000000;3.398833
3274.000000;3.505893
3273.000000;3.817094
3272.000000;4.189125
3271.000000;4.271193
3270.000000;4.140217
3269.000000;3.898821
3268.000000;3.976330
3267.000000;4.288824
3266.000000;3.917451
3265.000000;3.622480
3264.000000;3.555118
3263.000000;3.565193
3262.000000;3.602215
3261.000000;3.612420
3260.000000;3.515502
3259.000000;3.425024
3258.000000;3.429601
3257.000000;3.513406
3256.000000;3.647128
3255.000000;3.872453
3254.000000;4.359788
3253.000000;4.885090
3252.000000;4.450227
3251.000000;4.059627
3250.000000;3.812862
3249.000000;3.651945
3248.000000;3.567905
3247.000000;3.606580
3246.000000;3.865730
3245.000000;3.895567
3244.000000;3.588216
3243.000000;3.521768
3242.000000;3.586640
3241.000000;3.645327
3240.000000;3.615313
3239.000000;3.606863
3238.000000;3.680914
3237.000000;3.756273
3236.000000;3.704467
3235.000000;3.624450
3234.000000;3.603983
3233.000000;3.599585
3232.000000;3.561878
3231.000000;3.577507
3230.000000;3.740215
3229.000000;3.885433
3228.000000;3.788295
3227.000000;3.670352
3226.000000;3.611750
3225.000000;3.656388
3224.000000;3.891589
3223.000000;4.344195
3222.000000;4.097303
3221.000000;3.891739
3220.000000;3.845687
3219.000000;3.829714
3218.000000;3.811421
3217.000000;3.790047
3216.000000;3.867952
3215.000000;4.163381
3214.000000;3.967558
3213.000000;3.661671
3212.000000;3.620119
3211.000000;3.784229
3210.000000;4.140399
3209.000000;4.173738
3208.000000;3.907398
3207.000000;3.901308
3206.000000;4.715519
3205.000000;3.982693
3204.000000;3.686126
3203.000000;3.714649
3202.000000;3.854299
3201.000000;3.880941
3200.000000;3.663360
3199.000000;3.478323
3198.000000;3.402162
3197.000000;3.477416
3196.000000;3.633558
3195.000000;3.586150
3194.000000;3.464146
3193.000000;3.427186
3192.000000;3.453484
3191.000000;3.462267
3190.000000;3.411878
3189.000000;3.392628
3188.000000;3.504906
3187.000000;3.750102
3186.000000;3.617541
3185.000000;3.429215
3184.000000;3.429205
3183.000000;3.483698
3182.000000;3.537322
3181.000000;3.619352
3180.000000;3.792576
3179.000000;3.926092
3178.000000;3.876675
3177.000000;3.943691
3176.000000;4.313111
3175.000000;4.485464
3174.000000;4.236019
3173.000000;4.422599
3172.000000;4.240217
3171.000000;3.833740
3170.000000;3.705692
3169.000000;3.813044
3168.000000;4.248913
3167.000000;4.027020
3166.000000;3.668975
3165.000000;3.570506
3164.000000;3.558988
3163.000000;3.644465
3162.000000;3.795044
3161.000000;3.817033
3160.000000;3.811443
3159.000000;4.100777
3158.000000;4.106112
3157.000000;3.823847
3156.000000;3.791767
3155.000000;3.844928
3154.000000;3.934688
3153.000000;4.159845
3152.000000;4.268682
3151.000000;4.052407
3150.000000;3.994926
3149.000000;4.202960
3148.000000;4.301816
3147.000000;3.882679
3146.000000;3.711526
3145.000000;3.666534
3144.000000;3.646561
3143.000000;3.616499
3142.000000;3.576196
3141.000000;3.541636
3140.000000;3.531013
3139.000000;3.566901
3138.000000;3.650939
3137.000000;4.051064
3136.000000;4.406649
3135.000000;3.842835
3134.000000;3.705201
3133.000000;3.686723
3132.000000;3.780251
3131.000000;3.993740
3130.000000;4.222049
3129.000000;3.900856
3128.000000;3.604020
3127.000000;3.524787
3126.000000;3.579607
3125.000000;3.837049
3124.000000;4.695981
3123.000000;4.217395
3122.000000;3.940566
3121.000000;4.089426
3120.000000;4.891980
3119.000000;3.980636
3118.000000;3.761753
3117.000000;3.815396
3116.000000;3.847504
3115.000000;3.789529
3114.000000;3.736153
3113.000000;3.651887
3112.000000;3.623902
3111.000000;3.862883
3110.000000;4.199639
3109.000000;4.008177
3108.000000;4.199529
3107.000000;4.237237
3106.000000;3.829477
3105.000000;3.650139
3104.000000;3.544840
3103.000000;3.490543
3102.000000;3.477643
3101.000000;3.500379
3100.000000;3.565941
3099.000000;3.696810
3098.000000;3.836480
3097.000000;3.845316
3096.000000;3.754812
3095.000000;3.661940
3094.000000;3.676541
3093.000000;3.925279
3092.000000;4.194415
3091.000000;3.870679
3090.000000;3.770220
3089.000000;3.654674
3088.000000;3.495578
3087.000000;3.470513
3086.000000;3.639383
3085.000000;4.062931
3084.000000;4.119382
3083.000000;4.026907
3082.000000;4.287026
3081.000000;4.030413
3080.000000;3.933848
3079.000000;4.334636
3078.000000;3.857079
3077.000000;3.527023
3076.000000;3.510190
3075.000000;3.667868
3074.000000;4.083121
3073.000000;4.466404
3072.000000;4.288087
3071.000000;4.133918
3070.000000;3.879000
3069.000000;3.709291
3068.000000;3.673270
3067.000000;3.745568
3066.000000;3.778069
3065.000000;3.639575
3064.000000;3.538501
3063.000000;3.530577
3062.000000;3.714855
3061.000000;4.213318
3060.000000;3.938358
3059.000000;3.675849
3058.000000;3.670808
3057.000000;3.706765
3056.000000;3.647264
3055.000000;3.553126
3054.000000;3.536450
3053.000000;3.576240
3052.000000;3.637604
3051.000000;3.720612
3050.000000;3.850887
3049.000000;3.966275
3048.000000;3.907543
3047.000000;3.807564
3046.000000;3.734867
3045.000000;3.660148
3044.000000;3.660925
3043.000000;3.806998
3042.000000;4.217576
3041.000000;4.525057
3040.000000;4.001524
3039.000000;3.775409
3038.000000;3.646072
3037.000000;3.570267
3036.000000;3.580032
3035.000000;3.793777
3034.000000;4.295844
3033.000000;3.984578
3032.000000;3.751732
3031.000000;3.731059
3030.000000;3.832798
3029.000000;4.208439
3028.000000;4.116614
3027.000000;3.733168
3026.000000;3.629133
3025.000000;3.615249
3024.000000;3.665157
3023.000000;3.742441
3022.000000;3.856718
3021.000000;4.225308
3020.000000;4.209889
3019.000000;3.944176
3018.000000;3.773005
3017.000000;3.584652
3016.000000;3.493576
3015.000000;3.501656
3014.000000;3.592894
3013.000000;3.739707
3012.000000;3.719280
3011.000000;3.548204
3010.000000;3.436567
3009.000000;3.390334
3008.000000;3.392577
3007.000000;3.441795
3006.000000;3.541444
3005.000000;3.721693
3004.000000;4.096499
3003.000000;4.092888
3002.000000;3.839970
3001.000000;4.064098
3000.000000;4.267680
2999.000000;3.987171
2998.000000;3.817168
2997.000000;3.644468
2996.000000;3.580464
2995.000000;3.651037
2994.000000;3.750712
2993.000000;3.734348
2992.000000;3.661510
2991.000000;3.618597
2990.000000;3.603104
2989.000000;3.604521
2988.000000;3.646910
2987.000000;3.766551
2986.000000;4.033198
2985.000000;4.516478
2984.000000;4.433130
2983.000000;4.148896
2982.000000;4.040549
2981.000000;4.052292
2980.000000;4.086617
2979.000000;4.058746
2978.000000;4.003925
2977.000000;3.923149
2976.000000;3.807990
2975.000000;3.693390
2974.000000;3.629393
2973.000000;3.632633
2972.000000;3.636581
2971.000000;3.592502
2970.000000;3.581555
2969.000000;3.689737
2968.000000;3.891090
2967.000000;3.894236
2966.000000;3.798981
2965.000000;3.826609
2964.000000;3.964869
2963.000000;3.992820
2962.000000;3.883958
2961.000000;3.868006
2960.000000;4.089177
2959.000000;4.178481
2958.000000;3.741072
2957.000000;3.561520
2956.000000;3.535466
2955.000000;3.582616
2954.000000;3.669461
2953.000000;3.768474
2952.000000;3.866274
2951.000000;3.840777
2950.000000;3.729836
2949.000000;3.692660
2948.000000;3.772296
2947.000000;4.134476
2946.000000;4.465865
2945.000000;3.919700
2944.000000;3.683610
2943.000000;3.557333
2942.000000;3.501668
2941.000000;3.473516
2940.000000;3.450709
2939.000000;3.459215
2938.000000;3.618420
2937.000000;4.181117
2936.000000;3.955031
2935.000000;3.685200
2934.000000;3.633812
2933.000000;3.620207
2932.000000;3.743626
2931.000000;3.974719
2930.000000;4.056612
2929.000000;3.925604
2928.000000;3.665019
2927.000000;3.492028
2926.000000;3.458099
2925.000000;3.526269
2924.000000;3.652260
2923.000000;3.710717
2922.000000;3.679882
2921.000000;3.718883
2920.000000;3.885867
2919.000000;4.221681
2918.000000;4.727476
2917.000000;4.312703
2916.000000;3.957701
2915.000000;3.875908
2914.000000;3.942585
2913.000000;3.800560
2912.000000;3.618121
2911.000000;3.603311
2910.000000;3.764954
2909.000000;4.088413
2908.000000;4.089817
2907.000000;3.949212
2906.000000;3.816487
2905.000000;3.737894
2904.000000;3.810458
2903.000000;4.176435
2902.000000;4.659412
2901.000000;3.971780
2900.000000;3.705215
2899.000000;3.554244
2898.000000;3.499044
2897.000000;3.547511
2896.000000;3.651231
2895.000000;3.718141
2894.000000;3.703067
2893.000000;3.687254
2892.000000;3.709379
2891.000000;3.817653
2890.000000;3.883081
2889.000000;3.776137
2888.000000;3.693670
2887.000000;3.651044
2886.000000;3.580953
2885.000000;3.533289
2884.000000;3.552089
2883.000000;3.647818
2882.000000;3.781320
2881.000000;3.923609
2880.000000;3.968649
2879.000000;3.754899
2878.000000;3.627654
2877.000000;3.718529
2876.000000;3.947891
2875.000000;3.864753
2874.000000;3.725853
2873.000000;3.724437
2872.000000;3.788014
2871.000000;3.894883
2870.000000;3.959529
2869.000000;3.953868
2868.000000;3.947178
2867.000000;3.902645
2866.000000;3.765930
2865.000000;3.697136
2864.000000;3.712833
2863.000000;3.685511
2862.000000;3.559129
2861.000000;3.499012
2860.000000;3.560225
2859.000000;3.739588
2858.000000;4.288022
2857.000000;4.135578
2856.000000;3.716677
2855.000000;3.629483
2854.000000;3.668698
2853.000000;3.878818
2852.000000;4.160474
2851.000000;3.884031
2850.000000;3.694637
2849.000000;3.606932
2848.000000;3.501620
2847.000000;3.437886
2846.000000;3.510494
2845.000000;3.730332
2844.000000;3.918175
2843.000000;4.039301
2842.000000;3.981635
2841.000000;3.837944
2840.000000;3.932918
2839.000000;4.308865
2838.000000;4.566391
2837.000000;4.064313
2836.000000;3.734263
2835.000000;3.610405
2834.000000;3.611404
2833.000000;3.637621
2832.000000;3.598547
2831.000000;3.517754
2830.000000;3.464655
2829.000000;3.477446
2828.000000;3.538938
2827.000000;3.541030
2826.000000;3.503004
2825.000000;3.546350
2824.000000;3.766219
2823.000000;3.998623
2822.000000;3.734022
2821.000000;3.544197
2820.000000;3.477759
2819.000000;3.497178
2818.000000;3.582550
2817.000000;3.654952
2816.000000;3.683862
2815.000000;3.729952
2814.000000;3.926482
2813.000000;4.116699
2812.000000;4.054643
2811.000000;4.145578
2810.000000;3.955807
2809.000000;3.669771
2808.000000;3.570339
2807.000000;3.557601
2806.000000;3.556954
2805.000000;3.524746
2804.000000;3.541038
2803.000000;3.691434
2802.000000;4.033809
2801.000000;4.339454
2800.000000;4.007935
2799.000000;3.795482
2798.000000;3.778009
2797.000000;3.870481
2796.000000;3.834158
2795.000000;3.679641
2794.000000;3.586401
2793.000000;3.562024
2792.000000;3.602079
2791.000000;3.681475
2790.000000;3.753717
2789.000000;3.759476
2788.000000;3.660629
2787.000000;3.532671
2786.000000;3.460146
2785.000000;3.461798
2784.000000;3.539061
2783.000000;3.693542
2782.000000;3.917828
2781.000000;4.114093
2780.000000;4.037895
2779.000000;3.892157
2778.000000;3.804624
2777.000000;3.707495
2776.000000;3.626730
2775.000000;3.593596
2774.000000;3.579479
2773.000000;3.549003
2772.000000;3.507511
2771.000000;3.482746
2770.000000;3.487712
2769.000000;3.525459
2768.000000;3.642408
2767.000000;4.005883
2766.000000;4.079195
2765.000000;3.715399
2764.000000;3.854004
2763.000000;4.200600
2762.000000;3.880393
2761.000000;3.806956
2760.000000;3.882128
2759.000000;3.886154
2758.000000;3.904532
2757.000000;3.977875
2756.000000;3.975800
2755.000000;3.827793
2754.000000;3.710063
2753.000000;3.730831
2752.000000;4.029910
2751.000000;4.273115
2750.000000;3.987303
2749.000000;3.977162
2748.000000;4.073479
2747.000000;4.217455
2746.000000;4.142450
2745.000000;3.796739
2744.000000;3.646885
2743.000000;3.687653
2742.000000;3.788150
2741.000000;3.712341
2740.000000;3.622548
2739.000000;3.787067
2738.000000;4.248508
2737.000000;3.911394
2736.000000;3.667817
2735.000000;3.640130
2734.000000;3.682287
2733.000000;3.729621
2732.000000;3.739432
2731.000000;3.730783
2730.000000;3.775919
2729.000000;4.267410
2728.000000;4.039714
2727.000000;3.575455
2726.000000;3.433529
2725.000000;3.399360
2724.000000;3.485368
2723.000000;3.743761
2722.000000;4.151869
2721.000000;4.142514
2720.000000;4.198531
2719.000000;4.138878
2718.000000;3.997337
2717.000000;4.019167
2716.000000;4.203264
2715.000000;4.284901
2714.000000;3.767070
2713.000000;3.544881
2712.000000;3.526154
2711.000000;3.670731
2710.000000;3.979206
2709.000000;4.117425
2708.000000;4.102809
2707.000000;4.481584
2706.000000;4.551995
2705.000000;4.154534
2704.000000;3.977592
2703.000000;3.951286
2702.000000;4.332720
2701.000000;4.124285
2700.000000;3.911178
2699.000000;4.111269
2698.000000;4.372967
2697.000000;5.013851
2696.000000;4.738663
2695.000000;4.256973
2694.000000;4.035298
2693.000000;3.865548
2692.000000;3.772685
2691.000000;3.745268
2690.000000;3.837282
2689.000000;4.025313
2688.000000;4.425176
2687.000000;4.783015
2686.000000;3.972768
2685.000000;3.662264
2684.000000;3.555265
2683.000000;3.558184
2682.000000;3.578567
2681.000000;3.566441
2680.000000;3.618956
2679.000000;3.781603
2678.000000;4.042017
2677.000000;4.356440
2676.000000;4.195445
2675.000000;3.946203
2674.000000;3.887555
2673.000000;3.758310
2672.000000;3.626064
2671.000000;3.620373
2670.000000;3.770292
2669.000000;3.883383
2668.000000;3.694938
2667.000000;3.554982
2666.000000;3.534753
2665.000000;3.576554
2664.000000;3.655041
2663.000000;3.730585
2662.000000;3.755788
2661.000000;3.774694
2660.000000;4.019405
2659.000000;4.236232
2658.000000;3.855177
2657.000000;3.753418
2656.000000;3.746967
2655.000000;3.656582
2654.000000;3.609249
2653.000000;3.841876
2652.000000;4.117003
2651.000000;3.854495
2650.000000;4.010856
2649.000000;4.315957
2648.000000;3.996707
2647.000000;3.994088
2646.000000;4.211452
2645.000000;3.940099
2644.000000;3.685306
2643.000000;3.586611
2642.000000;3.526486
2641.000000;3.476825
2640.000000;3.439948
2639.000000;3.448371
2638.000000;3.534225
2637.000000;3.720550
2636.000000;3.904972
2635.000000;3.885879
2634.000000;4.163049
2633.000000;4.486191
2632.000000;3.959064
2631.000000;3.897499
2630.000000;3.857351
2629.000000;3.926296
2628.000000;4.008646
2627.000000;3.792945
2626.000000;3.708247
2625.000000;3.750944
2624.000000;3.842374
2623.000000;3.846192
2622.000000;3.847899
2621.000000;4.003301
2620.000000;3.926612
2619.000000;3.734323
2618.000000;3.698233
2617.000000;3.802086
2616.000000;4.040347
2615.000000;3.987018
2614.000000;3.787198
2613.000000;3.811884
2612.000000;4.061650
2611.000000;4.082422
2610.000000;3.913042
2609.000000;3.920342
2608.000000;3.855574
2607.000000;3.698544
2606.000000;3.641882
2605.000000;3.666213
2604.000000;3.628925
2603.000000;3.492877
2602.000000;3.389990
2601.000000;3.396765
2600.000000;3.582888
2599.000000;4.015022
2598.000000;4.045521
2597.000000;3.859614
2596.000000;4.002838
2595.000000;3.960222
2594.000000;3.655488
2593.000000;3.446787
2592.000000;3.359791
2591.000000;3.370890
2590.000000;3.484360
2589.000000;3.823277
2588.000000;3.886247
2587.000000;3.537791
2586.000000;3.427434
2585.000000;3.472772
2584.000000;3.605050
2583.000000;3.728208
2582.000000;3.753530
2581.000000;3.753841
2580.000000;3.754716
2579.000000;3.733135
2578.000000;3.709023
2577.000000;3.805580
2576.000000;3.965465
2575.000000;3.801340
2574.000000;3.637600
2573.000000;3.660153
2572.000000;3.974865
2571.000000;4.380343
2570.000000;3.980226
2569.000000;3.771880
2568.000000;3.630147
2567.000000;3.542234
2566.000000;3.568380
2565.000000;3.637984
2564.000000;3.642899
2563.000000;3.665910
2562.000000;3.750690
2561.000000;3.792947
2560.000000;3.822384
2559.000000;3.836032
2558.000000;3.849672
2557.000000;4.014521
2556.000000;3.893635
2555.000000;3.544518
2554.000000;3.380070
2553.000000;3.319875
2552.000000;3.332325
2551.000000;3.411913
2550.000000;3.638583
2549.000000;4.156735
2548.000000;3.921047
2547.000000;3.608139
2546.000000;3.530089
2545.000000;3.510152
2544.000000;3.555377
2543.000000;3.686915
2542.000000;3.891257
2541.000000;4.144115
2540.000000;4.402304
2539.000000;4.051421
2538.000000;3.811321
2537.000000;3.818148
2536.000000;3.937245
2535.000000;4.119560
2534.000000;4.200608
2533.000000;4.311265
2532.000000;4.030910
2531.000000;3.623783
2530.000000;3.466784
2529.000000;3.493317
2528.000000;3.675626
2527.000000;3.944913
2526.000000;3.969903
2525.000000;3.886533
2524.000000;3.920145
2523.000000;4.287002
2522.000000;4.878602
2521.000000;4.263408
2520.000000;4.161124
2519.000000;3.970845
2518.000000;3.771328
2517.000000;3.791346
2516.000000;3.962253
2515.000000;3.817039
2514.000000;3.595863
2513.000000;3.535429
2512.000000;3.576895
2511.000000;3.754799
2510.000000;3.744182
2509.000000;3.540991
2508.000000;3.493685
2507.000000;3.588076
2506.000000;3.770463
2505.000000;3.943998
2504.000000;4.033585
2503.000000;3.965835
2502.000000;3.768778
2501.000000;3.623285
2500.000000;3.562347
2499.000000;3.547486
2498.000000;3.494885
2497.000000;3.406361
2496.000000;3.381172
2495.000000;3.462034
2494.000000;3.627031
2493.000000;3.786531
2492.000000;3.938910
2491.000000;4.071123
2490.000000;3.901241
2489.000000;3.717358
2488.000000;3.662893
2487.000000;3.704405
2486.000000;3.843024
2485.000000;3.968017
2484.000000;3.927040
2483.000000;3.853984
2482.000000;3.945398
2481.000000;3.995642
2480.000000;3.736113
2479.000000;3.619323
2478.000000;3.617027
2477.000000;3.569313
2476.000000;3.556731
2475.000000;3.665342
2474.000000;3.933362
2473.000000;4.155173
2472.000000;4.014395
2471.000000;3.919547
2470.000000;3.887590
2469.000000;3.892559
2468.000000;3.838745
2467.000000;3.694272
2466.000000;3.583710
2465.000000;3.533653
2464.000000;3.551242
2463.000000;3.655220
2462.000000;3.867206
2461.000000;4.099743
2460.000000;4.159862
2459.000000;4.305447
2458.000000;4.575478
2457.000000;4.300496
2456.000000;3.999962
2455.000000;3.968382
2454.000000;4.173884
2453.000000;4.031458
2452.000000;3.745392
2451.000000;3.598452
2450.000000;3.546690
2449.000000;3.605790
2448.000000;3.792111
2447.000000;4.228070
2446.000000;4.468035
2445.000000;4.037003
2444.000000;3.791853
2443.000000;3.614938
2442.000000;3.563214
2441.000000;3.636379
2440.000000;3.770328
2439.000000;3.837848
2438.000000;3.845012
2437.000000;3.805017
2436.000000;3.726971
2435.000000;3.733786
2434.000000;3.907235
2433.000000;4.601793
2432.000000;4.450404
2431.000000;3.969774
2430.000000;3.895726
2429.000000;3.852041
2428.000000;3.819340
2427.000000;3.692645
2426.000000;3.583241
2425.000000;3.565312
2424.000000;3.706576
2423.000000;4.010444
2422.000000;3.881489
2421.000000;3.746340
2420.000000;3.744054
2419.000000;3.731235
2418.000000;3.775309
2417.000000;3.898704
2416.000000;4.044020
2415.000000;4.215852
2414.000000;4.519547
2413.000000;4.137195
2412.000000;3.795146
2411.000000;3.683586
2410.000000;3.839895
2409.000000;4.154259
2408.000000;3.747934
2407.000000;3.522702
2406.000000;3.551141
2405.000000;3.690271
2404.000000;3.897383
2403.000000;3.961959
2402.000000;3.802276
2401.000000;3.712416
2400.000000;3.699134
2399.000000;3.690482
2398.000000;3.702784
2397.000000;3.802687
2396.000000;3.975795
2395.000000;3.963133
2394.000000;3.874103
2393.000000;3.933923
2392.000000;4.128348
2391.000000;4.239611
2390.000000;4.324731
2389.000000;4.240358
2388.000000;4.003838
2387.000000;4.152222
2386.000000;4.513287
2385.000000;4.278503
2384.000000;4.090231
2383.000000;4.364550
2382.000000;4.138018
2381.000000;3.689369
2380.000000;3.560868
2379.000000;3.652522
2378.000000;4.350529
2377.000000;4.076114
2376.000000;3.657652
2375.000000;3.696413
2374.000000;3.971041
2373.000000;4.401543
2372.000000;3.954747
2371.000000;3.721338
2370.000000;3.637319
2369.000000;3.586744
2368.000000;3.765959
2367.000000;4.067965
2366.000000;3.655345
2365.000000;3.477413
2364.000000;3.495690
2363.000000;3.588332
2362.000000;3.680791
2361.000000;3.677316
2360.000000;3.708110
2359.000000;3.801432
2358.000000;4.087691
2357.000000;4.163310
2356.000000;3.824217
2355.000000;3.667260
2354.000000;3.629259
2353.000000;3.687511
2352.000000;3.777130
2351.000000;3.687997
2350.000000;3.627753
2349.000000;3.709006
2348.000000;3.655493
2347.000000;3.543736
2346.000000;3.503269
2345.000000;3.492146
2344.000000;3.568896
2343.000000;3.768779
2342.000000;3.998616
2341.000000;3.978019
2340.000000;3.828767
2339.000000;3.756996
2338.000000;3.745631
2337.000000;3.755129
2336.000000;3.681554
2335.000000;3.602775
2334.000000;3.627435
2333.000000;3.839993
2332.000000;4.272250
2331.000000;4.186010
2330.000000;4.027002
2329.000000;4.174948
2328.000000;4.598698
2327.000000;4.393581
2326.000000;4.039215
2325.000000;3.955286
2324.000000;3.985882
2323.000000;4.101589
2322.000000;4.187143
2321.000000;4.139961
2320.000000;3.941283
2319.000000;3.804822
2318.000000;3.810606
2317.000000;3.835393
2316.000000;3.714713
2315.000000;3.533475
2314.000000;3.435913
2313.000000;3.455540
2312.000000;3.601632
2311.000000;3.857043
2310.000000;3.938968
2309.000000;3.844782
2308.000000;3.879130
2307.000000;4.026656
2306.000000;4.273809
2305.000000;4.386639
2304.000000;4.037057
2303.000000;3.769151
2302.000000;3.683728
2301.000000;3.821888
2300.000000;4.086677
2299.000000;3.942599
2298.000000;3.741016
2297.000000;3.588899
2296.000000;3.448341
2295.000000;3.438166
2294.000000;3.561882
2293.000000;3.884674
2292.000000;4.713222
2291.000000;4.292569
2290.000000;4.172877
2289.000000;4.659556
2288.000000;4.748119
2287.000000;4.551923
2286.000000;4.395537
2285.000000;4.079271
2284.000000;3.989681
2283.000000;4.041437
2282.000000;3.860004
2281.000000;3.735091
2280.000000;3.763435
2279.000000;3.978520
2278.000000;4.219413
2277.000000;3.799811
2276.000000;3.530317
2275.000000;3.462564
2274.000000;3.516611
2273.000000;3.669320
2272.000000;3.842110
2271.000000;3.763738
2270.000000;3.552474
2269.000000;3.469821
2268.000000;3.531539
2267.000000;3.845009
2266.000000;4.196901
2265.000000;3.788940
2264.000000;3.597076
2263.000000;3.553695
2262.000000;3.554657
2261.000000;3.586095
2260.000000;3.615442
2259.000000;3.720520
2258.000000;3.842815
2257.000000;3.689919
2256.000000;3.534622
2255.000000;3.526968
2254.000000;3.609912
2253.000000;3.686194
2252.000000;3.713103
2251.000000;3.749260
2250.000000;3.761196
2249.000000;3.847273
2248.000000;4.070035
2247.000000;3.887215
2246.000000;3.613939
2245.000000;3.506274
2244.000000;3.501068
2243.000000;3.625728
2242.000000;3.961240
2241.000000;4.350838
2240.000000;4.038863
2239.000000;3.822503
2238.000000;3.736080
2237.000000;3.783606
2236.000000;4.062827
2235.000000;4.046478
2234.000000;3.828175
2233.000000;3.791239
2232.000000;3.839718
2231.000000;3.839720
2230.000000;3.713484
2229.000000;3.608749
2228.000000;3.590891
2227.000000;3.661013
2226.000000;3.852923
2225.000000;4.008671
2224.000000;3.945564
2223.000000;3.922556
2222.000000;4.060413
2221.000000;4.496986
2220.000000;4.131834
2219.000000;3.827818
2218.000000;3.801585
2217.000000;3.643722
2216.000000;3.515075
2215.000000;3.576845
2214.000000;3.706033
2213.000000;3.626877
2212.000000;3.528970
2211.000000;3.491051
2210.000000;3.466075
2209.000000;3.493558
2208.000000;3.682461
2207.000000;4.208657
2206.000000;4.272217
2205.000000;4.081489
2204.000000;4.252909
2203.000000;4.404972
2202.000000;4.217350
2201.000000;4.031516
2200.000000;3.943619
2199.000000;3.918121
2198.000000;3.983277
2197.000000;4.042485
2196.000000;4.423845
2195.000000;4.479931
2194.000000;3.841433
2193.000000;3.596500
2192.000000;3.481627
2191.000000;3.475680
2190.000000;3.604921
2189.000000;3.958929
2188.000000;4.512303
2187.000000;4.414063
2186.000000;4.234044
2185.000000;4.050545
2184.000000;4.001690
2183.000000;4.012492
2182.000000;3.832972
2181.000000;3.610420
2180.000000;3.513310
2179.000000;3.545731
2178.000000;3.661868
2177.000000;3.784534
2176.000000;3.919638
2175.000000;4.137894
2174.000000;4.137272
2173.000000;4.006081
2172.000000;4.212521
2171.000000;4.598656
2170.000000;4.211951
2169.000000;4.032538
2168.000000;3.959154
2167.000000;3.906183
2166.000000;3.921721
2165.000000;4.043275
2164.000000;4.444312
2163.000000;4.508617
2162.000000;4.211509
2161.000000;4.050427
2160.000000;3.782797
2159.000000;3.598150
2158.000000;3.565684
2157.000000;3.684669
2156.000000;3.856713
2155.000000;3.875142
2154.000000;3.853888
2153.000000;4.035400
2152.000000;3.995609
2151.000000;3.615610
2150.000000;3.467764
2149.000000;3.511068
2148.000000;3.735299
2147.000000;3.793769
2146.000000;3.602817
2145.000000;3.618007
2144.000000;3.779191
2143.000000;4.081372
2142.000000;4.649107
2141.000000;4.339223
2140.000000;3.976303
2139.000000;3.965123
2138.000000;4.067811
2137.000000;3.845196
2136.000000;3.559752
2135.000000;3.379506
2134.000000;3.292250
2133.000000;3.306432
2132.000000;3.420067
2131.000000;3.589649
2130.000000;3.678425
2129.000000;3.667668
2128.000000;3.664627
2127.000000;3.591440
2126.000000;3.441475
2125.000000;3.364638
2124.000000;3.403524
2123.000000;3.624294
2122.000000;3.971815
2121.000000;3.810242
2120.000000;3.690023
2119.000000;3.663168
2118.000000;3.594252
2117.000000;3.561203
2116.000000;3.576348
2115.000000;3.906564
2114.000000;4.121502
2113.000000;3.621239
2112.000000;3.496215
2111.000000;3.565769
2110.000000;3.849823
2109.000000;4.084058
2108.000000;3.866934
2107.000000;3.831468
2106.000000;3.937709
2105.000000;4.203461
2104.000000;4.411730
2103.000000;4.338988
2102.000000;4.268478
2101.000000;3.973952
2100.000000;3.670386
2099.000000;3.515567
2098.000000;3.499633
2097.000000;3.595997
2096.000000;3.761068
2095.000000;3.938615
2094.000000;4.039677
2093.000000;4.014131
2092.000000;3.977027
2091.000000;3.948431
2090.000000;3.877869
2089.000000;3.836455
2088.000000;3.864356
2087.000000;3.904366
2086.000000;3.934725
2085.000000;3.949184
2084.000000;3.941967
2083.000000;4.075698
2082.000000;4.228820
2081.000000;3.993034
2080.000000;4.070152
2079.000000;4.248818
2078.000000;3.802799
2077.000000;3.626516
2076.000000;3.682584
2075.000000;3.836051
2074.000000;3.894615
2073.000000;3.845491
2072.000000;3.942146
2071.000000;4.042760
2070.000000;4.026137
2069.000000;4.200912
2068.000000;4.041041
2067.000000;3.740280
2066.000000;3.671361
2065.000000;3.735544
2064.000000;3.756562
2063.000000;3.645143
2062.000000;3.605113
2061.000000;3.728361
2060.000000;3.841158
2059.000000;3.702948
2058.000000;3.603765
2057.000000;3.642186
2056.000000;3.738940
2055.000000;3.793518
2054.000000;3.791078
2053.000000;3.816783
2052.000000;3.891884
2051.000000;3.979152
2050.000000;4.074163
2049.000000;4.126503
2048.000000;4.200982
2047.000000;4.005681
2046.000000;3.819653
2045.000000;3.677574
2044.000000;3.838431
2043.000000;4.471424
2042.000000;3.739316
2041.000000;3.544327
2040.000000;3.585706
2039.000000;3.837652
2038.000000;4.269662
2037.000000;3.877265
2036.000000;3.798061
2035.000000;3.908741
2034.000000;4.108701
2033.000000;4.317659
2032.000000;4.232918
2031.000000;4.018185
2030.000000;3.933991
2029.000000;4.019658
2028.000000;3.933433
2027.000000;3.765649
2026.000000;3.776526
2025.000000;3.936254
2024.000000;3.941085
2023.000000;3.700600
2022.000000;3.545820
2021.000000;3.522597
2020.000000;3.576982
2019.000000;3.677377
2018.000000;3.807072
2017.000000;4.048476
2016.000000;4.336682
2015.000000;4.139840
2014.000000;4.020854
2013.000000;4.030579
2012.000000;4.076143
2011.000000;4.055058
2010.000000;3.916564
2009.000000;3.844318
2008.000000;3.944043
2007.000000;4.195341
2006.000000;4.042435
2005.000000;3.811941
2004.000000;3.728844
2003.000000;3.666141
2002.000000;3.642886
2001.000000;3.688631
2000.000000;3.831300
1999.000000;4.044246
1998.000000;4.096062
1997.000000;4.087026
1996.000000;4.076324
1995.000000;4.065235
1994.000000;4.195099
1993.000000;4.467509
1992.000000;4.431992
1991.000000;3.979971
1990.000000;3.768852
1989.000000;3.759046
1988.000000;4.051613
1987.000000;4.433717
1986.000000;4.029701
1985.000000;3.974139
1984.000000;4.204823
1983.000000;4.525964
1982.000000;4.109453
1981.000000;3.769069
1980.000000;3.593612
1979.000000;3.489559
1978.000000;3.454432
1977.000000;3.461861
1976.000000;3.502923
1975.000000;3.572733
1974.000000;3.667337
1973.000000;3.824376
1972.000000;3.980255
1971.000000;3.862348
1970.000000;3.742161
1969.000000;3.967056
1968.000000;4.222062
1967.000000;3.762499
1966.000000;3.647194
1965.000000;3.796799
1964.000000;3.881747
1963.000000;3.714940
1962.000000;3.601472
1961.000000;3.561679
1960.000000;3.560071
1959.000000;3.628694
1958.000000;4.013919
1957.000000;4.346258
1956.000000;3.775036
1955.000000;3.697099
1954.000000;3.770700
1953.000000;3.915936
1952.000000;3.963299
1951.000000;3.819575
1950.000000;3.859860
1949.000000;3.887787
1948.000000;3.771306
1947.000000;3.715648
1946.000000;3.872799
1945.000000;4.505979
1944.000000;4.457373
1943.000000;4.011576
1942.000000;3.850265
1941.000000;3.707816
1940.000000;3.610508
1939.000000;3.567278
1938.000000;3.599803
1937.000000;3.719427
1936.000000;3.959338
1935.000000;4.086992
1934.000000;3.984491
1933.000000;3.926244
1932.000000;3.803698
1931.000000;3.717389
1930.000000;3.655133
1929.000000;3.606423
1928.000000;3.620830
1927.000000;3.760271
1926.000000;4.283608
1925.000000;4.133382
1924.000000;3.777758
1923.000000;3.796124
1922.000000;3.983790
1921.000000;4.386317
1920.000000;4.028624
1919.000000;3.730232
1918.000000;3.649325
1917.000000;3.588270
1916.000000;3.554905
1915.000000;3.574094
1914.000000;3.714367
1913.000000;4.059669
1912.000000;4.166791
1911.000000;3.853911
1910.000000;3.717450
1909.000000;3.717149
1908.000000;3.813256
1907.000000;3.823860
1906.000000;3.686035
1905.000000;3.616245
1904.000000;3.681769
1903.000000;3.967065
1902.000000;4.339574
1901.000000;4.742901
1900.000000;4.536866
1899.000000;3.919562
1898.000000;3.761736
1897.000000;3.753707
1896.000000;3.838629
1895.000000;3.981450
1894.000000;3.966863
1893.000000;3.803328
1892.000000;3.694982
1891.000000;3.679355
1890.000000;3.717999
1889.000000;3.780519
1888.000000;3.900425
1887.000000;4.331941
1886.000000;4.352815
1885.000000;4.057812
1884.000000;4.244199
1883.000000;4.258546
1882.000000;4.092424
1881.000000;4.098797
1880.000000;4.290960
1879.000000;4.394669
1878.000000;3.956530
1877.000000;3.776153
1876.000000;3.808452
1875.000000;4.225176
1874.000000;4.469493
1873.000000;3.932611
1872.000000;4.002745
1871.000000;4.573267
1870.000000;4.635013
1869.000000;4.465711
1868.000000;4.384932
1867.000000;3.942544
1866.000000;3.723970
1865.000000;3.663352
1864.000000;3.690127
1863.000000;3.724283
1862.000000;3.728174
1861.000000;3.819439
1860.000000;3.852577
1859.000000;3.713118
1858.000000;3.638790
1857.000000;3.718355
1856.000000;3.928435
1855.000000;3.966412
1854.000000;3.800800
1853.000000;3.731967
1852.000000;3.741068
1851.000000;3.768478
1850.000000;3.760166
1849.000000;3.781034
1848.000000;3.856562
1847.000000;3.893733
1846.000000;3.903973
1845.000000;4.008421
1844.000000;4.393689
1843.000000;4.300293
1842.000000;3.870171
1841.000000;3.698154
1840.000000;3.655414
1839.000000;3.751281
1838.000000;3.977176
1837.000000;4.207657
1836.000000;4.133836
1835.000000;3.881943
1834.000000;3.731819
1833.000000;3.680436
1832.000000;3.684611
1831.000000;3.703306
1830.000000;3.724081
1829.000000;3.743727
1828.000000;3.752239
1827.000000;3.733084
1826.000000;3.669296
1825.000000;3.581137
1824.000000;3.495962
1823.000000;3.420370
1822.000000;3.376557
1821.000000;3.385168
1820.000000;3.465426
1819.000000;3.556119
1818.000000;3.561186
1817.000000;3.562413
1816.000000;3.667277
1815.000000;4.013285
1814.000000;4.141485
1813.000000;3.915432
1812.000000;4.121239
1811.000000;4.340903
1810.000000;4.052100
1809.000000;4.133566
1808.000000;4.439426
1807.000000;4.216153
1806.000000;4.090045
1805.000000;4.053949
1804.000000;4.007808
1803.000000;3.992853
1802.000000;4.013942
1801.000000;4.101323
1800.000000;4.200037
1799.000000;4.154573
1798.000000;3.950790
1797.000000;3.831089
1796.000000;3.922658
1795.000000;3.972063
1794.000000;3.743770
1793.000000;3.675172
1792.000000;3.870325
1791.000000;4.152607
1790.000000;3.953126
1789.000000;3.898279
1788.000000;4.343343
1787.000000;4.270351
1786.000000;3.901527
1785.000000;3.859124
1784.000000;3.906451
1783.000000;3.921095
1782.000000;3.759691
1781.000000;3.616040
1780.000000;3.568792
1779.000000;3.561937
1778.000000;3.547596
1777.000000;3.530887
1776.000000;3.548695
1775.000000;3.623209
1774.000000;3.704516
1773.000000;3.622163
1772.000000;3.524442
1771.000000;3.550743
1770.000000;3.725042
1769.000000;4.168887
1768.000000;4.227833
1767.000000;3.897061
1766.000000;3.852926
1765.000000;3.875369
1764.000000;3.969749
1763.000000;4.203717
1762.000000;4.643778
1761.000000;4.547622
1760.000000;4.441812
1759.000000;5.088244
1758.000000;4.654643
1757.000000;4.331059
1756.000000;4.287579
1755.000000;4.267578
1754.000000;4.148712
1753.000000;3.874316
1752.000000;3.712174
1751.000000;3.683554
1750.000000;3.728568
1749.000000;3.808566
1748.000000;3.897000
1747.000000;3.982740
1746.000000;4.068039
1745.000000;4.161321
1744.000000;4.081074
1743.000000;3.817256
1742.000000;3.637732
1741.000000;3.588705
1740.000000;3.700618
1739.000000;3.905206
1738.000000;3.873406
1737.000000;3.791543
1736.000000;3.811023
1735.000000;3.891255
1734.000000;4.067007
1733.000000;4.260827
1732.000000;4.247873
1731.000000;4.041018
1730.000000;3.860629
1729.000000;3.878491
1728.000000;4.215826
1727.000000;4.619241
1726.000000;4.404008
1725.000000;4.541240
1724.000000;5.172744
1723.000000;4.489686
1722.000000;4.058575
1721.000000;3.876722
1720.000000;3.771756
1719.000000;3.725082
1718.000000;3.755347
1717.000000;3.880608
1716.000000;4.024669
1715.000000;3.941994
1714.000000;3.808477
1713.000000;3.820833
1712.000000;4.174784
1711.000000;4.734258
1710.000000;4.409823
1709.000000;4.426911
1708.000000;4.125976
1707.000000;3.867423
1706.000000;3.840577
1705.000000;4.026426
1704.000000;4.151293
1703.000000;4.056247
1702.000000;4.166525
1701.000000;4.438251
1700.000000;4.405706
1699.000000;4.327436
1698.000000;4.379514
1697.000000;4.387350
1696.000000;4.255580
1695.000000;4.327254
1694.000000;4.897259
1693.000000;4.404558
1692.000000;4.479249
1691.000000;4.729259
1690.000000;4.013556
1689.000000;3.878986
1688.000000;3.933514
1687.000000;4.134434
1686.000000;4.195213
1685.000000;3.933619
1684.000000;3.814701
1683.000000;3.799142
1682.000000;3.830044
1681.000000;3.925486
1680.000000;4.155899
1679.000000;4.442445
1678.000000;4.931799
1677.000000;4.387506
1676.000000;3.962092
1675.000000;3.881416
1674.000000;3.918153
1673.000000;3.978647
1672.000000;4.000751
1671.000000;4.042335
1670.000000;4.109535
1669.000000;4.107021
1668.000000;4.356248
1667.000000;4.283590
1666.000000;3.817794
1665.000000;3.712622
1664.000000;3.916463
1663.000000;4.282236
1662.000000;4.081731
1661.000000;4.050705
1660.000000;4.366930
1659.000000;4.191726
1658.000000;3.839195
1657.000000;3.733434
1656.000000;3.754825
1655.000000;3.893833
1654.000000;4.128761
1653.000000;3.995001
1652.000000;3.774160
1651.000000;3.701232
1650.000000;3.699498
1649.000000;3.719241
1648.000000;3.729628
1647.000000;3.715444
1646.000000;3.703797
1645.000000;3.750616
1644.000000;3.985062
1643.000000;4.034142
1642.000000;3.730349
1641.000000;3.641646
1640.000000;3.692122
1639.000000;3.798515
1638.000000;3.900151
1637.000000;3.870692
1636.000000;3.794283
1635.000000;3.759257
1634.000000;3.861944
1633.000000;4.079562
1632.000000;3.980812
1631.000000;3.808209
1630.000000;3.778313
1629.000000;3.797391
1628.000000;3.861407
1627.000000;3.897801
1626.000000;3.982723
1625.000000;4.300152
1624.000000;4.207336
1623.000000;3.932611
1622.000000;3.791825
1621.000000;3.657477
1620.000000;3.574485
1619.000000;3.557161
1618.000000;3.606271
1617.000000;3.705480
1616.000000;3.814651
1615.000000;3.893935
1614.000000;3.916260
1613.000000;3.864139
1612.000000;3.767353
1611.000000;3.705708
1610.000000;3.680114
1609.000000;3.645760
1608.000000;3.609658
1607.000000;3.622852
1606.000000;3.732004
1605.000000;3.997252
1604.000000;4.288404
1603.000000;4.181431
1602.000000;4.067728
1601.000000;3.941501
1600.000000;3.818370
1599.000000;3.781625
1598.000000;3.873354
1597.000000;4.301399
1596.000000;4.480055
1595.000000;3.992642
1594.000000;3.817791
1593.000000;3.717456
1592.000000;3.634907
1591.000000;3.561916
1590.000000;3.550029
1589.000000;3.608018
1588.000000;3.838201
1587.000000;4.424442
1586.000000;4.056538
1585.000000;3.823415
1584.000000;3.858329
1583.000000;3.944332
1582.000000;4.309700
1581.000000;4.791013
1580.000000;4.067275
1579.000000;3.872714
1578.000000;3.849540
1577.000000;3.896827
1576.000000;4.013976
1575.000000;4.092236
1574.000000;4.118809
1573.000000;3.948458
1572.000000;3.795075
1571.000000;3.754131
1570.000000;3.858480
1569.000000;4.380653
1568.000000;4.274398
1567.000000;3.784968
1566.000000;3.605096
1565.000000;3.549922
1564.000000;3.607287
1563.000000;3.738464
1562.000000;3.911502
1561.000000;4.128930
1560.000000;4.423314
1559.000000;4.580681
1558.000000;4.401243
1557.000000;4.337875
1556.000000;4.373243
1555.000000;4.659729
1554.000000;4.822939
1553.000000;4.817214
1552.000000;4.900194
1551.000000;4.097726
1550.000000;3.812673
1549.000000;3.745931
1548.000000;3.857435
1547.000000;4.153172
1546.000000;4.159780
1545.000000;4.010913
1544.000000;3.961703
1543.000000;3.919290
1542.000000;3.908471
1541.000000;3.944072
1540.000000;3.984339
1539.000000;3.991713
1538.000000;4.030486
1537.000000;4.212220
1536.000000;4.395996
1535.000000;4.395749
1534.000000;4.444988
1533.000000;4.325880
1532.000000;4.136025
1531.000000;4.024659
1530.000000;3.952841
1529.000000;3.912678
1528.000000;3.911448
1527.000000;3.932956
1526.000000;3.937318
1525.000000;3.944356
1524.000000;3.998903
1523.000000;4.126812
1522.000000;4.437555
1521.000000;4.718030
1520.000000;4.416944
1519.000000;4.251930
1518.000000;4.240047
1517.000000;4.322710
1516.000000;4.536868
1515.000000;4.728695
1514.000000;4.865077
1513.000000;4.679097
1512.000000;4.173969
1511.000000;3.963750
1510.000000;3.921306
1509.000000;3.911573
1508.000000;3.906428
1507.000000;3.898378
1506.000000;3.936942
1505.000000;4.103240
1504.000000;4.026761
1503.000000;3.783469
1502.000000;3.729083
1501.000000;3.861095
1500.000000;4.188414
1499.000000;4.221870
1498.000000;4.002740
1497.000000;3.959193
1496.000000;3.960071
1495.000000;3.955687
1494.000000;3.954564
1493.000000;4.022471
1492.000000;4.232775
1491.000000;4.355617
1490.000000;4.195744
1489.000000;4.042681
1488.000000;3.937266
1487.000000;3.906002
1486.000000;4.008796
1485.000000;3.970590
1484.000000;3.805982
1483.000000;3.766156
1482.000000;3.901009
1481.000000;4.307909
1480.000000;4.097830
1479.000000;3.732000
1478.000000;3.596545
1477.000000;3.599535
1476.000000;3.722583
1475.000000;4.005440
1474.000000;4.375021
1473.000000;4.164108
1472.000000;4.008941
1471.000000;3.934226
1470.000000;4.132921
1469.000000;4.303805
1468.000000;3.777341
1467.000000;3.590462
1466.000000;3.624933
1465.000000;3.956908
1464.000000;4.320043
1463.000000;3.852480
1462.000000;3.680164
1461.000000;3.706208
1460.000000;3.898807
1459.000000;4.181809
1458.000000;4.119309
1457.000000;4.053591
1456.000000;4.105387
1455.000000;4.360952
1454.000000;4.765618
1453.000000;4.229688
1452.000000;4.034970
1451.000000;4.067325
1450.000000;4.359091
1449.000000;4.358833
1448.000000;3.854223
1447.000000;3.683036
1446.000000;3.670361
1445.000000;3.860045
1444.000000;4.197382
1443.000000;3.979381
1442.000000;3.745999
1441.000000;3.736599
1440.000000;3.958288
1439.000000;4.019797
1438.000000;3.824222
1437.000000;3.779124
1436.000000;3.778131
1435.000000;3.829181
1434.000000;4.044141
1433.000000;4.057794
1432.000000;3.809069
1431.000000;3.724950
1430.000000;3.737713
1429.000000;3.731700
1428.000000;3.700590
1427.000000;3.689957
1426.000000;3.728503
1425.000000;3.816935
1424.000000;3.921668
1423.000000;3.998613
1422.000000;3.952862
1421.000000;3.860218
1420.000000;3.874935
1419.000000;3.980885
1418.000000;4.223615
1417.000000;4.387788
1416.000000;3.950836
1415.000000;3.676986
1414.000000;3.602758
1413.000000;3.695839
1412.000000;3.946350
1411.000000;4.205785
1410.000000;4.370265
1409.000000;4.261233
1408.000000;4.034251
1407.000000;3.952859
1406.000000;3.939344
1405.000000;3.912234
1404.000000;3.875066
1403.000000;3.871035
1402.000000;3.927201
1401.000000;4.036461
1400.000000;4.188995
1399.000000;4.352423
1398.000000;4.482426
1397.000000;4.464871
1396.000000;4.240743
1395.000000;3.991766
1394.000000;3.808011
1393.000000;3.721611
1392.000000;3.747458
1391.000000;3.947271
1390.000000;4.234946
1389.000000;4.120743
1388.000000;4.100392
1387.000000;4.349027
1386.000000;4.269399
1385.000000;4.124928
1384.000000;4.125435
1383.000000;4.062010
1382.000000;4.186146
1381.000000;4.471612
1380.000000;4.361772
1379.000000;4.155040
1378.000000;4.004363
1377.000000;3.965843
1376.000000;4.010912
1375.000000;4.049724
1374.000000;4.085491
1373.000000;4.146795
1372.000000;4.055608
1371.000000;3.810768
1370.000000;3.628288
1369.000000;3.550106
1368.000000;3.569760
1367.000000;3.673799
1366.000000;3.783976
1365.000000;3.824086
1364.000000;3.914214
1363.000000;4.298443
1362.000000;4.891901
1361.000000;4.496052
1360.000000;4.440320
1359.000000;4.319443
1358.000000;4.043521
1357.000000;3.821832
1356.000000;3.748785
1355.000000;3.802210
1354.000000;3.793382
1353.000000;3.664097
1352.000000;3.578779
1351.000000;3.589360
1350.000000;3.721729
1349.000000;3.882550
1348.000000;3.762166
1347.000000;3.657871
1346.000000;3.672052
1345.000000;3.714765
1344.000000;3.772271
1343.000000;3.930787
1342.000000;4.344311
1341.000000;4.231238
1340.000000;3.827996
1339.000000;3.667798
1338.000000;3.608502
1337.000000;3.630756
1336.000000;3.753956
1335.000000;4.117589
1334.000000;4.154996
1333.000000;3.893434
1332.000000;4.052550
1331.000000;3.954474
1330.000000;3.781265
1329.000000;3.962714
1328.000000;4.129577
1327.000000;3.853808
1326.000000;3.655725
1325.000000;3.565012
1324.000000;3.579951
1323.000000;3.778662
1322.000000;3.865532
1321.000000;3.652317
1320.000000;3.613524
1319.000000;3.729762
1318.000000;3.826248
1317.000000;3.848349
1316.000000;3.919897
1315.000000;3.957491
1314.000000;3.820528
1313.000000;3.720229
1312.000000;3.721670
1311.000000;3.760755
1310.000000;3.744684
1309.000000;3.730191
1308.000000;3.820257
1307.000000;4.064006
1306.000000;4.352684
1305.000000;4.253841
1304.000000;4.132861
1303.000000;4.172830
1302.000000;4.324193
1301.000000;4.684351
1300.000000;4.720126
1299.000000;4.091123
1298.000000;3.843503
1297.000000;3.837751
1296.000000;3.820461
1295.000000;3.708129
1294.000000;3.701591
1293.000000;3.789018
1292.000000;3.771962
1291.000000;3.745842
1290.000000;3.855193
1289.000000;4.094256
1288.000000;4.518806
1287.000000;4.661518
1286.000000;4.152836
1285.000000;3.915711
1284.000000;3.777775
1283.000000;3.711354
1282.000000;3.705670
1281.000000;3.709686
1280.000000;3.698933
1279.000000;3.730425
1278.000000;4.036541
1277.000000;4.371340
1276.000000;3.989348
1275.000000;3.896447
1274.000000;3.900985
1273.000000;3.894981
1272.000000;3.866033
1271.000000;3.803533
1270.000000;3.767561
1269.000000;3.855724
1268.000000;4.377038
1267.000000;4.129600
1266.000000;3.754271
1265.000000;3.652839
1264.000000;3.789282
1263.000000;4.376669
1262.000000;4.059512
1261.000000;3.963562
1260.000000;3.946641
1259.000000;3.682034
1258.000000;3.607190
1257.000000;3.697074
1256.000000;3.973297
1255.000000;4.488908
1254.000000;4.767213
1253.000000;4.192776
1252.000000;3.858324
1251.000000;3.752578
1250.000000;3.778957
1249.000000;3.940931
1248.000000;4.228027
1247.000000;4.446804
1246.000000;4.150800
1245.000000;3.890426
1244.000000;3.840716
1243.000000;3.935711
1242.000000;4.088684
1241.000000;4.092966
1240.000000;4.043406
1239.000000;3.951808
1238.000000;3.841624
1237.000000;3.910452
1236.000000;4.115713
1235.000000;4.105194
1234.000000;4.003142
1233.000000;3.953344
1232.000000;3.963937
1231.000000;4.047952
1230.000000;4.233399
1229.000000;4.601942
1228.000000;4.511863
1227.000000;4.212836
1226.000000;4.102548
1225.000000;3.934372
1224.000000;3.722860
1223.000000;3.587072
1222.000000;3.572969
1221.000000;3.653092
1220.000000;3.724321
1219.000000;3.738916
1218.000000;3.824648
1217.000000;3.963384
1216.000000;4.096080
1215.000000;4.105519
1214.000000;4.134540
1213.000000;4.789703
1212.000000;4.034144
1211.000000;3.692978
1210.000000;3.645420
1209.000000;3.785454
1208.000000;4.103884
1207.000000;4.184387
1206.000000;4.162521
1205.000000;4.482553
1204.000000;5.001169
1203.000000;4.379228
1202.000000;4.119673
1201.000000;3.895573
1200.000000;3.733904
