Criado como novo conjunto de dados;"Jao_teste_celulas.spp","9724.4 Secs"
cm-1;Abs
10000.000000;1.631133
9999.000000;1.631720
9998.000000;1.632700
9997.000000;1.633386
9996.000000;1.633587
9995.000000;1.633332
9994.000000;1.632223
9993.000000;1.629918
9992.000000;1.627059
9991.000000;1.624965
9990.000000;1.624353
9989.000000;1.624813
9988.000000;1.625529
9987.000000;1.626029
9986.000000;1.626122
9985.000000;1.625624
9984.000000;1.624536
9983.000000;1.623287
9982.000000;1.622521
9981.000000;1.622623
9980.000000;1.623445
9979.000000;1.624373
9978.000000;1.624673
9977.000000;1.623998
9976.000000;1.622712
9975.000000;1.621623
9974.000000;1.621337
9973.000000;1.621860
9972.000000;1.622651
9971.000000;1.622845
9970.000000;1.621618
9969.000000;1.618827
9968.000000;1.615483
9967.000000;1.613229
9966.000000;1.613034
9965.000000;1.614437
9964.000000;1.616227
9963.000000;1.617707
9962.000000;1.618962
9961.000000;1.619989
9960.000000;1.620150
9959.000000;1.618840
9958.000000;1.616414
9957.000000;1.614079
9956.000000;1.612904
9955.000000;1.613103
9954.000000;1.614123
9953.000000;1.615032
9952.000000;1.614849
9951.000000;1.613081
9950.000000;1.610253
9949.000000;1.607603
9948.000000;1.606013
9947.000000;1.605430
9946.000000;1.605404
9945.000000;1.605789
9944.000000;1.606594
9943.000000;1.607458
9942.000000;1.607799
9941.000000;1.607430
9940.000000;1.606587
9939.000000;1.605474
9938.000000;1.604248
9937.000000;1.603385
9936.000000;1.603409
9935.000000;1.604051
9934.000000;1.604198
9933.000000;1.603027
9932.000000;1.600947
9931.000000;1.599201
9930.000000;1.598770
9929.000000;1.599747
9928.000000;1.601292
9927.000000;1.601960
9926.000000;1.600640
9925.000000;1.597690
9924.000000;1.594872
9923.000000;1.593703
9922.000000;1.594033
9921.000000;1.594484
9920.000000;1.594089
9919.000000;1.593086
9918.000000;1.592175
9917.000000;1.591656
9916.000000;1.591472
9915.000000;1.591612
9914.000000;1.592069
9913.000000;1.592517
9912.000000;1.592315
9911.000000;1.591000
9910.000000;1.588854
9909.000000;1.586947
9908.000000;1.586397
9907.000000;1.587342
9906.000000;1.588735
9905.000000;1.589370
9904.000000;1.588997
9903.000000;1.588223
9902.000000;1.587573
9901.000000;1.587106
9900.000000;1.586765
9899.000000;1.586581
9898.000000;1.586564
9897.000000;1.586738
9896.000000;1.587277
9895.000000;1.588214
9894.000000;1.589072
9893.000000;1.589203
9892.000000;1.588571
9891.000000;1.587723
9890.000000;1.586907
9889.000000;1.585711
9888.000000;1.583850
9887.000000;1.581925
9886.000000;1.581039
9885.000000;1.581732
9884.000000;1.583451
9883.000000;1.584918
9882.000000;1.584994
9881.000000;1.583481
9880.000000;1.581283
9879.000000;1.579626
9878.000000;1.579026
9877.000000;1.579072
9876.000000;1.579121
9875.000000;1.578855
9874.000000;1.578130
9873.000000;1.576822
9872.000000;1.575134
9871.000000;1.573713
9870.000000;1.573031
9869.000000;1.572830
9868.000000;1.572516
9867.000000;1.571894
9866.000000;1.571175
9865.000000;1.570466
9864.000000;1.569692
9863.000000;1.568953
9862.000000;1.568570
9861.000000;1.568739
9860.000000;1.569407
9859.000000;1.570395
9858.000000;1.571286
9857.000000;1.571385
9856.000000;1.570356
9855.000000;1.568957
9854.000000;1.568523
9853.000000;1.569490
9852.000000;1.570813
9851.000000;1.571100
9850.000000;1.569971
9849.000000;1.567989
9848.000000;1.565755
9847.000000;1.563627
9846.000000;1.561997
9845.000000;1.561156
9844.000000;1.560897
9843.000000;1.560718
9842.000000;1.560472
9841.000000;1.560446
9840.000000;1.560777
9839.000000;1.561197
9838.000000;1.561445
9837.000000;1.561543
9836.000000;1.561510
9835.000000;1.561159
9834.000000;1.560411
9833.000000;1.559515
9832.000000;1.558693
9831.000000;1.557842
9830.000000;1.556840
9829.000000;1.555862
9828.000000;1.555097
9827.000000;1.554379
9826.000000;1.553499
9825.000000;1.552699
9824.000000;1.552395
9823.000000;1.552486
9822.000000;1.552430
9821.000000;1.552089
9820.000000;1.552032
9819.000000;1.552768
9818.000000;1.554018
9817.000000;1.554996
9816.000000;1.555190
9815.000000;1.554659
9814.000000;1.553756
9813.000000;1.552797
9812.000000;1.551911
9811.000000;1.551010
9810.000000;1.549997
9809.000000;1.549118
9808.000000;1.548888
9807.000000;1.549481
9806.000000;1.550444
9805.000000;1.551256
9804.000000;1.551922
9803.000000;1.552622
9802.000000;1.552981
9801.000000;1.552300
9800.000000;1.550563
9799.000000;1.548648
9798.000000;1.547349
9797.000000;1.546629
9796.000000;1.546096
9795.000000;1.545732
9794.000000;1.545726
9793.000000;1.545906
9792.000000;1.545883
9791.000000;1.545655
9790.000000;1.545546
9789.000000;1.545517
9788.000000;1.545058
9787.000000;1.543902
9786.000000;1.542469
9785.000000;1.541348
9784.000000;1.540636
9783.000000;1.540033
9782.000000;1.539323
9781.000000;1.538425
9780.000000;1.537203
9779.000000;1.535707
9778.000000;1.534588
9777.000000;1.534721
9776.000000;1.536093
9775.000000;1.537369
9774.000000;1.536995
9773.000000;1.534724
9772.000000;1.531732
9771.000000;1.529328
9770.000000;1.527950
9769.000000;1.527402
9768.000000;1.527558
9767.000000;1.528472
9766.000000;1.529971
9765.000000;1.531470
9764.000000;1.532275
9763.000000;1.531990
9762.000000;1.530705
9761.000000;1.528936
9760.000000;1.527387
9759.000000;1.526550
9758.000000;1.526383
9757.000000;1.526403
9756.000000;1.526136
9755.000000;1.525494
9754.000000;1.524743
9753.000000;1.524164
9752.000000;1.523780
9751.000000;1.523363
9750.000000;1.522689
9749.000000;1.521852
9748.000000;1.521235
9747.000000;1.520985
9746.000000;1.520647
9745.000000;1.519702
9744.000000;1.518521
9743.000000;1.518345
9742.000000;1.519937
9741.000000;1.522496
9740.000000;1.524311
9739.000000;1.524476
9738.000000;1.523519
9737.000000;1.522299
9736.000000;1.520877
9735.000000;1.518926
9734.000000;1.516811
9733.000000;1.515602
9732.000000;1.515984
9731.000000;1.517588
9730.000000;1.519476
9729.000000;1.520946
9728.000000;1.521690
9727.000000;1.521484
9726.000000;1.520117
9725.000000;1.517627
9724.000000;1.514419
9723.000000;1.511175
9722.000000;1.508709
9721.000000;1.507651
9720.000000;1.507962
9719.000000;1.508826
9718.000000;1.509385
9717.000000;1.509663
9716.000000;1.510405
9715.000000;1.511843
9714.000000;1.513002
9713.000000;1.512684
9712.000000;1.510956
9711.000000;1.509145
9710.000000;1.508297
9709.000000;1.508182
9708.000000;1.508004
9707.000000;1.507578
9706.000000;1.507221
9705.000000;1.506883
9704.000000;1.506163
9703.000000;1.505215
9702.000000;1.504837
9701.000000;1.505274
9700.000000;1.505520
9699.000000;1.504539
9698.000000;1.502914
9697.000000;1.502358
9696.000000;1.503525
9695.000000;1.505042
9694.000000;1.505079
9693.000000;1.503421
9692.000000;1.501394
9691.000000;1.500076
9690.000000;1.499368
9689.000000;1.498727
9688.000000;1.498123
9687.000000;1.497937
9686.000000;1.498270
9685.000000;1.498698
9684.000000;1.498632
9683.000000;1.497787
9682.000000;1.496430
9681.000000;1.495296
9680.000000;1.495127
9679.000000;1.496096
9678.000000;1.497616
9677.000000;1.498698
9676.000000;1.498542
9675.000000;1.496957
9674.000000;1.494453
9673.000000;1.492051
9672.000000;1.490691
9671.000000;1.490538
9670.000000;1.490890
9669.000000;1.490910
9668.000000;1.490387
9667.000000;1.489608
9666.000000;1.488686
9665.000000;1.487445
9664.000000;1.485991
9663.000000;1.484975
9662.000000;1.484984
9661.000000;1.485846
9660.000000;1.486709
9659.000000;1.486792
9658.000000;1.485901
9657.000000;1.484388
9656.000000;1.482909
9655.000000;1.482158
9654.000000;1.482401
9653.000000;1.483089
9652.000000;1.483228
9651.000000;1.482392
9650.000000;1.481215
9649.000000;1.480703
9648.000000;1.481185
9647.000000;1.482154
9646.000000;1.482967
9645.000000;1.483414
9644.000000;1.483603
9643.000000;1.483659
9642.000000;1.483696
9641.000000;1.483813
9640.000000;1.483921
9639.000000;1.483720
9638.000000;1.483012
9637.000000;1.481928
9636.000000;1.480753
9635.000000;1.479653
9634.000000;1.478675
9633.000000;1.477846
9632.000000;1.477160
9631.000000;1.476585
9630.000000;1.476199
9629.000000;1.476143
9628.000000;1.476286
9627.000000;1.476180
9626.000000;1.475659
9625.000000;1.475305
9624.000000;1.475912
9623.000000;1.477493
9622.000000;1.479043
9621.000000;1.479254
9620.000000;1.477369
9619.000000;1.473571
9618.000000;1.469019
9617.000000;1.465436
9616.000000;1.464065
9615.000000;1.464719
9614.000000;1.466064
9613.000000;1.467008
9612.000000;1.467561
9611.000000;1.468171
9610.000000;1.468649
9609.000000;1.468275
9608.000000;1.466871
9607.000000;1.465256
9606.000000;1.464457
9605.000000;1.464637
9604.000000;1.464958
9603.000000;1.464488
9602.000000;1.463216
9601.000000;1.462053
9600.000000;1.461748
9599.000000;1.461993
9598.000000;1.461818
9597.000000;1.460794
9596.000000;1.459503
9595.000000;1.458764
9594.000000;1.458765
9593.000000;1.459115
9592.000000;1.459405
9591.000000;1.459448
9590.000000;1.459191
9589.000000;1.458758
9588.000000;1.458456
9587.000000;1.458453
9586.000000;1.458528
9585.000000;1.458374
9584.000000;1.457975
9583.000000;1.457447
9582.000000;1.456750
9581.000000;1.455932
9580.000000;1.455463
9579.000000;1.455780
9578.000000;1.456500
9577.000000;1.456633
9576.000000;1.455760
9575.000000;1.454515
9574.000000;1.453647
9573.000000;1.453129
9572.000000;1.452598
9571.000000;1.452248
9570.000000;1.452598
9569.000000;1.453442
9568.000000;1.453739
9567.000000;1.452824
9566.000000;1.451317
9565.000000;1.450412
9564.000000;1.450554
9563.000000;1.451168
9562.000000;1.451510
9561.000000;1.451359
9560.000000;1.450838
9559.000000;1.449993
9558.000000;1.448868
9557.000000;1.447729
9556.000000;1.446870
9555.000000;1.446253
9554.000000;1.445618
9553.000000;1.444922
9552.000000;1.444382
9551.000000;1.444055
9550.000000;1.443713
9549.000000;1.443280
9548.000000;1.443024
9547.000000;1.443115
9546.000000;1.443267
9545.000000;1.443077
9544.000000;1.442583
9543.000000;1.442176
9542.000000;1.441993
9541.000000;1.441737
9540.000000;1.441167
9539.000000;1.440451
9538.000000;1.439860
9537.000000;1.439313
9536.000000;1.438468
9535.000000;1.437207
9534.000000;1.435851
9533.000000;1.434875
9532.000000;1.434564
9531.000000;1.434935
9530.000000;1.435814
9529.000000;1.436835
9528.000000;1.437489
9527.000000;1.437383
9526.000000;1.436569
9525.000000;1.435543
9524.000000;1.434827
9523.000000;1.434554
9522.000000;1.434465
9521.000000;1.434256
9520.000000;1.433869
9519.000000;1.433420
9518.000000;1.432941
9517.000000;1.432298
9516.000000;1.431440
9515.000000;1.430658
9514.000000;1.430427
9513.000000;1.430881
9512.000000;1.431522
9511.000000;1.431637
9510.000000;1.431017
9509.000000;1.430134
9508.000000;1.429567
9507.000000;1.429477
9506.000000;1.429763
9505.000000;1.430301
9504.000000;1.430752
9503.000000;1.430444
9502.000000;1.428938
9501.000000;1.426714
9500.000000;1.424875
9499.000000;1.424084
9498.000000;1.424068
9497.000000;1.424232
9496.000000;1.424397
9495.000000;1.424694
9494.000000;1.425023
9493.000000;1.425027
9492.000000;1.424611
9491.000000;1.424204
9490.000000;1.424364
9489.000000;1.425162
9488.000000;1.426004
9487.000000;1.426090
9486.000000;1.425113
9485.000000;1.423532
9484.000000;1.422105
9483.000000;1.421199
9482.000000;1.420599
9481.000000;1.419936
9480.000000;1.419147
9479.000000;1.418450
9478.000000;1.418000
9477.000000;1.417590
9476.000000;1.416704
9475.000000;1.414985
9474.000000;1.412814
9473.000000;1.411295
9472.000000;1.411328
9471.000000;1.412642
9470.000000;1.413962
9469.000000;1.414245
9468.000000;1.413555
9467.000000;1.412640
9466.000000;1.412042
9465.000000;1.411815
9464.000000;1.411807
9463.000000;1.411888
9462.000000;1.412009
9461.000000;1.412226
9460.000000;1.412549
9459.000000;1.412687
9458.000000;1.412194
9457.000000;1.411056
9456.000000;1.409868
9455.000000;1.409127
9454.000000;1.408620
9453.000000;1.407873
9452.000000;1.406990
9451.000000;1.406577
9450.000000;1.406884
9449.000000;1.407489
9448.000000;1.407899
9447.000000;1.408075
9446.000000;1.408234
9445.000000;1.408455
9444.000000;1.408637
9443.000000;1.408631
9442.000000;1.408294
9441.000000;1.407589
9440.000000;1.406787
9439.000000;1.406300
9438.000000;1.406135
9437.000000;1.405708
9436.000000;1.404473
9435.000000;1.402686
9434.000000;1.401259
9433.000000;1.400784
9432.000000;1.400889
9431.000000;1.400701
9430.000000;1.399878
9429.000000;1.398954
9428.000000;1.398562
9427.000000;1.398582
9426.000000;1.398321
9425.000000;1.397438
9424.000000;1.396327
9423.000000;1.395516
9422.000000;1.395080
9421.000000;1.394818
9420.000000;1.394633
9419.000000;1.394425
9418.000000;1.393927
9417.000000;1.393112
9416.000000;1.392561
9415.000000;1.392924
9414.000000;1.394018
9413.000000;1.394878
9412.000000;1.394831
9411.000000;1.394146
9410.000000;1.393475
9409.000000;1.393002
9408.000000;1.392446
9407.000000;1.391658
9406.000000;1.390888
9405.000000;1.390457
9404.000000;1.390348
9403.000000;1.390168
9402.000000;1.389511
9401.000000;1.388398
9400.000000;1.387327
9399.000000;1.386812
9398.000000;1.386862
9397.000000;1.387042
9396.000000;1.387069
9395.000000;1.387149
9394.000000;1.387598
9393.000000;1.388216
9392.000000;1.388262
9391.000000;1.387214
9390.000000;1.385522
9389.000000;1.384372
9388.000000;1.384544
9387.000000;1.385559
9386.000000;1.386147
9385.000000;1.385578
9384.000000;1.384252
9383.000000;1.382991
9382.000000;1.382240
9381.000000;1.382164
9380.000000;1.382980
9379.000000;1.384590
9378.000000;1.386090
9377.000000;1.386312
9376.000000;1.384981
9375.000000;1.382895
9374.000000;1.380974
9373.000000;1.379569
9372.000000;1.378684
9371.000000;1.378269
9370.000000;1.378119
9369.000000;1.377934
9368.000000;1.377748
9367.000000;1.377890
9366.000000;1.378359
9365.000000;1.378654
9364.000000;1.378496
9363.000000;1.378252
9362.000000;1.378239
9361.000000;1.378061
9360.000000;1.377149
9359.000000;1.375710
9358.000000;1.374532
9357.000000;1.373963
9356.000000;1.373647
9355.000000;1.373276
9354.000000;1.373032
9353.000000;1.373119
9352.000000;1.373342
9351.000000;1.373423
9350.000000;1.373412
9349.000000;1.373482
9348.000000;1.373506
9347.000000;1.373165
9346.000000;1.372381
9345.000000;1.371396
9344.000000;1.370459
9343.000000;1.369698
9342.000000;1.369267
9341.000000;1.369281
9340.000000;1.369455
9339.000000;1.369095
9338.000000;1.367823
9337.000000;1.366226
9336.000000;1.365372
9335.000000;1.365597
9334.000000;1.366111
9333.000000;1.365995
9332.000000;1.365296
9331.000000;1.364781
9330.000000;1.364845
9329.000000;1.365195
9328.000000;1.365566
9327.000000;1.366155
9326.000000;1.367077
9325.000000;1.367830
9324.000000;1.367689
9323.000000;1.366457
9322.000000;1.364511
9321.000000;1.362302
9320.000000;1.360188
9319.000000;1.358622
9318.000000;1.358070
9317.000000;1.358538
9316.000000;1.359383
9315.000000;1.359777
9314.000000;1.359379
9313.000000;1.358554
9312.000000;1.357991
9311.000000;1.358119
9310.000000;1.358798
9309.000000;1.359518
9308.000000;1.359854
9307.000000;1.359714
9306.000000;1.359194
9305.000000;1.358381
9304.000000;1.357393
9303.000000;1.356450
9302.000000;1.355745
9301.000000;1.355266
9300.000000;1.354865
9299.000000;1.354450
9298.000000;1.353991
9297.000000;1.353422
9296.000000;1.352703
9295.000000;1.352013
9294.000000;1.351740
9293.000000;1.352162
9292.000000;1.353135
9291.000000;1.354122
9290.000000;1.354547
9289.000000;1.354194
9288.000000;1.353338
9287.000000;1.352518
9286.000000;1.352123
9285.000000;1.352100
9284.000000;1.352047
9283.000000;1.351616
9282.000000;1.350865
9281.000000;1.350168
9280.000000;1.349757
9279.000000;1.349384
9278.000000;1.348607
9277.000000;1.347426
9276.000000;1.346457
9275.000000;1.346294
9274.000000;1.346824
9273.000000;1.347392
9272.000000;1.347532
9271.000000;1.347276
9270.000000;1.346774
9269.000000;1.345997
9268.000000;1.344940
9267.000000;1.343800
9266.000000;1.342771
9265.000000;1.341857
9264.000000;1.341034
9263.000000;1.340426
9262.000000;1.340147
9261.000000;1.340146
9260.000000;1.340328
9259.000000;1.340700
9258.000000;1.341227
9257.000000;1.341691
9256.000000;1.341910
9255.000000;1.341937
9254.000000;1.341837
9253.000000;1.341470
9252.000000;1.340781
9251.000000;1.340149
9250.000000;1.340016
9249.000000;1.340213
9248.000000;1.340072
9247.000000;1.339285
9246.000000;1.338257
9245.000000;1.337446
9244.000000;1.336746
9243.000000;1.335812
9242.000000;1.334765
9241.000000;1.334204
9240.000000;1.334528
9239.000000;1.335471
9238.000000;1.336315
9237.000000;1.336461
9236.000000;1.335799
9235.000000;1.334661
9234.000000;1.333469
9233.000000;1.332374
9232.000000;1.331257
9231.000000;1.330116
9230.000000;1.329370
9229.000000;1.329568
9228.000000;1.330720
9227.000000;1.332059
9226.000000;1.332634
9225.000000;1.332174
9224.000000;1.331277
9223.000000;1.330779
9222.000000;1.331017
9221.000000;1.331643
9220.000000;1.331944
9219.000000;1.331338
9218.000000;1.329782
9217.000000;1.327861
9216.000000;1.326371
9215.000000;1.325648
9214.000000;1.325423
9213.000000;1.325418
9212.000000;1.325864
9211.000000;1.327090
9210.000000;1.328704
9209.000000;1.329636
9208.000000;1.329138
9207.000000;1.327493
9206.000000;1.325613
9205.000000;1.324253
9204.000000;1.323706
9203.000000;1.323857
9202.000000;1.324195
9201.000000;1.324018
9200.000000;1.322991
9199.000000;1.321463
9198.000000;1.320055
9197.000000;1.319065
9196.000000;1.318479
9195.000000;1.318328
9194.000000;1.318687
9193.000000;1.319362
9192.000000;1.319896
9191.000000;1.319979
9190.000000;1.319695
9189.000000;1.319383
9188.000000;1.319421
9187.000000;1.320040
9186.000000;1.321069
9185.000000;1.321894
9184.000000;1.321958
9183.000000;1.321321
9182.000000;1.320509
9181.000000;1.319824
9180.000000;1.319143
9179.000000;1.318386
9178.000000;1.317821
9177.000000;1.317694
9176.000000;1.317826
9175.000000;1.317777
9174.000000;1.317294
9173.000000;1.316497
9172.000000;1.315720
9171.000000;1.315227
9170.000000;1.314968
9169.000000;1.314586
9168.000000;1.313833
9167.000000;1.313010
9166.000000;1.312746
9165.000000;1.313244
9164.000000;1.313938
9163.000000;1.314046
9162.000000;1.313251
9161.000000;1.311727
9160.000000;1.309817
9159.000000;1.307989
9158.000000;1.306874
9157.000000;1.306879
9156.000000;1.307712
9155.000000;1.308598
9154.000000;1.309066
9153.000000;1.309263
9152.000000;1.309398
9151.000000;1.309211
9150.000000;1.308281
9149.000000;1.306734
9148.000000;1.305357
9147.000000;1.304920
9146.000000;1.305526
9145.000000;1.306628
9144.000000;1.307592
9143.000000;1.308178
9142.000000;1.308518
9141.000000;1.308718
9140.000000;1.308600
9139.000000;1.307928
9138.000000;1.306844
9137.000000;1.305904
9136.000000;1.305530
9135.000000;1.305505
9134.000000;1.305159
9133.000000;1.304107
9132.000000;1.302701
9131.000000;1.301653
9130.000000;1.301360
9129.000000;1.301665
9128.000000;1.302168
9127.000000;1.302532
9126.000000;1.302543
9125.000000;1.302158
9124.000000;1.301596
9123.000000;1.301180
9122.000000;1.300928
9121.000000;1.300445
9120.000000;1.299404
9119.000000;1.298033
9118.000000;1.296931
9117.000000;1.296470
9116.000000;1.296510
9115.000000;1.296679
9114.000000;1.296751
9113.000000;1.296724
9112.000000;1.296662
9111.000000;1.296540
9110.000000;1.296217
9109.000000;1.295578
9108.000000;1.294757
9107.000000;1.294163
9106.000000;1.294165
9105.000000;1.294728
9104.000000;1.295428
9103.000000;1.295821
9102.000000;1.295701
9101.000000;1.295105
9100.000000;1.294248
9099.000000;1.293454
9098.000000;1.292957
9097.000000;1.292729
9096.000000;1.292629
9095.000000;1.292690
9094.000000;1.293030
9093.000000;1.293482
9092.000000;1.293598
9091.000000;1.293160
9090.000000;1.292455
9089.000000;1.291888
9088.000000;1.291514
9087.000000;1.291148
9086.000000;1.290733
9085.000000;1.290363
9084.000000;1.290044
9083.000000;1.289706
9082.000000;1.289424
9081.000000;1.289389
9080.000000;1.289607
9079.000000;1.289822
9078.000000;1.289752
9077.000000;1.289308
9076.000000;1.288578
9075.000000;1.287758
9074.000000;1.287114
9073.000000;1.286835
9072.000000;1.286844
9071.000000;1.286836
9070.000000;1.286589
9069.000000;1.286166
9068.000000;1.285796
9067.000000;1.285639
9066.000000;1.285678
9065.000000;1.285742
9064.000000;1.285599
9063.000000;1.285185
9062.000000;1.284783
9061.000000;1.284811
9060.000000;1.285290
9059.000000;1.285668
9058.000000;1.285321
9057.000000;1.284167
9056.000000;1.282631
9055.000000;1.281117
9054.000000;1.279791
9053.000000;1.278846
9052.000000;1.278598
9051.000000;1.279083
9050.000000;1.279765
9049.000000;1.279957
9048.000000;1.279493
9047.000000;1.278745
9046.000000;1.278065
9045.000000;1.277488
9044.000000;1.276984
9043.000000;1.276682
9042.000000;1.276652
9041.000000;1.276683
9040.000000;1.276507
9039.000000;1.276101
9038.000000;1.275582
9037.000000;1.274954
9036.000000;1.274212
9035.000000;1.273597
9034.000000;1.273445
9033.000000;1.273747
9032.000000;1.274117
9031.000000;1.274238
9030.000000;1.274132
9029.000000;1.273944
9028.000000;1.273721
9027.000000;1.273501
9026.000000;1.273331
9025.000000;1.273048
9024.000000;1.272285
9023.000000;1.270990
9022.000000;1.269744
9021.000000;1.269260
9020.000000;1.269619
9019.000000;1.270291
9018.000000;1.270838
9017.000000;1.271291
9016.000000;1.271727
9015.000000;1.271846
9014.000000;1.271240
9013.000000;1.269975
9012.000000;1.268630
9011.000000;1.267773
9010.000000;1.267545
9009.000000;1.267720
9008.000000;1.267999
9007.000000;1.268132
9006.000000;1.267900
9005.000000;1.267187
9004.000000;1.266174
9003.000000;1.265355
9002.000000;1.265170
9001.000000;1.265558
9000.000000;1.265976
8999.000000;1.265940
8998.000000;1.265480
8997.000000;1.264978
8996.000000;1.264695
8995.000000;1.264612
8994.000000;1.264659
8993.000000;1.264823
8992.000000;1.264959
8991.000000;1.264740
8990.000000;1.263983
8989.000000;1.262964
8988.000000;1.262232
8987.000000;1.262114
8986.000000;1.262480
8985.000000;1.262962
8984.000000;1.263281
8983.000000;1.263351
8982.000000;1.263204
8981.000000;1.262893
8980.000000;1.262456
8979.000000;1.261911
8978.000000;1.261290
8977.000000;1.260683
8976.000000;1.260240
8975.000000;1.260115
8974.000000;1.260368
8973.000000;1.260845
8972.000000;1.261167
8971.000000;1.260939
8970.000000;1.260081
8969.000000;1.258899
8968.000000;1.257768
8967.000000;1.256799
8966.000000;1.255941
8965.000000;1.255332
8964.000000;1.255288
8963.000000;1.255825
8962.000000;1.256377
8961.000000;1.256246
8960.000000;1.255320
8959.000000;1.254164
8958.000000;1.253394
8957.000000;1.253162
8956.000000;1.253274
8955.000000;1.253508
8954.000000;1.253641
8953.000000;1.253389
8952.000000;1.252678
8951.000000;1.251945
8950.000000;1.251810
8949.000000;1.252315
8948.000000;1.252728
8947.000000;1.252326
8946.000000;1.251226
8945.000000;1.250215
8944.000000;1.249911
8943.000000;1.250354
8942.000000;1.251276
8941.000000;1.252394
8940.000000;1.253337
8939.000000;1.253615
8938.000000;1.252956
8937.000000;1.251613
8936.000000;1.250182
8935.000000;1.249146
8934.000000;1.248661
8933.000000;1.248566
8932.000000;1.248459
8931.000000;1.247927
8930.000000;1.246971
8929.000000;1.246121
8928.000000;1.245935
8927.000000;1.246381
8926.000000;1.246882
8925.000000;1.246927
8924.000000;1.246459
8923.000000;1.245695
8922.000000;1.244833
8921.000000;1.244018
8920.000000;1.243409
8919.000000;1.243121
8918.000000;1.243192
8917.000000;1.243623
8916.000000;1.244283
8915.000000;1.244766
8914.000000;1.244582
8913.000000;1.243646
8912.000000;1.242441
8911.000000;1.241561
8910.000000;1.241204
8909.000000;1.241168
8908.000000;1.241174
8907.000000;1.241040
8906.000000;1.240692
8905.000000;1.240226
8904.000000;1.239882
8903.000000;1.239811
8902.000000;1.239872
8901.000000;1.239786
8900.000000;1.239467
8899.000000;1.239080
8898.000000;1.238820
8897.000000;1.238739
8896.000000;1.238744
8895.000000;1.238652
8894.000000;1.238315
8893.000000;1.237796
8892.000000;1.237348
8891.000000;1.237117
8890.000000;1.236967
8889.000000;1.236748
8888.000000;1.236605
8887.000000;1.236815
8886.000000;1.237385
8885.000000;1.237983
8884.000000;1.238194
8883.000000;1.237737
8882.000000;1.236593
8881.000000;1.235169
8880.000000;1.234163
8879.000000;1.233942
8878.000000;1.234124
8877.000000;1.234078
8876.000000;1.233735
8875.000000;1.233512
8874.000000;1.233543
8873.000000;1.233523
8872.000000;1.233332
8871.000000;1.233240
8870.000000;1.233291
8869.000000;1.233045
8868.000000;1.232239
8867.000000;1.231280
8866.000000;1.230653
8865.000000;1.230248
8864.000000;1.229733
8863.000000;1.229242
8862.000000;1.229179
8861.000000;1.229538
8860.000000;1.229989
8859.000000;1.230492
8858.000000;1.231260
8857.000000;1.232109
8856.000000;1.232419
8855.000000;1.231925
8854.000000;1.231092
8853.000000;1.230475
8852.000000;1.230091
8851.000000;1.229652
8850.000000;1.229115
8849.000000;1.228736
8848.000000;1.228669
8847.000000;1.228731
8846.000000;1.228521
8845.000000;1.227768
8844.000000;1.226660
8843.000000;1.225786
8842.000000;1.225560
8841.000000;1.225714
8840.000000;1.225618
8839.000000;1.225106
8838.000000;1.224635
8837.000000;1.224528
8836.000000;1.224483
8835.000000;1.224082
8834.000000;1.223504
8833.000000;1.223369
8832.000000;1.223985
8831.000000;1.225043
8830.000000;1.225945
8829.000000;1.226192
8828.000000;1.225558
8827.000000;1.224196
8826.000000;1.222647
8825.000000;1.221519
8824.000000;1.221052
8823.000000;1.221042
8822.000000;1.221143
8821.000000;1.221144
8820.000000;1.221056
8819.000000;1.221081
8818.000000;1.221462
8817.000000;1.222167
8816.000000;1.222749
8815.000000;1.222715
8814.000000;1.222079
8813.000000;1.221361
8812.000000;1.220981
8811.000000;1.220879
8810.000000;1.220829
8809.000000;1.220881
8808.000000;1.221233
8807.000000;1.221766
8806.000000;1.222027
8805.000000;1.221739
8804.000000;1.221146
8803.000000;1.220714
8802.000000;1.220638
8801.000000;1.220759
8800.000000;1.220820
8799.000000;1.220630
8798.000000;1.220056
8797.000000;1.219139
8796.000000;1.218256
8795.000000;1.217933
8794.000000;1.218306
8793.000000;1.218886
8792.000000;1.219053
8791.000000;1.218749
8790.000000;1.218507
8789.000000;1.218817
8788.000000;1.219599
8787.000000;1.220325
8786.000000;1.220565
8785.000000;1.220371
8784.000000;1.220193
8783.000000;1.220409
8782.000000;1.220902
8781.000000;1.221122
8780.000000;1.220654
8779.000000;1.219665
8778.000000;1.218697
8777.000000;1.218087
8776.000000;1.217770
8775.000000;1.217589
8774.000000;1.217576
8773.000000;1.217853
8772.000000;1.218395
8771.000000;1.218937
8770.000000;1.219070
8769.000000;1.218478
8768.000000;1.217276
8767.000000;1.216117
8766.000000;1.215693
8765.000000;1.216043
8764.000000;1.216504
8763.000000;1.216460
8762.000000;1.215984
8761.000000;1.215597
8760.000000;1.215599
8759.000000;1.215818
8758.000000;1.215949
8757.000000;1.215900
8756.000000;1.215816
8755.000000;1.215892
8754.000000;1.216209
8753.000000;1.216677
8752.000000;1.217110
8751.000000;1.217366
8750.000000;1.217381
8749.000000;1.217114
8748.000000;1.216631
8747.000000;1.216225
8746.000000;1.216223
8745.000000;1.216548
8744.000000;1.216673
8743.000000;1.216192
8742.000000;1.215329
8741.000000;1.214681
8740.000000;1.214562
8739.000000;1.214791
8738.000000;1.215021
8737.000000;1.215043
8736.000000;1.214792
8735.000000;1.214326
8734.000000;1.213876
8733.000000;1.213750
8732.000000;1.214063
8731.000000;1.214617
8730.000000;1.215072
8729.000000;1.215208
8728.000000;1.215045
8727.000000;1.214797
8726.000000;1.214712
8725.000000;1.214879
8724.000000;1.215154
8723.000000;1.215318
8722.000000;1.215256
8721.000000;1.214984
8720.000000;1.214606
8719.000000;1.214343
8718.000000;1.214471
8717.000000;1.214967
8716.000000;1.215281
8715.000000;1.214770
8714.000000;1.213461
8713.000000;1.212142
8712.000000;1.211557
8711.000000;1.211685
8710.000000;1.211963
8709.000000;1.212027
8708.000000;1.211994
8707.000000;1.212071
8706.000000;1.212170
8705.000000;1.212062
8704.000000;1.211764
8703.000000;1.211582
8702.000000;1.211760
8701.000000;1.212213
8700.000000;1.212663
8699.000000;1.212954
8698.000000;1.213131
8697.000000;1.213224
8696.000000;1.213075
8695.000000;1.212493
8694.000000;1.211547
8693.000000;1.210623
8692.000000;1.210184
8691.000000;1.210451
8690.000000;1.211241
8689.000000;1.212062
8688.000000;1.212438
8687.000000;1.212263
8686.000000;1.211832
8685.000000;1.211474
8684.000000;1.211219
8683.000000;1.210900
8682.000000;1.210470
8681.000000;1.210078
8680.000000;1.209867
8679.000000;1.209826
8678.000000;1.209853
8677.000000;1.209848
8676.000000;1.209733
8675.000000;1.209502
8674.000000;1.209273
8673.000000;1.209203
8672.000000;1.209327
8671.000000;1.209563
8670.000000;1.209810
8669.000000;1.209940
8668.000000;1.209732
8667.000000;1.209018
8666.000000;1.207941
8665.000000;1.206892
8664.000000;1.206151
8663.000000;1.205734
8662.000000;1.205611
8661.000000;1.205803
8660.000000;1.206174
8659.000000;1.206375
8658.000000;1.206231
8657.000000;1.206013
8656.000000;1.206045
8655.000000;1.206154
8654.000000;1.205801
8653.000000;1.204792
8652.000000;1.203588
8651.000000;1.202844
8650.000000;1.202828
8649.000000;1.203342
8648.000000;1.203997
8647.000000;1.204435
8646.000000;1.204429
8645.000000;1.203993
8644.000000;1.203389
8643.000000;1.202928
8642.000000;1.202760
8641.000000;1.202866
8640.000000;1.203158
8639.000000;1.203513
8638.000000;1.203765
8637.000000;1.203782
8636.000000;1.203563
8635.000000;1.203181
8634.000000;1.202653
8633.000000;1.201970
8632.000000;1.201258
8631.000000;1.200792
8630.000000;1.200745
8629.000000;1.200948
8628.000000;1.200995
8627.000000;1.200640
8626.000000;1.200084
8625.000000;1.199797
8624.000000;1.200009
8623.000000;1.200435
8622.000000;1.200592
8621.000000;1.200376
8620.000000;1.200162
8619.000000;1.200279
8618.000000;1.200531
8617.000000;1.200404
8616.000000;1.199668
8615.000000;1.198595
8614.000000;1.197584
8613.000000;1.196806
8612.000000;1.196249
8611.000000;1.195927
8610.000000;1.195884
8609.000000;1.196069
8608.000000;1.196351
8607.000000;1.196639
8606.000000;1.196866
8605.000000;1.196914
8604.000000;1.196669
8603.000000;1.196135
8602.000000;1.195413
8601.000000;1.194617
8600.000000;1.193938
8599.000000;1.193713
8598.000000;1.194162
8597.000000;1.194987
8596.000000;1.195437
8595.000000;1.194984
8594.000000;1.193866
8593.000000;1.192818
8592.000000;1.192291
8591.000000;1.192068
8590.000000;1.191632
8589.000000;1.190782
8588.000000;1.189807
8587.000000;1.189156
8586.000000;1.189022
8585.000000;1.189205
8584.000000;1.189305
8583.000000;1.189049
8582.000000;1.188479
8581.000000;1.187875
8580.000000;1.187501
8579.000000;1.187412
8578.000000;1.187483
8577.000000;1.187604
8576.000000;1.187768
8575.000000;1.187960
8574.000000;1.188004
8573.000000;1.187657
8572.000000;1.186907
8571.000000;1.186089
8570.000000;1.185621
8569.000000;1.185674
8568.000000;1.186133
8567.000000;1.186775
8566.000000;1.187365
8565.000000;1.187645
8564.000000;1.187477
8563.000000;1.187035
8562.000000;1.186702
8561.000000;1.186650
8560.000000;1.186627
8559.000000;1.186200
8558.000000;1.185199
8557.000000;1.183872
8556.000000;1.182724
8555.000000;1.182208
8554.000000;1.182431
8553.000000;1.183029
8552.000000;1.183414
8551.000000;1.183268
8550.000000;1.182791
8549.000000;1.182405
8548.000000;1.182319
8547.000000;1.182433
8546.000000;1.182547
8545.000000;1.182501
8544.000000;1.182173
8543.000000;1.181539
8542.000000;1.180765
8541.000000;1.180113
8540.000000;1.179701
8539.000000;1.179411
8538.000000;1.179048
8537.000000;1.178517
8536.000000;1.177857
8535.000000;1.177195
8534.000000;1.176707
8533.000000;1.176535
8532.000000;1.176650
8531.000000;1.176826
8530.000000;1.176824
8529.000000;1.176625
8528.000000;1.176442
8527.000000;1.176490
8526.000000;1.176728
8525.000000;1.176876
8524.000000;1.176683
8523.000000;1.176168
8522.000000;1.175547
8521.000000;1.175002
8520.000000;1.174593
8519.000000;1.174350
8518.000000;1.174323
8517.000000;1.174464
8516.000000;1.174554
8515.000000;1.174360
8514.000000;1.173845
8513.000000;1.173195
8512.000000;1.172630
8511.000000;1.172188
8510.000000;1.171685
8509.000000;1.170923
8508.000000;1.169995
8507.000000;1.169316
8506.000000;1.169214
8505.000000;1.169541
8504.000000;1.169838
8503.000000;1.169884
8502.000000;1.169836
8501.000000;1.169811
8500.000000;1.169622
8499.000000;1.169110
8498.000000;1.168479
8497.000000;1.168035
8496.000000;1.167755
8495.000000;1.167403
8494.000000;1.166979
8493.000000;1.166712
8492.000000;1.166638
8491.000000;1.166483
8490.000000;1.166067
8489.000000;1.165616
8488.000000;1.165536
8487.000000;1.165964
8486.000000;1.166591
8485.000000;1.166855
8484.000000;1.166364
8483.000000;1.165293
8482.000000;1.164345
8481.000000;1.164160
8480.000000;1.164711
8479.000000;1.165366
8478.000000;1.165501
8477.000000;1.164900
8476.000000;1.163684
8475.000000;1.162186
8474.000000;1.160957
8473.000000;1.160546
8472.000000;1.161002
8471.000000;1.161728
8470.000000;1.162018
8469.000000;1.161692
8468.000000;1.161091
8467.000000;1.160612
8466.000000;1.160387
8465.000000;1.160326
8464.000000;1.160252
8463.000000;1.160036
8462.000000;1.159722
8461.000000;1.159484
8460.000000;1.159415
8459.000000;1.159389
8458.000000;1.159230
8457.000000;1.158902
8456.000000;1.158445
8455.000000;1.157838
8454.000000;1.157097
8453.000000;1.156405
8452.000000;1.156001
8451.000000;1.155929
8450.000000;1.156015
8449.000000;1.156079
8448.000000;1.156039
8447.000000;1.155838
8446.000000;1.155391
8445.000000;1.154667
8444.000000;1.153736
8443.000000;1.152755
8442.000000;1.151949
8441.000000;1.151573
8440.000000;1.151752
8439.000000;1.152297
8438.000000;1.152755
8437.000000;1.152727
8436.000000;1.152159
8435.000000;1.151350
8434.000000;1.150708
8433.000000;1.150456
8432.000000;1.150480
8431.000000;1.150445
8430.000000;1.150103
8429.000000;1.149536
8428.000000;1.149091
8427.000000;1.149076
8426.000000;1.149510
8425.000000;1.150108
8424.000000;1.150501
8423.000000;1.150475
8422.000000;1.150039
8421.000000;1.149320
8420.000000;1.148485
8419.000000;1.147771
8418.000000;1.147461
8417.000000;1.147638
8416.000000;1.147994
8415.000000;1.148066
8414.000000;1.147724
8413.000000;1.147247
8412.000000;1.146909
8411.000000;1.146669
8410.000000;1.146405
8409.000000;1.146185
8408.000000;1.146092
8407.000000;1.145912
8406.000000;1.145313
8405.000000;1.144305
8404.000000;1.143302
8403.000000;1.142693
8402.000000;1.142499
8401.000000;1.142505
8400.000000;1.142527
8399.000000;1.142484
8398.000000;1.142343
8397.000000;1.142095
8396.000000;1.141753
8395.000000;1.141328
8394.000000;1.140883
8393.000000;1.140573
8392.000000;1.140512
8391.000000;1.140591
8390.000000;1.140541
8389.000000;1.140236
8388.000000;1.139828
8387.000000;1.139549
8386.000000;1.139472
8385.000000;1.139502
8384.000000;1.139476
8383.000000;1.139235
8382.000000;1.138737
8381.000000;1.138179
8380.000000;1.137851
8379.000000;1.137790
8378.000000;1.137700
8377.000000;1.137350
8376.000000;1.136923
8375.000000;1.136773
8374.000000;1.136937
8373.000000;1.137107
8372.000000;1.137054
8371.000000;1.136862
8370.000000;1.136676
8369.000000;1.136412
8368.000000;1.135843
8367.000000;1.134892
8366.000000;1.133736
8365.000000;1.132675
8364.000000;1.131969
8363.000000;1.131697
8362.000000;1.131693
8361.000000;1.131648
8360.000000;1.131391
8359.000000;1.131057
8358.000000;1.130880
8357.000000;1.130863
8356.000000;1.130748
8355.000000;1.130356
8354.000000;1.129849
8353.000000;1.129547
8352.000000;1.129540
8351.000000;1.129588
8350.000000;1.129418
8349.000000;1.129044
8348.000000;1.128737
8347.000000;1.128702
8346.000000;1.128835
8345.000000;1.128828
8344.000000;1.128473
8343.000000;1.127866
8342.000000;1.127302
8341.000000;1.126994
8340.000000;1.126912
8339.000000;1.126884
8338.000000;1.126812
8337.000000;1.126737
8336.000000;1.126677
8335.000000;1.126510
8334.000000;1.126136
8333.000000;1.125703
8332.000000;1.125518
8331.000000;1.125658
8330.000000;1.125761
8329.000000;1.125351
8328.000000;1.124327
8327.000000;1.123059
8326.000000;1.122027
8325.000000;1.121456
8324.000000;1.121271
8323.000000;1.121248
8322.000000;1.121149
8321.000000;1.120847
8320.000000;1.120445
8319.000000;1.120207
8318.000000;1.120279
8317.000000;1.120498
8316.000000;1.120541
8315.000000;1.120276
8314.000000;1.119892
8313.000000;1.119683
8312.000000;1.119769
8311.000000;1.120024
8310.000000;1.120189
8309.000000;1.120022
8308.000000;1.119417
8307.000000;1.118472
8306.000000;1.117433
8305.000000;1.116561
8304.000000;1.115999
8303.000000;1.115742
8302.000000;1.115678
8301.000000;1.115642
8300.000000;1.115480
8299.000000;1.115117
8298.000000;1.114599
8297.000000;1.114067
8296.000000;1.113651
8295.000000;1.113362
8294.000000;1.113081
8293.000000;1.112681
8292.000000;1.112174
8291.000000;1.111682
8290.000000;1.111276
8289.000000;1.110904
8288.000000;1.110515
8287.000000;1.110183
8286.000000;1.110042
8285.000000;1.110110
8284.000000;1.110246
8283.000000;1.110240
8282.000000;1.109923
8281.000000;1.109266
8280.000000;1.108468
8279.000000;1.107884
8278.000000;1.107744
8277.000000;1.107921
8276.000000;1.108101
8275.000000;1.108128
8274.000000;1.108077
8273.000000;1.107989
8272.000000;1.107745
8271.000000;1.107260
8270.000000;1.106653
8269.000000;1.106106
8268.000000;1.105667
8267.000000;1.105287
8266.000000;1.104944
8265.000000;1.104645
8264.000000;1.104369
8263.000000;1.104141
8262.000000;1.104052
8261.000000;1.104085
8260.000000;1.104023
8259.000000;1.103683
8258.000000;1.103211
8257.000000;1.102948
8256.000000;1.102974
8255.000000;1.102961
8254.000000;1.102542
8253.000000;1.101725
8252.000000;1.100846
8251.000000;1.100206
8250.000000;1.099849
8249.000000;1.099651
8248.000000;1.099487
8247.000000;1.099299
8246.000000;1.099071
8245.000000;1.098837
8244.000000;1.098701
8243.000000;1.098756
8242.000000;1.098912
8241.000000;1.098872
8240.000000;1.098389
8239.000000;1.097535
8238.000000;1.096619
8237.000000;1.095835
8236.000000;1.095140
8235.000000;1.094509
8234.000000;1.094120
8233.000000;1.094134
8232.000000;1.094374
8231.000000;1.094431
8230.000000;1.094083
8229.000000;1.093473
8228.000000;1.092884
8227.000000;1.092455
8226.000000;1.092171
8225.000000;1.091971
8224.000000;1.091789
8223.000000;1.091525
8222.000000;1.091080
8221.000000;1.090434
8220.000000;1.089709
8219.000000;1.089102
8218.000000;1.088730
8217.000000;1.088516
8216.000000;1.088283
8215.000000;1.087997
8214.000000;1.087845
8213.000000;1.088004
8212.000000;1.088410
8211.000000;1.088821
8210.000000;1.089048
8209.000000;1.089025
8208.000000;1.088721
8207.000000;1.088128
8206.000000;1.087355
8205.000000;1.086602
8204.000000;1.086010
8203.000000;1.085572
8202.000000;1.085204
8201.000000;1.084847
8200.000000;1.084500
8199.000000;1.084200
8198.000000;1.083966
8197.000000;1.083747
8196.000000;1.083445
8195.000000;1.083036
8194.000000;1.082602
8193.000000;1.082203
8192.000000;1.081802
8191.000000;1.081383
8190.000000;1.081036
8189.000000;1.080832
8188.000000;1.080681
8187.000000;1.080433
8186.000000;1.080057
8185.000000;1.079639
8184.000000;1.079280
8183.000000;1.079101
8182.000000;1.079232
8181.000000;1.079584
8180.000000;1.079756
8179.000000;1.079412
8178.000000;1.078729
8177.000000;1.078214
8176.000000;1.078089
8175.000000;1.078060
8174.000000;1.077730
8173.000000;1.077021
8172.000000;1.076133
8171.000000;1.075330
8170.000000;1.074851
8169.000000;1.074806
8168.000000;1.075008
8167.000000;1.075043
8166.000000;1.074657
8165.000000;1.073999
8164.000000;1.073418
8163.000000;1.073127
8162.000000;1.073108
8161.000000;1.073178
8160.000000;1.073073
8159.000000;1.072643
8158.000000;1.072062
8157.000000;1.071726
8156.000000;1.071834
8155.000000;1.072157
8154.000000;1.072286
8153.000000;1.071973
8152.000000;1.071212
8151.000000;1.070192
8150.000000;1.069276
8149.000000;1.068823
8148.000000;1.068840
8147.000000;1.068925
8146.000000;1.068732
8145.000000;1.068330
8144.000000;1.067969
8143.000000;1.067640
8142.000000;1.067118
8141.000000;1.066342
8140.000000;1.065522
8139.000000;1.064869
8138.000000;1.064417
8137.000000;1.064097
8136.000000;1.063840
8135.000000;1.063614
8134.000000;1.063469
8133.000000;1.063518
8132.000000;1.063732
8131.000000;1.063839
8130.000000;1.063582
8129.000000;1.063032
8128.000000;1.062498
8127.000000;1.062155
8126.000000;1.061928
8125.000000;1.061704
8124.000000;1.061481
8123.000000;1.061272
8122.000000;1.061014
8121.000000;1.060602
8120.000000;1.059946
8119.000000;1.059018
8118.000000;1.057957
8117.000000;1.057072
8116.000000;1.056592
8115.000000;1.056415
8114.000000;1.056240
8113.000000;1.055941
8112.000000;1.055636
8111.000000;1.055404
8110.000000;1.055129
8109.000000;1.054702
8108.000000;1.054180
8107.000000;1.053676
8106.000000;1.053227
8105.000000;1.052868
8104.000000;1.052713
8103.000000;1.052839
8102.000000;1.053135
8101.000000;1.053368
8100.000000;1.053371
8099.000000;1.053130
8098.000000;1.052747
8097.000000;1.052345
8096.000000;1.051972
8095.000000;1.051539
8094.000000;1.050918
8093.000000;1.050126
8092.000000;1.049384
8091.000000;1.048949
8090.000000;1.048917
8089.000000;1.049166
8088.000000;1.049389
8087.000000;1.049210
8086.000000;1.048449
8085.000000;1.047392
8084.000000;1.046660
8083.000000;1.046641
8082.000000;1.047074
8081.000000;1.047304
8080.000000;1.046948
8079.000000;1.046233
8078.000000;1.045648
8077.000000;1.045410
8076.000000;1.045321
8075.000000;1.045055
8074.000000;1.044480
8073.000000;1.043731
8072.000000;1.043073
8071.000000;1.042704
8070.000000;1.042604
8069.000000;1.042526
8068.000000;1.042184
8067.000000;1.041547
8066.000000;1.040912
8065.000000;1.040622
8064.000000;1.040699
8063.000000;1.040827
8062.000000;1.040679
8061.000000;1.040208
8060.000000;1.039606
8059.000000;1.039088
8058.000000;1.038742
8057.000000;1.038520
8056.000000;1.038286
8055.000000;1.037922
8054.000000;1.037450
8053.000000;1.037014
8052.000000;1.036716
8051.000000;1.036512
8050.000000;1.036280
8049.000000;1.035911
8048.000000;1.035338
8047.000000;1.034600
8046.000000;1.033943
8045.000000;1.033688
8044.000000;1.033866
8043.000000;1.034089
8042.000000;1.033968
8041.000000;1.033548
8040.000000;1.033153
8039.000000;1.032874
8038.000000;1.032496
8037.000000;1.031937
8036.000000;1.031457
8035.000000;1.031311
8034.000000;1.031374
8033.000000;1.031311
8032.000000;1.030996
8031.000000;1.030588
8030.000000;1.030244
8029.000000;1.029949
8028.000000;1.029642
8027.000000;1.029342
8026.000000;1.029091
8025.000000;1.028846
8024.000000;1.028535
8023.000000;1.028192
8022.000000;1.027939
8021.000000;1.027782
8020.000000;1.027494
8019.000000;1.026815
8018.000000;1.025788
8017.000000;1.024812
8016.000000;1.024263
8015.000000;1.024143
8014.000000;1.024186
8013.000000;1.024227
8012.000000;1.024317
8011.000000;1.024450
8010.000000;1.024402
8009.000000;1.023980
8008.000000;1.023315
8007.000000;1.022728
8006.000000;1.022328
8005.000000;1.021895
8004.000000;1.021226
8003.000000;1.020474
8002.000000;1.020009
8001.000000;1.019969
8000.000000;1.020089
7999.000000;1.020022
7998.000000;1.019708
7997.000000;1.019354
7996.000000;1.019077
7995.000000;1.018722
7994.000000;1.018093
7993.000000;1.017246
7992.000000;1.016460
7991.000000;1.015948
7990.000000;1.015686
7989.000000;1.015508
7988.000000;1.015283
7987.000000;1.014987
7986.000000;1.014688
7985.000000;1.014462
7984.000000;1.014319
7983.000000;1.014196
7982.000000;1.014034
7981.000000;1.013811
7980.000000;1.013503
7979.000000;1.013070
7978.000000;1.012556
7977.000000;1.012126
7976.000000;1.011910
7975.000000;1.011829
7974.000000;1.011672
7973.000000;1.011351
7972.000000;1.010989
7971.000000;1.010758
7970.000000;1.010697
7969.000000;1.010686
7968.000000;1.010515
7967.000000;1.010014
7966.000000;1.009201
7965.000000;1.008302
7964.000000;1.007555
7963.000000;1.006986
7962.000000;1.006452
7961.000000;1.005868
7960.000000;1.005298
7959.000000;1.004835
7958.000000;1.004530
7957.000000;1.004423
7956.000000;1.004518
7955.000000;1.004659
7954.000000;1.004600
7953.000000;1.004252
7952.000000;1.003783
7951.000000;1.003385
7950.000000;1.003042
7949.000000;1.002603
7948.000000;1.002021
7947.000000;1.001431
7946.000000;1.001028
7945.000000;1.000915
7944.000000;1.001011
7943.000000;1.001059
7942.000000;1.000813
7941.000000;1.000267
7940.000000;0.999640
7939.000000;0.999085
7938.000000;0.998534
7937.000000;0.997925
7936.000000;0.997439
7935.000000;0.997335
7934.000000;0.997607
7933.000000;0.997962
7932.000000;0.998158
7931.000000;0.998195
7930.000000;0.998147
7929.000000;0.997974
7928.000000;0.997571
7927.000000;0.996920
7926.000000;0.996112
7925.000000;0.995267
7924.000000;0.994502
7923.000000;0.993920
7922.000000;0.993552
7921.000000;0.993345
7920.000000;0.993224
7919.000000;0.993125
7918.000000;0.992955
7917.000000;0.992590
7916.000000;0.991995
7915.000000;0.991315
7914.000000;0.990733
7913.000000;0.990275
7912.000000;0.989842
7911.000000;0.989426
7910.000000;0.989170
7909.000000;0.989163
7908.000000;0.989270
7907.000000;0.989266
7906.000000;0.989093
7905.000000;0.988865
7904.000000;0.988671
7903.000000;0.988470
7902.000000;0.988190
7901.000000;0.987821
7900.000000;0.987372
7899.000000;0.986859
7898.000000;0.986389
7897.000000;0.986154
7896.000000;0.986211
7895.000000;0.986351
7894.000000;0.986301
7893.000000;0.985994
7892.000000;0.985530
7891.000000;0.984923
7890.000000;0.984095
7889.000000;0.983145
7888.000000;0.982430
7887.000000;0.982243
7886.000000;0.982506
7885.000000;0.982860
7884.000000;0.982996
7883.000000;0.982811
7882.000000;0.982333
7881.000000;0.981667
7880.000000;0.981001
7879.000000;0.980515
7878.000000;0.980224
7877.000000;0.979972
7876.000000;0.979636
7875.000000;0.979263
7874.000000;0.978978
7873.000000;0.978811
7872.000000;0.978664
7871.000000;0.978406
7870.000000;0.977976
7869.000000;0.977396
7868.000000;0.976751
7867.000000;0.976165
7866.000000;0.975744
7865.000000;0.975507
7864.000000;0.975369
7863.000000;0.975220
7862.000000;0.974996
7861.000000;0.974687
7860.000000;0.974298
7859.000000;0.973843
7858.000000;0.973377
7857.000000;0.972968
7856.000000;0.972604
7855.000000;0.972163
7854.000000;0.971585
7853.000000;0.971043
7852.000000;0.970866
7851.000000;0.971190
7850.000000;0.971720
7849.000000;0.971944
7848.000000;0.971585
7847.000000;0.970817
7846.000000;0.970031
7845.000000;0.969463
7844.000000;0.969086
7843.000000;0.968811
7842.000000;0.968657
7841.000000;0.968686
7840.000000;0.968823
7839.000000;0.968831
7838.000000;0.968482
7837.000000;0.967763
7836.000000;0.966905
7835.000000;0.966206
7834.000000;0.965824
7833.000000;0.965726
7832.000000;0.965781
7831.000000;0.965870
7830.000000;0.965902
7829.000000;0.965774
7828.000000;0.965404
7827.000000;0.964855
7826.000000;0.964338
7825.000000;0.964026
7824.000000;0.963875
7823.000000;0.963689
7822.000000;0.963363
7821.000000;0.962966
7820.000000;0.962596
7819.000000;0.962252
7818.000000;0.961889
7817.000000;0.961525
7816.000000;0.961194
7815.000000;0.960856
7814.000000;0.960457
7813.000000;0.960068
7812.000000;0.959864
7811.000000;0.959899
7810.000000;0.959986
7809.000000;0.959834
7808.000000;0.959304
7807.000000;0.958518
7806.000000;0.957752
7805.000000;0.957241
7804.000000;0.957052
7803.000000;0.957086
7802.000000;0.957174
7801.000000;0.957185
7800.000000;0.957080
7799.000000;0.956883
7798.000000;0.956628
7797.000000;0.956306
7796.000000;0.955887
7795.000000;0.955405
7794.000000;0.954993
7793.000000;0.954761
7792.000000;0.954650
7791.000000;0.954454
7790.000000;0.954068
7789.000000;0.953631
7788.000000;0.953358
7787.000000;0.953273
7786.000000;0.953197
7785.000000;0.952979
7784.000000;0.952654
7783.000000;0.952346
7782.000000;0.952111
7781.000000;0.951933
7780.000000;0.951807
7779.000000;0.951729
7778.000000;0.951614
7777.000000;0.951307
7776.000000;0.950740
7775.000000;0.950076
7774.000000;0.949614
7773.000000;0.949514
7772.000000;0.949624
7771.000000;0.949623
7770.000000;0.949348
7769.000000;0.948928
7768.000000;0.948577
7767.000000;0.948317
7766.000000;0.947962
7765.000000;0.947332
7764.000000;0.946464
7763.000000;0.945619
7762.000000;0.945119
7761.000000;0.945123
7760.000000;0.945492
7759.000000;0.945875
7758.000000;0.945969
7757.000000;0.945684
7756.000000;0.945100
7755.000000;0.944370
7754.000000;0.943716
7753.000000;0.943389
7752.000000;0.943476
7751.000000;0.943781
7750.000000;0.943991
7749.000000;0.943941
7748.000000;0.943662
7747.000000;0.943254
7746.000000;0.942841
7745.000000;0.942595
7744.000000;0.942590
7743.000000;0.942645
7742.000000;0.942488
7741.000000;0.942109
7740.000000;0.941772
7739.000000;0.941638
7738.000000;0.941565
7737.000000;0.941356
7736.000000;0.941013
7735.000000;0.940646
7734.000000;0.940267
7733.000000;0.939866
7732.000000;0.939539
7731.000000;0.939360
7730.000000;0.939214
7729.000000;0.938943
7728.000000;0.938618
7727.000000;0.938439
7726.000000;0.938403
7725.000000;0.938259
7724.000000;0.937840
7723.000000;0.937278
7722.000000;0.936837
7721.000000;0.936679
7720.000000;0.936826
7719.000000;0.937187
7718.000000;0.937538
7717.000000;0.937607
7716.000000;0.937320
7715.000000;0.936869
7714.000000;0.936439
7713.000000;0.935959
7712.000000;0.935255
7711.000000;0.934396
7710.000000;0.933708
7709.000000;0.933420
7708.000000;0.933427
7707.000000;0.933444
7706.000000;0.933313
7705.000000;0.933076
7704.000000;0.932828
7703.000000;0.932598
7702.000000;0.932389
7701.000000;0.932222
7700.000000;0.932104
7699.000000;0.931993
7698.000000;0.931826
7697.000000;0.931581
7696.000000;0.931253
7695.000000;0.930797
7694.000000;0.930192
7693.000000;0.929572
7692.000000;0.929218
7691.000000;0.929325
7690.000000;0.929774
7689.000000;0.930201
7688.000000;0.930304
7687.000000;0.930060
7686.000000;0.929655
7685.000000;0.929281
7684.000000;0.929008
7683.000000;0.928796
7682.000000;0.928572
7681.000000;0.928316
7680.000000;0.928102
7679.000000;0.927999
7678.000000;0.927964
7677.000000;0.927874
7676.000000;0.927716
7675.000000;0.927647
7674.000000;0.927788
7673.000000;0.927999
7672.000000;0.927979
7671.000000;0.927582
7670.000000;0.926962
7669.000000;0.926373
7668.000000;0.925945
7667.000000;0.925686
7666.000000;0.925587
7665.000000;0.925609
7664.000000;0.925620
7663.000000;0.925485
7662.000000;0.925237
7661.000000;0.925088
7660.000000;0.925197
7659.000000;0.925471
7658.000000;0.925643
7657.000000;0.925520
7656.000000;0.925138
7655.000000;0.924694
7654.000000;0.924365
7653.000000;0.924197
7652.000000;0.924108
7651.000000;0.923975
7650.000000;0.923726
7649.000000;0.923400
7648.000000;0.923124
7647.000000;0.923033
7646.000000;0.923147
7645.000000;0.923339
7644.000000;0.923426
7643.000000;0.923322
7642.000000;0.923084
7641.000000;0.922813
7640.000000;0.922552
7639.000000;0.922305
7638.000000;0.922074
7637.000000;0.921831
7636.000000;0.921486
7635.000000;0.920991
7634.000000;0.920473
7633.000000;0.920170
7632.000000;0.920177
7631.000000;0.920324
7630.000000;0.920360
7629.000000;0.920210
7628.000000;0.920000
7627.000000;0.919873
7626.000000;0.919861
7625.000000;0.919916
7624.000000;0.919978
7623.000000;0.919989
7622.000000;0.919909
7621.000000;0.919749
7620.000000;0.919550
7619.000000;0.919344
7618.000000;0.919154
7617.000000;0.919011
7616.000000;0.918954
7615.000000;0.918996
7614.000000;0.919129
7613.000000;0.919304
7612.000000;0.919388
7611.000000;0.919171
7610.000000;0.918532
7609.000000;0.917632
7608.000000;0.916840
7607.000000;0.916453
7606.000000;0.916498
7605.000000;0.916830
7604.000000;0.917297
7603.000000;0.917769
7602.000000;0.918105
7601.000000;0.918224
7600.000000;0.918196
7599.000000;0.918166
7598.000000;0.918175
7597.000000;0.918137
7596.000000;0.917961
7595.000000;0.917643
7594.000000;0.917236
7593.000000;0.916815
7592.000000;0.916486
7591.000000;0.916347
7590.000000;0.916354
7589.000000;0.916328
7588.000000;0.916175
7587.000000;0.916053
7586.000000;0.916216
7585.000000;0.916676
7584.000000;0.917113
7583.000000;0.917177
7582.000000;0.916843
7581.000000;0.916412
7580.000000;0.916175
7579.000000;0.916120
7578.000000;0.916019
7577.000000;0.915741
7576.000000;0.915434
7575.000000;0.915357
7574.000000;0.915588
7573.000000;0.915952
7572.000000;0.916219
7571.000000;0.916299
7570.000000;0.916249
7569.000000;0.916156
7568.000000;0.916080
7567.000000;0.916051
7566.000000;0.916052
7565.000000;0.916023
7564.000000;0.915930
7563.000000;0.915844
7562.000000;0.915866
7561.000000;0.915980
7560.000000;0.916029
7559.000000;0.915874
7558.000000;0.915538
7557.000000;0.915174
7556.000000;0.914921
7555.000000;0.914826
7554.000000;0.914843
7553.000000;0.914884
7552.000000;0.914869
7551.000000;0.914802
7550.000000;0.914764
7549.000000;0.914839
7548.000000;0.915026
7547.000000;0.915236
7546.000000;0.915348
7545.000000;0.915278
7544.000000;0.915045
7543.000000;0.914804
7542.000000;0.914759
7541.000000;0.914969
7540.000000;0.915270
7539.000000;0.915437
7538.000000;0.915435
7537.000000;0.915443
7536.000000;0.915611
7535.000000;0.915842
7534.000000;0.915897
7533.000000;0.915698
7532.000000;0.915451
7531.000000;0.915417
7530.000000;0.915624
7529.000000;0.915870
7528.000000;0.915993
7527.000000;0.916025
7526.000000;0.916056
7525.000000;0.916067
7524.000000;0.916015
7523.000000;0.915978
7522.000000;0.916078
7521.000000;0.916274
7520.000000;0.916410
7519.000000;0.916461
7518.000000;0.916566
7517.000000;0.916738
7516.000000;0.916740
7515.000000;0.916403
7514.000000;0.915926
7513.000000;0.915682
7512.000000;0.915795
7511.000000;0.916083
7510.000000;0.916361
7509.000000;0.916607
7508.000000;0.916820
7507.000000;0.916912
7506.000000;0.916829
7505.000000;0.916626
7504.000000;0.916364
7503.000000;0.916059
7502.000000;0.915809
7501.000000;0.915826
7500.000000;0.916201
7499.000000;0.916715
7498.000000;0.917033
7497.000000;0.916995
7496.000000;0.916895
7495.000000;0.916879
7494.000000;0.916969
7493.000000;0.917086
7492.000000;0.917185
7491.000000;0.917273
7490.000000;0.917353
7489.000000;0.917438
7488.000000;0.917555
7487.000000;0.917715
7486.000000;0.917900
7485.000000;0.918098
7484.000000;0.918313
7483.000000;0.918488
7482.000000;0.918492
7481.000000;0.918260
7480.000000;0.917945
7479.000000;0.917826
7478.000000;0.918004
7477.000000;0.918274
7476.000000;0.918356
7475.000000;0.918212
7474.000000;0.918063
7473.000000;0.918105
7472.000000;0.918337
7471.000000;0.918654
7470.000000;0.918993
7469.000000;0.919299
7468.000000;0.919459
7467.000000;0.919384
7466.000000;0.919129
7465.000000;0.918856
7464.000000;0.918671
7463.000000;0.918578
7462.000000;0.918568
7461.000000;0.918664
7460.000000;0.918870
7459.000000;0.919132
7458.000000;0.919398
7457.000000;0.919645
7456.000000;0.919841
7455.000000;0.919926
7454.000000;0.919896
7453.000000;0.919870
7452.000000;0.919980
7451.000000;0.920191
7450.000000;0.920307
7449.000000;0.920199
7448.000000;0.920002
7447.000000;0.919982
7446.000000;0.920228
7445.000000;0.920544
7444.000000;0.920718
7443.000000;0.920790
7442.000000;0.920971
7441.000000;0.921326
7440.000000;0.921689
7439.000000;0.921882
7438.000000;0.921887
7437.000000;0.921759
7436.000000;0.921536
7435.000000;0.921298
7434.000000;0.921208
7433.000000;0.921341
7432.000000;0.921537
7431.000000;0.921547
7430.000000;0.921312
7429.000000;0.921027
7428.000000;0.920932
7427.000000;0.921108
7426.000000;0.921471
7425.000000;0.921867
7424.000000;0.922174
7423.000000;0.922356
7422.000000;0.922416
7421.000000;0.922305
7420.000000;0.921956
7419.000000;0.921457
7418.000000;0.921090
7417.000000;0.921091
7416.000000;0.921418
7415.000000;0.921833
7414.000000;0.922135
7413.000000;0.922258
7412.000000;0.922230
7411.000000;0.922133
7410.000000;0.922045
7409.000000;0.921937
7408.000000;0.921703
7407.000000;0.921363
7406.000000;0.921127
7405.000000;0.921160
7404.000000;0.921381
7403.000000;0.921581
7402.000000;0.921654
7401.000000;0.921633
7400.000000;0.921583
7399.000000;0.921523
7398.000000;0.921451
7397.000000;0.921410
7396.000000;0.921497
7395.000000;0.921771
7394.000000;0.922083
7393.000000;0.922131
7392.000000;0.921804
7391.000000;0.921402
7390.000000;0.921338
7389.000000;0.921646
7388.000000;0.921979
7387.000000;0.922110
7386.000000;0.922155
7385.000000;0.922223
7384.000000;0.922190
7383.000000;0.922083
7382.000000;0.922285
7381.000000;0.922942
7380.000000;0.923434
7379.000000;0.923062
7378.000000;0.922147
7377.000000;0.921769
7376.000000;0.922402
7375.000000;0.923359
7374.000000;0.923724
7373.000000;0.923369
7372.000000;0.922817
7371.000000;0.922507
7370.000000;0.922459
7369.000000;0.922449
7368.000000;0.922281
7367.000000;0.922006
7366.000000;0.921901
7365.000000;0.922093
7364.000000;0.922312
7363.000000;0.922330
7362.000000;0.922448
7361.000000;0.923075
7360.000000;0.923878
7359.000000;0.924081
7358.000000;0.923615
7357.000000;0.923236
7356.000000;0.923429
7355.000000;0.923878
7354.000000;0.924188
7353.000000;0.924376
7352.000000;0.924443
7351.000000;0.924194
7350.000000;0.923753
7349.000000;0.923557
7348.000000;0.923587
7347.000000;0.923380
7346.000000;0.922979
7345.000000;0.923032
7344.000000;0.923644
7343.000000;0.924123
7342.000000;0.924269
7341.000000;0.924853
7340.000000;0.926161
7339.000000;0.927039
7338.000000;0.926464
7337.000000;0.925132
7336.000000;0.924425
7335.000000;0.924640
7334.000000;0.925181
7333.000000;0.925673
7332.000000;0.925946
7331.000000;0.925700
7330.000000;0.925144
7329.000000;0.925209
7328.000000;0.926193
7327.000000;0.926929
7326.000000;0.926398
7325.000000;0.925431
7324.000000;0.925514
7323.000000;0.926570
7322.000000;0.927234
7321.000000;0.926949
7320.000000;0.926594
7319.000000;0.926973
7318.000000;0.927915
7317.000000;0.928993
7316.000000;0.929985
7315.000000;0.930544
7314.000000;0.930446
7313.000000;0.930283
7312.000000;0.930861
7311.000000;0.931815
7310.000000;0.932015
7309.000000;0.931381
7308.000000;0.931067
7307.000000;0.931653
7306.000000;0.932334
7305.000000;0.932352
7304.000000;0.932141
7303.000000;0.932316
7302.000000;0.932654
7301.000000;0.932802
7300.000000;0.933065
7299.000000;0.933638
7298.000000;0.933855
7297.000000;0.933267
7296.000000;0.932730
7295.000000;0.933364
7294.000000;0.934922
7293.000000;0.936179
7292.000000;0.936721
7291.000000;0.937318
7290.000000;0.938605
7289.000000;0.940308
7288.000000;0.941773
7287.000000;0.942624
7286.000000;0.942806
7285.000000;0.942489
7284.000000;0.942137
7283.000000;0.942275
7282.000000;0.943010
7281.000000;0.944020
7280.000000;0.945005
7279.000000;0.945912
7278.000000;0.946719
7277.000000;0.947370
7276.000000;0.947968
7275.000000;0.948742
7274.000000;0.949763
7273.000000;0.950859
7272.000000;0.951890
7271.000000;0.952924
7270.000000;0.954122
7269.000000;0.955543
7268.000000;0.957082
7267.000000;0.958477
7266.000000;0.959451
7265.000000;0.960040
7264.000000;0.960685
7263.000000;0.961790
7262.000000;0.963208
7261.000000;0.964413
7260.000000;0.965202
7259.000000;0.965920
7258.000000;0.966911
7257.000000;0.968078
7256.000000;0.969169
7255.000000;0.970236
7254.000000;0.971552
7253.000000;0.973246
7252.000000;0.975143
7251.000000;0.976935
7250.000000;0.978508
7249.000000;0.980021
7248.000000;0.981595
7247.000000;0.983044
7246.000000;0.984232
7245.000000;0.985578
7244.000000;0.987717
7243.000000;0.990533
7242.000000;0.992944
7241.000000;0.994113
7240.000000;0.994593
7239.000000;0.995718
7238.000000;0.998031
7237.000000;1.000769
7236.000000;1.002911
7235.000000;1.004398
7234.000000;1.006062
7233.000000;1.008546
7232.000000;1.011425
7231.000000;1.013565
7230.000000;1.014518
7229.000000;1.015200
7228.000000;1.016906
7227.000000;1.019910
7226.000000;1.023368
7225.000000;1.026292
7224.000000;1.028316
7223.000000;1.029734
7222.000000;1.031136
7221.000000;1.033038
7220.000000;1.035590
7219.000000;1.038509
7218.000000;1.041384
7217.000000;1.044050
7216.000000;1.046633
7215.000000;1.049263
7214.000000;1.051887
7213.000000;1.054459
7212.000000;1.057126
7211.000000;1.060079
7210.000000;1.063298
7209.000000;1.066616
7208.000000;1.069933
7207.000000;1.073271
7206.000000;1.076695
7205.000000;1.080239
7204.000000;1.083796
7203.000000;1.087105
7202.000000;1.090017
7201.000000;1.092747
7200.000000;1.095707
7199.000000;1.099008
7198.000000;1.102405
7197.000000;1.105777
7196.000000;1.109370
7195.000000;1.113273
7194.000000;1.116963
7193.000000;1.119905
7192.000000;1.122438
7191.000000;1.125502
7190.000000;1.129460
7189.000000;1.133759
7188.000000;1.137857
7187.000000;1.141832
7186.000000;1.145830
7185.000000;1.149558
7184.000000;1.152816
7183.000000;1.156087
7182.000000;1.160025
7181.000000;1.164613
7180.000000;1.169302
7179.000000;1.173850
7178.000000;1.178482
7177.000000;1.183276
7176.000000;1.187941
7175.000000;1.192235
7174.000000;1.196223
7173.000000;1.200107
7172.000000;1.204074
7171.000000;1.208370
7170.000000;1.213118
7169.000000;1.218076
7168.000000;1.222879
7167.000000;1.227368
7166.000000;1.231423
7165.000000;1.234757
7164.000000;1.237426
7163.000000;1.240272
7162.000000;1.244279
7161.000000;1.249499
7160.000000;1.255047
7159.000000;1.260220
7158.000000;1.265111
7157.000000;1.269976
7156.000000;1.274676
7155.000000;1.279071
7154.000000;1.283425
7153.000000;1.288028
7152.000000;1.292723
7151.000000;1.297118
7150.000000;1.301120
7149.000000;1.305065
7148.000000;1.309381
7147.000000;1.314230
7146.000000;1.319415
7145.000000;1.324441
7144.000000;1.328739
7143.000000;1.332128
7142.000000;1.335191
7141.000000;1.338913
7140.000000;1.343667
7139.000000;1.348757
7138.000000;1.353270
7137.000000;1.357208
7136.000000;1.361294
7135.000000;1.365812
7134.000000;1.370259
7133.000000;1.374262
7132.000000;1.378241
7131.000000;1.382788
7130.000000;1.387789
7129.000000;1.392629
7128.000000;1.397020
7127.000000;1.401115
7126.000000;1.405057
7125.000000;1.408985
7124.000000;1.413295
7123.000000;1.418238
7122.000000;1.423262
7121.000000;1.427377
7120.000000;1.430362
7119.000000;1.433064
7118.000000;1.436280
7117.000000;1.439846
7116.000000;1.443217
7115.000000;1.446479
7114.000000;1.450180
7113.000000;1.454381
7112.000000;1.458506
7111.000000;1.462152
7110.000000;1.465641
7109.000000;1.469623
7108.000000;1.474345
7107.000000;1.479371
7106.000000;1.483851
7105.000000;1.487153
7104.000000;1.489396
7103.000000;1.491379
7102.000000;1.493965
7101.000000;1.497558
7100.000000;1.501969
7099.000000;1.506535
7098.000000;1.510544
7097.000000;1.513728
7096.000000;1.516340
7095.000000;1.518715
7094.000000;1.520950
7093.000000;1.523155
7092.000000;1.525771
7091.000000;1.529225
7090.000000;1.533301
7089.000000;1.537218
7088.000000;1.540429
7087.000000;1.543064
7086.000000;1.545446
7085.000000;1.547531
7084.000000;1.549144
7083.000000;1.550583
7082.000000;1.552613
7081.000000;1.555749
7080.000000;1.559637
7079.000000;1.563352
7078.000000;1.566360
7077.000000;1.569009
7076.000000;1.571899
7075.000000;1.575005
7074.000000;1.577742
7073.000000;1.579862
7072.000000;1.581887
7071.000000;1.584438
7070.000000;1.587395
7069.000000;1.590071
7068.000000;1.592134
7067.000000;1.594017
7066.000000;1.596378
7065.000000;1.599369
7064.000000;1.602515
7063.000000;1.605165
7062.000000;1.607018
7061.000000;1.608318
7060.000000;1.609606
7059.000000;1.611246
7058.000000;1.613193
7057.000000;1.615178
7056.000000;1.617043
7055.000000;1.618896
7054.000000;1.621017
7053.000000;1.623575
7052.000000;1.626355
7051.000000;1.628792
7050.000000;1.630438
7049.000000;1.631439
7048.000000;1.632439
7047.000000;1.633987
7046.000000;1.636103
7045.000000;1.638372
7044.000000;1.640298
7043.000000;1.641618
7042.000000;1.642464
7041.000000;1.643251
7040.000000;1.644231
7039.000000;1.645261
7038.000000;1.646223
7037.000000;1.647532
7036.000000;1.649776
7035.000000;1.652858
7034.000000;1.655959
7033.000000;1.658412
7032.000000;1.660210
7031.000000;1.661586
7030.000000;1.662616
7029.000000;1.663437
7028.000000;1.664437
7027.000000;1.665939
7026.000000;1.667954
7025.000000;1.670315
7024.000000;1.672704
7023.000000;1.674448
7022.000000;1.674874
7021.000000;1.674205
7020.000000;1.673638
7019.000000;1.674209
7018.000000;1.675981
7017.000000;1.678507
7016.000000;1.681522
7015.000000;1.684736
7014.000000;1.687426
7013.000000;1.688862
7012.000000;1.689005
7011.000000;1.688397
7010.000000;1.687654
7009.000000;1.687366
7008.000000;1.688014
7007.000000;1.689589
7006.000000;1.691567
7005.000000;1.693500
7004.000000;1.695276
7003.000000;1.696712
7002.000000;1.697562
7001.000000;1.698234
7000.000000;1.699689
6999.000000;1.702062
6998.000000;1.704097
6997.000000;1.704643
6996.000000;1.704096
6995.000000;1.703596
6994.000000;1.703402
6993.000000;1.703101
6992.000000;1.702936
6991.000000;1.703696
6990.000000;1.705414
6989.000000;1.707234
6988.000000;1.708593
6987.000000;1.709627
6986.000000;1.710394
6985.000000;1.710621
6984.000000;1.710441
6983.000000;1.710569
6982.000000;1.711504
6981.000000;1.713060
6980.000000;1.714812
6979.000000;1.716513
6978.000000;1.718022
6977.000000;1.719252
6976.000000;1.720225
6975.000000;1.720798
6974.000000;1.720563
6973.000000;1.719549
6972.000000;1.718762
6971.000000;1.719306
6970.000000;1.721046
6969.000000;1.722794
6968.000000;1.723760
6967.000000;1.724091
6966.000000;1.724082
6965.000000;1.723805
6964.000000;1.723607
6963.000000;1.724047
6962.000000;1.725064
6961.000000;1.725928
6960.000000;1.726258
6959.000000;1.726394
6958.000000;1.726573
6957.000000;1.726545
6956.000000;1.726278
6955.000000;1.726310
6954.000000;1.726967
6953.000000;1.727795
6952.000000;1.728271
6951.000000;1.728568
6950.000000;1.729193
6949.000000;1.730318
6948.000000;1.731778
6947.000000;1.733252
6946.000000;1.734178
6945.000000;1.734018
6944.000000;1.732970
6943.000000;1.731930
6942.000000;1.731441
6941.000000;1.731223
6940.000000;1.731038
6939.000000;1.731321
6938.000000;1.732475
6937.000000;1.734103
6936.000000;1.735527
6935.000000;1.736576
6934.000000;1.737233
6933.000000;1.737019
6932.000000;1.735626
6931.000000;1.733960
6930.000000;1.733541
6929.000000;1.734633
6928.000000;1.735707
6927.000000;1.735208
6926.000000;1.733402
6925.000000;1.731925
6924.000000;1.731748
6923.000000;1.732181
6922.000000;1.731983
6921.000000;1.731052
6920.000000;1.730554
6919.000000;1.731430
6918.000000;1.733135
6917.000000;1.734131
6916.000000;1.733525
6915.000000;1.731895
6914.000000;1.730569
6913.000000;1.730506
6912.000000;1.731834
6911.000000;1.733940
6910.000000;1.735788
6909.000000;1.736448
6908.000000;1.735638
6907.000000;1.733770
6906.000000;1.731599
6905.000000;1.730001
6904.000000;1.729853
6903.000000;1.731578
6902.000000;1.734587
6901.000000;1.737503
6900.000000;1.739200
6899.000000;1.739416
6898.000000;1.738399
6897.000000;1.736529
6896.000000;1.734535
6895.000000;1.733506
6894.000000;1.734132
6893.000000;1.735936
6892.000000;1.737578
6891.000000;1.737979
6890.000000;1.737081
6889.000000;1.735628
6888.000000;1.734440
6887.000000;1.733876
6886.000000;1.733748
6885.000000;1.733572
6884.000000;1.732940
6883.000000;1.731789
6882.000000;1.730456
6881.000000;1.729484
6880.000000;1.729207
6879.000000;1.729456
6878.000000;1.729821
6877.000000;1.730225
6876.000000;1.730909
6875.000000;1.731755
6874.000000;1.732073
6873.000000;1.731405
6872.000000;1.730147
6871.000000;1.728885
6870.000000;1.727485
6869.000000;1.725481
6868.000000;1.723128
6867.000000;1.721299
6866.000000;1.720387
6865.000000;1.720075
6864.000000;1.720231
6863.000000;1.721247
6862.000000;1.723152
6861.000000;1.725043
6860.000000;1.725942
6859.000000;1.725848
6858.000000;1.725496
6857.000000;1.725399
6856.000000;1.725561
6855.000000;1.725800
6854.000000;1.725806
6853.000000;1.725042
6852.000000;1.723098
6851.000000;1.720204
6850.000000;1.717151
6849.000000;1.714768
6848.000000;1.713648
6847.000000;1.714102
6846.000000;1.715903
6845.000000;1.718031
6844.000000;1.719115
6843.000000;1.718419
6842.000000;1.716385
6841.000000;1.714110
6840.000000;1.712342
6839.000000;1.710979
6838.000000;1.709554
6837.000000;1.708154
6836.000000;1.707635
6835.000000;1.708660
6834.000000;1.710582
6833.000000;1.711711
6832.000000;1.710945
6831.000000;1.708820
6830.000000;1.706677
6829.000000;1.705223
6828.000000;1.704288
6827.000000;1.703574
6826.000000;1.702942
6825.000000;1.702028
6824.000000;1.700308
6823.000000;1.697912
6822.000000;1.695910
6821.000000;1.695329
6820.000000;1.696028
6819.000000;1.696773
6818.000000;1.696354
6817.000000;1.694444
6816.000000;1.691548
6815.000000;1.688488
6814.000000;1.686006
6813.000000;1.684454
6812.000000;1.683607
6811.000000;1.682888
6810.000000;1.681866
6809.000000;1.680476
6808.000000;1.678816
6807.000000;1.676913
6806.000000;1.674862
6805.000000;1.673093
6804.000000;1.672091
6803.000000;1.671858
6802.000000;1.671891
6801.000000;1.671556
6800.000000;1.670318
6799.000000;1.667906
6798.000000;1.664690
6797.000000;1.661766
6796.000000;1.660151
6795.000000;1.659799
6794.000000;1.659765
6793.000000;1.659371
6792.000000;1.658773
6791.000000;1.658260
6790.000000;1.657584
6789.000000;1.656343
6788.000000;1.654580
6787.000000;1.652498
6786.000000;1.650005
6785.000000;1.647037
6784.000000;1.644029
6783.000000;1.641607
6782.000000;1.639943
6781.000000;1.638727
6780.000000;1.637675
6779.000000;1.636706
6778.000000;1.635651
6777.000000;1.634263
6776.000000;1.632582
6775.000000;1.630966
6774.000000;1.629664
6773.000000;1.628542
6772.000000;1.627188
6771.000000;1.625168
6770.000000;1.622334
6769.000000;1.619188
6768.000000;1.616751
6767.000000;1.615636
6766.000000;1.615190
6765.000000;1.613889
6764.000000;1.610797
6763.000000;1.606497
6762.000000;1.602490
6761.000000;1.599873
6760.000000;1.598629
6759.000000;1.597957
6758.000000;1.597094
6757.000000;1.595817
6756.000000;1.594208
6755.000000;1.592199
6754.000000;1.589682
6753.000000;1.587043
6752.000000;1.585040
6751.000000;1.583897
6750.000000;1.582873
6749.000000;1.581130
6748.000000;1.578731
6747.000000;1.576394
6746.000000;1.574506
6745.000000;1.572895
6744.000000;1.571401
6743.000000;1.570077
6742.000000;1.568845
6741.000000;1.567475
6740.000000;1.565946
6739.000000;1.564389
6738.000000;1.562684
6737.000000;1.560592
6736.000000;1.558303
6735.000000;1.556324
6734.000000;1.554667
6733.000000;1.552623
6732.000000;1.549577
6731.000000;1.545752
6730.000000;1.541968
6729.000000;1.538944
6728.000000;1.536992
6727.000000;1.536007
6726.000000;1.535476
6725.000000;1.534691
6724.000000;1.533188
6723.000000;1.530951
6722.000000;1.528179
6721.000000;1.525117
6720.000000;1.522201
6719.000000;1.519966
6718.000000;1.518563
6717.000000;1.517536
6716.000000;1.516240
6715.000000;1.514369
6714.000000;1.512008
6713.000000;1.509432
6712.000000;1.506954
6711.000000;1.504803
6710.000000;1.502972
6709.000000;1.501280
6708.000000;1.499679
6707.000000;1.498184
6706.000000;1.496506
6705.000000;1.494197
6704.000000;1.491417
6703.000000;1.489196
6702.000000;1.487957
6701.000000;1.487288
6700.000000;1.485796
6699.000000;1.482629
6698.000000;1.478344
6697.000000;1.474344
6696.000000;1.471652
6695.000000;1.470221
6694.000000;1.469232
6693.000000;1.467950
6692.000000;1.466321
6691.000000;1.464709
6690.000000;1.463225
6689.000000;1.461544
6688.000000;1.459430
6687.000000;1.457135
6686.000000;1.455068
6685.000000;1.453244
6684.000000;1.451306
6683.000000;1.449006
6682.000000;1.446452
6681.000000;1.443897
6680.000000;1.441488
6679.000000;1.439231
6678.000000;1.437042
6677.000000;1.434774
6676.000000;1.432279
6675.000000;1.429543
6674.000000;1.426735
6673.000000;1.424092
6672.000000;1.421726
6671.000000;1.419550
6670.000000;1.417397
6669.000000;1.415190
6668.000000;1.412979
6667.000000;1.410838
6666.000000;1.408816
6665.000000;1.406991
6664.000000;1.405419
6663.000000;1.403900
6662.000000;1.401980
6661.000000;1.399400
6660.000000;1.396458
6659.000000;1.393701
6658.000000;1.391320
6657.000000;1.389115
6656.000000;1.386984
6655.000000;1.385112
6654.000000;1.383587
6653.000000;1.382132
6652.000000;1.380397
6651.000000;1.378291
6650.000000;1.375889
6649.000000;1.373228
6648.000000;1.370388
6647.000000;1.367610
6646.000000;1.365081
6645.000000;1.362727
6644.000000;1.360382
6643.000000;1.358084
6642.000000;1.356002
6641.000000;1.354141
6640.000000;1.352334
6639.000000;1.350476
6638.000000;1.348600
6637.000000;1.346696
6636.000000;1.344636
6635.000000;1.342326
6634.000000;1.339861
6633.000000;1.337465
6632.000000;1.335321
6631.000000;1.333449
6630.000000;1.331715
6629.000000;1.329960
6628.000000;1.328123
6627.000000;1.326180
6626.000000;1.323987
6625.000000;1.321372
6624.000000;1.318451
6623.000000;1.315663
6622.000000;1.313355
6621.000000;1.311447
6620.000000;1.309618
6619.000000;1.307676
6618.000000;1.305557
6617.000000;1.303120
6616.000000;1.300284
6615.000000;1.297354
6614.000000;1.294886
6613.000000;1.293079
6612.000000;1.291517
6611.000000;1.289673
6610.000000;1.287506
6609.000000;1.285379
6608.000000;1.283516
6607.000000;1.281764
6606.000000;1.279876
6605.000000;1.277788
6604.000000;1.275556
6603.000000;1.273192
6602.000000;1.270713
6601.000000;1.268277
6600.000000;1.266109
6599.000000;1.264282
6598.000000;1.262641
6597.000000;1.260974
6596.000000;1.259179
6595.000000;1.257247
6594.000000;1.255172
6593.000000;1.252962
6592.000000;1.250705
6591.000000;1.248553
6590.000000;1.246615
6589.000000;1.244895
6588.000000;1.243306
6587.000000;1.241703
6586.000000;1.239926
6585.000000;1.237890
6584.000000;1.235644
6583.000000;1.233301
6582.000000;1.230917
6581.000000;1.228499
6580.000000;1.226127
6579.000000;1.223972
6578.000000;1.222112
6577.000000;1.220415
6576.000000;1.218664
6575.000000;1.216809
6574.000000;1.214990
6573.000000;1.213300
6572.000000;1.211619
6571.000000;1.209719
6570.000000;1.207516
6569.000000;1.205167
6568.000000;1.202913
6567.000000;1.200870
6566.000000;1.198968
6565.000000;1.197056
6564.000000;1.195037
6563.000000;1.192924
6562.000000;1.190822
6561.000000;1.188830
6560.000000;1.186947
6559.000000;1.185054
6558.000000;1.183055
6557.000000;1.181007
6556.000000;1.179069
6555.000000;1.177317
6554.000000;1.175661
6553.000000;1.173966
6552.000000;1.172146
6551.000000;1.170144
6550.000000;1.167932
6549.000000;1.165643
6548.000000;1.163598
6547.000000;1.162034
6546.000000;1.160800
6545.000000;1.159439
6544.000000;1.157619
6543.000000;1.155411
6542.000000;1.153129
6541.000000;1.151036
6540.000000;1.149241
6539.000000;1.147777
6538.000000;1.146619
6537.000000;1.145607
6536.000000;1.144441
6535.000000;1.142835
6534.000000;1.140710
6533.000000;1.138259
6532.000000;1.135803
6531.000000;1.133571
6530.000000;1.131607
6529.000000;1.129844
6528.000000;1.128228
6527.000000;1.126738
6526.000000;1.125337
6525.000000;1.123950
6524.000000;1.122450
6523.000000;1.120669
6522.000000;1.118519
6521.000000;1.116184
6520.000000;1.114093
6519.000000;1.112547
6518.000000;1.111349
6517.000000;1.109955
6516.000000;1.108013
6515.000000;1.105667
6514.000000;1.103319
6513.000000;1.101263
6512.000000;1.099582
6511.000000;1.098230
6510.000000;1.097042
6509.000000;1.095747
6508.000000;1.094155
6507.000000;1.092341
6506.000000;1.090534
6505.000000;1.088842
6504.000000;1.087200
6503.000000;1.085549
6502.000000;1.083930
6501.000000;1.082346
6500.000000;1.080672
6499.000000;1.078821
6498.000000;1.076906
6497.000000;1.075142
6496.000000;1.073601
6495.000000;1.072156
6494.000000;1.070654
6493.000000;1.069060
6492.000000;1.067424
6491.000000;1.065787
6490.000000;1.064174
6489.000000;1.062603
6488.000000;1.061052
6487.000000;1.059472
6486.000000;1.057862
6485.000000;1.056312
6484.000000;1.054861
6483.000000;1.053366
6482.000000;1.051606
6481.000000;1.049559
6480.000000;1.047504
6479.000000;1.045774
6478.000000;1.044457
6477.000000;1.043352
6476.000000;1.042178
6475.000000;1.040770
6474.000000;1.039130
6473.000000;1.037362
6472.000000;1.035585
6471.000000;1.033860
6470.000000;1.032187
6469.000000;1.030567
6468.000000;1.029042
6467.000000;1.027641
6466.000000;1.026317
6465.000000;1.024994
6464.000000;1.023665
6463.000000;1.022378
6462.000000;1.021130
6461.000000;1.019851
6460.000000;1.018481
6459.000000;1.017006
6458.000000;1.015393
6457.000000;1.013579
6456.000000;1.011602
6455.000000;1.009662
6454.000000;1.007966
6453.000000;1.006524
6452.000000;1.005165
6451.000000;1.003757
6450.000000;1.002324
6449.000000;1.000946
6448.000000;0.999603
6447.000000;0.998212
6446.000000;0.996756
6445.000000;0.995308
6444.000000;0.993920
6443.000000;0.992548
6442.000000;0.991145
6441.000000;0.989780
6440.000000;0.988583
6439.000000;0.987568
6438.000000;0.986551
6437.000000;0.985318
6436.000000;0.983855
6435.000000;0.982377
6434.000000;0.981109
6433.000000;0.980071
6432.000000;0.979064
6431.000000;0.977851
6430.000000;0.976340
6429.000000;0.974618
6428.000000;0.972851
6427.000000;0.971150
6426.000000;0.969537
6425.000000;0.968012
6424.000000;0.966625
6423.000000;0.965442
6422.000000;0.964442
6421.000000;0.963469
6420.000000;0.962329
6419.000000;0.960958
6418.000000;0.959465
6417.000000;0.958020
6416.000000;0.956701
6415.000000;0.955463
6414.000000;0.954216
6413.000000;0.952904
6412.000000;0.951519
6411.000000;0.950090
6410.000000;0.948675
6409.000000;0.947325
6408.000000;0.946037
6407.000000;0.944770
6406.000000;0.943522
6405.000000;0.942352
6404.000000;0.941293
6403.000000;0.940264
6402.000000;0.939118
6401.000000;0.937801
6400.000000;0.936393
6399.000000;0.934998
6398.000000;0.933634
6397.000000;0.932264
6396.000000;0.930883
6395.000000;0.929523
6394.000000;0.928199
6393.000000;0.926902
6392.000000;0.925644
6391.000000;0.924463
6390.000000;0.923353
6389.000000;0.922241
6388.000000;0.921059
6387.000000;0.919829
6386.000000;0.918627
6385.000000;0.917469
6384.000000;0.916267
6383.000000;0.914941
6382.000000;0.913537
6381.000000;0.912186
6380.000000;0.910950
6379.000000;0.909773
6378.000000;0.908595
6377.000000;0.907454
6376.000000;0.906424
6375.000000;0.905504
6374.000000;0.904611
6373.000000;0.903674
6372.000000;0.902668
6371.000000;0.901576
6370.000000;0.900399
6369.000000;0.899195
6368.000000;0.898050
6367.000000;0.896987
6366.000000;0.895933
6365.000000;0.894811
6364.000000;0.893608
6363.000000;0.892355
6362.000000;0.891092
6361.000000;0.889876
6360.000000;0.888775
6359.000000;0.887793
6358.000000;0.886836
6357.000000;0.885807
6356.000000;0.884722
6355.000000;0.883693
6354.000000;0.882791
6353.000000;0.881980
6352.000000;0.881150
6351.000000;0.880209
6350.000000;0.879139
6349.000000;0.877998
6348.000000;0.876873
6347.000000;0.875809
6346.000000;0.874781
6345.000000;0.873727
6344.000000;0.872619
6343.000000;0.871471
6342.000000;0.870307
6341.000000;0.869126
6340.000000;0.867907
6339.000000;0.866638
6338.000000;0.865360
6337.000000;0.864177
6336.000000;0.863204
6335.000000;0.862468
6334.000000;0.861864
6333.000000;0.861210
6332.000000;0.860371
6331.000000;0.859333
6330.000000;0.858194
6329.000000;0.857084
6328.000000;0.856093
6327.000000;0.855222
6326.000000;0.854404
6325.000000;0.853556
6324.000000;0.852637
6323.000000;0.851650
6322.000000;0.850613
6321.000000;0.849541
6320.000000;0.848467
6319.000000;0.847469
6318.000000;0.846628
6317.000000;0.845933
6316.000000;0.845225
6315.000000;0.844318
6314.000000;0.843184
6313.000000;0.841984
6312.000000;0.840891
6311.000000;0.839913
6310.000000;0.838947
6309.000000;0.837931
6308.000000;0.836879
6307.000000;0.835802
6306.000000;0.834702
6305.000000;0.833655
6304.000000;0.832791
6303.000000;0.832120
6302.000000;0.831449
6301.000000;0.830543
6300.000000;0.829367
6299.000000;0.828122
6298.000000;0.827047
6297.000000;0.826226
6296.000000;0.825545
6295.000000;0.824822
6294.000000;0.823950
6293.000000;0.822972
6292.000000;0.822032
6291.000000;0.821265
6290.000000;0.820706
6289.000000;0.820262
6288.000000;0.819747
6287.000000;0.818974
6286.000000;0.817892
6285.000000;0.816651
6284.000000;0.815496
6283.000000;0.814582
6282.000000;0.813874
6281.000000;0.813200
6280.000000;0.812384
6279.000000;0.811349
6278.000000;0.810164
6277.000000;0.808991
6276.000000;0.807943
6275.000000;0.806990
6274.000000;0.806040
6273.000000;0.805108
6272.000000;0.804310
6271.000000;0.803687
6270.000000;0.803110
6269.000000;0.802414
6268.000000;0.801576
6267.000000;0.800712
6266.000000;0.799933
6265.000000;0.799248
6264.000000;0.798591
6263.000000;0.797886
6262.000000;0.797102
6261.000000;0.796265
6260.000000;0.795437
6259.000000;0.794659
6258.000000;0.793939
6257.000000;0.793275
6256.000000;0.792653
6255.000000;0.792025
6254.000000;0.791331
6253.000000;0.790553
6252.000000;0.789709
6251.000000;0.788790
6250.000000;0.787782
6249.000000;0.786750
6248.000000;0.785837
6247.000000;0.785119
6246.000000;0.784510
6245.000000;0.783857
6244.000000;0.783098
6243.000000;0.782270
6242.000000;0.781422
6241.000000;0.780572
6240.000000;0.779725
6239.000000;0.778894
6238.000000;0.778098
6237.000000;0.777384
6236.000000;0.776798
6235.000000;0.776293
6234.000000;0.775702
6233.000000;0.774871
6232.000000;0.773841
6231.000000;0.772834
6230.000000;0.772066
6229.000000;0.771571
6228.000000;0.771218
6227.000000;0.770835
6226.000000;0.770320
6225.000000;0.769674
6224.000000;0.768951
6223.000000;0.768195
6222.000000;0.767412
6221.000000;0.766612
6220.000000;0.765816
6219.000000;0.765023
6218.000000;0.764211
6217.000000;0.763394
6216.000000;0.762631
6215.000000;0.761958
6214.000000;0.761345
6213.000000;0.760770
6212.000000;0.760265
6211.000000;0.759832
6210.000000;0.759371
6209.000000;0.758758
6208.000000;0.757997
6207.000000;0.757200
6206.000000;0.756427
6205.000000;0.755643
6204.000000;0.754830
6203.000000;0.754047
6202.000000;0.753340
6201.000000;0.752653
6200.000000;0.751934
6199.000000;0.751253
6198.000000;0.750754
6197.000000;0.750468
6196.000000;0.750234
6195.000000;0.749835
6194.000000;0.749180
6193.000000;0.748345
6192.000000;0.747479
6191.000000;0.746681
6190.000000;0.745975
6189.000000;0.745336
6188.000000;0.744715
6187.000000;0.744048
6186.000000;0.743283
6185.000000;0.742427
6184.000000;0.741549
6183.000000;0.740722
6182.000000;0.739974
6181.000000;0.739304
6180.000000;0.738717
6179.000000;0.738197
6178.000000;0.737666
6177.000000;0.737017
6176.000000;0.736227
6175.000000;0.735402
6174.000000;0.734669
6173.000000;0.734040
6172.000000;0.733415
6171.000000;0.732727
6170.000000;0.732015
6169.000000;0.731345
6168.000000;0.730708
6167.000000;0.730065
6166.000000;0.729462
6165.000000;0.729007
6164.000000;0.728712
6163.000000;0.728439
6162.000000;0.728047
6161.000000;0.727550
6160.000000;0.727061
6159.000000;0.726609
6158.000000;0.726110
6157.000000;0.725505
6156.000000;0.724841
6155.000000;0.724192
6154.000000;0.723567
6153.000000;0.722933
6152.000000;0.722285
6151.000000;0.721639
6150.000000;0.720978
6149.000000;0.720248
6148.000000;0.719426
6147.000000;0.718562
6146.000000;0.717755
6145.000000;0.717074
6144.000000;0.716513
6143.000000;0.715988
6142.000000;0.715410
6141.000000;0.714752
6140.000000;0.714047
6139.000000;0.713336
6138.000000;0.712646
6137.000000;0.712001
6136.000000;0.711435
6135.000000;0.710952
6134.000000;0.710510
6133.000000;0.710056
6132.000000;0.709568
6131.000000;0.709059
6130.000000;0.708538
6129.000000;0.707980
6128.000000;0.707362
6127.000000;0.706730
6126.000000;0.706202
6125.000000;0.705865
6124.000000;0.705660
6123.000000;0.705418
6122.000000;0.705031
6121.000000;0.704542
6120.000000;0.704024
6119.000000;0.703449
6118.000000;0.702754
6117.000000;0.701993
6116.000000;0.701319
6115.000000;0.700813
6114.000000;0.700424
6113.000000;0.700061
6112.000000;0.699688
6111.000000;0.699286
6110.000000;0.698829
6109.000000;0.698316
6108.000000;0.697791
6107.000000;0.697280
6106.000000;0.696764
6105.000000;0.696236
6104.000000;0.695730
6103.000000;0.695275
6102.000000;0.694850
6101.000000;0.694409
6100.000000;0.693910
6099.000000;0.693310
6098.000000;0.692596
6097.000000;0.691849
6096.000000;0.691216
6095.000000;0.690773
6094.000000;0.690446
6093.000000;0.690107
6092.000000;0.689691
6091.000000;0.689194
6090.000000;0.688628
6089.000000;0.688026
6088.000000;0.687464
6087.000000;0.687000
6086.000000;0.686602
6085.000000;0.686196
6084.000000;0.685754
6083.000000;0.685315
6082.000000;0.684910
6081.000000;0.684516
6080.000000;0.684074
6079.000000;0.683541
6078.000000;0.682917
6077.000000;0.682257
6076.000000;0.681630
6075.000000;0.681048
6074.000000;0.680476
6073.000000;0.679898
6072.000000;0.679367
6071.000000;0.678945
6070.000000;0.678626
6069.000000;0.678335
6068.000000;0.677982
6067.000000;0.677517
6066.000000;0.676942
6065.000000;0.676310
6064.000000;0.675687
6063.000000;0.675111
6062.000000;0.674592
6061.000000;0.674147
6060.000000;0.673807
6059.000000;0.673576
6058.000000;0.673419
6057.000000;0.673280
6056.000000;0.673093
6055.000000;0.672782
6054.000000;0.672320
6053.000000;0.671770
6052.000000;0.671220
6051.000000;0.670676
6050.000000;0.670087
6049.000000;0.669488
6048.000000;0.669022
6047.000000;0.668759
6046.000000;0.668568
6045.000000;0.668236
6044.000000;0.667697
6043.000000;0.667075
6042.000000;0.666527
6041.000000;0.666111
6040.000000;0.665792
6039.000000;0.665522
6038.000000;0.665273
6037.000000;0.665003
6036.000000;0.664619
6035.000000;0.664029
6034.000000;0.663268
6033.000000;0.662526
6032.000000;0.661984
6031.000000;0.661635
6030.000000;0.661322
6029.000000;0.660944
6028.000000;0.660541
6027.000000;0.660165
6026.000000;0.659784
6025.000000;0.659357
6024.000000;0.658891
6023.000000;0.658396
6022.000000;0.657844
6021.000000;0.657264
6020.000000;0.656777
6019.000000;0.656459
6018.000000;0.656214
6017.000000;0.655895
6016.000000;0.655489
6015.000000;0.655108
6014.000000;0.654815
6013.000000;0.654543
6012.000000;0.654190
6011.000000;0.653732
6010.000000;0.653242
6009.000000;0.652842
6008.000000;0.652598
6007.000000;0.652456
6006.000000;0.652283
6005.000000;0.652019
6004.000000;0.651733
6003.000000;0.651479
6002.000000;0.651202
6001.000000;0.650827
6000.000000;0.650393
5999.000000;0.649998
5998.000000;0.649643
5997.000000;0.649243
5996.000000;0.648763
5995.000000;0.648266
5994.000000;0.647814
5993.000000;0.647401
5992.000000;0.647002
5991.000000;0.646594
5990.000000;0.646158
5989.000000;0.645702
5988.000000;0.645291
5987.000000;0.644984
5986.000000;0.644749
5985.000000;0.644495
5984.000000;0.644193
5983.000000;0.643901
5982.000000;0.643661
5981.000000;0.643442
5980.000000;0.643202
5979.000000;0.642926
5978.000000;0.642595
5977.000000;0.642178
5976.000000;0.641691
5975.000000;0.641219
5974.000000;0.640847
5973.000000;0.640601
5972.000000;0.640455
5971.000000;0.640354
5970.000000;0.640229
5969.000000;0.640015
5968.000000;0.639705
5967.000000;0.639365
5966.000000;0.639093
5965.000000;0.638946
5964.000000;0.638908
5963.000000;0.638893
5962.000000;0.638770
5961.000000;0.638453
5960.000000;0.637961
5959.000000;0.637407
5958.000000;0.636914
5957.000000;0.636539
5956.000000;0.636274
5955.000000;0.636069
5954.000000;0.635876
5953.000000;0.635666
5952.000000;0.635427
5951.000000;0.635137
5950.000000;0.634774
5949.000000;0.634362
5948.000000;0.633978
5947.000000;0.633684
5946.000000;0.633474
5945.000000;0.633306
5944.000000;0.633143
5943.000000;0.632949
5942.000000;0.632692
5941.000000;0.632413
5940.000000;0.632249
5939.000000;0.632297
5938.000000;0.632462
5937.000000;0.632525
5936.000000;0.632354
5935.000000;0.632010
5934.000000;0.631623
5933.000000;0.631252
5932.000000;0.630890
5931.000000;0.630544
5930.000000;0.630251
5929.000000;0.630021
5928.000000;0.629806
5927.000000;0.629549
5926.000000;0.629244
5925.000000;0.628949
5924.000000;0.628728
5923.000000;0.628580
5922.000000;0.628439
5921.000000;0.628250
5920.000000;0.628030
5919.000000;0.627836
5918.000000;0.627688
5917.000000;0.627557
5916.000000;0.627401
5915.000000;0.627192
5914.000000;0.626919
5913.000000;0.626587
5912.000000;0.626213
5911.000000;0.625813
5910.000000;0.625409
5909.000000;0.625053
5908.000000;0.624821
5907.000000;0.624749
5906.000000;0.624796
5905.000000;0.624886
5904.000000;0.624958
5903.000000;0.624957
5902.000000;0.624838
5901.000000;0.624607
5900.000000;0.624343
5899.000000;0.624118
5898.000000;0.623911
5897.000000;0.623644
5896.000000;0.623298
5895.000000;0.622953
5894.000000;0.622715
5893.000000;0.622631
5892.000000;0.622677
5891.000000;0.622789
5890.000000;0.622905
5889.000000;0.622987
5888.000000;0.622998
5887.000000;0.622875
5886.000000;0.622564
5885.000000;0.622109
5884.000000;0.621639
5883.000000;0.621253
5882.000000;0.620942
5881.000000;0.620662
5880.000000;0.620444
5879.000000;0.620358
5878.000000;0.620403
5877.000000;0.620484
5876.000000;0.620497
5875.000000;0.620413
5874.000000;0.620283
5873.000000;0.620187
5872.000000;0.620150
5871.000000;0.620106
5870.000000;0.619955
5869.000000;0.619698
5868.000000;0.619459
5867.000000;0.619351
5866.000000;0.619340
5865.000000;0.619318
5864.000000;0.619245
5863.000000;0.619172
5862.000000;0.619136
5861.000000;0.619130
5860.000000;0.619148
5859.000000;0.619198
5858.000000;0.619235
5857.000000;0.619161
5856.000000;0.618911
5855.000000;0.618532
5854.000000;0.618156
5853.000000;0.617904
5852.000000;0.617797
5851.000000;0.617749
5850.000000;0.617662
5849.000000;0.617546
5848.000000;0.617505
5847.000000;0.617590
5846.000000;0.617715
5845.000000;0.617763
5844.000000;0.617729
5843.000000;0.617683
5842.000000;0.617668
5841.000000;0.617673
5840.000000;0.617693
5839.000000;0.617718
5838.000000;0.617700
5837.000000;0.617598
5836.000000;0.617475
5835.000000;0.617448
5834.000000;0.617566
5833.000000;0.617792
5832.000000;0.618079
5831.000000;0.618384
5830.000000;0.618624
5829.000000;0.618702
5828.000000;0.618627
5827.000000;0.618516
5826.000000;0.618471
5825.000000;0.618500
5824.000000;0.618590
5823.000000;0.618761
5822.000000;0.619014
5821.000000;0.619275
5820.000000;0.619450
5819.000000;0.619513
5818.000000;0.619513
5817.000000;0.619531
5816.000000;0.619611
5815.000000;0.619729
5814.000000;0.619800
5813.000000;0.619755
5812.000000;0.619621
5811.000000;0.619486
5810.000000;0.619407
5809.000000;0.619372
5808.000000;0.619359
5807.000000;0.619382
5806.000000;0.619455
5805.000000;0.619569
5804.000000;0.619694
5803.000000;0.619792
5802.000000;0.619821
5801.000000;0.619787
5800.000000;0.619789
5799.000000;0.619947
5798.000000;0.620268
5797.000000;0.620616
5796.000000;0.620851
5795.000000;0.620957
5794.000000;0.621026
5793.000000;0.621151
5792.000000;0.621369
5791.000000;0.621665
5790.000000;0.622006
5789.000000;0.622370
5788.000000;0.622755
5787.000000;0.623160
5786.000000;0.623541
5785.000000;0.623838
5784.000000;0.624026
5783.000000;0.624128
5782.000000;0.624174
5781.000000;0.624179
5780.000000;0.624167
5779.000000;0.624165
5778.000000;0.624178
5777.000000;0.624171
5776.000000;0.624122
5775.000000;0.624061
5774.000000;0.624073
5773.000000;0.624244
5772.000000;0.624582
5771.000000;0.624984
5770.000000;0.625289
5769.000000;0.625429
5768.000000;0.625496
5767.000000;0.625634
5766.000000;0.625883
5765.000000;0.626178
5764.000000;0.626466
5763.000000;0.626767
5762.000000;0.627104
5761.000000;0.627453
5760.000000;0.627776
5759.000000;0.628069
5758.000000;0.628345
5757.000000;0.628614
5756.000000;0.628893
5755.000000;0.629210
5754.000000;0.629575
5753.000000;0.629967
5752.000000;0.630353
5751.000000;0.630705
5750.000000;0.631003
5749.000000;0.631260
5748.000000;0.631525
5747.000000;0.631829
5746.000000;0.632155
5745.000000;0.632478
5744.000000;0.632841
5743.000000;0.633318
5742.000000;0.633888
5741.000000;0.634409
5740.000000;0.634750
5739.000000;0.634910
5738.000000;0.634988
5737.000000;0.635070
5736.000000;0.635182
5735.000000;0.635337
5734.000000;0.635576
5733.000000;0.635938
5732.000000;0.636401
5731.000000;0.636873
5730.000000;0.637271
5729.000000;0.637604
5728.000000;0.637977
5727.000000;0.638469
5726.000000;0.639048
5725.000000;0.639601
5724.000000;0.640050
5723.000000;0.640401
5722.000000;0.640709
5721.000000;0.641016
5720.000000;0.641338
5719.000000;0.641680
5718.000000;0.642063
5717.000000;0.642525
5716.000000;0.643084
5715.000000;0.643691
5714.000000;0.644251
5713.000000;0.644704
5712.000000;0.645089
5711.000000;0.645493
5710.000000;0.645982
5709.000000;0.646573
5708.000000;0.647238
5707.000000;0.647904
5706.000000;0.648487
5705.000000;0.648972
5704.000000;0.649417
5703.000000;0.649882
5702.000000;0.650350
5701.000000;0.650783
5700.000000;0.651194
5699.000000;0.651621
5698.000000;0.652026
5697.000000;0.652443
5696.000000;0.652857
5695.000000;0.653316
5694.000000;0.653881
5693.000000;0.654589
5692.000000;0.655407
5691.000000;0.656201
5690.000000;0.656804
5689.000000;0.657179
5688.000000;0.657465
5687.000000;0.657825
5686.000000;0.658305
5685.000000;0.658864
5684.000000;0.659469
5683.000000;0.660076
5682.000000;0.660594
5681.000000;0.660974
5680.000000;0.661302
5679.000000;0.661719
5678.000000;0.662266
5677.000000;0.662888
5676.000000;0.663534
5675.000000;0.664169
5674.000000;0.664720
5673.000000;0.665150
5672.000000;0.665564
5671.000000;0.666135
5670.000000;0.666897
5669.000000;0.667705
5668.000000;0.668399
5667.000000;0.668943
5666.000000;0.669385
5665.000000;0.669783
5664.000000;0.670186
5663.000000;0.670622
5662.000000;0.671076
5661.000000;0.671526
5660.000000;0.671976
5659.000000;0.672413
5658.000000;0.672764
5657.000000;0.672976
5656.000000;0.673117
5655.000000;0.673310
5654.000000;0.673560
5653.000000;0.673762
5652.000000;0.673885
5651.000000;0.674055
5650.000000;0.674415
5649.000000;0.674989
5648.000000;0.675692
5647.000000;0.676410
5646.000000;0.677054
5645.000000;0.677587
5644.000000;0.678031
5643.000000;0.678414
5642.000000;0.678719
5641.000000;0.678926
5640.000000;0.679103
5639.000000;0.679352
5638.000000;0.679698
5637.000000;0.680096
5636.000000;0.680529
5635.000000;0.681010
5634.000000;0.681494
5633.000000;0.681889
5632.000000;0.682168
5631.000000;0.682383
5630.000000;0.682556
5629.000000;0.682655
5628.000000;0.682695
5627.000000;0.682769
5626.000000;0.682943
5625.000000;0.683204
5624.000000;0.683519
5623.000000;0.683867
5622.000000;0.684191
5621.000000;0.684398
5620.000000;0.684455
5619.000000;0.684407
5618.000000;0.684311
5617.000000;0.684202
5616.000000;0.684133
5615.000000;0.684147
5614.000000;0.684206
5613.000000;0.684230
5612.000000;0.684231
5611.000000;0.684307
5610.000000;0.684492
5609.000000;0.684725
5608.000000;0.684950
5607.000000;0.685165
5606.000000;0.685332
5605.000000;0.685369
5604.000000;0.685272
5603.000000;0.685141
5602.000000;0.685054
5601.000000;0.684989
5600.000000;0.684922
5599.000000;0.684904
5598.000000;0.684973
5597.000000;0.685079
5596.000000;0.685144
5595.000000;0.685144
5594.000000;0.685093
5593.000000;0.685002
5592.000000;0.684894
5591.000000;0.684806
5590.000000;0.684719
5589.000000;0.684564
5588.000000;0.684308
5587.000000;0.683997
5586.000000;0.683680
5585.000000;0.683374
5584.000000;0.683113
5583.000000;0.682949
5582.000000;0.682858
5581.000000;0.682732
5580.000000;0.682500
5579.000000;0.682203
5578.000000;0.681908
5577.000000;0.681633
5576.000000;0.681367
5575.000000;0.681111
5574.000000;0.680872
5573.000000;0.680648
5572.000000;0.680471
5571.000000;0.680379
5570.000000;0.680332
5569.000000;0.680233
5568.000000;0.680062
5567.000000;0.679883
5566.000000;0.679722
5565.000000;0.679514
5564.000000;0.679219
5563.000000;0.678887
5562.000000;0.678555
5561.000000;0.678177
5560.000000;0.677701
5559.000000;0.677159
5558.000000;0.676604
5557.000000;0.676061
5556.000000;0.675575
5555.000000;0.675243
5554.000000;0.675108
5553.000000;0.675074
5552.000000;0.674998
5551.000000;0.674832
5550.000000;0.674626
5549.000000;0.674429
5548.000000;0.674255
5547.000000;0.674088
5546.000000;0.673871
5545.000000;0.673534
5544.000000;0.673080
5543.000000;0.672605
5542.000000;0.672222
5541.000000;0.671955
5540.000000;0.671744
5539.000000;0.671508
5538.000000;0.671189
5537.000000;0.670778
5536.000000;0.670354
5535.000000;0.670036
5534.000000;0.669858
5533.000000;0.669749
5532.000000;0.669641
5531.000000;0.669533
5530.000000;0.669420
5529.000000;0.669249
5528.000000;0.668995
5527.000000;0.668703
5526.000000;0.668390
5525.000000;0.668011
5524.000000;0.667552
5523.000000;0.667089
5522.000000;0.666701
5521.000000;0.666345
5520.000000;0.665939
5519.000000;0.665504
5518.000000;0.665115
5517.000000;0.664777
5516.000000;0.664423
5515.000000;0.664021
5514.000000;0.663639
5513.000000;0.663354
5512.000000;0.663163
5511.000000;0.663033
5510.000000;0.662961
5509.000000;0.662963
5508.000000;0.662984
5507.000000;0.662868
5506.000000;0.662498
5505.000000;0.661982
5504.000000;0.661562
5503.000000;0.661333
5502.000000;0.661183
5501.000000;0.661001
5500.000000;0.660909
5499.000000;0.661111
5498.000000;0.661493
5497.000000;0.661689
5496.000000;0.661553
5495.000000;0.661319
5494.000000;0.661201
5493.000000;0.661059
5492.000000;0.660659
5491.000000;0.660145
5490.000000;0.659889
5489.000000;0.659971
5488.000000;0.660110
5487.000000;0.660111
5486.000000;0.660081
5485.000000;0.660189
5484.000000;0.660330
5483.000000;0.660268
5482.000000;0.660072
5481.000000;0.660006
5480.000000;0.660060
5479.000000;0.659963
5478.000000;0.659631
5477.000000;0.659373
5476.000000;0.659477
5475.000000;0.659705
5474.000000;0.659604
5473.000000;0.659214
5472.000000;0.658982
5471.000000;0.659066
5470.000000;0.659184
5469.000000;0.659109
5468.000000;0.659024
5467.000000;0.659222
5466.000000;0.659589
5465.000000;0.659802
5464.000000;0.659827
5463.000000;0.659888
5462.000000;0.660154
5461.000000;0.660604
5460.000000;0.661105
5459.000000;0.661552
5458.000000;0.661903
5457.000000;0.662178
5456.000000;0.662463
5455.000000;0.662787
5454.000000;0.663013
5453.000000;0.663112
5452.000000;0.663335
5451.000000;0.663873
5450.000000;0.664497
5449.000000;0.664794
5448.000000;0.664840
5447.000000;0.665250
5446.000000;0.666256
5445.000000;0.667280
5444.000000;0.667739
5443.000000;0.667778
5442.000000;0.667971
5441.000000;0.668551
5440.000000;0.669168
5439.000000;0.669496
5438.000000;0.669754
5437.000000;0.670331
5436.000000;0.671318
5435.000000;0.672481
5434.000000;0.673444
5433.000000;0.674035
5432.000000;0.674471
5431.000000;0.675085
5430.000000;0.675989
5429.000000;0.676955
5428.000000;0.677654
5427.000000;0.678093
5426.000000;0.678654
5425.000000;0.679636
5424.000000;0.680943
5423.000000;0.682197
5422.000000;0.683141
5421.000000;0.684010
5420.000000;0.685247
5419.000000;0.686821
5418.000000;0.688241
5417.000000;0.689279
5416.000000;0.690336
5415.000000;0.691873
5414.000000;0.693702
5413.000000;0.695267
5412.000000;0.696543
5411.000000;0.698049
5410.000000;0.699997
5409.000000;0.701978
5408.000000;0.703661
5407.000000;0.705265
5406.000000;0.707147
5405.000000;0.709220
5404.000000;0.711155
5403.000000;0.713009
5402.000000;0.715020
5401.000000;0.717178
5400.000000;0.719475
5399.000000;0.722010
5398.000000;0.724751
5397.000000;0.727460
5396.000000;0.730010
5395.000000;0.732659
5394.000000;0.735606
5393.000000;0.738590
5392.000000;0.741319
5391.000000;0.743965
5390.000000;0.746842
5389.000000;0.749907
5388.000000;0.752928
5387.000000;0.755985
5386.000000;0.759367
5385.000000;0.762961
5384.000000;0.766455
5383.000000;0.770051
5382.000000;0.774103
5381.000000;0.778374
5380.000000;0.782425
5379.000000;0.786393
5378.000000;0.790827
5377.000000;0.795736
5376.000000;0.800491
5375.000000;0.804886
5374.000000;0.809468
5373.000000;0.814589
5372.000000;0.819886
5371.000000;0.824977
5370.000000;0.830076
5369.000000;0.835537
5368.000000;0.841229
5367.000000;0.846900
5366.000000;0.852745
5365.000000;0.858993
5364.000000;0.865440
5363.000000;0.871836
5362.000000;0.878313
5361.000000;0.885195
5360.000000;0.892576
5359.000000;0.900331
5358.000000;0.908339
5357.000000;0.916451
5356.000000;0.924473
5355.000000;0.932480
5354.000000;0.940844
5353.000000;0.949653
5352.000000;0.958568
5351.000000;0.967638
5350.000000;0.977355
5349.000000;0.987639
5348.000000;0.997657
5347.000000;1.007036
5346.000000;1.016652
5345.000000;1.027573
5344.000000;1.039500
5343.000000;1.051156
5342.000000;1.062057
5341.000000;1.072756
5340.000000;1.083712
5339.000000;1.095035
5338.000000;1.106940
5337.000000;1.119631
5336.000000;1.132745
5335.000000;1.145698
5334.000000;1.158596
5333.000000;1.171934
5332.000000;1.185586
5331.000000;1.199083
5330.000000;1.212649
5329.000000;1.227017
5328.000000;1.242257
5327.000000;1.257444
5326.000000;1.271821
5325.000000;1.285677
5324.000000;1.299650
5323.000000;1.313978
5322.000000;1.328746
5321.000000;1.344058
5320.000000;1.359715
5319.000000;1.375320
5318.000000;1.390736
5317.000000;1.406017
5316.000000;1.420904
5315.000000;1.435075
5314.000000;1.448979
5313.000000;1.463486
5312.000000;1.478593
5311.000000;1.493405
5310.000000;1.507452
5309.000000;1.521141
5308.000000;1.534762
5307.000000;1.547905
5306.000000;1.560181
5305.000000;1.571716
5304.000000;1.582686
5303.000000;1.593070
5302.000000;1.603012
5301.000000;1.612680
5300.000000;1.621793
5299.000000;1.630001
5298.000000;1.637685
5297.000000;1.645637
5296.000000;1.653843
5295.000000;1.661394
5294.000000;1.667777
5293.000000;1.673289
5292.000000;1.678147
5291.000000;1.682174
5290.000000;1.685535
5289.000000;1.689007
5288.000000;1.693115
5287.000000;1.697479
5286.000000;1.701142
5285.000000;1.703226
5284.000000;1.703620
5283.000000;1.703442
5282.000000;1.704341
5281.000000;1.706785
5280.000000;1.709487
5279.000000;1.711067
5278.000000;1.711796
5277.000000;1.712964
5276.000000;1.715031
5275.000000;1.717260
5274.000000;1.718911
5273.000000;1.719955
5272.000000;1.720607
5271.000000;1.721080
5270.000000;1.721648
5269.000000;1.722222
5268.000000;1.722168
5267.000000;1.721243
5266.000000;1.720225
5265.000000;1.719949
5264.000000;1.720166
5263.000000;1.720035
5262.000000;1.719541
5261.000000;1.719548
5260.000000;1.720528
5259.000000;1.722120
5258.000000;1.723783
5257.000000;1.725071
5256.000000;1.725487
5255.000000;1.724868
5254.000000;1.723920
5253.000000;1.723731
5252.000000;1.724691
5251.000000;1.726471
5250.000000;1.728646
5249.000000;1.730542
5248.000000;1.731082
5247.000000;1.729674
5246.000000;1.727022
5245.000000;1.724329
5244.000000;1.722082
5243.000000;1.720294
5242.000000;1.719513
5241.000000;1.720595
5240.000000;1.723411
5239.000000;1.726488
5238.000000;1.728185
5237.000000;1.727847
5236.000000;1.725910
5235.000000;1.723614
5234.000000;1.722540
5233.000000;1.723560
5232.000000;1.726023
5231.000000;1.728310
5230.000000;1.729279
5229.000000;1.728894
5228.000000;1.727589
5227.000000;1.725729
5226.000000;1.723892
5225.000000;1.723047
5224.000000;1.723923
5223.000000;1.726376
5222.000000;1.729482
5221.000000;1.732124
5220.000000;1.733466
5219.000000;1.733211
5218.000000;1.731637
5217.000000;1.729276
5216.000000;1.726707
5215.000000;1.724676
5214.000000;1.723807
5213.000000;1.723990
5212.000000;1.724356
5211.000000;1.724109
5210.000000;1.723324
5209.000000;1.722771
5208.000000;1.723111
5207.000000;1.724411
5206.000000;1.726166
5205.000000;1.727570
5204.000000;1.728094
5203.000000;1.727889
5202.000000;1.727408
5201.000000;1.726825
5200.000000;1.726228
5199.000000;1.726212
5198.000000;1.727522
5197.000000;1.729818
5196.000000;1.731582
5195.000000;1.731733
5194.000000;1.730684
5193.000000;1.729504
5192.000000;1.728777
5191.000000;1.728623
5190.000000;1.729161
5189.000000;1.730289
5188.000000;1.731380
5187.000000;1.731830
5186.000000;1.731735
5185.000000;1.731749
5184.000000;1.732552
5183.000000;1.734488
5182.000000;1.737062
5181.000000;1.738713
5180.000000;1.737978
5179.000000;1.735226
5178.000000;1.732378
5177.000000;1.730577
5176.000000;1.729169
5175.000000;1.727436
5174.000000;1.726218
5173.000000;1.726799
5172.000000;1.728935
5171.000000;1.731049
5170.000000;1.731971
5169.000000;1.731661
5168.000000;1.730599
5167.000000;1.729402
5166.000000;1.728852
5165.000000;1.729340
5164.000000;1.730275
5163.000000;1.730656
5162.000000;1.730206
5161.000000;1.729519
5160.000000;1.729300
5159.000000;1.729778
5158.000000;1.730533
5157.000000;1.730611
5156.000000;1.729361
5155.000000;1.727513
5154.000000;1.726806
5153.000000;1.728069
5152.000000;1.730349
5151.000000;1.732437
5150.000000;1.734448
5149.000000;1.736978
5148.000000;1.739445
5147.000000;1.740537
5146.000000;1.740037
5145.000000;1.738937
5144.000000;1.737898
5143.000000;1.736747
5142.000000;1.735445
5141.000000;1.734494
5140.000000;1.734216
5139.000000;1.734458
5138.000000;1.735067
5137.000000;1.735900
5136.000000;1.736418
5135.000000;1.736153
5134.000000;1.735648
5133.000000;1.736063
5132.000000;1.737621
5131.000000;1.739062
5130.000000;1.738970
5129.000000;1.737246
5128.000000;1.734981
5127.000000;1.733388
5126.000000;1.733071
5125.000000;1.733781
5124.000000;1.734565
5123.000000;1.734470
5122.000000;1.733344
5121.000000;1.731942
5120.000000;1.731267
5119.000000;1.731904
5118.000000;1.733741
5117.000000;1.735988
5116.000000;1.737624
5115.000000;1.738252
5114.000000;1.738460
5113.000000;1.738973
5112.000000;1.739566
5111.000000;1.739339
5110.000000;1.738086
5109.000000;1.736888
5108.000000;1.737149
5107.000000;1.739234
5106.000000;1.742102
5105.000000;1.744059
5104.000000;1.743956
5103.000000;1.742014
5102.000000;1.739625
5101.000000;1.738295
5100.000000;1.738636
5099.000000;1.740156
5098.000000;1.741730
5097.000000;1.742316
5096.000000;1.741627
5095.000000;1.740285
5094.000000;1.739136
5093.000000;1.738382
5092.000000;1.737648
5091.000000;1.736832
5090.000000;1.736407
5089.000000;1.736683
5088.000000;1.737278
5087.000000;1.737709
5086.000000;1.738110
5085.000000;1.738994
5084.000000;1.740517
5083.000000;1.742354
5082.000000;1.744092
5081.000000;1.745404
5080.000000;1.746017
5079.000000;1.745874
5078.000000;1.745172
5077.000000;1.743998
5076.000000;1.742191
5075.000000;1.739930
5074.000000;1.738186
5073.000000;1.738108
5072.000000;1.740007
5071.000000;1.743075
5070.000000;1.745920
5069.000000;1.747347
5068.000000;1.746983
5067.000000;1.745541
5066.000000;1.744269
5065.000000;1.743716
5064.000000;1.743141
5063.000000;1.741507
5062.000000;1.738967
5061.000000;1.737026
5060.000000;1.737316
5059.000000;1.740270
5058.000000;1.744618
5057.000000;1.748013
5056.000000;1.748739
5055.000000;1.747210
5054.000000;1.745493
5053.000000;1.745151
5052.000000;1.745941
5051.000000;1.746701
5050.000000;1.746890
5049.000000;1.746796
5048.000000;1.746631
5047.000000;1.746077
5046.000000;1.744664
5045.000000;1.742311
5044.000000;1.739664
5043.000000;1.738020
5042.000000;1.738427
5041.000000;1.740542
5040.000000;1.742773
5039.000000;1.743933
5038.000000;1.744291
5037.000000;1.744588
5036.000000;1.744818
5035.000000;1.744740
5034.000000;1.744920
5033.000000;1.746160
5032.000000;1.748172
5031.000000;1.749844
5030.000000;1.750748
5029.000000;1.751399
5028.000000;1.752020
5027.000000;1.752054
5026.000000;1.751185
5025.000000;1.749953
5024.000000;1.748978
5023.000000;1.748259
5022.000000;1.747560
5021.000000;1.746880
5020.000000;1.746230
5019.000000;1.745494
5018.000000;1.744861
5017.000000;1.744855
5016.000000;1.745511
5015.000000;1.745985
5014.000000;1.745462
5013.000000;1.744155
5012.000000;1.742945
5011.000000;1.742366
5010.000000;1.742403
5009.000000;1.742942
5008.000000;1.743764
5007.000000;1.744217
5006.000000;1.743638
5005.000000;1.742419
5004.000000;1.742105
5003.000000;1.743867
5002.000000;1.746980
5001.000000;1.749054
5000.000000;1.748351
4999.000000;1.745316
4998.000000;1.741953
4997.000000;1.739881
4996.000000;1.739353
4995.000000;1.739822
4994.000000;1.740804
4993.000000;1.741969
4992.000000;1.742816
4991.000000;1.742781
4990.000000;1.741806
4989.000000;1.740516
4988.000000;1.739618
4987.000000;1.739303
4986.000000;1.739372
4985.000000;1.739735
4984.000000;1.740409
4983.000000;1.741073
4982.000000;1.741120
4981.000000;1.740476
4980.000000;1.739936
4979.000000;1.740204
4978.000000;1.740827
4977.000000;1.740728
4976.000000;1.739781
4975.000000;1.739093
4974.000000;1.739413
4973.000000;1.739977
4972.000000;1.739507
4971.000000;1.737918
4970.000000;1.736355
4969.000000;1.735779
4968.000000;1.736143
4967.000000;1.736778
4966.000000;1.737096
4965.000000;1.737011
4964.000000;1.737056
4963.000000;1.737950
4962.000000;1.739607
4961.000000;1.740823
4960.000000;1.740535
4959.000000;1.739117
4958.000000;1.737676
4957.000000;1.736450
4956.000000;1.734898
4955.000000;1.733187
4954.000000;1.732359
4953.000000;1.732727
4952.000000;1.733164
4951.000000;1.732632
4950.000000;1.731638
4949.000000;1.731426
4948.000000;1.732298
4947.000000;1.733350
4946.000000;1.733532
4945.000000;1.732499
4944.000000;1.730672
4943.000000;1.728834
4942.000000;1.727449
4941.000000;1.726204
4940.000000;1.724495
4939.000000;1.722475
4938.000000;1.721055
4937.000000;1.720664
4936.000000;1.720646
4935.000000;1.720216
4934.000000;1.719425
4933.000000;1.718765
4932.000000;1.718388
4931.000000;1.718238
4930.000000;1.718438
4929.000000;1.718852
4928.000000;1.718679
4927.000000;1.717281
4926.000000;1.715247
4925.000000;1.713875
4924.000000;1.713627
4923.000000;1.713682
4922.000000;1.713075
4921.000000;1.711757
4920.000000;1.710470
4919.000000;1.709867
4918.000000;1.709876
4917.000000;1.709736
4916.000000;1.708690
4915.000000;1.706807
4914.000000;1.705015
4913.000000;1.704197
4912.000000;1.704305
4911.000000;1.704402
4910.000000;1.703495
4909.000000;1.701360
4908.000000;1.698789
4907.000000;1.697079
4906.000000;1.696954
4905.000000;1.697731
4904.000000;1.697790
4903.000000;1.696163
4902.000000;1.693388
4901.000000;1.690700
4900.000000;1.688856
4899.000000;1.687921
4898.000000;1.687688
4897.000000;1.687861
4896.000000;1.688039
4895.000000;1.687879
4894.000000;1.687160
4893.000000;1.685570
4892.000000;1.682847
4891.000000;1.679438
4890.000000;1.676528
4889.000000;1.674929
4888.000000;1.674228
4887.000000;1.673462
4886.000000;1.672394
4885.000000;1.671598
4884.000000;1.671407
4883.000000;1.671351
4882.000000;1.670648
4881.000000;1.668892
4880.000000;1.666285
4879.000000;1.663479
4878.000000;1.661144
4877.000000;1.659415
4876.000000;1.657835
4875.000000;1.656042
4874.000000;1.654321
4873.000000;1.653150
4872.000000;1.652338
4871.000000;1.651115
4870.000000;1.649162
4869.000000;1.647127
4868.000000;1.645884
4867.000000;1.645522
4866.000000;1.645218
4865.000000;1.644045
4864.000000;1.641870
4863.000000;1.639479
4862.000000;1.637756
4861.000000;1.636754
4860.000000;1.635632
4859.000000;1.633530
4858.000000;1.630391
4857.000000;1.626886
4856.000000;1.623803
4855.000000;1.621664
4854.000000;1.620584
4853.000000;1.620115
4852.000000;1.619327
4851.000000;1.617448
4850.000000;1.614497
4849.000000;1.611172
4848.000000;1.608224
4847.000000;1.606143
4846.000000;1.605206
4845.000000;1.605354
4844.000000;1.605903
4843.000000;1.605733
4842.000000;1.604085
4841.000000;1.601098
4840.000000;1.597509
4839.000000;1.593985
4838.000000;1.590882
4837.000000;1.588379
4836.000000;1.586492
4835.000000;1.584947
4834.000000;1.583321
4833.000000;1.581491
4832.000000;1.579811
4831.000000;1.578626
4830.000000;1.577708
4829.000000;1.576454
4828.000000;1.574650
4827.000000;1.572669
4826.000000;1.570819
4825.000000;1.568880
4824.000000;1.566577
4823.000000;1.564171
4822.000000;1.562109
4821.000000;1.560286
4820.000000;1.558183
4819.000000;1.555682
4818.000000;1.553180
4817.000000;1.550819
4816.000000;1.548178
4815.000000;1.544993
4814.000000;1.541685
4813.000000;1.538874
4812.000000;1.536667
4811.000000;1.534725
4810.000000;1.532802
4809.000000;1.530914
4808.000000;1.529120
4807.000000;1.527405
4806.000000;1.525689
4805.000000;1.523766
4804.000000;1.521388
4803.000000;1.518587
4802.000000;1.515797
4801.000000;1.513488
4800.000000;1.511727
4799.000000;1.510232
4798.000000;1.508692
4797.000000;1.506920
4796.000000;1.504845
4795.000000;1.502563
4794.000000;1.500321
4793.000000;1.498302
4792.000000;1.496404
4791.000000;1.494305
4790.000000;1.491739
4789.000000;1.488722
4788.000000;1.485571
4787.000000;1.482667
4786.000000;1.480105
4785.000000;1.477656
4784.000000;1.475189
4783.000000;1.473012
4782.000000;1.471473
4781.000000;1.470280
4780.000000;1.468591
4779.000000;1.465940
4778.000000;1.462790
4777.000000;1.459989
4776.000000;1.457923
4775.000000;1.456332
4774.000000;1.454719
4773.000000;1.452760
4772.000000;1.450476
4771.000000;1.448141
4770.000000;1.445922
4769.000000;1.443654
4768.000000;1.441180
4767.000000;1.438845
4766.000000;1.437210
4765.000000;1.436173
4764.000000;1.434790
4763.000000;1.432277
4762.000000;1.428871
4761.000000;1.425411
4760.000000;1.422378
4759.000000;1.419709
4758.000000;1.417254
4757.000000;1.414994
4756.000000;1.412907
4755.000000;1.410974
4754.000000;1.409290
4753.000000;1.407933
4752.000000;1.406746
4751.000000;1.405439
4750.000000;1.403778
4749.000000;1.401547
4748.000000;1.398538
4747.000000;1.394872
4746.000000;1.391184
4745.000000;1.388163
4744.000000;1.385925
4743.000000;1.384074
4742.000000;1.382299
4741.000000;1.380639
4740.000000;1.379205
4739.000000;1.377912
4738.000000;1.376530
4737.000000;1.374799
4736.000000;1.372521
4735.000000;1.369754
4734.000000;1.366913
4733.000000;1.364449
4732.000000;1.362382
4731.000000;1.360317
4730.000000;1.357958
4729.000000;1.355444
4728.000000;1.353119
4727.000000;1.351117
4726.000000;1.349220
4725.000000;1.347070
4724.000000;1.344510
4723.000000;1.341766
4722.000000;1.339262
4721.000000;1.337181
4720.000000;1.335313
4719.000000;1.333415
4718.000000;1.331598
4717.000000;1.330144
4716.000000;1.329012
4715.000000;1.327786
4714.000000;1.326155
4713.000000;1.324233
4712.000000;1.322317
4711.000000;1.320488
4710.000000;1.318597
4709.000000;1.316564
4708.000000;1.314533
4707.000000;1.312698
4706.000000;1.311039
4705.000000;1.309326
4704.000000;1.307402
4703.000000;1.305419
4702.000000;1.303658
4701.000000;1.302143
4700.000000;1.300555
4699.000000;1.298612
4698.000000;1.296423
4697.000000;1.294378
4696.000000;1.292758
4695.000000;1.291520
4694.000000;1.290395
4693.000000;1.289101
4692.000000;1.287537
4691.000000;1.285854
4690.000000;1.284271
4689.000000;1.282758
4688.000000;1.281050
4687.000000;1.279048
4686.000000;1.277064
4685.000000;1.275460
4684.000000;1.274157
4683.000000;1.272701
4682.000000;1.270796
4681.000000;1.268596
4680.000000;1.266497
4679.000000;1.264797
4678.000000;1.263532
4677.000000;1.262489
4676.000000;1.261329
4675.000000;1.259859
4674.000000;1.258188
4673.000000;1.256562
4672.000000;1.255037
4671.000000;1.253449
4670.000000;1.251684
4669.000000;1.249887
4668.000000;1.248329
4667.000000;1.247142
4666.000000;1.246198
4665.000000;1.245242
4664.000000;1.244147
4663.000000;1.243030
4662.000000;1.242029
4661.000000;1.241001
4660.000000;1.239620
4659.000000;1.237860
4658.000000;1.236187
4657.000000;1.235064
4656.000000;1.234373
4655.000000;1.233554
4654.000000;1.232266
4653.000000;1.230680
4652.000000;1.229134
4651.000000;1.227758
4650.000000;1.226500
4649.000000;1.225323
4648.000000;1.224240
4647.000000;1.223247
4646.000000;1.222321
4645.000000;1.221455
4644.000000;1.220651
4643.000000;1.219902
4642.000000;1.219148
4641.000000;1.218232
4640.000000;1.216955
4639.000000;1.215302
4638.000000;1.213579
4637.000000;1.212178
4636.000000;1.211212
4635.000000;1.210490
4634.000000;1.209819
4633.000000;1.209199
4632.000000;1.208680
4631.000000;1.208168
4630.000000;1.207455
4629.000000;1.206372
4628.000000;1.204938
4627.000000;1.203392
4626.000000;1.202086
4625.000000;1.201227
4624.000000;1.200715
4623.000000;1.200311
4622.000000;1.199931
4621.000000;1.199632
4620.000000;1.199347
4619.000000;1.198835
4618.000000;1.197962
4617.000000;1.196889
4616.000000;1.195878
4615.000000;1.195024
4614.000000;1.194264
4613.000000;1.193540
4612.000000;1.192861
4611.000000;1.192267
4610.000000;1.191780
4609.000000;1.191346
4608.000000;1.190782
4607.000000;1.189898
4606.000000;1.188754
4605.000000;1.187678
4604.000000;1.186952
4603.000000;1.186539
4602.000000;1.186208
4601.000000;1.185832
4600.000000;1.185470
4599.000000;1.185209
4598.000000;1.185069
4597.000000;1.185013
4596.000000;1.184939
4595.000000;1.184671
4594.000000;1.184115
4593.000000;1.183417
4592.000000;1.182865
4591.000000;1.182586
4590.000000;1.182438
4589.000000;1.182221
4588.000000;1.181884
4587.000000;1.181483
4586.000000;1.181044
4585.000000;1.180574
4584.000000;1.180142
4583.000000;1.179829
4582.000000;1.179594
4581.000000;1.179317
4580.000000;1.178989
4579.000000;1.178774
4578.000000;1.178852
4577.000000;1.179211
4576.000000;1.179622
4575.000000;1.179778
4574.000000;1.179496
4573.000000;1.178895
4572.000000;1.178404
4571.000000;1.178441
4570.000000;1.179015
4569.000000;1.179687
4568.000000;1.180016
4567.000000;1.179962
4566.000000;1.179764
4565.000000;1.179558
4564.000000;1.179347
4563.000000;1.179267
4562.000000;1.179585
4561.000000;1.180333
4560.000000;1.181157
4559.000000;1.181667
4558.000000;1.181839
4557.000000;1.181942
4556.000000;1.182195
4555.000000;1.182643
4554.000000;1.183275
4553.000000;1.184086
4552.000000;1.185024
4551.000000;1.185980
4550.000000;1.186843
4549.000000;1.187494
4548.000000;1.187814
4547.000000;1.187816
4546.000000;1.187723
4545.000000;1.187813
4544.000000;1.188187
4543.000000;1.188778
4542.000000;1.189538
4541.000000;1.190488
4540.000000;1.191580
4539.000000;1.192633
4538.000000;1.193442
4537.000000;1.193908
4536.000000;1.194085
4535.000000;1.194193
4534.000000;1.194557
4533.000000;1.195375
4532.000000;1.196466
4531.000000;1.197343
4530.000000;1.197675
4529.000000;1.197665
4528.000000;1.197905
4527.000000;1.198798
4526.000000;1.200160
4525.000000;1.201396
4524.000000;1.202094
4523.000000;1.202409
4522.000000;1.202829
4521.000000;1.203589
4520.000000;1.204418
4519.000000;1.204888
4518.000000;1.204923
4517.000000;1.204876
4516.000000;1.205119
4515.000000;1.205673
4514.000000;1.206290
4513.000000;1.206842
4512.000000;1.207534
4511.000000;1.208648
4510.000000;1.210105
4509.000000;1.211435
4508.000000;1.212274
4507.000000;1.212775
4506.000000;1.213363
4505.000000;1.214171
4504.000000;1.214968
4503.000000;1.215604
4502.000000;1.216235
4501.000000;1.217020
4500.000000;1.217872
4499.000000;1.218682
4498.000000;1.219565
4497.000000;1.220642
4496.000000;1.221768
4495.000000;1.222712
4494.000000;1.223516
4493.000000;1.224422
4492.000000;1.225517
4491.000000;1.226678
4490.000000;1.227800
4489.000000;1.228860
4488.000000;1.229820
4487.000000;1.230696
4486.000000;1.231695
4485.000000;1.233027
4484.000000;1.234584
4483.000000;1.236018
4482.000000;1.237168
4481.000000;1.238211
4480.000000;1.239376
4479.000000;1.240721
4478.000000;1.242228
4477.000000;1.243879
4476.000000;1.245581
4475.000000;1.247200
4474.000000;1.248708
4473.000000;1.250107
4472.000000;1.251233
4471.000000;1.251947
4470.000000;1.252597
4469.000000;1.253943
4468.000000;1.256399
4467.000000;1.259511
4466.000000;1.262377
4465.000000;1.264467
4464.000000;1.265899
4463.000000;1.267130
4462.000000;1.268590
4461.000000;1.270477
4460.000000;1.272637
4459.000000;1.274683
4458.000000;1.276394
4457.000000;1.277950
4456.000000;1.279644
4455.000000;1.281533
4454.000000;1.283557
4453.000000;1.285839
4452.000000;1.288495
4451.000000;1.291204
4450.000000;1.293345
4449.000000;1.294683
4448.000000;1.295657
4447.000000;1.296836
4446.000000;1.298358
4445.000000;1.300040
4444.000000;1.301825
4443.000000;1.303836
4442.000000;1.306079
4441.000000;1.308381
4440.000000;1.310651
4439.000000;1.313002
4438.000000;1.315540
4437.000000;1.318217
4436.000000;1.320975
4435.000000;1.323866
4434.000000;1.326852
4433.000000;1.329617
4432.000000;1.331825
4431.000000;1.333594
4430.000000;1.335467
4429.000000;1.337802
4428.000000;1.340361
4427.000000;1.342699
4426.000000;1.344794
4425.000000;1.347062
4424.000000;1.349783
4423.000000;1.352815
4422.000000;1.355883
4421.000000;1.358922
4420.000000;1.361980
4419.000000;1.365002
4418.000000;1.367855
4417.000000;1.370501
4416.000000;1.372996
4415.000000;1.375366
4414.000000;1.377612
4413.000000;1.379795
4412.000000;1.382026
4411.000000;1.384439
4410.000000;1.387215
4409.000000;1.390467
4408.000000;1.393931
4407.000000;1.396946
4406.000000;1.399050
4405.000000;1.400578
4404.000000;1.402359
4403.000000;1.404817
4402.000000;1.407628
4401.000000;1.410320
4400.000000;1.412915
4399.000000;1.415761
4398.000000;1.418962
4397.000000;1.422284
4396.000000;1.425531
4395.000000;1.428736
4394.000000;1.431955
4393.000000;1.435134
4392.000000;1.438248
4391.000000;1.441380
4390.000000;1.444551
4389.000000;1.447618
4388.000000;1.450444
4387.000000;1.453060
4386.000000;1.455595
4385.000000;1.458200
4384.000000;1.461122
4383.000000;1.464650
4382.000000;1.468793
4381.000000;1.473096
4380.000000;1.476995
4379.000000;1.480351
4378.000000;1.483471
4377.000000;1.486616
4376.000000;1.489704
4375.000000;1.492535
4374.000000;1.495090
4373.000000;1.497534
4372.000000;1.500093
4371.000000;1.503051
4370.000000;1.506721
4369.000000;1.511206
4368.000000;1.516197
4367.000000;1.521167
4366.000000;1.525747
4365.000000;1.529920
4364.000000;1.533890
4363.000000;1.537818
4362.000000;1.541615
4361.000000;1.544997
4360.000000;1.547832
4359.000000;1.550517
4358.000000;1.553816
4357.000000;1.558162
4356.000000;1.563178
4355.000000;1.568053
4354.000000;1.572339
4353.000000;1.576157
4352.000000;1.579717
4351.000000;1.583032
4350.000000;1.586212
4349.000000;1.589624
4348.000000;1.593452
4347.000000;1.597374
4346.000000;1.601093
4345.000000;1.605042
4344.000000;1.610021
4343.000000;1.616030
4342.000000;1.621933
4341.000000;1.626577
4340.000000;1.629914
4339.000000;1.632641
4338.000000;1.635140
4337.000000;1.637449
4336.000000;1.640079
4335.000000;1.644004
4334.000000;1.649452
4333.000000;1.655267
4332.000000;1.660038
4331.000000;1.663749
4330.000000;1.667827
4329.000000;1.673544
4328.000000;1.680717
4327.000000;1.687950
4326.000000;1.693926
4325.000000;1.698421
4324.000000;1.702225
4323.000000;1.706164
4322.000000;1.710302
4321.000000;1.714201
4320.000000;1.717891
4319.000000;1.722186
4318.000000;1.727706
4317.000000;1.733891
4316.000000;1.739454
4315.000000;1.743818
4314.000000;1.747637
4313.000000;1.751822
4312.000000;1.756576
4311.000000;1.761541
4310.000000;1.766451
4309.000000;1.771331
4308.000000;1.776260
4307.000000;1.781178
4306.000000;1.785757
4305.000000;1.789518
4304.000000;1.792395
4303.000000;1.795123
4302.000000;1.798664
4301.000000;1.803218
4300.000000;1.808137
4299.000000;1.812878
4298.000000;1.817599
4297.000000;1.822621
4296.000000;1.827770
4295.000000;1.832648
4294.000000;1.837312
4293.000000;1.842221
4292.000000;1.847576
4291.000000;1.852965
4290.000000;1.857686
4289.000000;1.861332
4288.000000;1.864217
4287.000000;1.867300
4286.000000;1.871576
4285.000000;1.877340
4284.000000;1.884021
4283.000000;1.890646
4282.000000;1.896292
4281.000000;1.900210
4280.000000;1.902229
4279.000000;1.903557
4278.000000;1.906628
4277.000000;1.913450
4276.000000;1.923836
4275.000000;1.935099
4274.000000;1.943770
4273.000000;1.948373
4272.000000;1.950759
4271.000000;1.954263
4270.000000;1.960436
4269.000000;1.967820
4268.000000;1.974019
4267.000000;1.978614
4266.000000;1.983253
4265.000000;1.989077
4264.000000;1.995283
4263.000000;2.000419
4262.000000;2.004027
4261.000000;2.006776
4260.000000;2.009655
4259.000000;2.013269
4258.000000;2.017313
4257.000000;2.020378
4256.000000;2.021403
4255.000000;2.021740
4254.000000;2.024422
4253.000000;2.030866
4252.000000;2.039385
4251.000000;2.047663
4250.000000;2.055615
4249.000000;2.064369
4248.000000;2.073408
4247.000000;2.080411
4246.000000;2.084371
4245.000000;2.086499
4244.000000;2.088372
4243.000000;2.090988
4242.000000;2.095386
4241.000000;2.101898
4240.000000;2.108468
4239.000000;2.111938
4238.000000;2.112234
4237.000000;2.113382
4236.000000;2.118914
4235.000000;2.127827
4234.000000;2.136399
4233.000000;2.143064
4232.000000;2.149387
4231.000000;2.156336
4230.000000;2.162139
4229.000000;2.164796
4228.000000;2.165118
4227.000000;2.166102
4226.000000;2.170585
4225.000000;2.179863
4224.000000;2.192888
4223.000000;2.205978
4222.000000;2.214486
4221.000000;2.216882
4220.000000;2.216922
4219.000000;2.219728
4218.000000;2.226221
4217.000000;2.232861
4216.000000;2.236554
4215.000000;2.238206
4214.000000;2.240746
4213.000000;2.245425
4212.000000;2.251519
4211.000000;2.258473
4210.000000;2.266215
4209.000000;2.273269
4208.000000;2.276761
4207.000000;2.275475
4206.000000;2.271801
4205.000000;2.269724
4204.000000;2.271464
4203.000000;2.276447
4202.000000;2.282868
4201.000000;2.289702
4200.000000;2.297006
4199.000000;2.304415
4198.000000;2.310487
4197.000000;2.314089
4196.000000;2.316275
4195.000000;2.320385
4194.000000;2.328628
4193.000000;2.338858
4192.000000;2.346328
4191.000000;2.348440
4190.000000;2.346975
4189.000000;2.345880
4188.000000;2.347969
4187.000000;2.353909
4186.000000;2.362930
4185.000000;2.373034
4184.000000;2.381153
4183.000000;2.384929
4182.000000;2.384590
4181.000000;2.383306
4180.000000;2.385850
4179.000000;2.395186
4178.000000;2.409556
4177.000000;2.423357
4176.000000;2.431425
4175.000000;2.432615
4174.000000;2.428922
4173.000000;2.423937
4172.000000;2.423166
4171.000000;2.431182
4170.000000;2.446122
4169.000000;2.459276
4168.000000;2.463591
4167.000000;2.461899
4166.000000;2.462616
4165.000000;2.469571
4164.000000;2.479487
4163.000000;2.487539
4162.000000;2.492479
4161.000000;2.495954
4160.000000;2.500192
4159.000000;2.507099
4158.000000;2.515688
4157.000000;2.520957
4156.000000;2.519603
4155.000000;2.516614
4154.000000;2.520724
4153.000000;2.532348
4152.000000;2.541531
4151.000000;2.541364
4150.000000;2.537667
4149.000000;2.538913
4148.000000;2.542966
4147.000000;2.539964
4146.000000;2.527772
4145.000000;2.516292
4144.000000;2.515501
4143.000000;2.527609
4142.000000;2.547910
4141.000000;2.568215
4140.000000;2.580608
4139.000000;2.582359
4138.000000;2.579059
4137.000000;2.579580
4136.000000;2.587684
4135.000000;2.599990
4134.000000;2.610553
4133.000000;2.616004
4132.000000;2.618081
4131.000000;2.620085
4130.000000;2.622243
4129.000000;2.624022
4128.000000;2.627225
4127.000000;2.633792
4126.000000;2.642497
4125.000000;2.649807
4124.000000;2.654175
4123.000000;2.658807
4122.000000;2.667895
4121.000000;2.679691
4120.000000;2.686348
4119.000000;2.683582
4118.000000;2.678031
4117.000000;2.679579
4116.000000;2.690580
4115.000000;2.705989
4114.000000;2.720467
4113.000000;2.731865
4112.000000;2.738631
4111.000000;2.738305
4110.000000;2.730523
4109.000000;2.719117
4108.000000;2.709551
4107.000000;2.705519
4106.000000;2.706531
4105.000000;2.707955
4104.000000;2.706041
4103.000000;2.702901
4102.000000;2.704244
4101.000000;2.713228
4100.000000;2.728721
4099.000000;2.748558
4098.000000;2.771410
4097.000000;2.794984
4096.000000;2.814188
4095.000000;2.822496
4094.000000;2.815875
4093.000000;2.796591
4092.000000;2.773285
4091.000000;2.755616
4090.000000;2.750796
4089.000000;2.761374
4088.000000;2.782002
4087.000000;2.800746
4086.000000;2.807382
4085.000000;2.802408
4084.000000;2.795686
4083.000000;2.795281
4082.000000;2.801256
4081.000000;2.810277
4080.000000;2.821605
4079.000000;2.836327
4078.000000;2.851610
4077.000000;2.859817
4076.000000;2.857245
4075.000000;2.849528
4074.000000;2.843939
4073.000000;2.842482
4072.000000;2.845553
4071.000000;2.855431
4070.000000;2.870100
4069.000000;2.877112
4068.000000;2.863866
4067.000000;2.836763
4066.000000;2.815267
4065.000000;2.810727
4064.000000;2.823271
4063.000000;2.847761
4062.000000;2.875056
4061.000000;2.894259
4060.000000;2.900832
4059.000000;2.901722
4058.000000;2.906239
4057.000000;2.916365
4056.000000;2.928217
4055.000000;2.939022
4054.000000;2.946150
4053.000000;2.940843
4052.000000;2.916038
4051.000000;2.880774
4050.000000;2.855489
4049.000000;2.854425
4048.000000;2.876013
4047.000000;2.902956
4046.000000;2.916510
4045.000000;2.915162
4044.000000;2.909663
4043.000000;2.911385
4042.000000;2.925785
4041.000000;2.943578
4040.000000;2.946022
4039.000000;2.930177
4038.000000;2.913342
4037.000000;2.909362
4036.000000;2.919368
4035.000000;2.941546
4034.000000;2.974086
4033.000000;3.004900
4032.000000;3.012082
4031.000000;2.989717
4030.000000;2.958915
4029.000000;2.942539
4028.000000;2.948815
4027.000000;2.975659
4026.000000;3.014982
4025.000000;3.047444
4024.000000;3.047102
4023.000000;3.013516
4022.000000;2.979241
4021.000000;2.969997
4020.000000;2.982376
4019.000000;2.996297
4018.000000;2.997479
4017.000000;2.987339
4016.000000;2.975276
4015.000000;2.968479
4014.000000;2.968345
4013.000000;2.970033
4012.000000;2.968743
4011.000000;2.973047
4010.000000;3.002142
4009.000000;3.060894
4008.000000;3.119044
4007.000000;3.132057
4006.000000;3.096795
4005.000000;3.052272
4004.000000;3.026948
4003.000000;3.017755
4002.000000;3.018289
4001.000000;3.036305
4000.000000;3.072002
3999.000000;3.101035
3998.000000;3.103906
3997.000000;3.096892
3996.000000;3.103770
3995.000000;3.128654
3994.000000;3.155861
3993.000000;3.163687
3992.000000;3.145438
3991.000000;3.115675
3990.000000;3.093866
3989.000000;3.091565
3988.000000;3.111604
3987.000000;3.148869
3986.000000;3.191215
3985.000000;3.226306
3984.000000;3.250224
3983.000000;3.273732
3982.000000;3.299240
3981.000000;3.302394
3980.000000;3.261563
3979.000000;3.192249
3978.000000;3.134091
3977.000000;3.112006
3976.000000;3.116277
3975.000000;3.118089
3974.000000;3.106191
3973.000000;3.093605
3972.000000;3.100133
3971.000000;3.136308
3970.000000;3.196860
3969.000000;3.263123
3968.000000;3.317013
3967.000000;3.352061
3966.000000;3.348580
3965.000000;3.314445
3964.000000;3.289839
3963.000000;3.273603
3962.000000;3.249952
3961.000000;3.222203
3960.000000;3.199265
3959.000000;3.192446
3958.000000;3.217258
3957.000000;3.279797
3956.000000;3.359033
3955.000000;3.410375
3954.000000;3.424310
3953.000000;3.453784
3952.000000;3.549071
3951.000000;3.678714
3950.000000;3.730794
3949.000000;3.692628
3948.000000;3.556306
3947.000000;3.384468
3946.000000;3.262169
3945.000000;3.213951
3944.000000;3.236047
3943.000000;3.294388
3942.000000;3.330462
3941.000000;3.308783
3940.000000;3.263594
3939.000000;3.265360
3938.000000;3.358616
3937.000000;3.557577
3936.000000;3.693169
3935.000000;3.602999
3934.000000;3.519307
3933.000000;3.489203
3932.000000;3.472272
3931.000000;3.449373
3930.000000;3.428594
3929.000000;3.427455
3928.000000;3.450324
3927.000000;3.492199
3926.000000;3.557478
3925.000000;3.616272
3924.000000;3.630475
3923.000000;3.608846
3922.000000;3.558657
3921.000000;3.518308
3920.000000;3.533214
3919.000000;3.557631
3918.000000;3.514898
3917.000000;3.466238
3916.000000;3.491464
3915.000000;3.626428
3914.000000;3.640380
3913.000000;3.470628
3912.000000;3.375564
3911.000000;3.353414
3910.000000;3.373778
3909.000000;3.420103
3908.000000;3.479693
3907.000000;3.524711
3906.000000;3.537723
3905.000000;3.535856
3904.000000;3.529490
3903.000000;3.497831
3902.000000;3.436180
3901.000000;3.403709
3900.000000;3.457329
3899.000000;3.587952
3898.000000;3.693872
3897.000000;3.656783
3896.000000;3.568449
3895.000000;3.494233
3894.000000;3.445356
3893.000000;3.432677
3892.000000;3.447834
3891.000000;3.456284
3890.000000;3.450444
3889.000000;3.490336
3888.000000;3.650105
3887.000000;4.103086
3886.000000;4.248272
3885.000000;4.054520
3884.000000;4.247319
3883.000000;4.119651
3882.000000;3.778358
3881.000000;3.626531
3880.000000;3.618295
3879.000000;3.860473
3878.000000;3.720094
3877.000000;3.451858
3876.000000;3.427473
3875.000000;3.579631
3874.000000;3.880484
3873.000000;4.371511
3872.000000;4.365374
3871.000000;4.294496
3870.000000;4.318578
3869.000000;4.171836
3868.000000;4.076234
3867.000000;4.069655
3866.000000;4.109017
3865.000000;4.190335
3864.000000;4.302580
3863.000000;4.327037
3862.000000;4.244100
3861.000000;4.141349
3860.000000;3.988710
3859.000000;3.758877
3858.000000;3.569515
3857.000000;3.481419
3856.000000;3.494379
3855.000000;3.762890
3854.000000;3.916530
3853.000000;3.782260
3852.000000;3.827771
3851.000000;3.935431
3850.000000;4.035293
3849.000000;4.074158
3848.000000;4.104192
3847.000000;4.177581
3846.000000;4.221343
3845.000000;4.115420
3844.000000;4.078706
3843.000000;4.103056
3842.000000;4.001784
3841.000000;3.898010
3840.000000;3.904990
3839.000000;3.989281
3838.000000;4.068851
3837.000000;4.061267
3836.000000;3.983758
3835.000000;3.957154
3834.000000;4.145542
3833.000000;4.340720
3832.000000;3.955006
3831.000000;3.700294
3830.000000;3.638182
3829.000000;3.738913
3828.000000;4.097502
3827.000000;4.435133
3826.000000;4.119312
3825.000000;3.931040
3824.000000;3.811959
3823.000000;3.779901
3822.000000;3.949404
3821.000000;4.238740
3820.000000;4.015113
3819.000000;3.824276
3818.000000;3.745274
3817.000000;3.733009
3816.000000;3.730114
3815.000000;3.703742
3814.000000;3.667499
3813.000000;3.652586
3812.000000;3.674490
3811.000000;3.714889
3810.000000;3.741885
3809.000000;3.752275
3808.000000;3.747530
3807.000000;3.721096
3806.000000;3.704862
3805.000000;3.739350
3804.000000;3.854453
3803.000000;4.037773
3802.000000;4.202450
3801.000000;4.228463
3800.000000;4.126413
3799.000000;4.007687
3798.000000;3.879982
3797.000000;3.715255
3796.000000;3.596721
3795.000000;3.596153
3794.000000;3.750622
3793.000000;3.879338
3792.000000;3.824702
3791.000000;3.843256
3790.000000;3.935006
3789.000000;4.040475
3788.000000;4.045141
3787.000000;3.956512
3786.000000;3.920617
3785.000000;3.960203
3784.000000;4.030308
3783.000000;4.183024
3782.000000;4.383217
3781.000000;4.182706
3780.000000;4.230688
3779.000000;4.481271
3778.000000;3.941193
3777.000000;3.636460
3776.000000;3.550133
3775.000000;3.570916
3774.000000;3.615471
3773.000000;3.562297
3772.000000;3.467711
3771.000000;3.450813
3770.000000;3.537939
3769.000000;3.686257
3768.000000;3.809171
3767.000000;3.821364
3766.000000;3.852200
3765.000000;4.111431
3764.000000;4.560267
3763.000000;3.902389
3762.000000;3.799803
3761.000000;3.828159
3760.000000;3.907412
3759.000000;3.976680
3758.000000;4.063631
3757.000000;4.183032
3756.000000;4.244264
3755.000000;4.070013
3754.000000;3.922156
3753.000000;3.874759
3752.000000;3.889218
3751.000000;3.927836
3750.000000;3.937357
3749.000000;3.932656
3748.000000;3.983137
3747.000000;4.224915
3746.000000;4.566809
3745.000000;4.065925
3744.000000;3.632368
3743.000000;3.508675
3742.000000;3.620812
3741.000000;3.872135
3740.000000;4.225716
3739.000000;4.806844
3738.000000;4.782618
3737.000000;4.656303
3736.000000;4.619438
3735.000000;4.518899
3734.000000;4.354970
3733.000000;4.101974
3732.000000;3.874045
3731.000000;3.777651
3730.000000;3.825331
3729.000000;3.969389
3728.000000;4.316408
3727.000000;4.800246
3726.000000;4.469788
3725.000000;4.400081
3724.000000;4.973873
3723.000000;4.622188
3722.000000;4.236878
3721.000000;4.188694
3720.000000;4.239550
3719.000000;4.410980
3718.000000;4.336183
3717.000000;4.017892
3716.000000;3.775640
3715.000000;3.641180
3714.000000;3.664315
3713.000000;3.916491
3712.000000;4.710684
3711.000000;4.351221
3710.000000;4.112107
3709.000000;4.072797
3708.000000;4.206296
3707.000000;3.981789
3706.000000;3.782810
3705.000000;3.674222
3704.000000;3.524887
3703.000000;3.441060
3702.000000;3.514039
3701.000000;3.723576
3700.000000;3.877942
3699.000000;3.890872
3698.000000;3.935205
3697.000000;3.987087
3696.000000;4.218498
3695.000000;4.530115
3694.000000;4.086647
3693.000000;3.977383
3692.000000;4.352979
3691.000000;4.725799
3690.000000;4.718944
3689.000000;4.817795
3688.000000;4.745503
3687.000000;4.631611
3686.000000;4.592191
3685.000000;4.753302
3684.000000;5.381719
3683.000000;4.811585
3682.000000;4.543550
3681.000000;4.512247
3680.000000;4.148900
3679.000000;3.917838
3678.000000;3.835479
3677.000000;3.874953
3676.000000;3.998000
3675.000000;4.296724
3674.000000;4.478238
3673.000000;4.008166
3672.000000;3.875072
3671.000000;3.886918
3670.000000;3.936228
3669.000000;3.927325
3668.000000;3.830752
3667.000000;3.685150
3666.000000;3.564999
3665.000000;3.496731
3664.000000;3.515708
3663.000000;3.663409
3662.000000;4.134280
3661.000000;3.987551
3660.000000;3.766964
3659.000000;3.793916
3658.000000;4.053691
3657.000000;3.772750
3656.000000;3.594476
3655.000000;3.594323
3654.000000;3.703245
3653.000000;4.057456
3652.000000;4.112001
3651.000000;3.756481
3650.000000;3.870172
3649.000000;3.978649
3648.000000;3.978155
3647.000000;3.910736
3646.000000;3.904063
3645.000000;4.025663
3644.000000;4.313797
3643.000000;4.353390
3642.000000;4.170544
3641.000000;4.157948
3640.000000;4.290917
3639.000000;4.549195
3638.000000;4.743048
3637.000000;5.325961
3636.000000;4.539749
3635.000000;4.172226
3634.000000;3.902388
3633.000000;3.672064
3632.000000;3.495377
3631.000000;3.407532
3630.000000;3.505518
3629.000000;3.691388
3628.000000;3.634714
3627.000000;3.667412
3626.000000;3.822369
3625.000000;3.973855
3624.000000;4.105495
3623.000000;4.178092
3622.000000;3.816389
3621.000000;3.583751
3620.000000;3.590389
3619.000000;3.733848
3618.000000;3.837572
3617.000000;3.887313
3616.000000;3.990350
3615.000000;4.118408
3614.000000;4.091331
3613.000000;3.909568
3612.000000;3.761733
3611.000000;3.734959
3610.000000;3.860054
3609.000000;4.111664
3608.000000;4.025377
3607.000000;3.799488
3606.000000;3.685674
3605.000000;3.710961
3604.000000;3.879923
3603.000000;4.067210
3602.000000;4.139247
3601.000000;4.181119
3600.000000;4.175423
3599.000000;4.138260
3598.000000;4.073378
3597.000000;3.972103
3596.000000;3.862237
3595.000000;3.817065
3594.000000;3.879905
3593.000000;4.003424
3592.000000;4.029143
3591.000000;3.911259
3590.000000;3.741842
3589.000000;3.691959
3588.000000;3.820796
3587.000000;4.030445
3586.000000;4.095600
3585.000000;3.993898
3584.000000;3.910573
3583.000000;3.846695
3582.000000;3.801853
3581.000000;3.862150
3580.000000;4.090910
3579.000000;4.929458
3578.000000;4.440683
3577.000000;4.212423
3576.000000;4.123187
3575.000000;4.065448
3574.000000;4.040679
3573.000000;4.147728
3572.000000;4.339842
3571.000000;4.058672
3570.000000;3.861520
3569.000000;3.874974
3568.000000;4.015960
3567.000000;4.182138
3566.000000;4.309476
3565.000000;4.406158
3564.000000;4.418453
3563.000000;4.198480
3562.000000;3.920092
3561.000000;3.756339
3560.000000;3.731154
3559.000000;3.974424
3558.000000;4.150515
3557.000000;3.784915
3556.000000;3.674935
3555.000000;3.755608
3554.000000;3.928795
3553.000000;4.064508
3552.000000;4.184556
3551.000000;4.570834
3550.000000;4.529620
3549.000000;4.194742
3548.000000;4.338705
3547.000000;5.087094
3546.000000;4.323689
3545.000000;4.138844
3544.000000;4.113207
3543.000000;4.288826
3542.000000;4.282172
3541.000000;3.956199
3540.000000;3.858542
3539.000000;3.906390
3538.000000;4.015751
3537.000000;3.951605
3536.000000;3.799952
3535.000000;3.740012
3534.000000;3.813246
3533.000000;4.163099
3532.000000;4.542954
3531.000000;4.057651
3530.000000;3.874605
3529.000000;3.869222
3528.000000;3.970659
3527.000000;4.095313
3526.000000;3.933760
3525.000000;3.786898
3524.000000;3.792715
3523.000000;3.933521
3522.000000;3.968138
3521.000000;3.865238
3520.000000;4.067150
3519.000000;4.189345
3518.000000;3.616463
3517.000000;3.437159
3516.000000;3.391929
3515.000000;3.488366
3514.000000;3.783702
3513.000000;4.212082
3512.000000;4.438787
3511.000000;4.366429
3510.000000;3.926242
3509.000000;3.788326
3508.000000;3.767129
3507.000000;3.734195
3506.000000;3.646087
3505.000000;3.565260
3504.000000;3.520694
3503.000000;3.498316
3502.000000;3.488234
3501.000000;3.501737
3500.000000;3.583523
3499.000000;3.783991
3498.000000;4.389026
3497.000000;4.135168
3496.000000;3.878880
3495.000000;3.938203
3494.000000;4.215360
3493.000000;3.970473
3492.000000;3.772690
3491.000000;3.734559
3490.000000;3.744754
3489.000000;3.767925
3488.000000;3.823518
3487.000000;3.831702
3486.000000;3.744096
3485.000000;3.682871
3484.000000;3.703356
3483.000000;3.770334
3482.000000;3.864653
3481.000000;4.015245
3480.000000;4.190088
3479.000000;4.206513
3478.000000;4.016363
3477.000000;3.762608
3476.000000;3.589546
3475.000000;3.528896
3474.000000;3.515211
3473.000000;3.477881
3472.000000;3.450052
3471.000000;3.475421
3470.000000;3.536530
3469.000000;3.575750
3468.000000;3.574142
3467.000000;3.573384
3466.000000;3.612443
3465.000000;3.698284
3464.000000;3.737832
3463.000000;3.664600
3462.000000;3.626199
3461.000000;3.612287
3460.000000;3.555522
3459.000000;3.564131
3458.000000;3.726288
3457.000000;4.147510
3456.000000;4.731801
3455.000000;4.267332
3454.000000;3.958152
3453.000000;3.759324
3452.000000;3.653985
3451.000000;3.638493
3450.000000;3.686948
3449.000000;3.750723
3448.000000;3.776918
3447.000000;3.773729
3446.000000;3.772720
3445.000000;3.800009
3444.000000;3.790183
3443.000000;3.703791
3442.000000;3.667598
3441.000000;3.687649
3440.000000;3.684096
3439.000000;3.624236
3438.000000;3.581722
3437.000000;3.634077
3436.000000;3.833513
3435.000000;4.174394
3434.000000;4.333645
3433.000000;4.094021
3432.000000;3.829985
3431.000000;3.689461
3430.000000;3.613994
3429.000000;3.518115
3428.000000;3.418106
3427.000000;3.395163
3426.000000;3.486223
3425.000000;3.692892
3424.000000;3.948103
3423.000000;4.129460
3422.000000;4.160350
3421.000000;4.260389
3420.000000;3.954648
3419.000000;3.591639
3418.000000;3.443405
3417.000000;3.484909
3416.000000;3.682340
3415.000000;3.691018
3414.000000;3.591816
3413.000000;3.705819
3412.000000;3.952189
3411.000000;3.674483
3410.000000;3.551381
3409.000000;3.615126
3408.000000;3.828379
3407.000000;4.037376
3406.000000;3.903096
3405.000000;3.634540
3404.000000;3.451887
3403.000000;3.367015
3402.000000;3.362256
3401.000000;3.444843
3400.000000;3.639354
3399.000000;4.064236
3398.000000;4.066640
3397.000000;3.859587
3396.000000;3.803281
3395.000000;3.777460
3394.000000;3.791201
3393.000000;3.817083
3392.000000;3.887000
3391.000000;4.135884
3390.000000;4.068824
3389.000000;3.820024
3388.000000;3.748870
3387.000000;3.778411
3386.000000;3.953440
3385.000000;4.317386
3384.000000;4.242137
3383.000000;4.102644
3382.000000;4.167687
3381.000000;4.339685
3380.000000;4.463776
3379.000000;4.350734
3378.000000;4.175660
3377.000000;4.096439
3376.000000;4.173070
3375.000000;4.444747
3374.000000;4.563002
3373.000000;4.294566
3372.000000;4.126189
3371.000000;3.979704
3370.000000;3.754260
3369.000000;3.584333
3368.000000;3.508545
3367.000000;3.511932
3366.000000;3.571106
3365.000000;3.646115
3364.000000;3.728740
3363.000000;3.875317
3362.000000;3.998547
3361.000000;3.944172
3360.000000;4.093135
3359.000000;4.341213
3358.000000;4.010437
3357.000000;3.944598
3356.000000;3.881421
3355.000000;3.797708
3354.000000;3.898440
3353.000000;4.156540
3352.000000;3.894887
3351.000000;3.647125
3350.000000;3.570166
3349.000000;3.591148
3348.000000;3.701893
3347.000000;3.777983
3346.000000;3.724505
3345.000000;3.674722
3344.000000;3.692419
3343.000000;3.782456
3342.000000;3.998626
3341.000000;4.098580
3340.000000;3.864506
3339.000000;3.755681
3338.000000;3.776410
3337.000000;3.862454
3336.000000;3.966465
3335.000000;4.075494
3334.000000;4.088822
3333.000000;3.948084
3332.000000;3.896790
3331.000000;3.940949
3330.000000;4.132334
3329.000000;4.267823
3328.000000;3.694665
3327.000000;3.411103
3326.000000;3.304648
3325.000000;3.336186
3324.000000;3.533228
3323.000000;3.786596
3322.000000;3.635823
3321.000000;3.521648
3320.000000;3.589349
3319.000000;3.728975
3318.000000;3.719049
3317.000000;3.626915
3316.000000;3.558329
3315.000000;3.474221
3314.000000;3.420723
3313.000000;3.462232
3312.000000;3.642522
3311.000000;3.973650
3310.000000;4.215044
3309.000000;4.023715
3308.000000;3.851206
3307.000000;3.808784
3306.000000;3.819234
3305.000000;3.789589
3304.000000;3.693318
3303.000000;3.593977
3302.000000;3.591988
3301.000000;3.704790
3300.000000;3.673037
3299.000000;3.553468
3298.000000;3.578503
3297.000000;3.768516
3296.000000;4.055370
3295.000000;3.810608
3294.000000;3.573225
3293.000000;3.504348
3292.000000;3.540841
3291.000000;3.717315
3290.000000;4.075809
3289.000000;4.747674
3288.000000;4.441507
3287.000000;3.929107
3286.000000;3.727030
3285.000000;3.666806
3284.000000;3.680212
3283.000000;3.743831
3282.000000;3.862849
3281.000000;4.026833
3280.000000;4.026295
3279.000000;3.873662
3278.000000;3.823569
3277.000000;3.884197
3276.000000;4.007658
3275.000000;4.258321
3274.000000;4.404744
3273.000000;4.016430
3272.000000;3.831915
3271.000000;3.755657
3270.000000;3.747245
3269.000000;3.799989
3268.000000;3.922946
3267.000000;4.154813
3266.000000;4.062033
3265.000000;3.837658
3264.000000;3.781803
3263.000000;3.828761
3262.000000;3.927371
3261.000000;4.172811
3260.000000;4.138570
3259.000000;3.897444
3258.000000;3.908894
3257.000000;4.000048
3256.000000;3.852932
3255.000000;3.827249
3254.000000;4.008563
3253.000000;3.978362
3252.000000;3.722502
3251.000000;3.671645
3250.000000;3.794185
3249.000000;4.033108
3248.000000;4.039823
3247.000000;3.937201
3246.000000;3.920284
3245.000000;4.172959
3244.000000;4.516808
3243.000000;4.008228
3242.000000;3.833704
3241.000000;3.927543
3240.000000;4.314324
3239.000000;3.967131
3238.000000;3.714047
3237.000000;3.676941
3236.000000;3.696236
3235.000000;3.782510
3234.000000;4.053576
3233.000000;4.226992
3232.000000;3.754584
3231.000000;3.545981
3230.000000;3.482197
3229.000000;3.495513
3228.000000;3.584505
3227.000000;3.794804
3226.000000;4.158569
3225.000000;4.032962
3224.000000;3.826552
3223.000000;3.862055
3222.000000;4.127331
3221.000000;4.385298
3220.000000;4.541528
3219.000000;4.131992
3218.000000;3.795274
3217.000000;3.725113
3216.000000;3.753663
3215.000000;3.830043
3214.000000;3.851813
3213.000000;3.769368
3212.000000;3.661445
3211.000000;3.631235
3210.000000;3.713891
3209.000000;4.052222
3208.000000;4.448435
3207.000000;4.069375
3206.000000;4.040366
3205.000000;3.962345
3204.000000;3.765597
3203.000000;3.639430
3202.000000;3.570131
3201.000000;3.576617
3200.000000;3.690499
3199.000000;3.895558
3198.000000;3.881621
3197.000000;3.737192
3196.000000;3.626611
3195.000000;3.525116
3194.000000;3.485688
3193.000000;3.529223
3192.000000;3.630130
3191.000000;3.702917
3190.000000;3.698873
3189.000000;3.730086
3188.000000;3.883476
3187.000000;4.113165
3186.000000;4.195857
3185.000000;4.001059
3184.000000;3.868629
3183.000000;4.073695
3182.000000;4.152747
3181.000000;3.813101
3180.000000;3.737149
3179.000000;3.886652
3178.000000;4.250353
3177.000000;5.457395
3176.000000;4.542467
3175.000000;4.293591
3174.000000;4.099061
3173.000000;3.955644
3172.000000;3.915003
3171.000000;3.926014
3170.000000;3.855979
3169.000000;3.711024
3168.000000;3.606675
3167.000000;3.589532
3166.000000;3.604263
3165.000000;3.596269
3164.000000;3.640077
3163.000000;3.800026
3162.000000;4.134214
3161.000000;4.122627
3160.000000;3.844247
3159.000000;3.729248
3158.000000;3.676307
3157.000000;3.672326
3156.000000;3.713543
3155.000000;3.824357
3154.000000;3.948560
3153.000000;3.922266
3152.000000;3.800157
3151.000000;3.725481
3150.000000;3.753514
3149.000000;3.848763
3148.000000;3.895796
3147.000000;3.868409
3146.000000;3.797423
3145.000000;3.761660
3144.000000;3.779326
3143.000000;3.789700
3142.000000;3.778316
3141.000000;3.853034
3140.000000;4.170682
3139.000000;4.065009
3138.000000;3.749313
3137.000000;3.750578
3136.000000;3.982646
3135.000000;4.186565
3134.000000;3.954208
3133.000000;3.898056
3132.000000;4.099543
3131.000000;4.450960
3130.000000;3.922193
3129.000000;3.662279
3128.000000;3.644728
3127.000000;3.792867
3126.000000;4.189385
3125.000000;4.325563
3124.000000;4.495350
3123.000000;4.262674
3122.000000;3.870157
3121.000000;3.740187
3120.000000;3.783932
3119.000000;3.984290
3118.000000;4.250747
3117.000000;4.077902
3116.000000;3.858459
3115.000000;3.820625
3114.000000;3.856952
3113.000000;3.799058
3112.000000;3.767183
3111.000000;3.848963
3110.000000;3.963237
3109.000000;3.960232
3108.000000;3.899571
3107.000000;3.943560
3106.000000;3.903215
3105.000000;3.766247
3104.000000;3.762817
3103.000000;3.893281
3102.000000;3.973520
3101.000000;3.878233
3100.000000;3.765995
3099.000000;3.684548
3098.000000;3.632278
3097.000000;3.630554
3096.000000;3.695991
3095.000000;3.795716
3094.000000;3.872567
3093.000000;3.892883
3092.000000;3.837697
3091.000000;3.810289
3090.000000;3.735422
3089.000000;3.597101
3088.000000;3.521891
3087.000000;3.515027
3086.000000;3.532933
3085.000000;3.542253
3084.000000;3.556039
3083.000000;3.642233
3082.000000;3.785702
3081.000000;4.363609
3080.000000;4.286256
3079.000000;3.788650
3078.000000;3.810704
3077.000000;4.087663
3076.000000;3.946183
3075.000000;3.785055
3074.000000;4.025423
3073.000000;4.478287
3072.000000;4.036554
3071.000000;3.815254
3070.000000;3.703922
3069.000000;3.661866
3068.000000;3.742115
3067.000000;4.018956
3066.000000;4.801517
3065.000000;3.928992
3064.000000;3.779773
3063.000000;3.786427
3062.000000;3.919394
3061.000000;4.037875
3060.000000;4.016278
3059.000000;3.987867
3058.000000;4.226038
3057.000000;4.723851
3056.000000;4.197545
3055.000000;4.046086
3054.000000;4.008047
3053.000000;4.352791
3052.000000;4.236526
3051.000000;3.760094
3050.000000;3.672674
3049.000000;3.774507
3048.000000;4.181770
3047.000000;4.453675
3046.000000;4.109975
3045.000000;3.991310
3044.000000;3.939562
3043.000000;3.855737
3042.000000;3.765079
3041.000000;3.737451
3040.000000;3.835662
3039.000000;3.868001
3038.000000;3.620740
3037.000000;3.495666
3036.000000;3.467419
3035.000000;3.474383
3034.000000;3.487463
3033.000000;3.511828
3032.000000;3.568375
3031.000000;3.669234
3030.000000;3.815296
3029.000000;3.995903
3028.000000;4.375427
3027.000000;4.184842
3026.000000;3.772250
3025.000000;3.651953
3024.000000;3.664135
3023.000000;3.767394
3022.000000;3.834293
3021.000000;3.878814
3020.000000;3.952429
3019.000000;3.861684
3018.000000;3.727750
3017.000000;3.684344
3016.000000;3.776944
3015.000000;4.124012
3014.000000;4.691546
3013.000000;4.271293
3012.000000;4.249947
3011.000000;4.027266
3010.000000;3.776556
3009.000000;3.575473
3008.000000;3.455625
3007.000000;3.444780
3006.000000;3.609054
3005.000000;3.977074
3004.000000;3.805051
3003.000000;3.550706
3002.000000;3.491129
3001.000000;3.532610
3000.000000;3.727065
2999.000000;3.929958
2998.000000;3.891668
2997.000000;3.957155
2996.000000;4.150408
2995.000000;4.197264
2994.000000;4.255010
2993.000000;4.208928
2992.000000;4.209471
2991.000000;4.034094
2990.000000;3.771517
2989.000000;3.681023
2988.000000;3.731452
2987.000000;3.885511
2986.000000;4.011525
2985.000000;3.958029
2984.000000;4.034732
2983.000000;4.306804
2982.000000;4.218205
2981.000000;3.990362
2980.000000;3.876087
2979.000000;3.827970
2978.000000;3.969601
2977.000000;4.390509
2976.000000;3.957791
2975.000000;3.601048
2974.000000;3.442463
2973.000000;3.380882
2972.000000;3.426845
2971.000000;3.591233
2970.000000;3.849744
2969.000000;4.342611
2968.000000;4.338756
2967.000000;3.891861
2966.000000;3.708138
2965.000000;3.668280
2964.000000;3.747105
2963.000000;4.010430
2962.000000;3.895444
2961.000000;3.742596
2960.000000;3.825390
2959.000000;4.129704
2958.000000;4.513737
2957.000000;4.438381
2956.000000;4.211041
2955.000000;3.946579
2954.000000;3.824451
2953.000000;3.897106
2952.000000;4.001548
2951.000000;3.886628
2950.000000;3.855031
2949.000000;3.841694
2948.000000;3.776776
2947.000000;3.694469
2946.000000;3.652101
2945.000000;3.690520
2944.000000;3.792655
2943.000000;3.709595
2942.000000;3.484707
2941.000000;3.344945
2940.000000;3.313694
2939.000000;3.379224
2938.000000;3.520347
2937.000000;3.711042
2936.000000;3.977048
2935.000000;4.122908
2934.000000;4.073390
2933.000000;4.052830
2932.000000;3.985219
2931.000000;4.136621
2930.000000;4.534593
2929.000000;4.075853
2928.000000;4.060346
2927.000000;4.218311
2926.000000;4.319005
2925.000000;4.090958
2924.000000;3.912295
2923.000000;3.819141
2922.000000;3.813502
2921.000000;3.871835
2920.000000;4.264325
2919.000000;4.440565
2918.000000;3.977518
2917.000000;3.945707
2916.000000;4.066418
2915.000000;4.248122
2914.000000;4.264553
2913.000000;4.076450
2912.000000;3.836562
2911.000000;3.707482
2910.000000;3.694473
2909.000000;3.751826
2908.000000;3.763101
2907.000000;3.681813
2906.000000;3.616220
2905.000000;3.621183
2904.000000;3.766809
2903.000000;4.151873
2902.000000;3.700964
2901.000000;3.520093
2900.000000;3.533360
2899.000000;3.649728
2898.000000;3.777097
2897.000000;3.961959
2896.000000;4.442276
2895.000000;4.258421
2894.000000;3.899131
2893.000000;3.872804
2892.000000;3.829087
2891.000000;3.719842
2890.000000;3.603906
2889.000000;3.582553
2888.000000;3.684726
2887.000000;3.887796
2886.000000;3.963689
2885.000000;3.759945
2884.000000;3.568247
2883.000000;3.497953
2882.000000;3.553972
2881.000000;3.730815
2880.000000;4.011006
2879.000000;4.126846
2878.000000;3.955653
2877.000000;3.816280
2876.000000;3.709304
2875.000000;3.614842
2874.000000;3.545040
2873.000000;3.529698
2872.000000;3.579193
2871.000000;3.670124
2870.000000;3.759028
2869.000000;3.768405
2868.000000;3.725874
2867.000000;3.758516
2866.000000;3.894298
2865.000000;4.115247
2864.000000;4.342144
2863.000000;4.254349
2862.000000;4.010024
2861.000000;3.822367
2860.000000;3.675076
2859.000000;3.552589
2858.000000;3.444947
2857.000000;3.365678
2856.000000;3.344062
2855.000000;3.395777
2854.000000;3.514731
2853.000000;3.682957
2852.000000;3.909823
2851.000000;4.153107
2850.000000;4.512959
2849.000000;4.301563
2848.000000;3.930013
2847.000000;3.924944
2846.000000;4.106060
2845.000000;4.334716
2844.000000;4.679942
2843.000000;4.480469
2842.000000;3.891141
2841.000000;3.723147
2840.000000;3.746126
2839.000000;4.012511
2838.000000;4.213748
2837.000000;3.990952
2836.000000;3.834624
2835.000000;3.686539
2834.000000;3.547005
2833.000000;3.445494
2832.000000;3.415026
2831.000000;3.480502
2830.000000;3.651595
2829.000000;3.765607
2828.000000;3.724663
2827.000000;3.723290
2826.000000;3.762673
2825.000000;3.847245
2824.000000;4.002834
2823.000000;4.108949
2822.000000;4.073165
2821.000000;4.049927
2820.000000;3.947213
2819.000000;3.831173
2818.000000;3.985440
2817.000000;4.507281
2816.000000;4.187667
2815.000000;4.231621
2814.000000;4.633681
2813.000000;4.182098
2812.000000;3.844406
2811.000000;3.713675
2810.000000;3.720734
2809.000000;3.768866
2808.000000;3.764240
2807.000000;3.812644
2806.000000;4.037251
2805.000000;4.456654
2804.000000;4.313122
2803.000000;4.720324
2802.000000;4.357903
2801.000000;4.009437
2800.000000;3.942939
2799.000000;3.935798
2798.000000;3.914996
2797.000000;3.935678
2796.000000;4.022952
2795.000000;4.153100
2794.000000;4.333382
2793.000000;4.364535
2792.000000;4.124823
2791.000000;3.901663
2790.000000;3.753540
2789.000000;3.713722
2788.000000;3.744324
2787.000000;3.893662
2786.000000;4.031866
2785.000000;3.759821
2784.000000;3.574300
2783.000000;3.520519
2782.000000;3.526509
2781.000000;3.580676
2780.000000;3.648116
2779.000000;3.720045
2778.000000;3.821611
2777.000000;3.786160
2776.000000;3.723022
2775.000000;3.799374
2774.000000;3.920829
2773.000000;3.889390
2772.000000;3.869722
2771.000000;3.853133
2770.000000;3.739068
2769.000000;3.611566
2768.000000;3.570230
2767.000000;3.654536
2766.000000;3.887212
2765.000000;4.208262
2764.000000;4.113653
2763.000000;3.829921
2762.000000;3.651526
2761.000000;3.589224
2760.000000;3.639371
2759.000000;3.834285
2758.000000;3.943406
2757.000000;3.694525
2756.000000;3.529752
2755.000000;3.495093
2754.000000;3.544364
2753.000000;3.631980
2752.000000;3.707255
2751.000000;3.710189
2750.000000;3.704971
2749.000000;3.740699
2748.000000;3.741165
2747.000000;3.703630
2746.000000;3.720087
2745.000000;3.836428
2744.000000;3.933689
2743.000000;3.911691
2742.000000;3.966942
2741.000000;4.158646
2740.000000;4.523940
2739.000000;4.512890
2738.000000;4.026916
2737.000000;3.741970
2736.000000;3.583635
2735.000000;3.516047
2734.000000;3.500598
2733.000000;3.504915
2732.000000;3.520735
2731.000000;3.573963
2730.000000;3.684917
2729.000000;3.827604
2728.000000;3.956794
2727.000000;4.179738
2726.000000;4.350722
2725.000000;4.215713
2724.000000;4.444358
2723.000000;4.416536
2722.000000;3.915680
2721.000000;3.724718
2720.000000;3.737036
2719.000000;4.013080
2718.000000;4.259621
2717.000000;3.872215
2716.000000;3.819545
2715.000000;3.750464
2714.000000;3.622329
2713.000000;3.610706
2712.000000;3.678135
2711.000000;3.686311
2710.000000;3.663180
2709.000000;3.675309
2708.000000;3.682048
2707.000000;3.673368
2706.000000;3.671329
2705.000000;3.692308
2704.000000;3.760063
2703.000000;3.879518
2702.000000;3.975623
2701.000000;4.001649
2700.000000;4.089714
2699.000000;4.337937
2698.000000;4.070890
2697.000000;3.821265
2696.000000;3.736221
2695.000000;3.709781
2694.000000;3.691078
2693.000000;3.676809
2692.000000;3.685452
2691.000000;3.786034
2690.000000;4.085359
2689.000000;4.115208
2688.000000;3.978795
2687.000000;3.824299
2686.000000;3.665721
2685.000000;3.609977
2684.000000;3.636334
2683.000000;3.726695
2682.000000;3.943189
2681.000000;4.466487
2680.000000;4.319032
2679.000000;4.096651
2678.000000;4.219364
2677.000000;4.131989
2676.000000;3.796163
2675.000000;3.563335
2674.000000;3.502100
2673.000000;3.567686
2672.000000;3.675601
2671.000000;3.707240
2670.000000;3.694136
2669.000000;3.702894
2668.000000;3.734977
2667.000000;3.754071
2666.000000;3.712641
2665.000000;3.617854
2664.000000;3.530757
2663.000000;3.512969
2662.000000;3.610645
2661.000000;3.877288
2660.000000;4.435566
2659.000000;4.571035
2658.000000;4.010207
2657.000000;3.818406
2656.000000;3.793897
2655.000000;4.007956
2654.000000;4.205923
2653.000000;3.817201
2652.000000;3.679732
2651.000000;3.722621
2650.000000;4.001650
2649.000000;4.220697
2648.000000;3.910488
2647.000000;3.764453
2646.000000;3.777289
2645.000000;3.791495
2644.000000;3.659667
2643.000000;3.525708
2642.000000;3.467289
2641.000000;3.492632
2640.000000;3.613755
2639.000000;3.812049
2638.000000;3.913933
2637.000000;3.922377
2636.000000;3.930392
2635.000000;3.959429
2634.000000;4.094303
2633.000000;4.147247
2632.000000;4.040385
2631.000000;4.003765
2630.000000;3.906175
2629.000000;3.764047
2628.000000;3.872375
2627.000000;4.084589
2626.000000;3.715932
2625.000000;3.559489
2624.000000;3.602703
2623.000000;3.790781
2622.000000;4.025278
2621.000000;3.875470
2620.000000;3.677235
2619.000000;3.597231
2618.000000;3.563561
2617.000000;3.549922
2616.000000;3.592045
2615.000000;3.751727
2614.000000;4.235207
2613.000000;3.872204
2612.000000;3.682925
2611.000000;3.710160
2610.000000;3.815432
2609.000000;3.867283
2608.000000;3.797617
2607.000000;3.684211
2606.000000;3.607053
2605.000000;3.609595
2604.000000;3.718120
2603.000000;3.812831
2602.000000;3.772189
2601.000000;3.936653
2600.000000;4.283334
2599.000000;4.202573
2598.000000;4.103697
2597.000000;3.834637
2596.000000;3.699629
2595.000000;3.727951
2594.000000;3.831074
2593.000000;3.960678
2592.000000;4.055754
2591.000000;4.024036
2590.000000;3.981181
2589.000000;4.033861
2588.000000;4.158186
2587.000000;4.236182
2586.000000;4.097966
2585.000000;3.932025
2584.000000;3.912207
2583.000000;4.143602
2582.000000;4.550586
2581.000000;4.009029
2580.000000;3.895618
2579.000000;3.892664
2578.000000;3.947090
2577.000000;3.983986
2576.000000;3.933030
2575.000000;3.829924
2574.000000;3.741770
2573.000000;3.665740
2572.000000;3.599434
2571.000000;3.546836
2570.000000;3.519089
2569.000000;3.555231
2568.000000;3.686805
2567.000000;3.904845
2566.000000;4.091155
2565.000000;3.983713
2564.000000;3.820337
2563.000000;3.778451
2562.000000;3.849119
2561.000000;3.915825
2560.000000;3.920598
2559.000000;4.051448
2558.000000;4.107849
2557.000000;3.838849
2556.000000;3.737972
2555.000000;3.813302
2554.000000;4.064322
2553.000000;4.374611
2552.000000;4.320202
2551.000000;4.058562
2550.000000;3.882611
2549.000000;3.828765
2548.000000;3.784928
2547.000000;3.734115
2546.000000;3.763959
2545.000000;3.862648
2544.000000;3.926893
2543.000000;3.971897
2542.000000;3.886475
2541.000000;3.761835
2540.000000;3.786775
2539.000000;3.966771
2538.000000;4.038283
2537.000000;3.975311
2536.000000;4.050652
2535.000000;4.153874
2534.000000;3.936318
2533.000000;3.854765
2532.000000;4.069504
2531.000000;4.467453
2530.000000;4.163802
2529.000000;4.203975
2528.000000;4.487686
2527.000000;4.782630
2526.000000;3.966539
2525.000000;3.701741
2524.000000;3.605242
2523.000000;3.597824
2522.000000;3.548340
2521.000000;3.468044
2520.000000;3.465889
2519.000000;3.576781
2518.000000;3.674949
2517.000000;3.679572
2516.000000;3.738841
2515.000000;4.182058
2514.000000;4.434612
2513.000000;3.942649
2512.000000;3.796085
2511.000000;3.663320
2510.000000;3.672947
2509.000000;3.852964
2508.000000;4.562609
2507.000000;4.266585
2506.000000;3.872335
2505.000000;3.815171
2504.000000;4.005869
2503.000000;4.378107
2502.000000;3.956146
2501.000000;3.808297
2500.000000;3.850293
2499.000000;4.102161
2498.000000;4.534634
2497.000000;4.314448
2496.000000;4.182353
2495.000000;4.094238
2494.000000;4.000007
2493.000000;4.118100
2492.000000;4.484504
2491.000000;4.042834
2490.000000;3.821627
2489.000000;3.873079
2488.000000;3.815711
2487.000000;3.631678
2486.000000;3.564691
2485.000000;3.605603
2484.000000;3.691709
2483.000000;3.715364
2482.000000;3.653601
2481.000000;3.618631
2480.000000;3.643495
2479.000000;3.650892
2478.000000;3.589352
2477.000000;3.533970
2476.000000;3.547122
2475.000000;3.617326
2474.000000;3.685667
2473.000000;3.747740
2472.000000;3.892761
2471.000000;4.093024
2470.000000;4.073296
2469.000000;4.064445
2468.000000;3.991912
2467.000000;4.055789
2466.000000;4.289324
2465.000000;4.077159
2464.000000;4.000846
2463.000000;4.209677
2462.000000;4.263919
2461.000000;3.963109
2460.000000;3.802638
2459.000000;3.884033
2458.000000;4.112815
2457.000000;4.272596
2456.000000;3.969185
2455.000000;3.682383
2454.000000;3.620559
2453.000000;3.727779
2452.000000;3.957817
2451.000000;4.245988
2450.000000;4.302915
2449.000000;4.071387
2448.000000;3.940423
2447.000000;3.970944
2446.000000;4.158589
2445.000000;4.345627
2444.000000;3.952564
2443.000000;3.616357
2442.000000;3.493298
2441.000000;3.517973
2440.000000;3.633569
2439.000000;3.714183
2438.000000;3.708514
2437.000000;3.763541
2436.000000;3.878815
2435.000000;3.925899
2434.000000;3.918123
2433.000000;3.875708
2432.000000;3.869046
2431.000000;3.867179
2430.000000;3.784912
2429.000000;3.757267
2428.000000;3.814495
2427.000000;3.712695
2426.000000;3.610272
2425.000000;3.674251
2424.000000;3.790186
2423.000000;3.679235
2422.000000;3.639199
2421.000000;3.739223
2420.000000;3.693158
2419.000000;3.473502
2418.000000;3.349750
2417.000000;3.341327
2416.000000;3.456716
2415.000000;3.705648
2414.000000;4.245869
2413.000000;4.756158
2412.000000;4.121695
2411.000000;4.163488
2410.000000;4.338632
2409.000000;4.556687
2408.000000;4.186503
2407.000000;3.905829
2406.000000;3.836672
2405.000000;4.012717
2404.000000;4.349108
2403.000000;4.090784
2402.000000;3.975202
2401.000000;3.996663
2400.000000;3.909217
2399.000000;3.736218
2398.000000;3.604087
2397.000000;3.576258
2396.000000;3.657729
2395.000000;3.821801
2394.000000;3.811885
2393.000000;3.707566
2392.000000;3.679257
2391.000000;3.708763
2390.000000;3.772515
2389.000000;3.872752
2388.000000;4.010514
2387.000000;4.044000
2386.000000;3.966910
2385.000000;3.932941
2384.000000;4.110510
2383.000000;4.141263
2382.000000;3.842400
2381.000000;3.763558
2380.000000;3.810944
2379.000000;3.719803
2378.000000;3.519990
2377.000000;3.400398
2376.000000;3.292939
2375.000000;3.214138
2374.000000;3.243666
2373.000000;3.496868
2372.000000;3.850196
2371.000000;3.355195
2370.000000;3.186345
2369.000000;3.197076
2368.000000;3.726915
2367.000000;3.870014
2366.000000;3.963725
2365.000000;3.901173
2364.000000;3.819122
2363.000000;3.780720
2362.000000;3.798123
2361.000000;3.906502
2360.000000;4.250157
2359.000000;4.051553
2358.000000;3.707357
2357.000000;3.683408
2356.000000;3.912328
2355.000000;4.109630
2354.000000;3.848330
2353.000000;3.808884
2352.000000;4.004185
2351.000000;4.028199
2350.000000;3.797693
2349.000000;3.721557
2348.000000;3.761853
2347.000000;3.864614
2346.000000;3.832211
2345.000000;3.785934
2344.000000;3.894924
2343.000000;3.981504
2342.000000;3.865504
2341.000000;3.812080
2340.000000;3.794961
2339.000000;3.746589
2338.000000;3.283328
2337.000000;3.309887
2336.000000;3.236388
2335.000000;3.144496
2334.000000;3.158437
2333.000000;3.280927
2332.000000;3.493540
2331.000000;3.646139
2330.000000;3.505312
2329.000000;3.416794
2328.000000;3.501767
2327.000000;3.778856
2326.000000;4.343950
2325.000000;4.602226
2324.000000;3.934747
2323.000000;3.665108
2322.000000;3.625550
2321.000000;3.621571
2320.000000;3.545839
2319.000000;3.521484
2318.000000;3.609046
2317.000000;3.834537
2316.000000;3.974997
2315.000000;3.907380
2314.000000;4.188271
2313.000000;4.336631
2312.000000;4.066251
2311.000000;3.964649
2310.000000;3.707401
2309.000000;3.564502
2308.000000;3.509609
2307.000000;3.617779
2306.000000;4.083563
2305.000000;4.116483
2304.000000;3.718163
2303.000000;3.664964
2302.000000;3.574471
2301.000000;3.495951
2300.000000;3.450321
2299.000000;3.467472
2298.000000;3.542322
2297.000000;3.654850
2296.000000;3.729511
2295.000000;3.725383
2294.000000;3.731731
2293.000000;3.838107
2292.000000;3.927581
2291.000000;3.874497
2290.000000;3.880563
2289.000000;3.988266
2288.000000;4.043233
2287.000000;3.952417
2286.000000;3.884872
2285.000000;3.847450
2284.000000;3.842628
2283.000000;3.878889
2282.000000;3.940962
2281.000000;4.072898
2280.000000;4.345562
2279.000000;4.464315
2278.000000;4.156765
2277.000000;3.993842
2276.000000;4.045723
2275.000000;4.160500
2274.000000;3.972099
2273.000000;3.924857
2272.000000;4.192214
2271.000000;4.669517
2270.000000;4.238401
2269.000000;3.786843
2268.000000;3.549428
2267.000000;3.438246
2266.000000;3.409270
2265.000000;3.480762
2264.000000;3.668739
2263.000000;4.364916
2262.000000;3.995028
2261.000000;3.717718
2260.000000;3.707782
2259.000000;3.914103
2258.000000;4.048330
2257.000000;3.714638
2256.000000;3.617103
2255.000000;3.626353
2254.000000;3.608488
2253.000000;3.588726
2252.000000;3.684059
2251.000000;3.718347
2250.000000;3.630754
2249.000000;3.654314
2248.000000;3.770934
2247.000000;3.879995
2246.000000;3.946015
2245.000000;4.037322
2244.000000;4.118260
2243.000000;4.155020
2242.000000;4.173670
2241.000000;4.052899
2240.000000;3.886987
2239.000000;3.806316
2238.000000;3.774659
2237.000000;3.735918
2236.000000;3.722125
2235.000000;3.767676
2234.000000;3.850659
2233.000000;3.931266
2232.000000;3.976994
2231.000000;3.964068
2230.000000;3.919066
2229.000000;3.867518
2228.000000;3.822090
2227.000000;3.816742
2226.000000;3.842627
2225.000000;3.864668
2224.000000;3.920031
2223.000000;4.017646
2222.000000;4.122646
2221.000000;4.176358
2220.000000;4.041517
2219.000000;3.901018
2218.000000;3.984277
2217.000000;4.080995
2216.000000;3.934962
2215.000000;3.916546
2214.000000;4.285333
2213.000000;4.432437
2212.000000;4.045686
2211.000000;3.935926
2210.000000;3.933487
2209.000000;3.969733
2208.000000;4.015001
2207.000000;3.999732
2206.000000;3.843668
2205.000000;3.746579
2204.000000;3.826517
2203.000000;4.061651
2202.000000;4.301166
2201.000000;4.693408
2200.000000;4.307555
2199.000000;4.495893
2198.000000;4.276373
2197.000000;3.766062
2196.000000;3.641675
2195.000000;3.642994
2194.000000;3.862730
2193.000000;4.098535
2192.000000;3.850063
2191.000000;3.761863
2190.000000;3.853064
2189.000000;3.965493
2188.000000;4.027283
2187.000000;3.934806
2186.000000;3.789869
2185.000000;3.672124
2184.000000;3.569632
2183.000000;3.507068
2182.000000;3.501201
2181.000000;3.555912
2180.000000;3.669543
2179.000000;3.826183
2178.000000;3.880546
2177.000000;3.812722
2176.000000;3.829655
2175.000000;3.878835
2174.000000;3.910369
2173.000000;4.194878
2172.000000;4.121745
2171.000000;3.735373
2170.000000;3.742699
2169.000000;3.968339
2168.000000;4.460400
2167.000000;4.917952
2166.000000;5.012926
2165.000000;5.077650
2164.000000;4.436933
2163.000000;3.955297
2162.000000;3.770368
2161.000000;3.780800
2160.000000;4.041208
2159.000000;4.279429
2158.000000;3.948638
2157.000000;3.791226
2156.000000;3.779530
2155.000000;3.771636
2154.000000;3.678211
2153.000000;3.593075
2152.000000;3.534346
2151.000000;3.546150
2150.000000;3.682387
2149.000000;3.889912
2148.000000;3.857871
2147.000000;3.703545
2146.000000;3.595466
2145.000000;3.553849
2144.000000;3.576297
2143.000000;3.638830
2142.000000;3.727649
2141.000000;3.870790
2140.000000;4.105053
2139.000000;4.637236
2138.000000;4.222081
2137.000000;3.848862
2136.000000;3.766598
2135.000000;3.756641
2134.000000;3.781865
2133.000000;3.830162
2132.000000;3.856753
2131.000000;3.736475
2130.000000;3.612937
2129.000000;3.589597
2128.000000;3.701622
2127.000000;4.045803
2126.000000;4.422149
2125.000000;4.204939
2124.000000;4.572131
2123.000000;4.360246
2122.000000;4.096371
2121.000000;4.140021
2120.000000;4.342495
2119.000000;4.332952
2118.000000;4.349981
2117.000000;4.347015
2116.000000;3.950391
2115.000000;3.701891
2114.000000;3.585774
2113.000000;3.591357
2112.000000;3.647074
2111.000000;3.674817
2110.000000;3.712877
2109.000000;3.865888
2108.000000;3.985171
2107.000000;3.830510
2106.000000;3.801577
2105.000000;3.858031
2104.000000;3.745783
2103.000000;3.713207
2102.000000;3.809114
2101.000000;3.786208
2100.000000;3.682799
2099.000000;3.639335
2098.000000;3.650898
2097.000000;3.665895
2096.000000;3.666707
2095.000000;3.681450
2094.000000;3.720709
2093.000000;3.815699
2092.000000;3.978440
2091.000000;4.259846
2090.000000;4.315533
2089.000000;4.019094
2088.000000;3.980221
2087.000000;4.167662
2086.000000;4.049148
2085.000000;3.781091
2084.000000;3.715211
2083.000000;3.705412
2082.000000;3.682027
2081.000000;3.609470
2080.000000;3.530470
2079.000000;3.511426
2078.000000;3.596639
2077.000000;3.855651
2076.000000;3.830083
2075.000000;3.681097
2074.000000;3.714457
2073.000000;3.866097
2072.000000;4.047927
2071.000000;4.229224
2070.000000;4.454733
2069.000000;4.799380
2068.000000;4.492169
2067.000000;4.113297
2066.000000;3.968757
2065.000000;3.946114
2064.000000;4.007118
2063.000000;4.046032
2062.000000;3.921984
2061.000000;3.819902
2060.000000;3.841851
2059.000000;3.978318
2058.000000;4.089970
2057.000000;4.165323
2056.000000;4.477816
2055.000000;4.071136
2054.000000;3.811378
2053.000000;3.885421
2052.000000;4.069021
2051.000000;3.739218
2050.000000;3.544132
2049.000000;3.536409
2048.000000;3.663705
2047.000000;4.017216
2046.000000;4.383374
2045.000000;4.054297
2044.000000;4.023615
2043.000000;4.029480
2042.000000;3.966771
2041.000000;3.866572
2040.000000;3.857868
2039.000000;3.933952
2038.000000;3.969332
2037.000000;4.079239
2036.000000;4.141876
2035.000000;3.876546
2034.000000;3.701594
2033.000000;3.642097
2032.000000;3.680765
2031.000000;3.977566
2030.000000;4.086752
2029.000000;3.787513
2028.000000;3.813578
2027.000000;3.950351
2026.000000;3.817161
2025.000000;3.754874
2024.000000;3.746117
2023.000000;3.594979
2022.000000;3.548310
2021.000000;3.687750
2020.000000;3.953557
2019.000000;4.004547
2018.000000;4.051244
2017.000000;4.153950
2016.000000;4.157478
2015.000000;4.130214
2014.000000;4.205500
2013.000000;4.380236
2012.000000;4.262238
2011.000000;3.951054
2010.000000;3.810081
2009.000000;3.808642
2008.000000;3.931496
2007.000000;4.130814
2006.000000;4.128050
2005.000000;3.974423
2004.000000;3.884566
2003.000000;4.029078
2002.000000;4.054109
2001.000000;3.706410
2000.000000;3.538432
1999.000000;3.498033
1998.000000;3.511429
1997.000000;3.601734
1996.000000;3.819974
1995.000000;4.671152
1994.000000;4.321831
1993.000000;4.117172
1992.000000;4.021608
1991.000000;4.029804
1990.000000;4.146521
1989.000000;4.096391
1988.000000;4.044842
1987.000000;4.140488
1986.000000;4.267399
1985.000000;4.086718
1984.000000;3.762213
1983.000000;3.526107
1982.000000;3.389645
1981.000000;3.359253
1980.000000;3.449756
1979.000000;3.728813
1978.000000;3.869921
1977.000000;3.683309
1976.000000;3.644335
1975.000000;3.653787
1974.000000;3.674716
1973.000000;3.718378
1972.000000;3.825131
1971.000000;3.898520
1970.000000;3.889359
1969.000000;3.887384
1968.000000;3.958990
1967.000000;3.956203
1966.000000;3.784947
1965.000000;3.734118
1964.000000;3.845045
1963.000000;3.884770
1962.000000;3.709010
1961.000000;3.657341
1960.000000;3.751259
1959.000000;3.820749
1958.000000;3.657287
1957.000000;3.529695
1956.000000;3.499121
1955.000000;3.534300
1954.000000;3.622523
1953.000000;3.792980
1952.000000;4.219201
1951.000000;4.181941
1950.000000;3.783163
1949.000000;3.634284
1948.000000;3.540623
1947.000000;3.565748
1946.000000;3.709974
1945.000000;4.302807
1944.000000;4.333249
1943.000000;3.969938
1942.000000;3.877828
1941.000000;3.818743
1940.000000;3.837994
1939.000000;3.903977
1938.000000;3.973594
1937.000000;4.132873
1936.000000;3.979527
1935.000000;3.927182
1934.000000;4.142513
1933.000000;3.764479
1932.000000;3.564872
1931.000000;3.555460
1930.000000;3.643188
1929.000000;3.713094
1928.000000;3.695101
1927.000000;3.658901
1926.000000;3.674147
1925.000000;3.741874
1924.000000;3.840157
1923.000000;4.039479
1922.000000;4.483993
1921.000000;4.029146
1920.000000;3.738267
1919.000000;3.715938
1918.000000;3.788672
1917.000000;3.882028
1916.000000;3.956242
1915.000000;3.930839
1914.000000;3.803246
1913.000000;3.711225
1912.000000;3.691732
1911.000000;3.724634
1910.000000;3.793682
1909.000000;3.915816
1908.000000;4.080151
1907.000000;4.289385
1906.000000;4.334890
1905.000000;4.059031
1904.000000;3.962913
1903.000000;4.143865
1902.000000;4.573839
1901.000000;4.015816
1900.000000;3.840907
1899.000000;3.829304
1898.000000;3.840522
1897.000000;3.772953
1896.000000;3.677176
1895.000000;3.653003
1894.000000;3.755549
1893.000000;4.011348
1892.000000;3.854905
1891.000000;3.642212
1890.000000;3.600987
1889.000000;3.636209
1888.000000;3.710473
1887.000000;3.819467
1886.000000;4.037186
1885.000000;4.228417
1884.000000;4.079584
1883.000000;4.114490
1882.000000;4.092815
1881.000000;3.899767
1880.000000;3.888007
1879.000000;4.137298
1878.000000;4.381913
1877.000000;3.977168
1876.000000;3.854638
1875.000000;3.806017
1874.000000;3.812229
1873.000000;3.868005
1872.000000;3.972777
1871.000000;4.087672
1870.000000;4.255598
1869.000000;4.349960
1868.000000;4.261672
1867.000000;4.280389
1866.000000;4.465504
1865.000000;4.898093
1864.000000;4.808891
1863.000000;4.515594
1862.000000;4.340047
1861.000000;4.032744
1860.000000;3.858684
1859.000000;3.876781
1858.000000;4.131279
1857.000000;4.484760
1856.000000;4.419879
1855.000000;4.149947
1854.000000;3.936263
1853.000000;3.914220
1852.000000;3.951924
1851.000000;3.929545
1850.000000;3.847098
1849.000000;3.778271
1848.000000;3.751744
1847.000000;3.752754
1846.000000;3.746896
1845.000000;3.700363
1844.000000;3.660364
1843.000000;3.709852
1842.000000;3.902131
1841.000000;4.183466
1840.000000;4.143578
1839.000000;4.094030
1838.000000;4.136352
1837.000000;4.086873
1836.000000;3.987914
1835.000000;3.842415
1834.000000;3.745062
1833.000000;3.713337
1832.000000;3.698277
1831.000000;3.745204
1830.000000;3.956920
1829.000000;4.425290
1828.000000;4.923452
1827.000000;4.867872
1826.000000;4.323773
1825.000000;4.092628
1824.000000;3.945414
1823.000000;3.782528
1822.000000;3.668008
1821.000000;3.667134
1820.000000;3.854027
1819.000000;4.303933
1818.000000;4.152763
1817.000000;3.865931
1816.000000;3.791460
1815.000000;3.829198
1814.000000;4.041786
1813.000000;4.466961
1812.000000;4.390865
1811.000000;4.104891
1810.000000;4.084373
1809.000000;4.001315
1808.000000;3.791515
1807.000000;3.698562
1806.000000;3.728033
1805.000000;3.818340
1804.000000;3.927764
1803.000000;3.957210
1802.000000;3.898007
1801.000000;3.914946
1800.000000;4.004442
1799.000000;3.992122
1798.000000;3.949077
1797.000000;4.114981
1796.000000;4.197801
1795.000000;3.870825
1794.000000;3.784708
1793.000000;3.849427
1792.000000;3.926435
1791.000000;3.826978
1790.000000;3.669839
1789.000000;3.600056
1788.000000;3.648337
1787.000000;4.054348
1786.000000;4.016188
1785.000000;3.692000
1784.000000;3.701056
1783.000000;3.796759
1782.000000;3.875314
1781.000000;3.938473
1780.000000;3.965780
1779.000000;3.895562
1778.000000;3.904112
1777.000000;4.089834
1776.000000;3.962664
1775.000000;3.748000
1774.000000;3.693889
1773.000000;3.757250
1772.000000;3.867725
1771.000000;3.959500
1770.000000;4.159798
1769.000000;4.664974
1768.000000;4.226402
1767.000000;4.077531
1766.000000;3.975638
1765.000000;3.767018
1764.000000;3.669493
1763.000000;3.673140
1762.000000;3.751133
1761.000000;3.856263
1760.000000;3.973528
1759.000000;4.098940
1758.000000;4.191084
1757.000000;4.120848
1756.000000;4.606923
1755.000000;4.176585
1754.000000;3.752919
1753.000000;3.595395
1752.000000;3.624415
1751.000000;3.895015
1750.000000;4.691758
1749.000000;4.565452
1748.000000;4.794999
1747.000000;4.534698
1746.000000;4.167811
1745.000000;4.023957
1744.000000;3.951126
1743.000000;3.930927
1742.000000;3.963632
1741.000000;3.996045
1740.000000;3.947510
1739.000000;3.938821
1738.000000;4.063349
1737.000000;4.261322
1736.000000;4.325890
1735.000000;4.272265
1734.000000;4.214941
1733.000000;4.102731
1732.000000;4.045509
1731.000000;4.069649
1730.000000;4.144238
1729.000000;4.339367
1728.000000;4.284404
1727.000000;4.004464
1726.000000;3.945539
1725.000000;3.948189
1724.000000;3.877734
1723.000000;3.840187
1722.000000;3.849753
1721.000000;3.864264
1720.000000;3.861340
1719.000000;3.900401
1718.000000;3.988813
1717.000000;4.050548
1716.000000;4.078414
1715.000000;4.085228
1714.000000;4.066063
1713.000000;4.002689
1712.000000;3.922866
1711.000000;3.856448
1710.000000;3.787243
1709.000000;3.780010
1708.000000;3.859352
1707.000000;4.224249
1706.000000;4.224024
1705.000000;3.977102
1704.000000;4.026886
1703.000000;4.188341
1702.000000;4.297198
1701.000000;3.956758
1700.000000;3.862028
1699.000000;4.006778
1698.000000;4.178369
1697.000000;4.258438
1696.000000;4.022259
1695.000000;3.814951
1694.000000;3.785050
1693.000000;3.877106
1692.000000;4.145038
1691.000000;4.434040
1690.000000;4.009746
1689.000000;3.942257
1688.000000;3.992178
1687.000000;4.366173
1686.000000;4.263241
1685.000000;3.724387
1684.000000;3.701298
1683.000000;3.776834
1682.000000;3.861399
1681.000000;3.907628
1680.000000;3.938862
1679.000000;3.967833
1678.000000;4.009548
1677.000000;4.021969
1676.000000;3.963511
1675.000000;4.047820
1674.000000;4.269513
1673.000000;4.161342
1672.000000;4.061559
1671.000000;4.062620
1670.000000;4.074546
1669.000000;4.063866
1668.000000;4.215637
1667.000000;4.403275
1666.000000;3.964340
1665.000000;3.834568
1664.000000;3.865364
1663.000000;3.922209
1662.000000;3.881828
1661.000000;3.853041
1660.000000;3.853904
1659.000000;3.844368
1658.000000;3.878498
1657.000000;4.109307
1656.000000;3.989535
1655.000000;3.654007
1654.000000;3.599484
1653.000000;3.620086
1652.000000;3.611585
1651.000000;3.626774
1650.000000;3.639048
1649.000000;3.642331
1648.000000;3.704743
1647.000000;3.854465
1646.000000;4.003758
1645.000000;4.042287
1644.000000;4.042877
1643.000000;4.124630
1642.000000;4.306359
1641.000000;4.355836
1640.000000;4.660664
1639.000000;4.327026
1638.000000;4.096051
1637.000000;4.074420
1636.000000;4.147815
1635.000000;4.326538
1634.000000;4.495354
1633.000000;4.235264
1632.000000;4.057111
1631.000000;3.878175
1630.000000;3.697424
1629.000000;3.619518
1628.000000;3.613389
1627.000000;3.618641
1626.000000;3.631163
1625.000000;3.709924
1624.000000;3.974726
1623.000000;4.536391
1622.000000;4.073850
1621.000000;3.850608
1620.000000;3.824975
1619.000000;3.865636
1618.000000;3.959793
1617.000000;4.129827
1616.000000;4.623385
1615.000000;4.677410
1614.000000;4.496197
1613.000000;3.973974
1612.000000;3.675527
1611.000000;3.557513
1610.000000;3.588479
1609.000000;3.788661
1608.000000;4.214123
1607.000000;4.139308
1606.000000;3.962900
1605.000000;4.036023
1604.000000;4.261445
1603.000000;4.208936
1602.000000;3.912779
1601.000000;3.793736
1600.000000;3.779458
1599.000000;3.778543
1598.000000;3.693085
1597.000000;3.612341
1596.000000;3.597838
1595.000000;3.640063
1594.000000;3.699632
1593.000000;3.730838
1592.000000;3.719914
1591.000000;3.673281
1590.000000;3.621141
1589.000000;3.622043
1588.000000;3.719957
1587.000000;3.907760
1586.000000;3.817599
1585.000000;3.668909
1584.000000;3.729181
1583.000000;4.061417
1582.000000;4.025906
1581.000000;3.729843
1580.000000;3.627584
1579.000000;3.565821
1578.000000;3.575264
1577.000000;3.700685
1576.000000;3.982734
1575.000000;4.348338
1574.000000;4.525422
1573.000000;4.365633
1572.000000;4.131377
1571.000000;3.966488
1570.000000;3.917804
1569.000000;3.962036
1568.000000;4.013620
1567.000000;3.990192
1566.000000;3.959638
1565.000000;3.981228
1564.000000;4.050030
1563.000000;4.253662
1562.000000;4.686989
1561.000000;3.952995
1560.000000;3.889686
1559.000000;4.310915
1558.000000;4.904716
1557.000000;4.383756
1556.000000;4.225600
1555.000000;4.207700
1554.000000;4.561297
1553.000000;4.346148
1552.000000;3.947145
1551.000000;3.882776
1550.000000;3.939911
1549.000000;4.375450
1548.000000;4.730792
1547.000000;4.178548
1546.000000;4.447731
1545.000000;4.591286
1544.000000;4.260938
1543.000000;4.205869
1542.000000;4.255978
1541.000000;4.320153
1540.000000;4.392608
1539.000000;4.427993
1538.000000;4.503276
1537.000000;4.758485
1536.000000;4.760981
1535.000000;4.439082
1534.000000;4.226069
1533.000000;4.118508
1532.000000;4.105911
1531.000000;4.211809
1530.000000;4.518072
1529.000000;4.926909
1528.000000;4.903031
1527.000000;4.402894
1526.000000;4.105129
1525.000000;3.966189
1524.000000;3.922764
1523.000000;3.944781
1522.000000;4.045452
1521.000000;4.195824
1520.000000;4.645594
1519.000000;4.904192
1518.000000;4.380284
1517.000000;4.281924
1516.000000;4.430258
1515.000000;4.622822
1514.000000;4.555308
1513.000000;4.879730
1512.000000;4.655922
1511.000000;4.572620
1510.000000;4.429950
1509.000000;4.175519
1508.000000;4.057775
1507.000000;4.074167
1506.000000;4.207616
1505.000000;4.556267
1504.000000;4.329521
1503.000000;4.185223
1502.000000;4.209732
1501.000000;4.298145
1500.000000;4.566572
1499.000000;4.783466
1498.000000;4.071482
1497.000000;3.794644
1496.000000;3.667451
1495.000000;3.668269
1494.000000;3.763155
1493.000000;3.922110
1492.000000;4.095300
1491.000000;4.187316
1490.000000;4.162749
1489.000000;4.108758
1488.000000;4.068184
1487.000000;4.087684
1486.000000;4.253515
1485.000000;4.296986
1484.000000;3.903822
1483.000000;3.603140
1482.000000;3.461989
1481.000000;3.459612
1480.000000;3.557769
1479.000000;3.693153
1478.000000;3.786322
1477.000000;3.806988
1476.000000;3.800742
1475.000000;3.797267
1474.000000;3.801286
1473.000000;3.847306
1472.000000;3.961527
1471.000000;4.113663
1470.000000;4.206345
1469.000000;4.217589
1468.000000;4.118070
1467.000000;3.947664
1466.000000;3.834898
1465.000000;3.822502
1464.000000;3.872875
1463.000000;4.296667
1462.000000;4.457064
1461.000000;4.087587
1460.000000;4.088766
1459.000000;4.180369
1458.000000;4.299872
1457.000000;4.293135
1456.000000;4.081760
1455.000000;3.926747
1454.000000;3.908929
1453.000000;3.958311
1452.000000;3.919793
1451.000000;3.930751
1450.000000;4.150576
1449.000000;4.653767
1448.000000;4.258309
1447.000000;4.038528
1446.000000;3.981307
1445.000000;3.994095
1444.000000;3.910954
1443.000000;3.763693
1442.000000;3.673785
1441.000000;3.688183
1440.000000;3.815303
1439.000000;4.054380
1438.000000;4.049939
1437.000000;3.809134
1436.000000;3.746101
1435.000000;3.822801
1434.000000;3.980878
1433.000000;4.064843
1432.000000;4.021318
1431.000000;3.986750
1430.000000;3.897117
1429.000000;3.720700
1428.000000;3.569190
1427.000000;3.523627
1426.000000;3.624424
1425.000000;3.928320
1424.000000;4.093417
1423.000000;3.931807
1422.000000;3.826346
1421.000000;3.699568
1420.000000;3.668082
1419.000000;3.837802
1418.000000;4.066684
1417.000000;4.023380
1416.000000;4.045559
1415.000000;4.505289
1414.000000;4.975097
1413.000000;4.142861
1412.000000;3.934762
1411.000000;3.959017
1410.000000;4.212994
1409.000000;4.179101
1408.000000;4.055464
1407.000000;3.910107
1406.000000;3.836929
1405.000000;3.948167
1404.000000;4.352150
1403.000000;4.336061
1402.000000;4.278210
1401.000000;4.370083
1400.000000;4.163435
1399.000000;4.157689
1398.000000;4.503859
1397.000000;4.713643
1396.000000;4.283434
1395.000000;4.236867
1394.000000;3.912889
1393.000000;3.687243
1392.000000;3.616074
1391.000000;3.653461
1390.000000;3.726601
1389.000000;3.740867
1388.000000;3.714089
1387.000000;3.708633
1386.000000;3.702223
1385.000000;3.671308
1384.000000;3.668792
1383.000000;3.753479
1382.000000;3.887593
1381.000000;4.122883
1380.000000;4.105115
1379.000000;3.879183
1378.000000;3.785944
1377.000000;3.767059
1376.000000;3.832459
1375.000000;3.977032
1374.000000;4.026174
1373.000000;4.063513
1372.000000;4.224705
1371.000000;4.251585
1370.000000;4.097716
1369.000000;3.848558
1368.000000;3.714483
1367.000000;3.729608
1366.000000;3.947285
1365.000000;4.274940
1364.000000;4.047604
1363.000000;3.976560
1362.000000;4.003482
1361.000000;3.973288
1360.000000;3.880564
1359.000000;3.799798
1358.000000;3.693761
1357.000000;3.561332
1356.000000;3.470317
1355.000000;3.463406
1354.000000;3.557174
1353.000000;3.793367
1352.000000;4.092503
1351.000000;4.018884
1350.000000;4.013354
1349.000000;4.298075
1348.000000;4.562468
1347.000000;4.050794
1346.000000;3.966307
1345.000000;4.207088
1344.000000;4.302187
1343.000000;3.939242
1342.000000;3.856220
1341.000000;3.870292
1340.000000;3.879215
1339.000000;3.868121
1338.000000;3.906570
1337.000000;4.011845
1336.000000;4.190512
1335.000000;4.291834
1334.000000;4.078297
1333.000000;3.973346
1332.000000;4.163775
1331.000000;4.590344
1330.000000;4.541487
1329.000000;4.252692
1328.000000;4.397023
1327.000000;4.411286
1326.000000;3.864671
1325.000000;3.648691
1324.000000;3.597027
1323.000000;3.621976
1322.000000;3.694639
1321.000000;3.781363
1320.000000;3.855778
1319.000000;3.932558
1318.000000;4.020545
1317.000000;4.008136
1316.000000;4.028291
1315.000000;4.095393
1314.000000;3.994736
1313.000000;3.945743
1312.000000;4.007966
1311.000000;4.045276
1310.000000;3.913208
1309.000000;3.841780
1308.000000;3.887437
1307.000000;3.944490
1306.000000;4.032678
1305.000000;4.273418
1304.000000;4.136626
1303.000000;3.904885
1302.000000;3.835426
1301.000000;3.829869
1300.000000;3.892188
1299.000000;4.027551
1298.000000;4.242989
1297.000000;4.672842
1296.000000;4.744184
1295.000000;4.131832
1294.000000;3.804461
1293.000000;3.633031
1292.000000;3.584572
1291.000000;3.660774
1290.000000;3.897835
1289.000000;4.068718
1288.000000;3.775634
1287.000000;3.641813
1286.000000;3.633254
1285.000000;3.771580
1284.000000;3.980344
1283.000000;3.927245
1282.000000;3.838309
1281.000000;3.818667
1280.000000;3.889923
1279.000000;3.879751
1278.000000;3.668595
1277.000000;3.557218
1276.000000;3.548766
1275.000000;3.575320
1274.000000;3.592142
1273.000000;3.601499
1272.000000;3.661464
1271.000000;3.867858
1270.000000;4.105829
1269.000000;3.873116
1268.000000;3.731289
1267.000000;3.766608
1266.000000;3.984295
1265.000000;4.868921
1264.000000;4.003155
1263.000000;3.828799
1262.000000;3.860930
1261.000000;4.171712
1260.000000;5.024783
1259.000000;4.405988
1258.000000;4.489543
1257.000000;4.137390
1256.000000;3.873890
1255.000000;3.731490
1254.000000;3.709742
1253.000000;3.771463
1252.000000;4.279165
1251.000000;4.527446
1250.000000;4.133611
1249.000000;4.287444
1248.000000;3.779329
1247.000000;3.547976
1246.000000;3.505950
1245.000000;3.556395
1244.000000;3.620728
1243.000000;3.625040
1242.000000;3.628244
1241.000000;3.695483
1240.000000;3.827728
1239.000000;3.946525
1238.000000;3.744107
1237.000000;3.589228
1236.000000;3.579043
1235.000000;3.683212
1234.000000;3.873933
1233.000000;4.034654
1232.000000;3.968397
1231.000000;3.846556
1230.000000;3.753819
1229.000000;3.717074
1228.000000;3.754373
1227.000000;3.857088
1226.000000;3.972242
1225.000000;4.061142
1224.000000;4.049297
1223.000000;3.892999
1222.000000;3.769290
1221.000000;3.735870
1220.000000;3.751505
1219.000000;3.798469
1218.000000;3.920807
1217.000000;4.168821
1216.000000;3.929505
1215.000000;3.777435
1214.000000;3.834084
1213.000000;3.912851
1212.000000;3.915887
1211.000000;3.787538
1210.000000;3.641384
1209.000000;3.572931
1208.000000;3.563517
1207.000000;3.612951
1206.000000;3.762861
1205.000000;4.160556
1204.000000;4.439802
1203.000000;4.021088
1202.000000;3.927076
1201.000000;3.800340
1200.000000;3.737100
