Criado como novo conjunto de dados;"Jao_teste_celulas.spp","9304.0 Secs"
cm-1;Abs
10000.000000;1.564720
9999.000000;1.563769
9998.000000;1.562821
9997.000000;1.561874
9996.000000;1.560929
9995.000000;1.559987
9994.000000;1.559046
9993.000000;1.558108
9992.000000;1.557169
9991.000000;1.556427
9990.000000;1.556290
9989.000000;1.556596
9988.000000;1.556886
9987.000000;1.556898
9986.000000;1.556720
9985.000000;1.556601
9984.000000;1.556658
9983.000000;1.556703
9982.000000;1.556423
9981.000000;1.555845
9980.000000;1.555468
9979.000000;1.555664
9978.000000;1.556078
9977.000000;1.556043
9976.000000;1.555515
9975.000000;1.554986
9974.000000;1.554436
9973.000000;1.553138
9972.000000;1.550925
9971.000000;1.548931
9970.000000;1.548370
9969.000000;1.549080
9968.000000;1.549985
9967.000000;1.550610
9966.000000;1.551287
9965.000000;1.552008
9964.000000;1.552042
9963.000000;1.550932
9962.000000;1.549171
9961.000000;1.547573
9960.000000;1.546470
9959.000000;1.545807
9958.000000;1.545532
9957.000000;1.545585
9956.000000;1.545817
9955.000000;1.546118
9954.000000;1.546447
9953.000000;1.546637
9952.000000;1.546420
9951.000000;1.545726
9950.000000;1.544698
9949.000000;1.543368
9948.000000;1.541677
9947.000000;1.539843
9946.000000;1.538380
9945.000000;1.537663
9944.000000;1.537670
9943.000000;1.538114
9942.000000;1.538560
9941.000000;1.538584
9940.000000;1.538317
9939.000000;1.538672
9938.000000;1.540377
9937.000000;1.542679
9936.000000;1.543704
9935.000000;1.542393
9934.000000;1.539533
9933.000000;1.536718
9932.000000;1.535053
9931.000000;1.535088
9930.000000;1.536985
9929.000000;1.539958
9928.000000;1.542142
9927.000000;1.541984
9926.000000;1.539696
9925.000000;1.536767
9924.000000;1.534334
9923.000000;1.532647
9922.000000;1.531683
9921.000000;1.531363
9920.000000;1.531203
9919.000000;1.530534
9918.000000;1.529306
9917.000000;1.528155
9916.000000;1.527507
9915.000000;1.527064
9914.000000;1.526369
9913.000000;1.525485
9912.000000;1.524915
9911.000000;1.525069
9910.000000;1.525904
9909.000000;1.526877
9908.000000;1.527191
9907.000000;1.526385
9906.000000;1.524880
9905.000000;1.523795
9904.000000;1.524013
9903.000000;1.525417
9902.000000;1.526970
9901.000000;1.527485
9900.000000;1.526425
9899.000000;1.524167
9898.000000;1.521658
9897.000000;1.519800
9896.000000;1.519005
9895.000000;1.519051
9894.000000;1.519178
9893.000000;1.518497
9892.000000;1.516834
9891.000000;1.515240
9890.000000;1.515216
9889.000000;1.517041
9888.000000;1.519076
9887.000000;1.519133
9886.000000;1.516682
9885.000000;1.513351
9884.000000;1.511146
9883.000000;1.510531
9882.000000;1.510347
9881.000000;1.509430
9880.000000;1.508084
9879.000000;1.507742
9878.000000;1.509164
9877.000000;1.511218
9876.000000;1.511777
9875.000000;1.509892
9874.000000;1.506810
9873.000000;1.504685
9872.000000;1.504651
9871.000000;1.506222
9870.000000;1.508028
9869.000000;1.508803
9868.000000;1.508048
9867.000000;1.506280
9866.000000;1.504677
9865.000000;1.504134
9864.000000;1.504555
9863.000000;1.505267
9862.000000;1.506020
9861.000000;1.507129
9860.000000;1.508572
9859.000000;1.509412
9858.000000;1.508505
9857.000000;1.505769
9856.000000;1.502495
9855.000000;1.500275
9854.000000;1.499667
9853.000000;1.499882
9852.000000;1.499846
9851.000000;1.499483
9850.000000;1.499700
9849.000000;1.501037
9848.000000;1.502693
9847.000000;1.503214
9846.000000;1.501979
9845.000000;1.499671
9844.000000;1.497445
9843.000000;1.496044
9842.000000;1.495638
9841.000000;1.495921
9840.000000;1.496181
9839.000000;1.495647
9838.000000;1.494176
9837.000000;1.492502
9836.000000;1.491588
9835.000000;1.491774
9834.000000;1.492612
9833.000000;1.493447
9832.000000;1.493988
9831.000000;1.494293
9830.000000;1.494391
9829.000000;1.494135
9828.000000;1.493373
9827.000000;1.492132
9826.000000;1.490632
9825.000000;1.489227
9824.000000;1.488402
9823.000000;1.488611
9822.000000;1.489826
9821.000000;1.491233
9820.000000;1.491727
9819.000000;1.490885
9818.000000;1.489319
9817.000000;1.487984
9816.000000;1.487355
9815.000000;1.487364
9814.000000;1.487754
9813.000000;1.488107
9812.000000;1.487742
9811.000000;1.486149
9810.000000;1.483703
9809.000000;1.481690
9808.000000;1.481367
9807.000000;1.482900
9806.000000;1.485121
9805.000000;1.486387
9804.000000;1.485907
9803.000000;1.484329
9802.000000;1.482905
9801.000000;1.482158
9800.000000;1.481636
9799.000000;1.480967
9798.000000;1.480611
9797.000000;1.481238
9796.000000;1.482611
9795.000000;1.483558
9794.000000;1.483094
9793.000000;1.481327
9792.000000;1.479234
9791.000000;1.477800
9790.000000;1.477381
9789.000000;1.477609
9788.000000;1.477788
9787.000000;1.477487
9786.000000;1.476778
9785.000000;1.475914
9784.000000;1.475006
9783.000000;1.474180
9782.000000;1.473792
9781.000000;1.474091
9780.000000;1.474749
9779.000000;1.475049
9778.000000;1.474533
9777.000000;1.473214
9776.000000;1.471272
9775.000000;1.469023
9774.000000;1.467171
9773.000000;1.466497
9772.000000;1.467033
9771.000000;1.467887
9770.000000;1.468162
9769.000000;1.467910
9768.000000;1.467901
9767.000000;1.468576
9766.000000;1.469423
9765.000000;1.469409
9764.000000;1.467957
9763.000000;1.465480
9762.000000;1.463030
9761.000000;1.461448
9760.000000;1.460747
9759.000000;1.460332
9758.000000;1.459772
9757.000000;1.459251
9756.000000;1.459284
9755.000000;1.460141
9754.000000;1.461493
9753.000000;1.462472
9752.000000;1.462185
9751.000000;1.460513
9750.000000;1.458432
9749.000000;1.457207
9748.000000;1.457129
9747.000000;1.457311
9746.000000;1.456877
9745.000000;1.456030
9744.000000;1.455675
9743.000000;1.456259
9742.000000;1.457391
9741.000000;1.458469
9740.000000;1.459198
9739.000000;1.459420
9738.000000;1.458982
9737.000000;1.458006
9736.000000;1.456946
9735.000000;1.456118
9734.000000;1.455405
9733.000000;1.454656
9732.000000;1.454124
9731.000000;1.454145
9730.000000;1.454516
9729.000000;1.454544
9728.000000;1.453843
9727.000000;1.452779
9726.000000;1.451957
9725.000000;1.451535
9724.000000;1.451185
9723.000000;1.450515
9722.000000;1.449381
9721.000000;1.447979
9720.000000;1.446844
9719.000000;1.446589
9718.000000;1.447353
9717.000000;1.448498
9716.000000;1.449065
9715.000000;1.448556
9714.000000;1.447114
9713.000000;1.445125
9712.000000;1.443118
9711.000000;1.441981
9710.000000;1.442588
9709.000000;1.444789
9708.000000;1.447091
9707.000000;1.447793
9706.000000;1.446461
9705.000000;1.444018
9704.000000;1.441610
9703.000000;1.439814
9702.000000;1.438721
9701.000000;1.438179
9700.000000;1.437865
9699.000000;1.437492
9698.000000;1.437112
9697.000000;1.436976
9696.000000;1.437143
9695.000000;1.437475
9694.000000;1.437950
9693.000000;1.438554
9692.000000;1.438841
9691.000000;1.438145
9690.000000;1.436466
9689.000000;1.434744
9688.000000;1.433902
9687.000000;1.433948
9686.000000;1.434254
9685.000000;1.434422
9684.000000;1.434450
9683.000000;1.434303
9682.000000;1.433843
9681.000000;1.433252
9680.000000;1.433070
9679.000000;1.433624
9678.000000;1.434621
9677.000000;1.435376
9676.000000;1.435300
9675.000000;1.434167
9674.000000;1.432201
9673.000000;1.430068
9672.000000;1.428603
9671.000000;1.428245
9670.000000;1.428649
9669.000000;1.428959
9668.000000;1.428569
9667.000000;1.427647
9666.000000;1.426886
9665.000000;1.426775
9664.000000;1.427151
9663.000000;1.427415
9662.000000;1.427105
9661.000000;1.426193
9660.000000;1.424971
9659.000000;1.423857
9658.000000;1.423265
9657.000000;1.423372
9656.000000;1.423858
9655.000000;1.424067
9654.000000;1.423626
9653.000000;1.422784
9652.000000;1.422026
9651.000000;1.421555
9650.000000;1.421281
9649.000000;1.421045
9648.000000;1.420660
9647.000000;1.419958
9646.000000;1.419110
9645.000000;1.418713
9644.000000;1.419163
9643.000000;1.419977
9642.000000;1.420126
9641.000000;1.419165
9640.000000;1.417697
9639.000000;1.416567
9638.000000;1.415937
9637.000000;1.415348
9636.000000;1.414421
9635.000000;1.413275
9634.000000;1.412402
9633.000000;1.412287
9632.000000;1.412962
9631.000000;1.413756
9630.000000;1.413709
9629.000000;1.412540
9628.000000;1.411066
9627.000000;1.410406
9626.000000;1.410850
9625.000000;1.411724
9624.000000;1.412235
9623.000000;1.412150
9622.000000;1.411652
9621.000000;1.410902
9620.000000;1.409941
9619.000000;1.408849
9618.000000;1.407788
9617.000000;1.406946
9616.000000;1.406492
9615.000000;1.406501
9614.000000;1.406860
9613.000000;1.407279
9612.000000;1.407471
9611.000000;1.407336
9610.000000;1.406977
9609.000000;1.406558
9608.000000;1.406114
9607.000000;1.405524
9606.000000;1.404773
9605.000000;1.404197
9604.000000;1.404216
9603.000000;1.404673
9602.000000;1.404650
9601.000000;1.403291
9600.000000;1.400823
9599.000000;1.398500
9598.000000;1.397506
9597.000000;1.398083
9596.000000;1.399550
9595.000000;1.400903
9594.000000;1.401453
9593.000000;1.401228
9592.000000;1.400858
9591.000000;1.400892
9590.000000;1.401091
9589.000000;1.400634
9588.000000;1.399144
9587.000000;1.397261
9586.000000;1.395999
9585.000000;1.395796
9584.000000;1.396375
9583.000000;1.397239
9582.000000;1.397970
9581.000000;1.398233
9580.000000;1.397895
9579.000000;1.397157
9578.000000;1.396327
9577.000000;1.395537
9576.000000;1.394905
9575.000000;1.394786
9574.000000;1.395375
9573.000000;1.396050
9572.000000;1.395650
9571.000000;1.393722
9570.000000;1.391210
9569.000000;1.389626
9568.000000;1.389732
9567.000000;1.391141
9566.000000;1.392827
9565.000000;1.393714
9564.000000;1.393041
9563.000000;1.390745
9562.000000;1.387696
9561.000000;1.385239
9560.000000;1.384199
9559.000000;1.384299
9558.000000;1.384563
9557.000000;1.384265
9556.000000;1.383477
9555.000000;1.382798
9554.000000;1.382670
9553.000000;1.382994
9552.000000;1.383327
9551.000000;1.383375
9550.000000;1.383213
9549.000000;1.383040
9548.000000;1.382847
9547.000000;1.382432
9546.000000;1.381712
9545.000000;1.380860
9544.000000;1.380057
9543.000000;1.379178
9542.000000;1.377871
9541.000000;1.376013
9540.000000;1.374060
9539.000000;1.372826
9538.000000;1.372825
9537.000000;1.373792
9536.000000;1.374922
9535.000000;1.375624
9534.000000;1.376027
9533.000000;1.376663
9532.000000;1.377704
9531.000000;1.378635
9530.000000;1.378767
9529.000000;1.378005
9528.000000;1.376984
9527.000000;1.376402
9526.000000;1.376291
9525.000000;1.376033
9524.000000;1.375111
9523.000000;1.373758
9522.000000;1.372793
9521.000000;1.372834
9520.000000;1.373754
9519.000000;1.374883
9518.000000;1.375577
9517.000000;1.375486
9516.000000;1.374432
9515.000000;1.372401
9514.000000;1.369800
9513.000000;1.367513
9512.000000;1.366356
9511.000000;1.366424
9510.000000;1.367029
9509.000000;1.367330
9508.000000;1.367009
9507.000000;1.366409
9506.000000;1.366112
9505.000000;1.366388
9504.000000;1.366905
9503.000000;1.366981
9502.000000;1.366229
9501.000000;1.365007
9500.000000;1.364062
9499.000000;1.363684
9498.000000;1.363433
9497.000000;1.362795
9496.000000;1.361827
9495.000000;1.360897
9494.000000;1.360078
9493.000000;1.359233
9492.000000;1.358574
9491.000000;1.358561
9490.000000;1.359103
9489.000000;1.359362
9488.000000;1.358745
9487.000000;1.357803
9486.000000;1.357677
9485.000000;1.358754
9484.000000;1.360233
9483.000000;1.360993
9482.000000;1.360595
9481.000000;1.359412
9480.000000;1.358123
9479.000000;1.357263
9478.000000;1.356998
9477.000000;1.357062
9476.000000;1.356960
9475.000000;1.356394
9474.000000;1.355507
9473.000000;1.354663
9472.000000;1.354059
9471.000000;1.353608
9470.000000;1.353113
9469.000000;1.352471
9468.000000;1.351720
9467.000000;1.351034
9466.000000;1.350645
9465.000000;1.350672
9464.000000;1.350934
9463.000000;1.350965
9462.000000;1.350311
9461.000000;1.348905
9460.000000;1.347242
9459.000000;1.346130
9458.000000;1.346124
9457.000000;1.347062
9456.000000;1.348138
9455.000000;1.348564
9454.000000;1.348204
9453.000000;1.347560
9452.000000;1.347172
9451.000000;1.347122
9450.000000;1.347121
9449.000000;1.346980
9448.000000;1.346847
9447.000000;1.346942
9446.000000;1.347190
9445.000000;1.347206
9444.000000;1.346649
9443.000000;1.345619
9442.000000;1.344697
9441.000000;1.344478
9440.000000;1.344929
9439.000000;1.345273
9438.000000;1.344745
9437.000000;1.343495
9436.000000;1.342480
9435.000000;1.342372
9434.000000;1.342816
9433.000000;1.342933
9432.000000;1.342328
9431.000000;1.341338
9430.000000;1.340438
9429.000000;1.339769
9428.000000;1.339272
9427.000000;1.338956
9426.000000;1.338870
9425.000000;1.338943
9424.000000;1.338939
9423.000000;1.338575
9422.000000;1.337745
9421.000000;1.336774
9420.000000;1.336312
9419.000000;1.336688
9418.000000;1.337407
9417.000000;1.337563
9416.000000;1.336823
9415.000000;1.335752
9414.000000;1.335145
9413.000000;1.335290
9412.000000;1.335873
9411.000000;1.336264
9410.000000;1.335904
9409.000000;1.334760
9408.000000;1.333510
9407.000000;1.332921
9406.000000;1.332951
9405.000000;1.332812
9404.000000;1.331979
9403.000000;1.330694
9402.000000;1.329298
9401.000000;1.327678
9400.000000;1.325819
9399.000000;1.324365
9398.000000;1.324000
9397.000000;1.324486
9396.000000;1.324929
9395.000000;1.324896
9394.000000;1.324754
9393.000000;1.324888
9392.000000;1.325121
9391.000000;1.325024
9390.000000;1.324452
9389.000000;1.323625
9388.000000;1.322949
9387.000000;1.322789
9386.000000;1.323196
9385.000000;1.323810
9384.000000;1.324214
9383.000000;1.324354
9382.000000;1.324384
9381.000000;1.324243
9380.000000;1.323704
9379.000000;1.322785
9378.000000;1.321775
9377.000000;1.320873
9376.000000;1.320154
9375.000000;1.319840
9374.000000;1.320165
9373.000000;1.320848
9372.000000;1.321127
9371.000000;1.320552
9370.000000;1.319514
9369.000000;1.318817
9368.000000;1.318907
9367.000000;1.319565
9366.000000;1.320113
9365.000000;1.319878
9364.000000;1.318731
9363.000000;1.317246
9362.000000;1.316133
9361.000000;1.315542
9360.000000;1.315147
9359.000000;1.314827
9358.000000;1.314822
9357.000000;1.315165
9356.000000;1.315427
9355.000000;1.315252
9354.000000;1.314787
9353.000000;1.314363
9352.000000;1.314044
9351.000000;1.313734
9350.000000;1.313426
9349.000000;1.313078
9348.000000;1.312491
9347.000000;1.311572
9346.000000;1.310523
9345.000000;1.309566
9344.000000;1.308714
9343.000000;1.308002
9342.000000;1.307664
9341.000000;1.307815
9340.000000;1.308191
9339.000000;1.308532
9338.000000;1.308988
9337.000000;1.309772
9336.000000;1.310531
9335.000000;1.310515
9334.000000;1.309447
9333.000000;1.307896
9332.000000;1.306719
9331.000000;1.306354
9330.000000;1.306653
9329.000000;1.307109
9328.000000;1.307125
9327.000000;1.306312
9326.000000;1.304772
9325.000000;1.303088
9324.000000;1.301923
9323.000000;1.301603
9322.000000;1.302001
9321.000000;1.302718
9320.000000;1.303352
9319.000000;1.303638
9318.000000;1.303447
9317.000000;1.302764
9316.000000;1.301754
9315.000000;1.300797
9314.000000;1.300289
9313.000000;1.300311
9312.000000;1.300529
9311.000000;1.300459
9310.000000;1.299867
9309.000000;1.298976
9308.000000;1.298334
9307.000000;1.298370
9306.000000;1.298952
9305.000000;1.299455
9304.000000;1.299371
9303.000000;1.298756
9302.000000;1.297912
9301.000000;1.296882
9300.000000;1.295617
9299.000000;1.294504
9298.000000;1.294164
9297.000000;1.294658
9296.000000;1.295318
9295.000000;1.295523
9294.000000;1.295252
9293.000000;1.294660
9292.000000;1.293614
9291.000000;1.292051
9290.000000;1.290467
9289.000000;1.289527
9288.000000;1.289372
9287.000000;1.289618
9286.000000;1.289888
9285.000000;1.289969
9284.000000;1.289663
9283.000000;1.288980
9282.000000;1.288459
9281.000000;1.288786
9280.000000;1.289979
9279.000000;1.291284
9278.000000;1.291989
9277.000000;1.292069
9276.000000;1.291878
9275.000000;1.291540
9274.000000;1.290899
9273.000000;1.289906
9272.000000;1.288806
9271.000000;1.287916
9270.000000;1.287336
9269.000000;1.286868
9268.000000;1.286225
9267.000000;1.285378
9266.000000;1.284717
9265.000000;1.284741
9264.000000;1.285508
9263.000000;1.286391
9262.000000;1.286474
9261.000000;1.285287
9260.000000;1.283251
9259.000000;1.281405
9258.000000;1.280620
9257.000000;1.280969
9256.000000;1.281777
9255.000000;1.282273
9254.000000;1.282191
9253.000000;1.281810
9252.000000;1.281583
9251.000000;1.281817
9250.000000;1.282533
9249.000000;1.283473
9248.000000;1.284257
9247.000000;1.284623
9246.000000;1.284504
9245.000000;1.283929
9244.000000;1.282989
9243.000000;1.281913
9242.000000;1.280997
9241.000000;1.280342
9240.000000;1.279813
9239.000000;1.279339
9238.000000;1.279058
9237.000000;1.279053
9236.000000;1.279119
9235.000000;1.278985
9234.000000;1.278636
9233.000000;1.278252
9232.000000;1.277914
9231.000000;1.277561
9230.000000;1.277151
9229.000000;1.276688
9228.000000;1.276129
9227.000000;1.275432
9226.000000;1.274625
9225.000000;1.273720
9224.000000;1.272657
9223.000000;1.271490
9222.000000;1.270517
9221.000000;1.270041
9220.000000;1.270034
9219.000000;1.270211
9218.000000;1.270391
9217.000000;1.270620
9216.000000;1.270954
9215.000000;1.271278
9214.000000;1.271359
9213.000000;1.270988
9212.000000;1.270136
9211.000000;1.269056
9210.000000;1.268183
9209.000000;1.267799
9208.000000;1.267857
9207.000000;1.268164
9206.000000;1.268595
9205.000000;1.269011
9204.000000;1.269168
9203.000000;1.268960
9202.000000;1.268636
9201.000000;1.268500
9200.000000;1.268408
9199.000000;1.267850
9198.000000;1.266593
9197.000000;1.265086
9196.000000;1.264140
9195.000000;1.264280
9194.000000;1.265344
9193.000000;1.266544
9192.000000;1.266969
9191.000000;1.266272
9190.000000;1.264961
9189.000000;1.263932
9188.000000;1.263698
9187.000000;1.264052
9186.000000;1.264340
9185.000000;1.263983
9184.000000;1.262896
9183.000000;1.261580
9182.000000;1.260695
9181.000000;1.260410
9180.000000;1.260297
9179.000000;1.259991
9178.000000;1.259738
9177.000000;1.259984
9176.000000;1.260610
9175.000000;1.261012
9174.000000;1.260881
9173.000000;1.260478
9172.000000;1.260067
9171.000000;1.259519
9170.000000;1.258659
9169.000000;1.257669
9168.000000;1.256868
9167.000000;1.256332
9166.000000;1.255941
9165.000000;1.255627
9164.000000;1.255391
9163.000000;1.255161
9162.000000;1.254864
9161.000000;1.254581
9160.000000;1.254497
9159.000000;1.254692
9158.000000;1.255038
9157.000000;1.255263
9156.000000;1.255090
9155.000000;1.254435
9154.000000;1.253544
9153.000000;1.252830
9152.000000;1.252459
9151.000000;1.252142
9150.000000;1.251408
9149.000000;1.250080
9148.000000;1.248473
9147.000000;1.247183
9146.000000;1.246709
9145.000000;1.247164
9144.000000;1.248208
9143.000000;1.249242
9142.000000;1.249724
9141.000000;1.249420
9140.000000;1.248494
9139.000000;1.247439
9138.000000;1.246802
9137.000000;1.246794
9136.000000;1.247147
9135.000000;1.247410
9134.000000;1.247346
9133.000000;1.246965
9132.000000;1.246332
9131.000000;1.245566
9130.000000;1.244942
9129.000000;1.244692
9128.000000;1.244644
9127.000000;1.244333
9126.000000;1.243594
9125.000000;1.242832
9124.000000;1.242592
9123.000000;1.242952
9122.000000;1.243441
9121.000000;1.243465
9120.000000;1.242758
9119.000000;1.241578
9118.000000;1.240533
9117.000000;1.240077
9116.000000;1.240115
9115.000000;1.240195
9114.000000;1.240098
9113.000000;1.240027
9112.000000;1.240146
9111.000000;1.240241
9110.000000;1.240041
9109.000000;1.239634
9108.000000;1.239266
9107.000000;1.238890
9106.000000;1.238287
9105.000000;1.237569
9104.000000;1.237189
9103.000000;1.237369
9102.000000;1.237765
9101.000000;1.237877
9100.000000;1.237611
9099.000000;1.237247
9098.000000;1.236983
9097.000000;1.236735
9096.000000;1.236363
9095.000000;1.235901
9094.000000;1.235489
9093.000000;1.235171
9092.000000;1.234840
9091.000000;1.234370
9090.000000;1.233742
9089.000000;1.233071
9088.000000;1.232554
9087.000000;1.232361
9086.000000;1.232504
9085.000000;1.232781
9084.000000;1.232908
9083.000000;1.232795
9082.000000;1.232646
9081.000000;1.232725
9080.000000;1.232950
9079.000000;1.232832
9078.000000;1.231964
9077.000000;1.230558
9076.000000;1.229369
9075.000000;1.228984
9074.000000;1.229280
9073.000000;1.229675
9072.000000;1.229839
9071.000000;1.229936
9070.000000;1.230127
9069.000000;1.230138
9068.000000;1.229574
9067.000000;1.228515
9066.000000;1.227499
9065.000000;1.226895
9064.000000;1.226555
9063.000000;1.226148
9062.000000;1.225599
9061.000000;1.225093
9060.000000;1.224847
9059.000000;1.225005
9058.000000;1.225550
9057.000000;1.226140
9056.000000;1.226246
9055.000000;1.225677
9054.000000;1.224832
9053.000000;1.224207
9052.000000;1.223790
9051.000000;1.223207
9050.000000;1.222385
9049.000000;1.221692
9048.000000;1.221395
9047.000000;1.221289
9046.000000;1.221032
9045.000000;1.220605
9044.000000;1.220284
9043.000000;1.220251
9042.000000;1.220393
9041.000000;1.220439
9040.000000;1.220197
9039.000000;1.219708
9038.000000;1.219196
9037.000000;1.218830
9036.000000;1.218509
9035.000000;1.217974
9034.000000;1.217175
9033.000000;1.216460
9032.000000;1.216328
9031.000000;1.216983
9030.000000;1.218117
9029.000000;1.219069
9028.000000;1.219217
9027.000000;1.218317
9026.000000;1.216630
9025.000000;1.214764
9024.000000;1.213379
9023.000000;1.212877
9022.000000;1.213202
9021.000000;1.213899
9020.000000;1.214474
9019.000000;1.214730
9018.000000;1.214740
9017.000000;1.214558
9016.000000;1.214191
9015.000000;1.213852
9014.000000;1.213900
9013.000000;1.214360
9012.000000;1.214743
9011.000000;1.214603
9010.000000;1.214093
9009.000000;1.213654
9008.000000;1.213341
9007.000000;1.212851
9006.000000;1.212167
9005.000000;1.211740
9004.000000;1.211916
9003.000000;1.212490
9002.000000;1.212972
9001.000000;1.213075
9000.000000;1.212774
8999.000000;1.212105
8998.000000;1.211119
8997.000000;1.209986
8996.000000;1.208991
8995.000000;1.208421
8994.000000;1.208416
8993.000000;1.208811
8992.000000;1.209127
8991.000000;1.208938
8990.000000;1.208290
8989.000000;1.207612
8988.000000;1.207178
8987.000000;1.206851
8986.000000;1.206387
8985.000000;1.205815
8984.000000;1.205364
8983.000000;1.205171
8982.000000;1.205196
8981.000000;1.205337
8980.000000;1.205502
8979.000000;1.205610
8978.000000;1.205587
8977.000000;1.205342
8976.000000;1.204775
8975.000000;1.203919
8974.000000;1.203033
8973.000000;1.202399
8972.000000;1.202025
8971.000000;1.201711
8970.000000;1.201394
8969.000000;1.201200
8968.000000;1.201126
8967.000000;1.200948
8966.000000;1.200572
8965.000000;1.200252
8964.000000;1.200273
8963.000000;1.200557
8962.000000;1.200744
8961.000000;1.200553
8960.000000;1.199990
8959.000000;1.199320
8958.000000;1.198905
8957.000000;1.198910
8956.000000;1.199075
8955.000000;1.198951
8954.000000;1.198424
8953.000000;1.197822
8952.000000;1.197406
8951.000000;1.197079
8950.000000;1.196737
8949.000000;1.196592
8948.000000;1.196828
8947.000000;1.197145
8946.000000;1.197057
8945.000000;1.196586
8944.000000;1.196261
8943.000000;1.196421
8942.000000;1.196812
8941.000000;1.196927
8940.000000;1.196497
8939.000000;1.195557
8938.000000;1.194299
8937.000000;1.193052
8936.000000;1.192260
8935.000000;1.192246
8934.000000;1.192900
8933.000000;1.193673
8932.000000;1.193970
8931.000000;1.193644
8930.000000;1.193097
8929.000000;1.192818
8928.000000;1.192861
8927.000000;1.192892
8926.000000;1.192715
8925.000000;1.192482
8924.000000;1.192298
8923.000000;1.191900
8922.000000;1.190990
8921.000000;1.189731
8920.000000;1.188643
8919.000000;1.188104
8918.000000;1.188160
8917.000000;1.188703
8916.000000;1.189471
8915.000000;1.189927
8914.000000;1.189563
8913.000000;1.188518
8912.000000;1.187586
8911.000000;1.187411
8910.000000;1.187835
8909.000000;1.188161
8908.000000;1.187922
8907.000000;1.187212
8906.000000;1.186388
8905.000000;1.185685
8904.000000;1.185154
8903.000000;1.184807
8902.000000;1.184665
8901.000000;1.184644
8900.000000;1.184509
8899.000000;1.184051
8898.000000;1.183339
8897.000000;1.182705
8896.000000;1.182387
8895.000000;1.182252
8894.000000;1.181977
8893.000000;1.181475
8892.000000;1.181006
8891.000000;1.180855
8890.000000;1.181017
8889.000000;1.181265
8888.000000;1.181457
8887.000000;1.181677
8886.000000;1.182078
8885.000000;1.182593
8884.000000;1.182879
8883.000000;1.182615
8882.000000;1.181866
8881.000000;1.181048
8880.000000;1.180522
8879.000000;1.180314
8878.000000;1.180278
8877.000000;1.180353
8876.000000;1.180501
8875.000000;1.180504
8874.000000;1.180041
8873.000000;1.179020
8872.000000;1.177713
8871.000000;1.176547
8870.000000;1.175833
8869.000000;1.175660
8868.000000;1.175902
8867.000000;1.176297
8866.000000;1.176610
8865.000000;1.176766
8864.000000;1.176811
8863.000000;1.176772
8862.000000;1.176616
8861.000000;1.176331
8860.000000;1.175976
8859.000000;1.175634
8858.000000;1.175321
8857.000000;1.174939
8856.000000;1.174342
8855.000000;1.173583
8854.000000;1.173050
8853.000000;1.173170
8852.000000;1.173860
8851.000000;1.174468
8850.000000;1.174400
8849.000000;1.173702
8848.000000;1.172855
8847.000000;1.172177
8846.000000;1.171668
8845.000000;1.171276
8844.000000;1.171009
8843.000000;1.170822
8842.000000;1.170667
8841.000000;1.170615
8840.000000;1.170710
8839.000000;1.170761
8838.000000;1.170541
8837.000000;1.170166
8836.000000;1.169978
8835.000000;1.170028
8834.000000;1.169976
8833.000000;1.169585
8832.000000;1.169034
8831.000000;1.168657
8830.000000;1.168607
8829.000000;1.168870
8828.000000;1.169355
8827.000000;1.169837
8826.000000;1.170052
8825.000000;1.169978
8824.000000;1.169837
8823.000000;1.169720
8822.000000;1.169477
8821.000000;1.169070
8820.000000;1.168779
8819.000000;1.168831
8818.000000;1.169064
8817.000000;1.169169
8816.000000;1.169077
8815.000000;1.168922
8814.000000;1.168829
8813.000000;1.168939
8812.000000;1.169396
8811.000000;1.170026
8810.000000;1.170240
8809.000000;1.169583
8808.000000;1.168309
8807.000000;1.167089
8806.000000;1.166296
8805.000000;1.165870
8804.000000;1.165760
8803.000000;1.166066
8802.000000;1.166725
8801.000000;1.167410
8800.000000;1.167854
8799.000000;1.168001
8798.000000;1.167808
8797.000000;1.167163
8796.000000;1.166138
8795.000000;1.165078
8794.000000;1.164286
8793.000000;1.163816
8792.000000;1.163653
8791.000000;1.163876
8790.000000;1.164479
8789.000000;1.165163
8788.000000;1.165514
8787.000000;1.165372
8786.000000;1.164945
8785.000000;1.164610
8784.000000;1.164638
8783.000000;1.164997
8782.000000;1.165350
8781.000000;1.165327
8780.000000;1.164884
8779.000000;1.164345
8778.000000;1.164083
8777.000000;1.164208
8776.000000;1.164549
8775.000000;1.164806
8774.000000;1.164717
8773.000000;1.164270
8772.000000;1.163794
8771.000000;1.163695
8770.000000;1.164008
8769.000000;1.164346
8768.000000;1.164350
8767.000000;1.164093
8766.000000;1.163904
8765.000000;1.163948
8764.000000;1.164108
8763.000000;1.164216
8762.000000;1.164262
8761.000000;1.164357
8760.000000;1.164577
8759.000000;1.164836
8758.000000;1.164906
8757.000000;1.164614
8756.000000;1.164060
8755.000000;1.163572
8754.000000;1.163408
8753.000000;1.163557
8752.000000;1.163837
8751.000000;1.164054
8750.000000;1.164046
8749.000000;1.163743
8748.000000;1.163280
8747.000000;1.162943
8746.000000;1.162879
8745.000000;1.162932
8744.000000;1.162854
8743.000000;1.162587
8742.000000;1.162257
8741.000000;1.161998
8740.000000;1.161947
8739.000000;1.162276
8738.000000;1.163018
8737.000000;1.163858
8736.000000;1.164312
8735.000000;1.164158
8734.000000;1.163601
8733.000000;1.163031
8732.000000;1.162725
8731.000000;1.162777
8730.000000;1.163113
8729.000000;1.163485
8728.000000;1.163563
8727.000000;1.163126
8726.000000;1.162205
8725.000000;1.161085
8724.000000;1.160195
8723.000000;1.159910
8722.000000;1.160277
8721.000000;1.160898
8720.000000;1.161209
8719.000000;1.160938
8718.000000;1.160240
8717.000000;1.159467
8716.000000;1.158921
8715.000000;1.158803
8714.000000;1.159147
8713.000000;1.159731
8712.000000;1.160189
8711.000000;1.160342
8710.000000;1.160325
8709.000000;1.160316
8708.000000;1.160300
8707.000000;1.160197
8706.000000;1.160080
8705.000000;1.160057
8704.000000;1.160058
8703.000000;1.159953
8702.000000;1.159836
8701.000000;1.159950
8700.000000;1.160300
8699.000000;1.160558
8698.000000;1.160444
8697.000000;1.160032
8696.000000;1.159578
8695.000000;1.159210
8694.000000;1.158947
8693.000000;1.158874
8692.000000;1.159075
8691.000000;1.159424
8690.000000;1.159661
8689.000000;1.159681
8688.000000;1.159597
8687.000000;1.159455
8686.000000;1.159102
8685.000000;1.158464
8684.000000;1.157789
8683.000000;1.157438
8682.000000;1.157459
8681.000000;1.157545
8680.000000;1.157391
8679.000000;1.156975
8678.000000;1.156422
8677.000000;1.155811
8676.000000;1.155244
8675.000000;1.155010
8674.000000;1.155468
8673.000000;1.156650
8672.000000;1.158035
8671.000000;1.158826
8670.000000;1.158563
8669.000000;1.157454
8668.000000;1.156109
8667.000000;1.155005
8666.000000;1.154246
8665.000000;1.153736
8664.000000;1.153397
8663.000000;1.153185
8662.000000;1.153035
8661.000000;1.152925
8660.000000;1.152907
8659.000000;1.152980
8658.000000;1.153009
8657.000000;1.152887
8656.000000;1.152726
8655.000000;1.152734
8654.000000;1.152939
8653.000000;1.153184
8652.000000;1.153365
8651.000000;1.153491
8650.000000;1.153528
8649.000000;1.153365
8648.000000;1.152998
8647.000000;1.152548
8646.000000;1.152055
8645.000000;1.151459
8644.000000;1.150871
8643.000000;1.150660
8642.000000;1.151053
8641.000000;1.151782
8640.000000;1.152295
8639.000000;1.152276
8638.000000;1.151824
8637.000000;1.151207
8636.000000;1.150614
8635.000000;1.150089
8634.000000;1.149572
8633.000000;1.149012
8632.000000;1.148524
8631.000000;1.148343
8630.000000;1.148526
8629.000000;1.148780
8628.000000;1.148770
8627.000000;1.148494
8626.000000;1.148169
8625.000000;1.147850
8624.000000;1.147436
8623.000000;1.146988
8622.000000;1.146763
8621.000000;1.146846
8620.000000;1.146989
8619.000000;1.146917
8618.000000;1.146616
8617.000000;1.146227
8616.000000;1.145815
8615.000000;1.145377
8614.000000;1.144960
8613.000000;1.144625
8612.000000;1.144347
8611.000000;1.144064
8610.000000;1.143794
8609.000000;1.143633
8608.000000;1.143645
8607.000000;1.143759
8606.000000;1.143734
8605.000000;1.143289
8604.000000;1.142411
8603.000000;1.141500
8602.000000;1.141035
8601.000000;1.141040
8600.000000;1.141057
8599.000000;1.140713
8598.000000;1.140178
8597.000000;1.139912
8596.000000;1.140113
8595.000000;1.140542
8594.000000;1.140827
8593.000000;1.140767
8592.000000;1.140373
8591.000000;1.139770
8590.000000;1.139153
8589.000000;1.138759
8588.000000;1.138793
8587.000000;1.139285
8586.000000;1.139994
8585.000000;1.140485
8584.000000;1.140430
8583.000000;1.139860
8582.000000;1.139071
8581.000000;1.138328
8580.000000;1.137698
8579.000000;1.137149
8578.000000;1.136650
8577.000000;1.136168
8576.000000;1.135698
8575.000000;1.135332
8574.000000;1.135177
8573.000000;1.135199
8572.000000;1.135228
8571.000000;1.135151
8570.000000;1.134991
8569.000000;1.134796
8568.000000;1.134607
8567.000000;1.134544
8566.000000;1.134716
8565.000000;1.134976
8564.000000;1.134980
8563.000000;1.134577
8562.000000;1.133966
8561.000000;1.133361
8560.000000;1.132715
8559.000000;1.131941
8558.000000;1.131233
8557.000000;1.130905
8556.000000;1.130983
8555.000000;1.131152
8554.000000;1.131110
8553.000000;1.130856
8552.000000;1.130672
8551.000000;1.130863
8550.000000;1.131440
8549.000000;1.131990
8548.000000;1.132011
8547.000000;1.131478
8546.000000;1.130882
8545.000000;1.130594
8544.000000;1.130424
8543.000000;1.130021
8542.000000;1.129446
8541.000000;1.129032
8540.000000;1.128821
8539.000000;1.128527
8538.000000;1.128023
8537.000000;1.127520
8536.000000;1.127191
8535.000000;1.126933
8534.000000;1.126586
8533.000000;1.126167
8532.000000;1.125794
8531.000000;1.125542
8530.000000;1.125428
8529.000000;1.125376
8528.000000;1.125184
8527.000000;1.124754
8526.000000;1.124352
8525.000000;1.124401
8524.000000;1.124912
8523.000000;1.125380
8522.000000;1.125342
8521.000000;1.124875
8520.000000;1.124364
8519.000000;1.123997
8518.000000;1.123663
8517.000000;1.123246
8516.000000;1.122795
8515.000000;1.122423
8514.000000;1.122127
8513.000000;1.121744
8512.000000;1.121123
8511.000000;1.120408
8510.000000;1.120067
8509.000000;1.120434
8508.000000;1.121220
8507.000000;1.121684
8506.000000;1.121379
8505.000000;1.120585
8504.000000;1.119892
8503.000000;1.119571
8502.000000;1.119464
8501.000000;1.119292
8500.000000;1.118872
8499.000000;1.118164
8498.000000;1.117335
8497.000000;1.116722
8496.000000;1.116544
8495.000000;1.116655
8494.000000;1.116703
8493.000000;1.116489
8492.000000;1.116099
8491.000000;1.115720
8490.000000;1.115451
8489.000000;1.115257
8488.000000;1.115033
8487.000000;1.114713
8486.000000;1.114370
8485.000000;1.114135
8484.000000;1.114000
8483.000000;1.113800
8482.000000;1.113454
8481.000000;1.113096
8480.000000;1.112881
8479.000000;1.112807
8478.000000;1.112793
8477.000000;1.112804
8476.000000;1.112773
8475.000000;1.112549
8474.000000;1.112090
8473.000000;1.111608
8472.000000;1.111355
8471.000000;1.111349
8470.000000;1.111465
8469.000000;1.111658
8468.000000;1.111867
8467.000000;1.111827
8466.000000;1.111290
8465.000000;1.110434
8464.000000;1.109749
8463.000000;1.109486
8462.000000;1.109448
8461.000000;1.109422
8460.000000;1.109498
8459.000000;1.109801
8458.000000;1.110120
8457.000000;1.110093
8456.000000;1.109701
8455.000000;1.109336
8454.000000;1.109302
8453.000000;1.109414
8452.000000;1.109174
8451.000000;1.108299
8450.000000;1.107011
8449.000000;1.105798
8448.000000;1.104998
8447.000000;1.104645
8446.000000;1.104636
8445.000000;1.104842
8444.000000;1.105045
8443.000000;1.104948
8442.000000;1.104435
8441.000000;1.103765
8440.000000;1.103349
8439.000000;1.103355
8438.000000;1.103646
8437.000000;1.104007
8436.000000;1.104257
8435.000000;1.104186
8434.000000;1.103636
8433.000000;1.102734
8432.000000;1.101875
8431.000000;1.101376
8430.000000;1.101228
8429.000000;1.101221
8428.000000;1.101164
8427.000000;1.100952
8426.000000;1.100558
8425.000000;1.100096
8424.000000;1.099764
8423.000000;1.099627
8422.000000;1.099536
8421.000000;1.099313
8420.000000;1.098957
8419.000000;1.098575
8418.000000;1.098232
8417.000000;1.097948
8416.000000;1.097786
8415.000000;1.097806
8414.000000;1.097972
8413.000000;1.098166
8412.000000;1.098271
8411.000000;1.098204
8410.000000;1.097939
8409.000000;1.097524
8408.000000;1.097035
8407.000000;1.096489
8406.000000;1.095897
8405.000000;1.095394
8404.000000;1.095163
8403.000000;1.095163
8402.000000;1.095117
8401.000000;1.094850
8400.000000;1.094488
8399.000000;1.094185
8398.000000;1.093869
8397.000000;1.093437
8396.000000;1.093036
8395.000000;1.092887
8394.000000;1.092919
8393.000000;1.092846
8392.000000;1.092568
8391.000000;1.092241
8390.000000;1.091992
8389.000000;1.091776
8388.000000;1.091537
8387.000000;1.091263
8386.000000;1.090875
8385.000000;1.090312
8384.000000;1.089749
8383.000000;1.089475
8382.000000;1.089469
8381.000000;1.089371
8380.000000;1.088989
8379.000000;1.088583
8378.000000;1.088476
8377.000000;1.088614
8376.000000;1.088734
8375.000000;1.088763
8374.000000;1.088770
8373.000000;1.088646
8372.000000;1.088138
8371.000000;1.087198
8370.000000;1.086079
8369.000000;1.085075
8368.000000;1.084323
8367.000000;1.083865
8366.000000;1.083699
8365.000000;1.083722
8364.000000;1.083752
8363.000000;1.083702
8362.000000;1.083657
8361.000000;1.083765
8360.000000;1.084074
8359.000000;1.084438
8358.000000;1.084549
8357.000000;1.084172
8356.000000;1.083462
8355.000000;1.082954
8354.000000;1.083053
8353.000000;1.083563
8352.000000;1.083893
8351.000000;1.083693
8350.000000;1.083103
8349.000000;1.082366
8348.000000;1.081517
8347.000000;1.080565
8346.000000;1.079747
8345.000000;1.079342
8344.000000;1.079326
8343.000000;1.079426
8342.000000;1.079461
8341.000000;1.079446
8340.000000;1.079336
8339.000000;1.078897
8338.000000;1.077994
8337.000000;1.076899
8336.000000;1.076127
8335.000000;1.075927
8334.000000;1.076056
8333.000000;1.076120
8332.000000;1.076039
8331.000000;1.076008
8330.000000;1.076067
8329.000000;1.075965
8328.000000;1.075553
8327.000000;1.075100
8326.000000;1.074990
8325.000000;1.075194
8324.000000;1.075285
8323.000000;1.074952
8322.000000;1.074307
8321.000000;1.073659
8320.000000;1.073205
8319.000000;1.072979
8318.000000;1.072904
8317.000000;1.072774
8316.000000;1.072357
8315.000000;1.071629
8314.000000;1.070819
8313.000000;1.070108
8312.000000;1.069429
8311.000000;1.068668
8310.000000;1.067946
8309.000000;1.067558
8308.000000;1.067650
8307.000000;1.068064
8306.000000;1.068444
8305.000000;1.068460
8304.000000;1.068000
8303.000000;1.067288
8302.000000;1.066746
8301.000000;1.066650
8300.000000;1.066920
8299.000000;1.067260
8298.000000;1.067419
8297.000000;1.067283
8296.000000;1.066861
8295.000000;1.066295
8294.000000;1.065785
8293.000000;1.065384
8292.000000;1.064946
8291.000000;1.064401
8290.000000;1.063935
8289.000000;1.063732
8288.000000;1.063657
8287.000000;1.063409
8286.000000;1.062929
8285.000000;1.062426
8284.000000;1.062020
8283.000000;1.061602
8282.000000;1.061083
8281.000000;1.060554
8280.000000;1.060136
8279.000000;1.059836
8278.000000;1.059604
8277.000000;1.059384
8276.000000;1.059069
8275.000000;1.058588
8274.000000;1.058084
8273.000000;1.057809
8272.000000;1.057754
8271.000000;1.057603
8270.000000;1.057147
8269.000000;1.056574
8268.000000;1.056189
8267.000000;1.056014
8266.000000;1.055871
8265.000000;1.055711
8264.000000;1.055649
8263.000000;1.055719
8262.000000;1.055828
8261.000000;1.055903
8260.000000;1.055896
8259.000000;1.055670
8258.000000;1.055107
8257.000000;1.054345
8256.000000;1.053721
8255.000000;1.053397
8254.000000;1.053205
8253.000000;1.052942
8252.000000;1.052666
8251.000000;1.052558
8250.000000;1.052619
8249.000000;1.052651
8248.000000;1.052501
8247.000000;1.052167
8246.000000;1.051714
8245.000000;1.051204
8244.000000;1.050745
8243.000000;1.050465
8242.000000;1.050362
8241.000000;1.050259
8240.000000;1.049961
8239.000000;1.049450
8238.000000;1.048864
8237.000000;1.048325
8236.000000;1.047861
8235.000000;1.047452
8234.000000;1.047092
8233.000000;1.046764
8232.000000;1.046443
8231.000000;1.046139
8230.000000;1.045894
8229.000000;1.045704
8228.000000;1.045478
8227.000000;1.045144
8226.000000;1.044751
8225.000000;1.044396
8224.000000;1.044087
8223.000000;1.043745
8222.000000;1.043380
8221.000000;1.043132
8220.000000;1.043089
8219.000000;1.043107
8218.000000;1.042904
8217.000000;1.042354
8216.000000;1.041665
8215.000000;1.041203
8214.000000;1.041160
8213.000000;1.041377
8212.000000;1.041478
8211.000000;1.041170
8210.000000;1.040444
8209.000000;1.039541
8208.000000;1.038770
8207.000000;1.038324
8206.000000;1.038183
8205.000000;1.038150
8204.000000;1.038005
8203.000000;1.037663
8202.000000;1.037173
8201.000000;1.036606
8200.000000;1.036030
8199.000000;1.035591
8198.000000;1.035482
8197.000000;1.035731
8196.000000;1.036110
8195.000000;1.036355
8194.000000;1.036425
8193.000000;1.036440
8192.000000;1.036415
8191.000000;1.036256
8190.000000;1.035955
8189.000000;1.035602
8188.000000;1.035153
8187.000000;1.034395
8186.000000;1.033277
8185.000000;1.032107
8184.000000;1.031302
8183.000000;1.031026
8182.000000;1.031134
8181.000000;1.031368
8180.000000;1.031457
8179.000000;1.031161
8178.000000;1.030442
8177.000000;1.029592
8176.000000;1.029044
8175.000000;1.028979
8174.000000;1.029192
8173.000000;1.029332
8172.000000;1.029200
8171.000000;1.028806
8170.000000;1.028273
8169.000000;1.027729
8168.000000;1.027257
8167.000000;1.026888
8166.000000;1.026635
8165.000000;1.026508
8164.000000;1.026460
8163.000000;1.026342
8162.000000;1.026006
8161.000000;1.025469
8160.000000;1.024927
8159.000000;1.024595
8158.000000;1.024543
8157.000000;1.024645
8156.000000;1.024661
8155.000000;1.024398
8154.000000;1.023873
8153.000000;1.023335
8152.000000;1.023051
8151.000000;1.023063
8150.000000;1.023159
8149.000000;1.023062
8148.000000;1.022624
8147.000000;1.021902
8146.000000;1.021147
8145.000000;1.020688
8144.000000;1.020694
8143.000000;1.020985
8142.000000;1.021151
8141.000000;1.020888
8140.000000;1.020221
8139.000000;1.019418
8138.000000;1.018759
8137.000000;1.018374
8136.000000;1.018173
8135.000000;1.017913
8134.000000;1.017388
8133.000000;1.016643
8132.000000;1.015926
8131.000000;1.015433
8130.000000;1.015146
8129.000000;1.014925
8128.000000;1.014661
8127.000000;1.014305
8126.000000;1.013861
8125.000000;1.013434
8124.000000;1.013197
8123.000000;1.013204
8122.000000;1.013280
8121.000000;1.013192
8120.000000;1.012887
8119.000000;1.012502
8118.000000;1.012173
8117.000000;1.011934
8116.000000;1.011756
8115.000000;1.011577
8114.000000;1.011285
8113.000000;1.010805
8112.000000;1.010220
8111.000000;1.009721
8110.000000;1.009409
8109.000000;1.009223
8108.000000;1.009092
8107.000000;1.009046
8106.000000;1.009081
8105.000000;1.009030
8104.000000;1.008714
8103.000000;1.008202
8102.000000;1.007789
8101.000000;1.007661
8100.000000;1.007688
8099.000000;1.007580
8098.000000;1.007179
8097.000000;1.006536
8096.000000;1.005776
8095.000000;1.005001
8094.000000;1.004338
8093.000000;1.003955
8092.000000;1.003975
8091.000000;1.004345
8090.000000;1.004802
8089.000000;1.004965
8088.000000;1.004528
8087.000000;1.003498
8086.000000;1.002275
8085.000000;1.001402
8084.000000;1.001140
8083.000000;1.001299
8082.000000;1.001509
8081.000000;1.001555
8080.000000;1.001406
8079.000000;1.001021
8078.000000;1.000350
8077.000000;0.999499
8076.000000;0.998731
8075.000000;0.998247
8074.000000;0.998059
8073.000000;0.998101
8072.000000;0.998273
8071.000000;0.998335
8070.000000;0.997954
8069.000000;0.997050
8068.000000;0.996001
8067.000000;0.995316
8066.000000;0.995158
8065.000000;0.995310
8064.000000;0.995515
8063.000000;0.995648
8062.000000;0.995581
8061.000000;0.995165
8060.000000;0.994441
8059.000000;0.993692
8058.000000;0.993146
8057.000000;0.992755
8056.000000;0.992370
8055.000000;0.992030
8054.000000;0.991881
8053.000000;0.991895
8052.000000;0.991842
8051.000000;0.991576
8050.000000;0.991222
8049.000000;0.991035
8048.000000;0.991123
8047.000000;0.991351
8046.000000;0.991460
8045.000000;0.991268
8044.000000;0.990818
8043.000000;0.990340
8042.000000;0.990056
8041.000000;0.989991
8040.000000;0.989957
8039.000000;0.989737
8038.000000;0.989237
8037.000000;0.988552
8036.000000;0.987895
8035.000000;0.987454
8034.000000;0.987201
8033.000000;0.986849
8032.000000;0.986107
8031.000000;0.985014
8030.000000;0.983956
8029.000000;0.983284
8028.000000;0.982971
8027.000000;0.982722
8026.000000;0.982365
8025.000000;0.982043
8024.000000;0.981974
8023.000000;0.982149
8022.000000;0.982351
8021.000000;0.982438
8020.000000;0.982464
8019.000000;0.982501
8018.000000;0.982459
8017.000000;0.982211
8016.000000;0.981819
8015.000000;0.981483
8014.000000;0.981257
8013.000000;0.980968
8012.000000;0.980486
8011.000000;0.979943
8010.000000;0.979539
8009.000000;0.979238
8008.000000;0.978811
8007.000000;0.978151
8006.000000;0.977407
8005.000000;0.976789
8004.000000;0.976392
8003.000000;0.976209
8002.000000;0.976181
8001.000000;0.976178
8000.000000;0.976046
7999.000000;0.975773
7998.000000;0.975491
7997.000000;0.975285
7996.000000;0.975063
7995.000000;0.974699
7994.000000;0.974191
7993.000000;0.973582
7992.000000;0.972828
7991.000000;0.971920
7990.000000;0.971073
7989.000000;0.970623
7988.000000;0.970663
7987.000000;0.970917
7986.000000;0.970984
7985.000000;0.970660
7984.000000;0.970001
7983.000000;0.969208
7982.000000;0.968517
7981.000000;0.968081
7980.000000;0.967848
7979.000000;0.967600
7978.000000;0.967169
7977.000000;0.966603
7976.000000;0.966075
7975.000000;0.965691
7974.000000;0.965461
7973.000000;0.965370
7972.000000;0.965396
7971.000000;0.965454
7970.000000;0.965430
7969.000000;0.965266
7968.000000;0.964961
7967.000000;0.964517
7966.000000;0.963947
7965.000000;0.963338
7964.000000;0.962796
7963.000000;0.962318
7962.000000;0.961800
7961.000000;0.961226
7960.000000;0.960747
7959.000000;0.960510
7958.000000;0.960472
7957.000000;0.960467
7956.000000;0.960428
7955.000000;0.960431
7954.000000;0.960526
7953.000000;0.960623
7952.000000;0.960592
7951.000000;0.960410
7950.000000;0.960144
7949.000000;0.959814
7948.000000;0.959347
7947.000000;0.958711
7946.000000;0.958015
7945.000000;0.957446
7944.000000;0.957085
7943.000000;0.956828
7942.000000;0.956507
7941.000000;0.956063
7940.000000;0.955570
7939.000000;0.955106
7938.000000;0.954663
7937.000000;0.954225
7936.000000;0.953856
7935.000000;0.953640
7934.000000;0.953557
7933.000000;0.953482
7932.000000;0.953327
7931.000000;0.953104
7930.000000;0.952850
7929.000000;0.952551
7928.000000;0.952202
7927.000000;0.951851
7926.000000;0.951542
7925.000000;0.951223
7924.000000;0.950826
7923.000000;0.950410
7922.000000;0.950140
7921.000000;0.950100
7920.000000;0.950163
7919.000000;0.950111
7918.000000;0.949847
7917.000000;0.949455
7916.000000;0.949071
7915.000000;0.948741
7914.000000;0.948425
7913.000000;0.948066
7912.000000;0.947639
7911.000000;0.947154
7910.000000;0.946650
7909.000000;0.946190
7908.000000;0.945817
7907.000000;0.945500
7906.000000;0.945138
7905.000000;0.944673
7904.000000;0.944173
7903.000000;0.943786
7902.000000;0.943591
7901.000000;0.943542
7900.000000;0.943517
7899.000000;0.943408
7898.000000;0.943158
7897.000000;0.942784
7896.000000;0.942374
7895.000000;0.942034
7894.000000;0.941813
7893.000000;0.941701
7892.000000;0.941662
7891.000000;0.941619
7890.000000;0.941418
7889.000000;0.940943
7888.000000;0.940301
7887.000000;0.939794
7886.000000;0.939592
7885.000000;0.939533
7884.000000;0.939330
7883.000000;0.938923
7882.000000;0.938490
7881.000000;0.938141
7880.000000;0.937775
7879.000000;0.937248
7878.000000;0.936583
7877.000000;0.935952
7876.000000;0.935524
7875.000000;0.935357
7874.000000;0.935357
7873.000000;0.935296
7872.000000;0.934960
7871.000000;0.934330
7870.000000;0.933592
7869.000000;0.932941
7868.000000;0.932434
7867.000000;0.932051
7866.000000;0.931803
7865.000000;0.931705
7864.000000;0.931714
7863.000000;0.931736
7862.000000;0.931691
7861.000000;0.931539
7860.000000;0.931283
7859.000000;0.930972
7858.000000;0.930650
7857.000000;0.930288
7856.000000;0.929839
7855.000000;0.929359
7854.000000;0.928991
7853.000000;0.928782
7852.000000;0.928625
7851.000000;0.928411
7850.000000;0.928164
7849.000000;0.927937
7848.000000;0.927697
7847.000000;0.927407
7846.000000;0.927146
7845.000000;0.927014
7844.000000;0.926951
7843.000000;0.926787
7842.000000;0.926445
7841.000000;0.926009
7840.000000;0.925608
7839.000000;0.925352
7838.000000;0.925310
7837.000000;0.925451
7836.000000;0.925591
7835.000000;0.925535
7834.000000;0.925270
7833.000000;0.924925
7832.000000;0.924558
7831.000000;0.924118
7830.000000;0.923610
7829.000000;0.923144
7828.000000;0.922760
7827.000000;0.922373
7826.000000;0.921951
7825.000000;0.921603
7824.000000;0.921411
7823.000000;0.921260
7822.000000;0.920977
7821.000000;0.920546
7820.000000;0.920097
7819.000000;0.919730
7818.000000;0.919443
7817.000000;0.919216
7816.000000;0.919039
7815.000000;0.918883
7814.000000;0.918707
7813.000000;0.918529
7812.000000;0.918389
7811.000000;0.918260
7810.000000;0.918042
7809.000000;0.917661
7808.000000;0.917154
7807.000000;0.916635
7806.000000;0.916213
7805.000000;0.915930
7804.000000;0.915740
7803.000000;0.915541
7802.000000;0.915257
7801.000000;0.914880
7800.000000;0.914452
7799.000000;0.914025
7798.000000;0.913661
7797.000000;0.913422
7796.000000;0.913308
7795.000000;0.913249
7794.000000;0.913174
7793.000000;0.913089
7792.000000;0.913011
7791.000000;0.912859
7790.000000;0.912493
7789.000000;0.911876
7788.000000;0.911166
7787.000000;0.910606
7786.000000;0.910318
7785.000000;0.910206
7784.000000;0.910068
7783.000000;0.909821
7782.000000;0.909595
7781.000000;0.909563
7780.000000;0.909673
7779.000000;0.909632
7778.000000;0.909232
7777.000000;0.908603
7776.000000;0.908072
7775.000000;0.907783
7774.000000;0.907581
7773.000000;0.907255
7772.000000;0.906802
7771.000000;0.906385
7770.000000;0.906106
7769.000000;0.905912
7768.000000;0.905715
7767.000000;0.905518
7766.000000;0.905403
7765.000000;0.905411
7764.000000;0.905473
7763.000000;0.905460
7762.000000;0.905309
7761.000000;0.905050
7760.000000;0.904721
7759.000000;0.904286
7758.000000;0.903700
7757.000000;0.903026
7756.000000;0.902445
7755.000000;0.902121
7754.000000;0.902045
7753.000000;0.902028
7752.000000;0.901832
7751.000000;0.901355
7750.000000;0.900739
7749.000000;0.900295
7748.000000;0.900256
7747.000000;0.900580
7746.000000;0.900998
7745.000000;0.901254
7744.000000;0.901273
7743.000000;0.901129
7742.000000;0.900923
7741.000000;0.900696
7740.000000;0.900414
7739.000000;0.900021
7738.000000;0.899542
7737.000000;0.899116
7736.000000;0.898859
7735.000000;0.898702
7734.000000;0.898457
7733.000000;0.898062
7732.000000;0.897666
7731.000000;0.897406
7730.000000;0.897217
7729.000000;0.896969
7728.000000;0.896695
7727.000000;0.896540
7726.000000;0.896523
7725.000000;0.896482
7724.000000;0.896279
7723.000000;0.895935
7722.000000;0.895539
7721.000000;0.895131
7720.000000;0.894741
7719.000000;0.894432
7718.000000;0.894233
7717.000000;0.894075
7716.000000;0.893863
7715.000000;0.893573
7714.000000;0.893241
7713.000000;0.892894
7712.000000;0.892574
7711.000000;0.892368
7710.000000;0.892339
7709.000000;0.892428
7708.000000;0.892516
7707.000000;0.892569
7706.000000;0.892643
7705.000000;0.892730
7704.000000;0.892692
7703.000000;0.892421
7702.000000;0.892020
7701.000000;0.891725
7700.000000;0.891630
7699.000000;0.891573
7698.000000;0.891331
7697.000000;0.890874
7696.000000;0.890370
7695.000000;0.889944
7694.000000;0.889575
7693.000000;0.889236
7692.000000;0.889029
7691.000000;0.889047
7690.000000;0.889179
7689.000000;0.889185
7688.000000;0.888967
7687.000000;0.888651
7686.000000;0.888377
7685.000000;0.888139
7684.000000;0.887907
7683.000000;0.887757
7682.000000;0.887760
7681.000000;0.887823
7680.000000;0.887784
7679.000000;0.887639
7678.000000;0.887550
7677.000000;0.887590
7676.000000;0.887597
7675.000000;0.887328
7674.000000;0.886713
7673.000000;0.885920
7672.000000;0.885230
7671.000000;0.884860
7670.000000;0.884859
7669.000000;0.885087
7668.000000;0.885308
7667.000000;0.885331
7666.000000;0.885086
7665.000000;0.884622
7664.000000;0.884054
7663.000000;0.883520
7662.000000;0.883151
7661.000000;0.883039
7660.000000;0.883207
7659.000000;0.883560
7658.000000;0.883898
7657.000000;0.884033
7656.000000;0.883964
7655.000000;0.883851
7654.000000;0.883804
7653.000000;0.883737
7652.000000;0.883507
7651.000000;0.883123
7650.000000;0.882715
7649.000000;0.882351
7648.000000;0.882012
7647.000000;0.881707
7646.000000;0.881487
7645.000000;0.881340
7644.000000;0.881223
7643.000000;0.881198
7642.000000;0.881399
7641.000000;0.881799
7640.000000;0.882149
7639.000000;0.882235
7638.000000;0.882113
7637.000000;0.881970
7636.000000;0.881858
7635.000000;0.881689
7634.000000;0.881435
7633.000000;0.881205
7632.000000;0.881094
7631.000000;0.881060
7630.000000;0.880973
7629.000000;0.880760
7628.000000;0.880486
7627.000000;0.880296
7626.000000;0.880263
7625.000000;0.880304
7624.000000;0.880268
7623.000000;0.880124
7622.000000;0.879975
7621.000000;0.879901
7620.000000;0.879863
7619.000000;0.879798
7618.000000;0.879717
7617.000000;0.879633
7616.000000;0.879494
7615.000000;0.879277
7614.000000;0.879081
7613.000000;0.879009
7612.000000;0.879013
7611.000000;0.878942
7610.000000;0.878724
7609.000000;0.878410
7608.000000;0.878067
7607.000000;0.877743
7606.000000;0.877521
7605.000000;0.877476
7604.000000;0.877571
7603.000000;0.877684
7602.000000;0.877758
7601.000000;0.877832
7600.000000;0.877903
7599.000000;0.877894
7598.000000;0.877790
7597.000000;0.877711
7596.000000;0.877745
7595.000000;0.877797
7594.000000;0.877704
7593.000000;0.877473
7592.000000;0.877305
7591.000000;0.877362
7590.000000;0.877598
7589.000000;0.877814
7588.000000;0.877852
7587.000000;0.877697
7586.000000;0.877463
7585.000000;0.877311
7584.000000;0.877350
7583.000000;0.877542
7582.000000;0.877686
7581.000000;0.877577
7580.000000;0.877218
7579.000000;0.876876
7578.000000;0.876837
7577.000000;0.877111
7576.000000;0.877419
7575.000000;0.877474
7574.000000;0.877226
7573.000000;0.876828
7572.000000;0.876469
7571.000000;0.876286
7570.000000;0.876355
7569.000000;0.876620
7568.000000;0.876869
7567.000000;0.876882
7566.000000;0.876647
7565.000000;0.876360
7564.000000;0.876201
7563.000000;0.876166
7562.000000;0.876149
7561.000000;0.876097
7560.000000;0.876042
7559.000000;0.876022
7558.000000;0.876025
7557.000000;0.875998
7556.000000;0.875877
7555.000000;0.875648
7554.000000;0.875389
7553.000000;0.875237
7552.000000;0.875266
7551.000000;0.875417
7550.000000;0.875562
7549.000000;0.875640
7548.000000;0.875681
7547.000000;0.875716
7546.000000;0.875709
7545.000000;0.875623
7544.000000;0.875515
7543.000000;0.875498
7542.000000;0.875593
7541.000000;0.875679
7540.000000;0.875645
7539.000000;0.875555
7538.000000;0.875585
7537.000000;0.875824
7536.000000;0.876185
7535.000000;0.876530
7534.000000;0.876794
7533.000000;0.876958
7532.000000;0.876989
7531.000000;0.876874
7530.000000;0.876693
7529.000000;0.876586
7528.000000;0.876647
7527.000000;0.876873
7526.000000;0.877184
7525.000000;0.877450
7524.000000;0.877534
7523.000000;0.877395
7522.000000;0.877144
7521.000000;0.876957
7520.000000;0.876932
7519.000000;0.877051
7518.000000;0.877252
7517.000000;0.877473
7516.000000;0.877646
7515.000000;0.877730
7514.000000;0.877762
7513.000000;0.877819
7512.000000;0.877916
7511.000000;0.877960
7510.000000;0.877829
7509.000000;0.877485
7508.000000;0.877021
7507.000000;0.876628
7506.000000;0.876492
7505.000000;0.876682
7504.000000;0.877114
7503.000000;0.877638
7502.000000;0.878153
7501.000000;0.878591
7500.000000;0.878845
7499.000000;0.878815
7498.000000;0.878550
7497.000000;0.878268
7496.000000;0.878169
7495.000000;0.878282
7494.000000;0.878490
7493.000000;0.878706
7492.000000;0.878820
7491.000000;0.878826
7490.000000;0.878673
7489.000000;0.878390
7488.000000;0.878171
7487.000000;0.878174
7486.000000;0.878400
7485.000000;0.878690
7484.000000;0.878912
7483.000000;0.879080
7482.000000;0.879305
7481.000000;0.879648
7480.000000;0.880038
7479.000000;0.880308
7478.000000;0.880333
7477.000000;0.880147
7476.000000;0.879968
7475.000000;0.880024
7474.000000;0.880330
7473.000000;0.880656
7472.000000;0.880768
7471.000000;0.880649
7470.000000;0.880423
7469.000000;0.880161
7468.000000;0.879884
7467.000000;0.879722
7466.000000;0.879872
7465.000000;0.880331
7464.000000;0.880821
7463.000000;0.881087
7462.000000;0.881178
7461.000000;0.881318
7460.000000;0.881568
7459.000000;0.881767
7458.000000;0.881776
7457.000000;0.881664
7456.000000;0.881639
7455.000000;0.881865
7454.000000;0.882317
7453.000000;0.882762
7452.000000;0.882914
7451.000000;0.882680
7450.000000;0.882245
7449.000000;0.881878
7448.000000;0.881691
7447.000000;0.881639
7446.000000;0.881687
7445.000000;0.881878
7444.000000;0.882227
7443.000000;0.882645
7442.000000;0.883005
7441.000000;0.883228
7440.000000;0.883309
7439.000000;0.883302
7438.000000;0.883273
7437.000000;0.883217
7436.000000;0.883049
7435.000000;0.882726
7434.000000;0.882369
7433.000000;0.882186
7432.000000;0.882261
7431.000000;0.882485
7430.000000;0.882676
7429.000000;0.882744
7428.000000;0.882735
7427.000000;0.882765
7426.000000;0.882908
7425.000000;0.883158
7424.000000;0.883490
7423.000000;0.883930
7422.000000;0.884507
7421.000000;0.885144
7420.000000;0.885626
7419.000000;0.885706
7418.000000;0.885303
7417.000000;0.884595
7416.000000;0.883945
7415.000000;0.883677
7414.000000;0.883843
7413.000000;0.884192
7412.000000;0.884396
7411.000000;0.884353
7410.000000;0.884242
7409.000000;0.884246
7408.000000;0.884319
7407.000000;0.884264
7406.000000;0.884017
7405.000000;0.883749
7404.000000;0.883712
7403.000000;0.883976
7402.000000;0.884371
7401.000000;0.884649
7400.000000;0.884700
7399.000000;0.884625
7398.000000;0.884612
7397.000000;0.884661
7396.000000;0.884580
7395.000000;0.884386
7394.000000;0.884376
7393.000000;0.884650
7392.000000;0.884871
7391.000000;0.884723
7390.000000;0.884416
7389.000000;0.884441
7388.000000;0.884923
7387.000000;0.885510
7386.000000;0.885818
7385.000000;0.885733
7384.000000;0.885380
7383.000000;0.885006
7382.000000;0.884828
7381.000000;0.884902
7380.000000;0.885135
7379.000000;0.885380
7378.000000;0.885508
7377.000000;0.885456
7376.000000;0.885346
7375.000000;0.885481
7374.000000;0.886003
7373.000000;0.886592
7372.000000;0.886708
7371.000000;0.886127
7370.000000;0.885201
7369.000000;0.884509
7368.000000;0.884352
7367.000000;0.884708
7366.000000;0.885457
7365.000000;0.886278
7364.000000;0.886646
7363.000000;0.886338
7362.000000;0.885653
7361.000000;0.885121
7360.000000;0.885112
7359.000000;0.885581
7358.000000;0.886042
7357.000000;0.885941
7356.000000;0.885269
7355.000000;0.884652
7354.000000;0.884770
7353.000000;0.885620
7352.000000;0.886531
7351.000000;0.886852
7350.000000;0.886536
7349.000000;0.886035
7348.000000;0.885796
7347.000000;0.885897
7346.000000;0.886026
7345.000000;0.885867
7344.000000;0.885520
7343.000000;0.885520
7342.000000;0.886232
7341.000000;0.887279
7340.000000;0.887891
7339.000000;0.887807
7338.000000;0.887558
7337.000000;0.887651
7336.000000;0.887947
7335.000000;0.888054
7334.000000;0.887809
7333.000000;0.887350
7332.000000;0.887026
7331.000000;0.887047
7330.000000;0.887221
7329.000000;0.887263
7328.000000;0.887309
7327.000000;0.887757
7326.000000;0.888585
7325.000000;0.889244
7324.000000;0.889249
7323.000000;0.888792
7322.000000;0.888599
7321.000000;0.889115
7320.000000;0.890017
7319.000000;0.890684
7318.000000;0.891008
7317.000000;0.891402
7316.000000;0.892072
7315.000000;0.892734
7314.000000;0.892962
7313.000000;0.892739
7312.000000;0.892634
7311.000000;0.893196
7310.000000;0.894235
7309.000000;0.894953
7308.000000;0.894807
7307.000000;0.894093
7306.000000;0.893616
7305.000000;0.893973
7304.000000;0.895116
7303.000000;0.896273
7302.000000;0.896578
7301.000000;0.895874
7300.000000;0.894866
7299.000000;0.894614
7298.000000;0.895585
7297.000000;0.897145
7296.000000;0.898089
7295.000000;0.897921
7294.000000;0.897432
7293.000000;0.897778
7292.000000;0.899271
7291.000000;0.901187
7290.000000;0.902600
7289.000000;0.903303
7288.000000;0.903800
7287.000000;0.904520
7286.000000;0.905306
7285.000000;0.905787
7284.000000;0.905997
7283.000000;0.906268
7282.000000;0.906833
7281.000000;0.907704
7280.000000;0.908710
7279.000000;0.909641
7278.000000;0.910373
7277.000000;0.910971
7276.000000;0.911740
7275.000000;0.912946
7274.000000;0.914442
7273.000000;0.915805
7272.000000;0.916803
7271.000000;0.917555
7270.000000;0.918296
7269.000000;0.919181
7268.000000;0.920265
7267.000000;0.921488
7266.000000;0.922699
7265.000000;0.923797
7264.000000;0.924865
7263.000000;0.926052
7262.000000;0.927347
7261.000000;0.928599
7260.000000;0.929729
7259.000000;0.930770
7258.000000;0.931790
7257.000000;0.932861
7256.000000;0.934054
7255.000000;0.935433
7254.000000;0.937026
7253.000000;0.938796
7252.000000;0.940562
7251.000000;0.942149
7250.000000;0.943578
7249.000000;0.944907
7248.000000;0.946216
7247.000000;0.947615
7246.000000;0.949053
7245.000000;0.950344
7244.000000;0.951539
7243.000000;0.953043
7242.000000;0.955208
7241.000000;0.957915
7240.000000;0.960621
7239.000000;0.962717
7238.000000;0.964010
7237.000000;0.964957
7236.000000;0.966233
7235.000000;0.968073
7234.000000;0.970211
7233.000000;0.972367
7232.000000;0.974444
7231.000000;0.976534
7230.000000;0.978786
7229.000000;0.981055
7228.000000;0.983127
7227.000000;0.985123
7226.000000;0.987223
7225.000000;0.989411
7224.000000;0.991707
7223.000000;0.994220
7222.000000;0.996809
7221.000000;0.999132
7220.000000;1.001194
7219.000000;1.003449
7218.000000;1.006267
7217.000000;1.009547
7216.000000;1.012877
7215.000000;1.015885
7214.000000;1.018486
7213.000000;1.020963
7212.000000;1.023678
7211.000000;1.026723
7210.000000;1.029863
7209.000000;1.032863
7208.000000;1.035799
7207.000000;1.038901
7206.000000;1.042152
7205.000000;1.045388
7204.000000;1.048665
7203.000000;1.052141
7202.000000;1.055639
7201.000000;1.058761
7200.000000;1.061474
7199.000000;1.064198
7198.000000;1.067323
7197.000000;1.070921
7196.000000;1.074875
7195.000000;1.079021
7194.000000;1.083111
7193.000000;1.086979
7192.000000;1.090721
7191.000000;1.094558
7190.000000;1.098492
7189.000000;1.102333
7188.000000;1.106046
7187.000000;1.109751
7186.000000;1.113473
7185.000000;1.117063
7184.000000;1.120459
7183.000000;1.123884
7182.000000;1.127659
7181.000000;1.131863
7180.000000;1.136363
7179.000000;1.141008
7178.000000;1.145583
7177.000000;1.149844
7176.000000;1.153823
7175.000000;1.157801
7174.000000;1.161999
7173.000000;1.166515
7172.000000;1.171335
7171.000000;1.176386
7170.000000;1.181502
7169.000000;1.186448
7168.000000;1.190939
7167.000000;1.194734
7166.000000;1.198036
7165.000000;1.201430
7164.000000;1.205167
7163.000000;1.208882
7162.000000;1.212320
7161.000000;1.216029
7160.000000;1.220908
7159.000000;1.227052
7158.000000;1.233411
7157.000000;1.238762
7156.000000;1.242873
7155.000000;1.246503
7154.000000;1.250550
7153.000000;1.255457
7152.000000;1.260989
7151.000000;1.266448
7150.000000;1.271335
7149.000000;1.275732
7148.000000;1.279946
7147.000000;1.284118
7146.000000;1.288296
7145.000000;1.292607
7144.000000;1.297178
7143.000000;1.301848
7142.000000;1.306147
7141.000000;1.309762
7140.000000;1.312995
7139.000000;1.316547
7138.000000;1.320870
7137.000000;1.325874
7136.000000;1.331196
7135.000000;1.336584
7134.000000;1.341915
7133.000000;1.347061
7132.000000;1.351854
7131.000000;1.356146
7130.000000;1.359937
7129.000000;1.363350
7128.000000;1.366595
7127.000000;1.370020
7126.000000;1.373994
7125.000000;1.378629
7124.000000;1.383679
7123.000000;1.388765
7122.000000;1.393645
7121.000000;1.398106
7120.000000;1.401832
7119.000000;1.404696
7118.000000;1.407203
7117.000000;1.410276
7116.000000;1.414373
7115.000000;1.418956
7114.000000;1.423111
7113.000000;1.426664
7112.000000;1.430294
7111.000000;1.434557
7110.000000;1.439262
7109.000000;1.443874
7108.000000;1.448137
7107.000000;1.452052
7106.000000;1.455681
7105.000000;1.459245
7104.000000;1.462983
7103.000000;1.466828
7102.000000;1.470416
7101.000000;1.473461
7100.000000;1.476145
7099.000000;1.478970
7098.000000;1.482105
7097.000000;1.485231
7096.000000;1.488158
7095.000000;1.491271
7094.000000;1.495065
7093.000000;1.499348
7092.000000;1.503200
7091.000000;1.505867
7090.000000;1.507540
7089.000000;1.509177
7088.000000;1.511633
7087.000000;1.515008
7086.000000;1.518748
7085.000000;1.522271
7084.000000;1.525454
7083.000000;1.528567
7082.000000;1.531813
7081.000000;1.535033
7080.000000;1.537925
7079.000000;1.540420
7078.000000;1.542607
7077.000000;1.544602
7076.000000;1.546716
7075.000000;1.549365
7074.000000;1.552508
7073.000000;1.555462
7072.000000;1.557626
7071.000000;1.559320
7070.000000;1.561505
7069.000000;1.564707
7068.000000;1.568598
7067.000000;1.572535
7066.000000;1.576025
7065.000000;1.578605
7064.000000;1.579911
7063.000000;1.580305
7062.000000;1.580993
7061.000000;1.582935
7060.000000;1.585837
7059.000000;1.588714
7058.000000;1.591205
7057.000000;1.593765
7056.000000;1.596690
7055.000000;1.599494
7054.000000;1.601503
7053.000000;1.602709
7052.000000;1.603662
7051.000000;1.604735
7050.000000;1.605907
7049.000000;1.607151
7048.000000;1.608683
7047.000000;1.610784
7046.000000;1.613551
7045.000000;1.616797
7044.000000;1.620017
7043.000000;1.622558
7042.000000;1.624078
7041.000000;1.624824
7040.000000;1.625372
7039.000000;1.626146
7038.000000;1.627232
7037.000000;1.628617
7036.000000;1.630356
7035.000000;1.632419
7034.000000;1.634566
7033.000000;1.636575
7032.000000;1.638526
7031.000000;1.640657
7030.000000;1.642864
7029.000000;1.644507
7028.000000;1.644906
7027.000000;1.644088
7026.000000;1.642938
7025.000000;1.642564
7024.000000;1.643548
7023.000000;1.645767
7022.000000;1.648719
7021.000000;1.651884
7020.000000;1.654841
7019.000000;1.657333
7018.000000;1.659361
7017.000000;1.661116
7016.000000;1.662690
7015.000000;1.663848
7014.000000;1.664281
7013.000000;1.664162
7012.000000;1.664257
7011.000000;1.665274
7010.000000;1.667068
7009.000000;1.668647
7008.000000;1.669224
7007.000000;1.669258
7006.000000;1.670057
7005.000000;1.672187
7004.000000;1.674574
7003.000000;1.675612
7002.000000;1.675105
7001.000000;1.674608
7000.000000;1.675726
6999.000000;1.678519
6998.000000;1.681654
6997.000000;1.683656
6996.000000;1.683769
6995.000000;1.682212
6994.000000;1.680196
6993.000000;1.679376
6992.000000;1.680610
6991.000000;1.683108
6990.000000;1.685205
6989.000000;1.686157
6988.000000;1.686732
6987.000000;1.687927
6986.000000;1.689718
6985.000000;1.691325
6984.000000;1.692209
6983.000000;1.692436
6982.000000;1.692381
6981.000000;1.692525
6980.000000;1.693362
6979.000000;1.695057
6978.000000;1.697170
6977.000000;1.699007
6976.000000;1.700257
6975.000000;1.701119
6974.000000;1.701861
6973.000000;1.702495
6972.000000;1.702909
6971.000000;1.703061
6970.000000;1.702950
6969.000000;1.702684
6968.000000;1.702624
6967.000000;1.703187
6966.000000;1.704388
6965.000000;1.705662
6964.000000;1.706315
6963.000000;1.706208
6962.000000;1.705907
6961.000000;1.706075
6960.000000;1.706731
6959.000000;1.707171
6958.000000;1.706742
6957.000000;1.705674
6956.000000;1.704949
6955.000000;1.705247
6954.000000;1.706297
6953.000000;1.707427
6952.000000;1.708467
6951.000000;1.709658
6950.000000;1.710854
6949.000000;1.711487
6948.000000;1.711533
6947.000000;1.711965
6946.000000;1.713730
6945.000000;1.716504
6944.000000;1.718814
6943.000000;1.719462
6942.000000;1.718545
6941.000000;1.717010
6940.000000;1.715628
6939.000000;1.714705
6938.000000;1.714445
6937.000000;1.715016
6936.000000;1.716125
6935.000000;1.716940
6934.000000;1.716842
6933.000000;1.716180
6932.000000;1.715857
6931.000000;1.716079
6930.000000;1.715990
6929.000000;1.714846
6928.000000;1.713158
6927.000000;1.712138
6926.000000;1.712217
6925.000000;1.712752
6924.000000;1.713166
6923.000000;1.713693
6922.000000;1.714701
6921.000000;1.715826
6920.000000;1.716378
6919.000000;1.716336
6918.000000;1.716225
6917.000000;1.716073
6916.000000;1.715326
6915.000000;1.714086
6914.000000;1.713666
6913.000000;1.715273
6912.000000;1.718417
6911.000000;1.721210
6910.000000;1.722262
6909.000000;1.721844
6908.000000;1.721016
6907.000000;1.720200
6906.000000;1.719102
6905.000000;1.717719
6904.000000;1.716732
6903.000000;1.716681
6902.000000;1.717168
6901.000000;1.717204
6900.000000;1.716267
6899.000000;1.714805
6898.000000;1.713655
6897.000000;1.713204
6896.000000;1.713292
6895.000000;1.713685
6894.000000;1.714284
6893.000000;1.714907
6892.000000;1.715216
6891.000000;1.715024
6890.000000;1.714444
6889.000000;1.713615
6888.000000;1.712580
6887.000000;1.711657
6886.000000;1.711579
6885.000000;1.712785
6884.000000;1.714625
6883.000000;1.715691
6882.000000;1.715111
6881.000000;1.713320
6880.000000;1.711519
6879.000000;1.710638
6878.000000;1.710773
6877.000000;1.711280
6876.000000;1.711382
6875.000000;1.710858
6874.000000;1.710172
6873.000000;1.709783
6872.000000;1.709480
6871.000000;1.708804
6870.000000;1.707987
6869.000000;1.707899
6868.000000;1.708985
6867.000000;1.710726
6866.000000;1.712319
6865.000000;1.713460
6864.000000;1.714131
6863.000000;1.714045
6862.000000;1.712876
6861.000000;1.710868
6860.000000;1.708812
6859.000000;1.707465
6858.000000;1.707092
6857.000000;1.707360
6856.000000;1.707433
6855.000000;1.706447
6854.000000;1.704361
6853.000000;1.702245
6852.000000;1.701403
6851.000000;1.702262
6850.000000;1.704268
6849.000000;1.706496
6848.000000;1.707955
6847.000000;1.707682
6846.000000;1.705473
6845.000000;1.702606
6844.000000;1.701021
6843.000000;1.701368
6842.000000;1.702284
6841.000000;1.701876
6840.000000;1.699614
6839.000000;1.696530
6838.000000;1.693993
6837.000000;1.692788
6836.000000;1.692910
6835.000000;1.693528
6834.000000;1.693312
6833.000000;1.691460
6832.000000;1.688518
6831.000000;1.685864
6830.000000;1.684338
6829.000000;1.683631
6828.000000;1.682975
6827.000000;1.682056
6826.000000;1.681046
6825.000000;1.680062
6824.000000;1.679012
6823.000000;1.677895
6822.000000;1.676938
6821.000000;1.676301
6820.000000;1.675763
6819.000000;1.674813
6818.000000;1.673074
6817.000000;1.670637
6816.000000;1.668009
6815.000000;1.665774
6814.000000;1.664240
6813.000000;1.663322
6812.000000;1.662653
6811.000000;1.661851
6810.000000;1.660790
6809.000000;1.659698
6808.000000;1.658957
6807.000000;1.658764
6806.000000;1.658924
6805.000000;1.658865
6804.000000;1.657857
6803.000000;1.655409
6802.000000;1.651680
6801.000000;1.647568
6800.000000;1.644242
6799.000000;1.642454
6798.000000;1.642137
6797.000000;1.642565
6796.000000;1.642829
6795.000000;1.642286
6794.000000;1.640792
6793.000000;1.638699
6792.000000;1.636648
6791.000000;1.635161
6790.000000;1.634217
6789.000000;1.633165
6788.000000;1.631197
6787.000000;1.628112
6786.000000;1.624637
6785.000000;1.621848
6784.000000;1.620253
6783.000000;1.619505
6782.000000;1.618922
6781.000000;1.618123
6780.000000;1.617116
6779.000000;1.616063
6778.000000;1.615120
6777.000000;1.614255
6776.000000;1.613069
6775.000000;1.611064
6774.000000;1.608279
6773.000000;1.605479
6772.000000;1.603440
6771.000000;1.602150
6770.000000;1.600911
6769.000000;1.599107
6768.000000;1.596673
6767.000000;1.593951
6766.000000;1.591470
6765.000000;1.589753
6764.000000;1.588917
6763.000000;1.588403
6762.000000;1.587413
6761.000000;1.585769
6760.000000;1.584029
6759.000000;1.582536
6758.000000;1.580767
6757.000000;1.578029
6756.000000;1.574587
6755.000000;1.571598
6754.000000;1.569831
6753.000000;1.568773
6752.000000;1.567183
6751.000000;1.564419
6750.000000;1.561047
6749.000000;1.558188
6748.000000;1.556515
6747.000000;1.555899
6746.000000;1.555721
6745.000000;1.555258
6744.000000;1.553909
6743.000000;1.551437
6742.000000;1.548163
6741.000000;1.544782
6740.000000;1.541841
6739.000000;1.539499
6738.000000;1.537780
6737.000000;1.536740
6736.000000;1.536152
6735.000000;1.535278
6734.000000;1.533364
6733.000000;1.530341
6732.000000;1.526805
6731.000000;1.523425
6730.000000;1.520578
6729.000000;1.518375
6728.000000;1.516661
6727.000000;1.515026
6726.000000;1.513142
6725.000000;1.511167
6724.000000;1.509493
6723.000000;1.508082
6722.000000;1.506388
6721.000000;1.504085
6720.000000;1.501540
6719.000000;1.499357
6718.000000;1.497690
6717.000000;1.496206
6716.000000;1.494517
6715.000000;1.492461
6714.000000;1.490116
6713.000000;1.487751
6712.000000;1.485681
6711.000000;1.484032
6710.000000;1.482571
6709.000000;1.480940
6708.000000;1.478893
6707.000000;1.476291
6706.000000;1.473258
6705.000000;1.470145
6704.000000;1.467282
6703.000000;1.464737
6702.000000;1.462386
6701.000000;1.460194
6700.000000;1.458285
6699.000000;1.456596
6698.000000;1.454787
6697.000000;1.452652
6696.000000;1.450426
6695.000000;1.448351
6694.000000;1.446223
6693.000000;1.443595
6692.000000;1.440376
6691.000000;1.436973
6690.000000;1.433900
6689.000000;1.431457
6688.000000;1.429721
6687.000000;1.428535
6686.000000;1.427460
6685.000000;1.425980
6684.000000;1.423940
6683.000000;1.421659
6682.000000;1.419497
6681.000000;1.417417
6680.000000;1.415113
6679.000000;1.412522
6678.000000;1.409999
6677.000000;1.407916
6676.000000;1.406190
6675.000000;1.404329
6674.000000;1.401951
6673.000000;1.399134
6672.000000;1.396268
6671.000000;1.393699
6670.000000;1.391543
6669.000000;1.389678
6668.000000;1.387791
6667.000000;1.385564
6666.000000;1.382963
6665.000000;1.380293
6664.000000;1.377836
6663.000000;1.375553
6662.000000;1.373304
6661.000000;1.371221
6660.000000;1.369569
6659.000000;1.368248
6658.000000;1.366748
6657.000000;1.364688
6656.000000;1.362182
6655.000000;1.359577
6654.000000;1.357085
6653.000000;1.354762
6652.000000;1.352607
6651.000000;1.350500
6650.000000;1.348223
6649.000000;1.345725
6648.000000;1.343273
6647.000000;1.341168
6646.000000;1.339377
6645.000000;1.337582
6644.000000;1.335516
6643.000000;1.333174
6642.000000;1.330767
6641.000000;1.328573
6640.000000;1.326730
6639.000000;1.325068
6638.000000;1.323243
6637.000000;1.321097
6636.000000;1.318772
6635.000000;1.316413
6634.000000;1.313941
6633.000000;1.311277
6632.000000;1.308610
6631.000000;1.306244
6630.000000;1.304218
6629.000000;1.302255
6628.000000;1.300046
6627.000000;1.297500
6626.000000;1.294758
6625.000000;1.292076
6624.000000;1.289654
6623.000000;1.287496
6622.000000;1.285485
6621.000000;1.283600
6620.000000;1.281898
6619.000000;1.280235
6618.000000;1.278242
6617.000000;1.275792
6616.000000;1.273319
6615.000000;1.271394
6614.000000;1.270045
6613.000000;1.268744
6612.000000;1.267018
6611.000000;1.264894
6610.000000;1.262711
6609.000000;1.260739
6608.000000;1.258986
6607.000000;1.257231
6606.000000;1.255183
6605.000000;1.252734
6604.000000;1.250095
6603.000000;1.247559
6602.000000;1.245179
6601.000000;1.242815
6600.000000;1.240474
6599.000000;1.238382
6598.000000;1.236677
6597.000000;1.235166
6596.000000;1.233493
6595.000000;1.231422
6594.000000;1.228957
6593.000000;1.226297
6592.000000;1.223745
6591.000000;1.221530
6590.000000;1.219607
6589.000000;1.217695
6588.000000;1.215570
6587.000000;1.213298
6586.000000;1.211132
6585.000000;1.209242
6584.000000;1.207588
6583.000000;1.205966
6582.000000;1.204143
6581.000000;1.202006
6580.000000;1.199664
6579.000000;1.197353
6578.000000;1.195226
6577.000000;1.193243
6576.000000;1.191305
6575.000000;1.189410
6574.000000;1.187625
6573.000000;1.185940
6572.000000;1.184236
6571.000000;1.182392
6570.000000;1.180378
6569.000000;1.178249
6568.000000;1.176092
6567.000000;1.173978
6566.000000;1.171934
6565.000000;1.169933
6564.000000;1.167926
6563.000000;1.165917
6562.000000;1.163982
6561.000000;1.162194
6560.000000;1.160505
6559.000000;1.158746
6558.000000;1.156779
6557.000000;1.154643
6556.000000;1.152522
6555.000000;1.150578
6554.000000;1.148821
6553.000000;1.147149
6552.000000;1.145446
6551.000000;1.143657
6550.000000;1.141808
6549.000000;1.139972
6548.000000;1.138183
6547.000000;1.136377
6546.000000;1.134492
6545.000000;1.132605
6544.000000;1.130907
6543.000000;1.129493
6542.000000;1.128233
6541.000000;1.126849
6540.000000;1.125085
6539.000000;1.122825
6538.000000;1.120176
6537.000000;1.117464
6536.000000;1.115053
6535.000000;1.113077
6534.000000;1.111421
6533.000000;1.109931
6532.000000;1.108527
6531.000000;1.107055
6530.000000;1.105221
6529.000000;1.102883
6528.000000;1.100325
6527.000000;1.098067
6526.000000;1.096382
6525.000000;1.095111
6524.000000;1.093904
6523.000000;1.092528
6522.000000;1.090954
6521.000000;1.089293
6520.000000;1.087679
6519.000000;1.086125
6518.000000;1.084477
6517.000000;1.082587
6516.000000;1.080552
6515.000000;1.078649
6514.000000;1.077026
6513.000000;1.075545
6512.000000;1.073994
6511.000000;1.072328
6510.000000;1.070643
6509.000000;1.068978
6508.000000;1.067272
6507.000000;1.065484
6506.000000;1.063670
6505.000000;1.061912
6504.000000;1.060221
6503.000000;1.058539
6502.000000;1.056839
6501.000000;1.055192
6500.000000;1.053710
6499.000000;1.052391
6498.000000;1.051052
6497.000000;1.049476
6496.000000;1.047635
6495.000000;1.045723
6494.000000;1.043945
6493.000000;1.042296
6492.000000;1.040591
6491.000000;1.038691
6490.000000;1.036675
6489.000000;1.034774
6488.000000;1.033163
6487.000000;1.031824
6486.000000;1.030602
6485.000000;1.029339
6484.000000;1.027947
6483.000000;1.026396
6482.000000;1.024711
6481.000000;1.022980
6480.000000;1.021290
6479.000000;1.019620
6478.000000;1.017874
6477.000000;1.016034
6476.000000;1.014237
6475.000000;1.012637
6474.000000;1.011254
6473.000000;1.009978
6472.000000;1.008700
6471.000000;1.007378
6470.000000;1.006002
6469.000000;1.004574
6468.000000;1.003094
6467.000000;1.001565
6466.000000;1.000011
6465.000000;0.998511
6464.000000;0.997120
6463.000000;0.995742
6462.000000;0.994148
6461.000000;0.992225
6460.000000;0.990125
6459.000000;0.988096
6458.000000;0.986224
6457.000000;0.984449
6456.000000;0.982782
6455.000000;0.981356
6454.000000;0.980250
6453.000000;0.979368
6452.000000;0.978520
6451.000000;0.977546
6450.000000;0.976326
6449.000000;0.974813
6448.000000;0.973102
6447.000000;0.971420
6446.000000;0.969969
6445.000000;0.968777
6444.000000;0.967719
6443.000000;0.966636
6442.000000;0.965446
6441.000000;0.964172
6440.000000;0.962912
6439.000000;0.961702
6438.000000;0.960403
6437.000000;0.958797
6436.000000;0.956846
6435.000000;0.954808
6434.000000;0.953059
6433.000000;0.951788
6432.000000;0.950873
6431.000000;0.950008
6430.000000;0.948910
6429.000000;0.947473
6428.000000;0.945792
6427.000000;0.944088
6426.000000;0.942547
6425.000000;0.941212
6424.000000;0.939992
6423.000000;0.938762
6422.000000;0.937469
6421.000000;0.936169
6420.000000;0.934944
6419.000000;0.933785
6418.000000;0.932552
6417.000000;0.931097
6416.000000;0.929426
6415.000000;0.927709
6414.000000;0.926142
6413.000000;0.924813
6412.000000;0.923694
6411.000000;0.922692
6410.000000;0.921718
6409.000000;0.920712
6408.000000;0.919660
6407.000000;0.918558
6406.000000;0.917398
6405.000000;0.916176
6404.000000;0.914919
6403.000000;0.913644
6402.000000;0.912334
6401.000000;0.910963
6400.000000;0.909557
6399.000000;0.908175
6398.000000;0.906849
6397.000000;0.905569
6396.000000;0.904328
6395.000000;0.903104
6394.000000;0.901832
6393.000000;0.900454
6392.000000;0.899020
6391.000000;0.897665
6390.000000;0.896479
6389.000000;0.895410
6388.000000;0.894317
6387.000000;0.893078
6386.000000;0.891643
6385.000000;0.890059
6384.000000;0.888467
6383.000000;0.887023
6382.000000;0.885785
6381.000000;0.884687
6380.000000;0.883651
6379.000000;0.882661
6378.000000;0.881728
6377.000000;0.880829
6376.000000;0.879939
6375.000000;0.879064
6374.000000;0.878213
6373.000000;0.877351
6372.000000;0.876419
6371.000000;0.875370
6370.000000;0.874174
6369.000000;0.872842
6368.000000;0.871460
6367.000000;0.870160
6366.000000;0.868990
6365.000000;0.867857
6364.000000;0.866648
6363.000000;0.865372
6362.000000;0.864106
6361.000000;0.862852
6360.000000;0.861544
6359.000000;0.860212
6358.000000;0.859017
6357.000000;0.858091
6356.000000;0.857364
6355.000000;0.856629
6354.000000;0.855723
6353.000000;0.854649
6352.000000;0.853526
6351.000000;0.852468
6350.000000;0.851495
6349.000000;0.850543
6348.000000;0.849549
6347.000000;0.848512
6346.000000;0.847469
6345.000000;0.846419
6344.000000;0.845311
6343.000000;0.844120
6342.000000;0.842875
6341.000000;0.841631
6340.000000;0.840437
6339.000000;0.839365
6338.000000;0.838491
6337.000000;0.837796
6336.000000;0.837131
6335.000000;0.836345
6334.000000;0.835431
6333.000000;0.834495
6332.000000;0.833597
6331.000000;0.832691
6330.000000;0.831721
6329.000000;0.830694
6328.000000;0.829645
6327.000000;0.828592
6326.000000;0.827562
6325.000000;0.826599
6324.000000;0.825695
6323.000000;0.824754
6322.000000;0.823689
6321.000000;0.822535
6320.000000;0.821427
6319.000000;0.820463
6318.000000;0.819621
6317.000000;0.818804
6316.000000;0.817924
6315.000000;0.816964
6314.000000;0.815980
6313.000000;0.815033
6312.000000;0.814104
6311.000000;0.813093
6310.000000;0.811964
6309.000000;0.810839
6308.000000;0.809901
6307.000000;0.809200
6306.000000;0.808610
6305.000000;0.807987
6304.000000;0.807278
6303.000000;0.806494
6302.000000;0.805635
6301.000000;0.804689
6300.000000;0.803657
6299.000000;0.802539
6298.000000;0.801351
6297.000000;0.800182
6296.000000;0.799179
6295.000000;0.798393
6294.000000;0.797700
6293.000000;0.796930
6292.000000;0.796057
6291.000000;0.795189
6290.000000;0.794379
6289.000000;0.793543
6288.000000;0.792593
6287.000000;0.791594
6286.000000;0.790708
6285.000000;0.790008
6284.000000;0.789402
6283.000000;0.788734
6282.000000;0.787924
6281.000000;0.786981
6280.000000;0.785936
6279.000000;0.784828
6278.000000;0.783738
6277.000000;0.782759
6276.000000;0.781878
6275.000000;0.780963
6274.000000;0.779935
6273.000000;0.778918
6272.000000;0.778129
6271.000000;0.777617
6270.000000;0.777192
6269.000000;0.776640
6268.000000;0.775920
6267.000000;0.775140
6266.000000;0.774379
6265.000000;0.773618
6264.000000;0.772790
6263.000000;0.771871
6262.000000;0.770906
6261.000000;0.769990
6260.000000;0.769171
6259.000000;0.768379
6258.000000;0.767500
6257.000000;0.766550
6256.000000;0.765691
6255.000000;0.765036
6254.000000;0.764492
6253.000000;0.763879
6252.000000;0.763147
6251.000000;0.762372
6250.000000;0.761595
6249.000000;0.760772
6248.000000;0.759891
6247.000000;0.759018
6246.000000;0.758192
6245.000000;0.757383
6244.000000;0.756587
6243.000000;0.755869
6242.000000;0.755255
6241.000000;0.754673
6240.000000;0.754041
6239.000000;0.753379
6238.000000;0.752736
6237.000000;0.752081
6236.000000;0.751344
6235.000000;0.750531
6234.000000;0.749708
6233.000000;0.748894
6232.000000;0.748048
6231.000000;0.747188
6230.000000;0.746431
6229.000000;0.745856
6228.000000;0.745384
6227.000000;0.744834
6226.000000;0.744103
6225.000000;0.743247
6224.000000;0.742400
6223.000000;0.741656
6222.000000;0.741017
6221.000000;0.740423
6220.000000;0.739801
6219.000000;0.739116
6218.000000;0.738388
6217.000000;0.737663
6216.000000;0.736969
6215.000000;0.736282
6214.000000;0.735557
6213.000000;0.734786
6212.000000;0.734030
6211.000000;0.733376
6210.000000;0.732855
6209.000000;0.732401
6208.000000;0.731893
6207.000000;0.731248
6206.000000;0.730493
6205.000000;0.729739
6204.000000;0.729113
6203.000000;0.728674
6202.000000;0.728371
6201.000000;0.728058
6200.000000;0.727575
6199.000000;0.726873
6198.000000;0.726070
6197.000000;0.725357
6196.000000;0.724819
6195.000000;0.724367
6194.000000;0.723848
6193.000000;0.723216
6192.000000;0.722553
6191.000000;0.721935
6190.000000;0.721334
6189.000000;0.720655
6188.000000;0.719833
6187.000000;0.718876
6186.000000;0.717844
6185.000000;0.716840
6184.000000;0.716005
6183.000000;0.715443
6182.000000;0.715115
6181.000000;0.714809
6180.000000;0.714278
6179.000000;0.713425
6178.000000;0.712381
6177.000000;0.711391
6176.000000;0.710617
6175.000000;0.710048
6174.000000;0.709554
6173.000000;0.709015
6172.000000;0.708406
6171.000000;0.707775
6170.000000;0.707180
6169.000000;0.706630
6168.000000;0.706086
6167.000000;0.705507
6166.000000;0.704896
6165.000000;0.704289
6164.000000;0.703709
6163.000000;0.703144
6162.000000;0.702577
6161.000000;0.702011
6160.000000;0.701442
6159.000000;0.700844
6158.000000;0.700210
6157.000000;0.699599
6156.000000;0.699090
6155.000000;0.698705
6154.000000;0.698393
6153.000000;0.698072
6152.000000;0.697665
6151.000000;0.697091
6150.000000;0.696292
6149.000000;0.695297
6148.000000;0.694235
6147.000000;0.693250
6146.000000;0.692412
6145.000000;0.691710
6144.000000;0.691099
6143.000000;0.690546
6142.000000;0.690043
6141.000000;0.689610
6140.000000;0.689267
6139.000000;0.688988
6138.000000;0.688684
6137.000000;0.688257
6136.000000;0.687659
6135.000000;0.686929
6134.000000;0.686180
6133.000000;0.685552
6132.000000;0.685127
6131.000000;0.684867
6130.000000;0.684640
6129.000000;0.684341
6128.000000;0.683963
6127.000000;0.683550
6126.000000;0.683095
6125.000000;0.682526
6124.000000;0.681785
6123.000000;0.680917
6122.000000;0.680066
6121.000000;0.679388
6120.000000;0.678934
6119.000000;0.678621
6118.000000;0.678312
6117.000000;0.677938
6116.000000;0.677531
6115.000000;0.677133
6114.000000;0.676714
6113.000000;0.676202
6112.000000;0.675570
6111.000000;0.674871
6110.000000;0.674184
6109.000000;0.673555
6108.000000;0.672976
6107.000000;0.672400
6106.000000;0.671767
6105.000000;0.671059
6104.000000;0.670338
6103.000000;0.669722
6102.000000;0.669287
6101.000000;0.668987
6100.000000;0.668672
6099.000000;0.668219
6098.000000;0.667660
6097.000000;0.667144
6096.000000;0.666784
6095.000000;0.666536
6094.000000;0.666260
6093.000000;0.665874
6092.000000;0.665396
6091.000000;0.664884
6090.000000;0.664372
6089.000000;0.663872
6088.000000;0.663387
6087.000000;0.662892
6086.000000;0.662341
6085.000000;0.661722
6084.000000;0.661072
6083.000000;0.660423
6082.000000;0.659782
6081.000000;0.659181
6080.000000;0.658684
6079.000000;0.658304
6078.000000;0.657944
6077.000000;0.657488
6076.000000;0.656940
6075.000000;0.656421
6074.000000;0.656015
6073.000000;0.655673
6072.000000;0.655261
6071.000000;0.654687
6070.000000;0.653981
6069.000000;0.653281
6068.000000;0.652732
6067.000000;0.652373
6066.000000;0.652097
6065.000000;0.651749
6064.000000;0.651271
6063.000000;0.650739
6062.000000;0.650263
6061.000000;0.649871
6060.000000;0.649500
6059.000000;0.649071
6058.000000;0.648565
6057.000000;0.648029
6056.000000;0.647533
6055.000000;0.647114
6054.000000;0.646763
6053.000000;0.646451
6052.000000;0.646171
6051.000000;0.645935
6050.000000;0.645740
6049.000000;0.645537
6048.000000;0.645251
6047.000000;0.644823
6046.000000;0.644237
6045.000000;0.643536
6044.000000;0.642800
6043.000000;0.642117
6042.000000;0.641543
6041.000000;0.641087
6040.000000;0.640710
6039.000000;0.640370
6038.000000;0.640049
6037.000000;0.639735
6036.000000;0.639370
6035.000000;0.638859
6034.000000;0.638152
6033.000000;0.637340
6032.000000;0.636614
6031.000000;0.636142
6030.000000;0.635950
6029.000000;0.635903
6028.000000;0.635805
6027.000000;0.635531
6026.000000;0.635106
6025.000000;0.634647
6024.000000;0.634214
6023.000000;0.633755
6022.000000;0.633208
6021.000000;0.632622
6020.000000;0.632124
6019.000000;0.631772
6018.000000;0.631517
6017.000000;0.631296
6016.000000;0.631107
6015.000000;0.630952
6014.000000;0.630781
6013.000000;0.630546
6012.000000;0.630270
6011.000000;0.630028
6010.000000;0.629861
6009.000000;0.629736
6008.000000;0.629573
6007.000000;0.629299
6006.000000;0.628894
6005.000000;0.628391
6004.000000;0.627839
6003.000000;0.627258
6002.000000;0.626665
6001.000000;0.626114
6000.000000;0.625674
5999.000000;0.625337
5998.000000;0.625022
5997.000000;0.624677
5996.000000;0.624329
5995.000000;0.624003
5994.000000;0.623655
5993.000000;0.623248
5992.000000;0.622837
5991.000000;0.622532
5990.000000;0.622364
5989.000000;0.622255
5988.000000;0.622087
5987.000000;0.621787
5986.000000;0.621354
5985.000000;0.620853
5984.000000;0.620365
5983.000000;0.619935
5982.000000;0.619569
5981.000000;0.619281
5980.000000;0.619108
5979.000000;0.619026
5978.000000;0.618927
5977.000000;0.618715
5976.000000;0.618404
5975.000000;0.618079
5974.000000;0.617783
5973.000000;0.617500
5972.000000;0.617213
5971.000000;0.616902
5970.000000;0.616518
5969.000000;0.616037
5968.000000;0.615550
5967.000000;0.615218
5966.000000;0.615120
5965.000000;0.615173
5964.000000;0.615229
5963.000000;0.615200
5962.000000;0.615078
5961.000000;0.614868
5960.000000;0.614568
5959.000000;0.614179
5958.000000;0.613733
5957.000000;0.613287
5956.000000;0.612898
5955.000000;0.612573
5954.000000;0.612274
5953.000000;0.611974
5952.000000;0.611686
5951.000000;0.611427
5950.000000;0.611166
5949.000000;0.610862
5948.000000;0.610535
5947.000000;0.610265
5946.000000;0.610102
5945.000000;0.610026
5944.000000;0.609971
5943.000000;0.609872
5942.000000;0.609686
5941.000000;0.609423
5940.000000;0.609165
5939.000000;0.609022
5938.000000;0.609021
5937.000000;0.609080
5936.000000;0.609088
5935.000000;0.608986
5934.000000;0.608791
5933.000000;0.608553
5932.000000;0.608337
5931.000000;0.608185
5930.000000;0.608087
5929.000000;0.607987
5928.000000;0.607833
5927.000000;0.607610
5926.000000;0.607322
5925.000000;0.606985
5924.000000;0.606635
5923.000000;0.606315
5922.000000;0.606044
5921.000000;0.605816
5920.000000;0.605633
5919.000000;0.605505
5918.000000;0.605404
5917.000000;0.605258
5916.000000;0.605016
5915.000000;0.604690
5914.000000;0.604323
5913.000000;0.603936
5912.000000;0.603553
5911.000000;0.603242
5910.000000;0.603068
5909.000000;0.603025
5908.000000;0.603034
5907.000000;0.603040
5906.000000;0.603068
5905.000000;0.603158
5904.000000;0.603263
5903.000000;0.603239
5902.000000;0.602969
5901.000000;0.602492
5900.000000;0.601998
5899.000000;0.601678
5898.000000;0.601576
5897.000000;0.601586
5896.000000;0.601580
5895.000000;0.601507
5894.000000;0.601397
5893.000000;0.601273
5892.000000;0.601116
5891.000000;0.600909
5890.000000;0.600684
5889.000000;0.600513
5888.000000;0.600426
5887.000000;0.600370
5886.000000;0.600253
5885.000000;0.600043
5884.000000;0.599801
5883.000000;0.599610
5882.000000;0.599499
5881.000000;0.599438
5880.000000;0.599384
5879.000000;0.599299
5878.000000;0.599149
5877.000000;0.598933
5876.000000;0.598713
5875.000000;0.598579
5874.000000;0.598546
5873.000000;0.598516
5872.000000;0.598357
5871.000000;0.598037
5870.000000;0.597656
5869.000000;0.597366
5868.000000;0.597261
5867.000000;0.597323
5866.000000;0.597477
5865.000000;0.597667
5864.000000;0.597877
5863.000000;0.598079
5862.000000;0.598193
5861.000000;0.598143
5860.000000;0.597940
5859.000000;0.597694
5858.000000;0.597530
5857.000000;0.597503
5856.000000;0.597585
5855.000000;0.597703
5854.000000;0.597765
5853.000000;0.597697
5852.000000;0.597473
5851.000000;0.597130
5850.000000;0.596730
5849.000000;0.596326
5848.000000;0.595977
5847.000000;0.595762
5846.000000;0.595732
5845.000000;0.595843
5844.000000;0.595957
5843.000000;0.595950
5842.000000;0.595832
5841.000000;0.595732
5840.000000;0.595761
5839.000000;0.595915
5838.000000;0.596103
5837.000000;0.596264
5836.000000;0.596415
5835.000000;0.596598
5834.000000;0.596797
5833.000000;0.596934
5832.000000;0.596947
5831.000000;0.596860
5830.000000;0.596769
5829.000000;0.596758
5828.000000;0.596806
5827.000000;0.596808
5826.000000;0.596687
5825.000000;0.596491
5824.000000;0.596349
5823.000000;0.596339
5822.000000;0.596421
5821.000000;0.596503
5820.000000;0.596547
5819.000000;0.596597
5818.000000;0.596709
5817.000000;0.596887
5816.000000;0.597077
5815.000000;0.597200
5814.000000;0.597208
5813.000000;0.597108
5812.000000;0.596969
5811.000000;0.596884
5810.000000;0.596932
5809.000000;0.597143
5808.000000;0.597465
5807.000000;0.597775
5806.000000;0.597960
5805.000000;0.598005
5804.000000;0.598003
5803.000000;0.598057
5802.000000;0.598178
5801.000000;0.598296
5800.000000;0.598339
5799.000000;0.598298
5798.000000;0.598229
5797.000000;0.598214
5796.000000;0.598310
5795.000000;0.598504
5794.000000;0.598730
5793.000000;0.598926
5792.000000;0.599085
5791.000000;0.599247
5790.000000;0.599443
5789.000000;0.599662
5788.000000;0.599856
5787.000000;0.600000
5786.000000;0.600131
5785.000000;0.600339
5784.000000;0.600688
5783.000000;0.601148
5782.000000;0.601621
5781.000000;0.602024
5780.000000;0.602315
5779.000000;0.602471
5778.000000;0.602494
5777.000000;0.602450
5776.000000;0.602455
5775.000000;0.602578
5774.000000;0.602786
5773.000000;0.603016
5772.000000;0.603250
5771.000000;0.603496
5770.000000;0.603715
5769.000000;0.603842
5768.000000;0.603877
5767.000000;0.603904
5766.000000;0.604018
5765.000000;0.604246
5764.000000;0.604546
5763.000000;0.604879
5762.000000;0.605261
5761.000000;0.605745
5760.000000;0.606342
5759.000000;0.606960
5758.000000;0.607443
5757.000000;0.607714
5756.000000;0.607854
5755.000000;0.608025
5754.000000;0.608314
5753.000000;0.608682
5752.000000;0.609029
5751.000000;0.609297
5750.000000;0.609500
5749.000000;0.609696
5748.000000;0.609936
5747.000000;0.610226
5746.000000;0.610534
5745.000000;0.610823
5744.000000;0.611087
5743.000000;0.611346
5742.000000;0.611631
5741.000000;0.611959
5740.000000;0.612308
5739.000000;0.612610
5738.000000;0.612813
5737.000000;0.612945
5736.000000;0.613112
5735.000000;0.613410
5734.000000;0.613857
5733.000000;0.614410
5732.000000;0.615006
5731.000000;0.615577
5730.000000;0.616063
5729.000000;0.616469
5728.000000;0.616893
5727.000000;0.617464
5726.000000;0.618230
5725.000000;0.619117
5724.000000;0.619951
5723.000000;0.620555
5722.000000;0.620872
5721.000000;0.621028
5720.000000;0.621239
5719.000000;0.621619
5718.000000;0.622103
5717.000000;0.622574
5716.000000;0.622998
5715.000000;0.623399
5714.000000;0.623775
5713.000000;0.624109
5712.000000;0.624448
5711.000000;0.624881
5710.000000;0.625428
5709.000000;0.626004
5708.000000;0.626491
5707.000000;0.626828
5706.000000;0.627043
5705.000000;0.627253
5704.000000;0.627601
5703.000000;0.628145
5702.000000;0.628789
5701.000000;0.629381
5700.000000;0.629872
5699.000000;0.630343
5698.000000;0.630881
5697.000000;0.631498
5696.000000;0.632157
5695.000000;0.632838
5694.000000;0.633499
5693.000000;0.634123
5692.000000;0.634663
5691.000000;0.635178
5690.000000;0.635763
5689.000000;0.636451
5688.000000;0.637174
5687.000000;0.637843
5686.000000;0.638436
5685.000000;0.638999
5684.000000;0.639566
5683.000000;0.640102
5682.000000;0.640560
5681.000000;0.640944
5680.000000;0.641307
5679.000000;0.641679
5678.000000;0.642066
5677.000000;0.642500
5676.000000;0.643029
5675.000000;0.643641
5674.000000;0.644235
5673.000000;0.644729
5672.000000;0.645133
5671.000000;0.645497
5670.000000;0.645844
5669.000000;0.646185
5668.000000;0.646569
5667.000000;0.647035
5666.000000;0.647539
5665.000000;0.648004
5664.000000;0.648444
5663.000000;0.648965
5662.000000;0.649637
5661.000000;0.650415
5660.000000;0.651174
5659.000000;0.651803
5658.000000;0.652261
5657.000000;0.652597
5656.000000;0.652914
5655.000000;0.653294
5654.000000;0.653732
5653.000000;0.654166
5652.000000;0.654559
5651.000000;0.654914
5650.000000;0.655253
5649.000000;0.655605
5648.000000;0.655997
5647.000000;0.656409
5646.000000;0.656761
5645.000000;0.657005
5644.000000;0.657186
5643.000000;0.657374
5642.000000;0.657561
5641.000000;0.657728
5640.000000;0.657970
5639.000000;0.658424
5638.000000;0.659063
5637.000000;0.659651
5636.000000;0.659991
5635.000000;0.660133
5634.000000;0.660287
5633.000000;0.660562
5632.000000;0.660867
5631.000000;0.661059
5630.000000;0.661118
5629.000000;0.661155
5628.000000;0.661283
5627.000000;0.661514
5626.000000;0.661803
5625.000000;0.662146
5624.000000;0.662594
5623.000000;0.663138
5622.000000;0.663660
5621.000000;0.664044
5620.000000;0.664307
5619.000000;0.664567
5618.000000;0.664888
5617.000000;0.665204
5616.000000;0.665421
5615.000000;0.665507
5614.000000;0.665493
5613.000000;0.665415
5612.000000;0.665298
5611.000000;0.665162
5610.000000;0.665021
5609.000000;0.664892
5608.000000;0.664810
5607.000000;0.664792
5606.000000;0.664798
5605.000000;0.664760
5604.000000;0.664667
5603.000000;0.664587
5602.000000;0.664586
5601.000000;0.664662
5600.000000;0.664764
5599.000000;0.664855
5598.000000;0.664915
5597.000000;0.664934
5596.000000;0.664912
5595.000000;0.664850
5594.000000;0.664737
5593.000000;0.664570
5592.000000;0.664378
5591.000000;0.664205
5590.000000;0.664065
5589.000000;0.663933
5588.000000;0.663802
5587.000000;0.663692
5586.000000;0.663608
5585.000000;0.663521
5584.000000;0.663412
5583.000000;0.663302
5582.000000;0.663231
5581.000000;0.663210
5580.000000;0.663208
5579.000000;0.663157
5578.000000;0.662997
5577.000000;0.662733
5576.000000;0.662437
5575.000000;0.662169
5574.000000;0.661931
5573.000000;0.661728
5572.000000;0.661617
5571.000000;0.661624
5570.000000;0.661654
5569.000000;0.661571
5568.000000;0.661353
5567.000000;0.661085
5566.000000;0.660819
5565.000000;0.660521
5564.000000;0.660159
5563.000000;0.659744
5562.000000;0.659272
5561.000000;0.658717
5560.000000;0.658136
5559.000000;0.657667
5558.000000;0.657379
5557.000000;0.657196
5556.000000;0.657022
5555.000000;0.656837
5554.000000;0.656664
5553.000000;0.656504
5552.000000;0.656367
5551.000000;0.656270
5550.000000;0.656184
5549.000000;0.656026
5548.000000;0.655767
5547.000000;0.655470
5546.000000;0.655196
5545.000000;0.654925
5544.000000;0.654622
5543.000000;0.654296
5542.000000;0.653974
5541.000000;0.653663
5540.000000;0.653363
5539.000000;0.653063
5538.000000;0.652742
5537.000000;0.652415
5536.000000;0.652145
5535.000000;0.651944
5534.000000;0.651716
5533.000000;0.651376
5532.000000;0.650975
5531.000000;0.650613
5530.000000;0.650279
5529.000000;0.649880
5528.000000;0.649404
5527.000000;0.648952
5526.000000;0.648615
5525.000000;0.648382
5524.000000;0.648208
5523.000000;0.648061
5522.000000;0.647895
5521.000000;0.647710
5520.000000;0.647579
5519.000000;0.647512
5518.000000;0.647371
5517.000000;0.646990
5516.000000;0.646422
5515.000000;0.645896
5514.000000;0.645514
5513.000000;0.645179
5512.000000;0.644842
5511.000000;0.644607
5510.000000;0.644550
5509.000000;0.644596
5508.000000;0.644619
5507.000000;0.644584
5506.000000;0.644518
5505.000000;0.644425
5504.000000;0.644345
5503.000000;0.644347
5502.000000;0.644371
5501.000000;0.644290
5500.000000;0.644087
5499.000000;0.643844
5498.000000;0.643670
5497.000000;0.643553
5496.000000;0.643349
5495.000000;0.642926
5494.000000;0.642303
5493.000000;0.641702
5492.000000;0.641361
5491.000000;0.641300
5490.000000;0.641294
5489.000000;0.641149
5488.000000;0.640932
5487.000000;0.640829
5486.000000;0.640863
5485.000000;0.640878
5484.000000;0.640815
5483.000000;0.640823
5482.000000;0.640940
5481.000000;0.641057
5480.000000;0.641212
5479.000000;0.641481
5478.000000;0.641786
5477.000000;0.641951
5476.000000;0.641970
5475.000000;0.642001
5474.000000;0.642106
5473.000000;0.642165
5472.000000;0.642074
5471.000000;0.641891
5470.000000;0.641704
5469.000000;0.641566
5468.000000;0.641524
5467.000000;0.641544
5466.000000;0.641513
5465.000000;0.641422
5464.000000;0.641445
5463.000000;0.641700
5462.000000;0.641959
5461.000000;0.642014
5460.000000;0.642113
5459.000000;0.642472
5458.000000;0.642797
5457.000000;0.642798
5456.000000;0.642716
5455.000000;0.642898
5454.000000;0.643305
5453.000000;0.643721
5452.000000;0.644095
5451.000000;0.644481
5450.000000;0.644859
5449.000000;0.645360
5448.000000;0.646149
5447.000000;0.646980
5446.000000;0.647519
5445.000000;0.647921
5444.000000;0.648475
5443.000000;0.649033
5442.000000;0.649222
5441.000000;0.649193
5440.000000;0.649641
5439.000000;0.650820
5438.000000;0.652100
5437.000000;0.652879
5436.000000;0.653277
5435.000000;0.653643
5434.000000;0.654136
5433.000000;0.654884
5432.000000;0.655815
5431.000000;0.656548
5430.000000;0.656973
5429.000000;0.657516
5428.000000;0.658499
5427.000000;0.659740
5426.000000;0.660865
5425.000000;0.661750
5424.000000;0.662561
5423.000000;0.663480
5422.000000;0.664606
5421.000000;0.665952
5420.000000;0.667383
5419.000000;0.668781
5418.000000;0.670128
5417.000000;0.671493
5416.000000;0.672936
5415.000000;0.674417
5414.000000;0.675870
5413.000000;0.677258
5412.000000;0.678541
5411.000000;0.679614
5410.000000;0.680507
5409.000000;0.681667
5408.000000;0.683522
5407.000000;0.685844
5406.000000;0.687996
5405.000000;0.689783
5404.000000;0.691648
5403.000000;0.693827
5402.000000;0.696181
5401.000000;0.698604
5400.000000;0.701018
5399.000000;0.703500
5398.000000;0.706224
5397.000000;0.709160
5396.000000;0.712080
5395.000000;0.714725
5394.000000;0.717088
5393.000000;0.719426
5392.000000;0.722020
5391.000000;0.724976
5390.000000;0.728121
5389.000000;0.731223
5388.000000;0.734285
5387.000000;0.737485
5386.000000;0.740873
5385.000000;0.744454
5384.000000;0.748286
5383.000000;0.752223
5382.000000;0.756133
5381.000000;0.760143
5380.000000;0.764352
5379.000000;0.768729
5378.000000;0.773258
5377.000000;0.777888
5376.000000;0.782522
5375.000000;0.787202
5374.000000;0.792110
5373.000000;0.797234
5372.000000;0.802406
5371.000000;0.807670
5370.000000;0.813200
5369.000000;0.818970
5368.000000;0.824816
5367.000000;0.830774
5366.000000;0.837008
5365.000000;0.843558
5364.000000;0.850218
5363.000000;0.856784
5362.000000;0.863392
5361.000000;0.870187
5360.000000;0.877055
5359.000000;0.884073
5358.000000;0.891661
5357.000000;0.899971
5356.000000;0.908571
5355.000000;0.917051
5354.000000;0.925532
5353.000000;0.934379
5352.000000;0.943643
5351.000000;0.952989
5350.000000;0.962269
5349.000000;0.971786
5348.000000;0.981701
5347.000000;0.991858
5346.000000;1.002282
5345.000000;1.013091
5344.000000;1.024117
5343.000000;1.035163
5342.000000;1.046271
5341.000000;1.057322
5340.000000;1.068261
5339.000000;1.079677
5338.000000;1.092215
5337.000000;1.105694
5336.000000;1.119150
5335.000000;1.131823
5334.000000;1.143941
5333.000000;1.156513
5332.000000;1.170195
5331.000000;1.184649
5330.000000;1.199320
5329.000000;1.214013
5328.000000;1.228596
5327.000000;1.243045
5326.000000;1.257693
5325.000000;1.272738
5324.000000;1.287903
5323.000000;1.303076
5322.000000;1.318734
5321.000000;1.335168
5320.000000;1.351722
5319.000000;1.367512
5318.000000;1.382621
5317.000000;1.397854
5316.000000;1.413468
5315.000000;1.428928
5314.000000;1.443683
5313.000000;1.457782
5312.000000;1.471791
5311.000000;1.486345
5310.000000;1.501718
5309.000000;1.517420
5308.000000;1.532301
5307.000000;1.545514
5306.000000;1.557344
5305.000000;1.568565
5304.000000;1.579315
5303.000000;1.589419
5302.000000;1.599361
5301.000000;1.609922
5300.000000;1.620990
5299.000000;1.631540
5298.000000;1.640733
5297.000000;1.648275
5296.000000;1.654211
5295.000000;1.659276
5294.000000;1.664778
5293.000000;1.671357
5292.000000;1.678128
5291.000000;1.683661
5290.000000;1.687639
5289.000000;1.690885
5288.000000;1.694113
5287.000000;1.697386
5286.000000;1.700648
5285.000000;1.703898
5284.000000;1.706795
5283.000000;1.708939
5282.000000;1.710403
5281.000000;1.711347
5280.000000;1.711608
5279.000000;1.711337
5278.000000;1.711426
5277.000000;1.712462
5276.000000;1.713896
5275.000000;1.715108
5274.000000;1.716533
5273.000000;1.718732
5272.000000;1.721176
5271.000000;1.722829
5270.000000;1.723592
5269.000000;1.724273
5268.000000;1.725195
5267.000000;1.725883
5266.000000;1.726007
5265.000000;1.725642
5264.000000;1.724727
5263.000000;1.723401
5262.000000;1.722560
5261.000000;1.722925
5260.000000;1.724058
5259.000000;1.725019
5258.000000;1.725400
5257.000000;1.725235
5256.000000;1.724498
5255.000000;1.723293
5254.000000;1.722302
5253.000000;1.722144
5252.000000;1.722494
5251.000000;1.722437
5250.000000;1.721762
5249.000000;1.721349
5248.000000;1.721898
5247.000000;1.723207
5246.000000;1.724755
5245.000000;1.726092
5244.000000;1.726772
5243.000000;1.726661
5242.000000;1.726127
5241.000000;1.725444
5240.000000;1.724493
5239.000000;1.723473
5238.000000;1.723294
5237.000000;1.724622
5236.000000;1.726902
5235.000000;1.728665
5234.000000;1.728951
5233.000000;1.728174
5232.000000;1.727417
5231.000000;1.727345
5230.000000;1.727905
5229.000000;1.728586
5228.000000;1.728781
5227.000000;1.728335
5226.000000;1.727720
5225.000000;1.727333
5224.000000;1.727002
5223.000000;1.726549
5222.000000;1.726323
5221.000000;1.726576
5220.000000;1.726781
5219.000000;1.726262
5218.000000;1.725223
5217.000000;1.724500
5216.000000;1.724333
5215.000000;1.724163
5214.000000;1.723802
5213.000000;1.723766
5212.000000;1.724377
5211.000000;1.725452
5210.000000;1.726792
5209.000000;1.728250
5208.000000;1.729452
5207.000000;1.730030
5206.000000;1.730010
5205.000000;1.729598
5204.000000;1.728792
5203.000000;1.727684
5202.000000;1.726877
5201.000000;1.726949
5200.000000;1.727761
5199.000000;1.728859
5198.000000;1.730059
5197.000000;1.731075
5196.000000;1.731110
5195.000000;1.729764
5194.000000;1.727983
5193.000000;1.727014
5192.000000;1.726891
5191.000000;1.726867
5190.000000;1.726865
5189.000000;1.727516
5188.000000;1.728949
5187.000000;1.730518
5186.000000;1.731698
5185.000000;1.732499
5184.000000;1.733054
5183.000000;1.733468
5182.000000;1.733819
5181.000000;1.733699
5180.000000;1.732336
5179.000000;1.729999
5178.000000;1.728531
5177.000000;1.729358
5176.000000;1.731489
5175.000000;1.732634
5174.000000;1.732071
5173.000000;1.731201
5172.000000;1.731388
5171.000000;1.732514
5170.000000;1.733638
5169.000000;1.734013
5168.000000;1.733399
5167.000000;1.732274
5166.000000;1.731739
5165.000000;1.732414
5164.000000;1.733576
5163.000000;1.734176
5162.000000;1.734296
5161.000000;1.734602
5160.000000;1.734809
5159.000000;1.734079
5158.000000;1.732729
5157.000000;1.732039
5156.000000;1.732329
5155.000000;1.732594
5154.000000;1.732183
5153.000000;1.731590
5152.000000;1.731332
5151.000000;1.731249
5150.000000;1.731283
5149.000000;1.731816
5148.000000;1.732687
5147.000000;1.732950
5146.000000;1.732315
5145.000000;1.731908
5144.000000;1.732844
5143.000000;1.734743
5142.000000;1.736278
5141.000000;1.736667
5140.000000;1.736097
5139.000000;1.735215
5138.000000;1.734804
5137.000000;1.735443
5136.000000;1.736857
5135.000000;1.737950
5134.000000;1.738007
5133.000000;1.737565
5132.000000;1.737561
5131.000000;1.738040
5130.000000;1.738239
5129.000000;1.737638
5128.000000;1.736552
5127.000000;1.735821
5126.000000;1.736028
5125.000000;1.736809
5124.000000;1.737002
5123.000000;1.735960
5122.000000;1.734736
5121.000000;1.735216
5120.000000;1.737855
5119.000000;1.740780
5118.000000;1.741542
5117.000000;1.739511
5116.000000;1.736186
5115.000000;1.733566
5114.000000;1.732703
5113.000000;1.733386
5112.000000;1.734656
5111.000000;1.735724
5110.000000;1.736660
5109.000000;1.738053
5108.000000;1.739968
5107.000000;1.741626
5106.000000;1.742361
5105.000000;1.742507
5104.000000;1.742912
5103.000000;1.743809
5102.000000;1.744650
5101.000000;1.744892
5100.000000;1.744555
5099.000000;1.743966
5098.000000;1.743307
5097.000000;1.742574
5096.000000;1.741830
5095.000000;1.741304
5094.000000;1.741165
5093.000000;1.741279
5092.000000;1.741372
5091.000000;1.741457
5090.000000;1.741864
5089.000000;1.742677
5088.000000;1.743360
5087.000000;1.743256
5086.000000;1.742389
5085.000000;1.741492
5084.000000;1.741229
5083.000000;1.741620
5082.000000;1.742217
5081.000000;1.742603
5080.000000;1.742799
5079.000000;1.743254
5078.000000;1.744279
5077.000000;1.745413
5076.000000;1.745640
5075.000000;1.744532
5074.000000;1.742934
5073.000000;1.742095
5072.000000;1.742301
5071.000000;1.742761
5070.000000;1.742731
5069.000000;1.742343
5068.000000;1.742242
5067.000000;1.742739
5066.000000;1.743508
5065.000000;1.744008
5064.000000;1.744081
5063.000000;1.744053
5062.000000;1.744169
5061.000000;1.744110
5060.000000;1.743408
5059.000000;1.742316
5058.000000;1.741715
5057.000000;1.742025
5056.000000;1.742759
5055.000000;1.743386
5054.000000;1.744084
5053.000000;1.745133
5052.000000;1.746099
5051.000000;1.746335
5050.000000;1.745902
5049.000000;1.745319
5048.000000;1.744691
5047.000000;1.743836
5046.000000;1.743055
5045.000000;1.742922
5044.000000;1.743351
5043.000000;1.743650
5042.000000;1.743505
5041.000000;1.743199
5040.000000;1.742833
5039.000000;1.742089
5038.000000;1.740926
5037.000000;1.739881
5036.000000;1.739465
5035.000000;1.739699
5034.000000;1.740329
5033.000000;1.741010
5032.000000;1.741315
5031.000000;1.741160
5030.000000;1.741297
5029.000000;1.742674
5028.000000;1.745102
5027.000000;1.747073
5026.000000;1.747271
5025.000000;1.745858
5024.000000;1.744046
5023.000000;1.742932
5022.000000;1.743045
5021.000000;1.744412
5020.000000;1.746460
5019.000000;1.748095
5018.000000;1.748496
5017.000000;1.747900
5016.000000;1.747282
5015.000000;1.747318
5014.000000;1.747840
5013.000000;1.748210
5012.000000;1.748018
5011.000000;1.747417
5010.000000;1.746758
5009.000000;1.746019
5008.000000;1.744923
5007.000000;1.743662
5006.000000;1.743007
5005.000000;1.743305
5004.000000;1.743777
5003.000000;1.743407
5002.000000;1.742304
5001.000000;1.741440
5000.000000;1.741231
4999.000000;1.741245
4998.000000;1.741360
4997.000000;1.742260
4996.000000;1.744316
4995.000000;1.746638
4994.000000;1.747776
4993.000000;1.747106
4992.000000;1.745205
4991.000000;1.743220
4990.000000;1.742136
4989.000000;1.742225
4988.000000;1.742935
4987.000000;1.743633
4986.000000;1.744544
4985.000000;1.746333
4984.000000;1.748613
4983.000000;1.749806
4982.000000;1.749044
4981.000000;1.747375
4980.000000;1.746281
4979.000000;1.745808
4978.000000;1.745191
4977.000000;1.744599
4976.000000;1.744838
4975.000000;1.745501
4974.000000;1.744859
4973.000000;1.742118
4972.000000;1.738769
4971.000000;1.736987
4970.000000;1.737405
4969.000000;1.739006
4968.000000;1.740516
4967.000000;1.741259
4966.000000;1.741004
4965.000000;1.739762
4964.000000;1.737858
4963.000000;1.735820
4962.000000;1.734142
4961.000000;1.733310
4960.000000;1.733765
4959.000000;1.735435
4958.000000;1.737375
4957.000000;1.738332
4956.000000;1.737836
4955.000000;1.736517
4954.000000;1.735276
4953.000000;1.734418
4952.000000;1.733605
4951.000000;1.732386
4950.000000;1.730708
4949.000000;1.729117
4948.000000;1.728447
4947.000000;1.729043
4946.000000;1.730168
4945.000000;1.730447
4944.000000;1.729192
4943.000000;1.727143
4942.000000;1.725704
4941.000000;1.725528
4940.000000;1.726010
4939.000000;1.726032
4938.000000;1.725043
4937.000000;1.723380
4936.000000;1.721738
4935.000000;1.720461
4934.000000;1.719390
4933.000000;1.718301
4932.000000;1.717376
4931.000000;1.717073
4930.000000;1.717491
4929.000000;1.718033
4928.000000;1.717809
4927.000000;1.716457
4926.000000;1.714586
4925.000000;1.713364
4924.000000;1.713545
4923.000000;1.714678
4922.000000;1.715263
4921.000000;1.714015
4920.000000;1.711160
4919.000000;1.708191
4918.000000;1.706314
4917.000000;1.705490
4916.000000;1.704996
4915.000000;1.704516
4914.000000;1.704247
4913.000000;1.704060
4912.000000;1.703193
4911.000000;1.701103
4910.000000;1.698391
4909.000000;1.696533
4908.000000;1.696554
4907.000000;1.697904
4906.000000;1.698733
4905.000000;1.697508
4904.000000;1.694441
4903.000000;1.691119
4902.000000;1.688832
4901.000000;1.687656
4900.000000;1.687127
4899.000000;1.687159
4898.000000;1.687754
4897.000000;1.688162
4896.000000;1.687181
4895.000000;1.684445
4894.000000;1.680873
4893.000000;1.677667
4892.000000;1.675344
4891.000000;1.673871
4890.000000;1.673204
4889.000000;1.673294
4888.000000;1.673831
4887.000000;1.674303
4886.000000;1.674214
4885.000000;1.673166
4884.000000;1.670975
4883.000000;1.667995
4882.000000;1.665169
4881.000000;1.663327
4880.000000;1.662370
4879.000000;1.661388
4878.000000;1.659625
4877.000000;1.657206
4876.000000;1.654879
4875.000000;1.653264
4874.000000;1.652425
4873.000000;1.651998
4872.000000;1.651474
4871.000000;1.650351
4870.000000;1.648296
4869.000000;1.645416
4868.000000;1.642352
4867.000000;1.639894
4866.000000;1.638321
4865.000000;1.637197
4864.000000;1.635940
4863.000000;1.634455
4862.000000;1.633054
4861.000000;1.631868
4860.000000;1.630581
4859.000000;1.628776
4858.000000;1.626377
4857.000000;1.623628
4856.000000;1.620761
4855.000000;1.617834
4854.000000;1.614897
4853.000000;1.612204
4852.000000;1.610130
4851.000000;1.608780
4850.000000;1.607761
4849.000000;1.606603
4848.000000;1.605418
4847.000000;1.604771
4846.000000;1.604651
4845.000000;1.603997
4844.000000;1.601786
4843.000000;1.598420
4842.000000;1.595405
4841.000000;1.593676
4840.000000;1.592809
4839.000000;1.591862
4838.000000;1.590374
4837.000000;1.588263
4836.000000;1.585392
4835.000000;1.581851
4834.000000;1.578387
4833.000000;1.575922
4832.000000;1.574625
4831.000000;1.573763
4830.000000;1.572546
4829.000000;1.570860
4828.000000;1.569059
4827.000000;1.567298
4826.000000;1.565285
4825.000000;1.562701
4824.000000;1.559732
4823.000000;1.557082
4822.000000;1.555362
4821.000000;1.554428
4820.000000;1.553405
4819.000000;1.551454
4818.000000;1.548565
4817.000000;1.545550
4816.000000;1.543197
4815.000000;1.541441
4814.000000;1.539382
4813.000000;1.536227
4812.000000;1.532232
4811.000000;1.528556
4810.000000;1.526098
4809.000000;1.524635
4808.000000;1.523238
4807.000000;1.521337
4806.000000;1.519078
4805.000000;1.516713
4804.000000;1.514082
4803.000000;1.510926
4802.000000;1.507425
4801.000000;1.504160
4800.000000;1.501637
4799.000000;1.499980
4798.000000;1.498968
4797.000000;1.498164
4796.000000;1.497019
4795.000000;1.495101
4794.000000;1.492325
4793.000000;1.488978
4792.000000;1.485576
4791.000000;1.482678
4790.000000;1.480621
4789.000000;1.479290
4788.000000;1.478164
4787.000000;1.476721
4786.000000;1.474836
4785.000000;1.472765
4784.000000;1.470793
4783.000000;1.468932
4782.000000;1.466922
4781.000000;1.464455
4780.000000;1.461425
4779.000000;1.458014
4778.000000;1.454566
4777.000000;1.451385
4776.000000;1.448611
4775.000000;1.446185
4774.000000;1.443884
4773.000000;1.441495
4772.000000;1.439019
4771.000000;1.436645
4770.000000;1.434459
4769.000000;1.432326
4768.000000;1.430178
4767.000000;1.428233
4766.000000;1.426645
4765.000000;1.425047
4764.000000;1.422833
4763.000000;1.419996
4762.000000;1.417326
4761.000000;1.415495
4760.000000;1.414160
4759.000000;1.412262
4758.000000;1.409222
4757.000000;1.405565
4756.000000;1.402284
4755.000000;1.399837
4754.000000;1.397926
4753.000000;1.396064
4752.000000;1.394058
4751.000000;1.391915
4750.000000;1.389622
4749.000000;1.387259
4748.000000;1.385118
4747.000000;1.383348
4746.000000;1.381551
4745.000000;1.379127
4744.000000;1.376114
4743.000000;1.373312
4742.000000;1.371405
4741.000000;1.370273
4740.000000;1.369342
4739.000000;1.368253
4738.000000;1.366889
4737.000000;1.365099
4736.000000;1.362878
4735.000000;1.360663
4734.000000;1.358925
4733.000000;1.357516
4732.000000;1.355814
4731.000000;1.353509
4730.000000;1.350878
4729.000000;1.348293
4728.000000;1.345891
4727.000000;1.343747
4726.000000;1.341947
4725.000000;1.340356
4724.000000;1.338663
4723.000000;1.336765
4722.000000;1.334785
4721.000000;1.332647
4720.000000;1.330049
4719.000000;1.327004
4718.000000;1.324027
4717.000000;1.321557
4716.000000;1.319521
4715.000000;1.317636
4714.000000;1.315805
4713.000000;1.313965
4712.000000;1.311881
4711.000000;1.309442
4710.000000;1.306985
4709.000000;1.304994
4708.000000;1.303567
4707.000000;1.302443
4706.000000;1.301395
4705.000000;1.300331
4704.000000;1.299093
4703.000000;1.297451
4702.000000;1.295343
4701.000000;1.292951
4700.000000;1.290578
4699.000000;1.288516
4698.000000;1.286934
4697.000000;1.285692
4696.000000;1.284360
4695.000000;1.282563
4694.000000;1.280309
4693.000000;1.277904
4692.000000;1.275690
4691.000000;1.273913
4690.000000;1.272648
4689.000000;1.271669
4688.000000;1.270527
4687.000000;1.268973
4686.000000;1.267190
4685.000000;1.265464
4684.000000;1.263775
4683.000000;1.261899
4682.000000;1.259789
4681.000000;1.257640
4680.000000;1.255659
4679.000000;1.253963
4678.000000;1.252618
4677.000000;1.251530
4676.000000;1.250373
4675.000000;1.248868
4674.000000;1.247157
4673.000000;1.245684
4672.000000;1.244698
4671.000000;1.243996
4670.000000;1.243178
4669.000000;1.242013
4668.000000;1.240560
4667.000000;1.239042
4666.000000;1.237636
4665.000000;1.236299
4664.000000;1.234848
4663.000000;1.233248
4662.000000;1.231724
4661.000000;1.230475
4660.000000;1.229406
4659.000000;1.228292
4658.000000;1.227111
4657.000000;1.226011
4656.000000;1.224999
4655.000000;1.223872
4654.000000;1.222478
4653.000000;1.220905
4652.000000;1.219429
4651.000000;1.218340
4650.000000;1.217755
4649.000000;1.217443
4648.000000;1.216882
4647.000000;1.215668
4646.000000;1.213861
4645.000000;1.211857
4644.000000;1.210026
4643.000000;1.208588
4642.000000;1.207664
4641.000000;1.207163
4640.000000;1.206721
4639.000000;1.206012
4638.000000;1.205095
4637.000000;1.204204
4636.000000;1.203285
4635.000000;1.202067
4634.000000;1.200611
4633.000000;1.199395
4632.000000;1.198703
4631.000000;1.198224
4630.000000;1.197474
4629.000000;1.196387
4628.000000;1.195247
4627.000000;1.194221
4626.000000;1.193253
4625.000000;1.192374
4624.000000;1.191809
4623.000000;1.191659
4622.000000;1.191645
4621.000000;1.191315
4620.000000;1.190492
4619.000000;1.189435
4618.000000;1.188513
4617.000000;1.187812
4616.000000;1.187133
4615.000000;1.186357
4614.000000;1.185635
4613.000000;1.185121
4612.000000;1.184657
4611.000000;1.183902
4610.000000;1.182732
4609.000000;1.181372
4608.000000;1.180150
4607.000000;1.179259
4606.000000;1.178725
4605.000000;1.178436
4604.000000;1.178183
4603.000000;1.177804
4602.000000;1.177305
4601.000000;1.176753
4600.000000;1.176117
4599.000000;1.175393
4598.000000;1.174801
4597.000000;1.174620
4596.000000;1.174786
4595.000000;1.174909
4594.000000;1.174733
4593.000000;1.174361
4592.000000;1.173946
4591.000000;1.173440
4590.000000;1.172796
4589.000000;1.172184
4588.000000;1.171795
4587.000000;1.171573
4586.000000;1.171353
4585.000000;1.171132
4584.000000;1.170982
4583.000000;1.170807
4582.000000;1.170434
4581.000000;1.169911
4580.000000;1.169471
4579.000000;1.169198
4578.000000;1.168921
4577.000000;1.168496
4576.000000;1.168024
4575.000000;1.167725
4574.000000;1.167715
4573.000000;1.167983
4572.000000;1.168461
4571.000000;1.169011
4570.000000;1.169387
4569.000000;1.169343
4568.000000;1.168842
4567.000000;1.168144
4566.000000;1.167652
4565.000000;1.167618
4564.000000;1.167985
4563.000000;1.168543
4562.000000;1.169212
4561.000000;1.170061
4560.000000;1.171020
4559.000000;1.171739
4558.000000;1.171932
4557.000000;1.171838
4556.000000;1.172109
4555.000000;1.173165
4554.000000;1.174735
4553.000000;1.176096
4552.000000;1.176720
4551.000000;1.176628
4550.000000;1.176220
4549.000000;1.175887
4548.000000;1.175820
4547.000000;1.176051
4546.000000;1.176554
4545.000000;1.177280
4544.000000;1.178173
4543.000000;1.179197
4542.000000;1.180314
4541.000000;1.181410
4540.000000;1.182270
4539.000000;1.182739
4538.000000;1.182916
4537.000000;1.183108
4536.000000;1.183546
4535.000000;1.184190
4534.000000;1.184871
4533.000000;1.185575
4532.000000;1.186472
4531.000000;1.187681
4530.000000;1.189071
4529.000000;1.190321
4528.000000;1.191162
4527.000000;1.191580
4526.000000;1.191816
4525.000000;1.192166
4524.000000;1.192746
4523.000000;1.193450
4522.000000;1.194126
4521.000000;1.194763
4520.000000;1.195437
4519.000000;1.196140
4518.000000;1.196755
4517.000000;1.197231
4516.000000;1.197651
4515.000000;1.198065
4514.000000;1.198349
4513.000000;1.198349
4512.000000;1.198143
4511.000000;1.198042
4510.000000;1.198316
4509.000000;1.198983
4508.000000;1.199925
4507.000000;1.201095
4506.000000;1.202501
4505.000000;1.204022
4504.000000;1.205370
4503.000000;1.206310
4502.000000;1.206862
4501.000000;1.207233
4500.000000;1.207606
4499.000000;1.208031
4498.000000;1.208512
4497.000000;1.209153
4496.000000;1.210171
4495.000000;1.211726
4494.000000;1.213686
4493.000000;1.215591
4492.000000;1.216949
4491.000000;1.217666
4490.000000;1.218126
4489.000000;1.218812
4488.000000;1.219886
4487.000000;1.221167
4486.000000;1.222415
4485.000000;1.223542
4484.000000;1.224605
4483.000000;1.225737
4482.000000;1.227066
4481.000000;1.228595
4480.000000;1.230188
4479.000000;1.231734
4478.000000;1.233301
4477.000000;1.234976
4476.000000;1.236623
4475.000000;1.237977
4474.000000;1.239054
4473.000000;1.240228
4472.000000;1.241798
4471.000000;1.243630
4470.000000;1.245390
4469.000000;1.246982
4468.000000;1.248594
4467.000000;1.250377
4466.000000;1.252320
4465.000000;1.254378
4464.000000;1.256526
4463.000000;1.258622
4462.000000;1.260433
4461.000000;1.261903
4460.000000;1.263260
4459.000000;1.264748
4458.000000;1.266339
4457.000000;1.267827
4456.000000;1.269157
4455.000000;1.270573
4454.000000;1.272434
4453.000000;1.274923
4452.000000;1.277880
4451.000000;1.280889
4450.000000;1.283582
4449.000000;1.285921
4448.000000;1.288146
4447.000000;1.290421
4446.000000;1.292608
4445.000000;1.294438
4444.000000;1.295862
4443.000000;1.297158
4442.000000;1.298733
4441.000000;1.300860
4440.000000;1.303556
4439.000000;1.306616
4438.000000;1.309747
4437.000000;1.312706
4436.000000;1.315338
4435.000000;1.317530
4434.000000;1.319292
4433.000000;1.320916
4432.000000;1.322906
4431.000000;1.325574
4430.000000;1.328742
4429.000000;1.331922
4428.000000;1.334731
4427.000000;1.337063
4426.000000;1.338992
4425.000000;1.340732
4424.000000;1.342641
4423.000000;1.345016
4422.000000;1.347811
4421.000000;1.350667
4420.000000;1.353238
4419.000000;1.355366
4418.000000;1.357053
4417.000000;1.358533
4416.000000;1.360375
4415.000000;1.363156
4414.000000;1.366868
4413.000000;1.370861
4412.000000;1.374496
4411.000000;1.377653
4410.000000;1.380464
4409.000000;1.382887
4408.000000;1.384843
4407.000000;1.386571
4406.000000;1.388511
4405.000000;1.390927
4404.000000;1.393861
4403.000000;1.397293
4402.000000;1.401047
4401.000000;1.404642
4400.000000;1.407644
4399.000000;1.410189
4398.000000;1.412849
4397.000000;1.415923
4396.000000;1.419166
4395.000000;1.422264
4394.000000;1.425248
4393.000000;1.428280
4392.000000;1.431339
4391.000000;1.434353
4390.000000;1.437437
4389.000000;1.440726
4388.000000;1.444069
4387.000000;1.447063
4386.000000;1.449422
4385.000000;1.451282
4384.000000;1.453189
4383.000000;1.455780
4382.000000;1.459285
4381.000000;1.463276
4380.000000;1.467067
4379.000000;1.470457
4378.000000;1.473920
4377.000000;1.477919
4376.000000;1.482207
4375.000000;1.486009
4374.000000;1.488821
4373.000000;1.490871
4372.000000;1.492823
4371.000000;1.495246
4370.000000;1.498381
4369.000000;1.502229
4368.000000;1.506723
4367.000000;1.511754
4366.000000;1.517012
4365.000000;1.521934
4364.000000;1.526050
4363.000000;1.529457
4362.000000;1.532762
4361.000000;1.536446
4360.000000;1.540425
4359.000000;1.544328
4358.000000;1.548005
4357.000000;1.551587
4356.000000;1.555198
4355.000000;1.558903
4354.000000;1.562897
4353.000000;1.567466
4352.000000;1.572609
4351.000000;1.577849
4350.000000;1.582552
4349.000000;1.586453
4348.000000;1.589856
4347.000000;1.593263
4346.000000;1.596850
4345.000000;1.600350
4344.000000;1.603467
4343.000000;1.606360
4342.000000;1.609631
4341.000000;1.613819
4340.000000;1.618920
4339.000000;1.624433
4338.000000;1.629797
4337.000000;1.634764
4336.000000;1.639353
4335.000000;1.643609
4334.000000;1.647630
4333.000000;1.651710
4332.000000;1.656114
4331.000000;1.660624
4330.000000;1.664623
4329.000000;1.667947
4328.000000;1.671416
4327.000000;1.676076
4326.000000;1.681995
4325.000000;1.688294
4324.000000;1.694260
4323.000000;1.699803
4322.000000;1.704746
4321.000000;1.708614
4320.000000;1.711648
4319.000000;1.715253
4318.000000;1.720606
4317.000000;1.727197
4316.000000;1.733406
4315.000000;1.738275
4314.000000;1.742045
4313.000000;1.745234
4312.000000;1.748209
4311.000000;1.751519
4310.000000;1.755568
4309.000000;1.759841
4308.000000;1.763426
4307.000000;1.766560
4306.000000;1.770719
4305.000000;1.776784
4304.000000;1.783966
4303.000000;1.790961
4302.000000;1.797407
4301.000000;1.803536
4300.000000;1.809125
4299.000000;1.813762
4298.000000;1.817817
4297.000000;1.822274
4296.000000;1.827600
4295.000000;1.833331
4294.000000;1.838648
4293.000000;1.842911
4292.000000;1.845788
4291.000000;1.847483
4290.000000;1.848969
4289.000000;1.851605
4288.000000;1.856326
4287.000000;1.863163
4286.000000;1.871264
4285.000000;1.879308
4284.000000;1.886298
4283.000000;1.892275
4282.000000;1.897965
4281.000000;1.903508
4280.000000;1.907955
4279.000000;1.910353
4278.000000;1.911223
4277.000000;1.912478
4276.000000;1.915801
4275.000000;1.921551
4274.000000;1.929061
4273.000000;1.937355
4272.000000;1.945485
4271.000000;1.952601
4270.000000;1.958126
4269.000000;1.962156
4268.000000;1.965596
4267.000000;1.969489
4266.000000;1.973982
4265.000000;1.978210
4264.000000;1.981335
4263.000000;1.983519
4262.000000;1.985729
4261.000000;1.988934
4260.000000;1.993783
4259.000000;2.000537
4258.000000;2.008872
4257.000000;2.017750
4256.000000;2.025824
4255.000000;2.032442
4254.000000;2.037894
4253.000000;2.043029
4252.000000;2.049123
4251.000000;2.057204
4250.000000;2.066684
4249.000000;2.075002
4248.000000;2.079735
4247.000000;2.081241
4246.000000;2.082171
4245.000000;2.084386
4244.000000;2.087557
4243.000000;2.090681
4242.000000;2.094242
4241.000000;2.099741
4240.000000;2.107687
4239.000000;2.116628
4238.000000;2.124067
4237.000000;2.128588
4236.000000;2.131396
4235.000000;2.135157
4234.000000;2.140954
4233.000000;2.146894
4232.000000;2.150266
4231.000000;2.150723
4230.000000;2.150630
4229.000000;2.152633
4228.000000;2.158043
4227.000000;2.166831
4226.000000;2.177170
4225.000000;2.185350
4224.000000;2.188703
4223.000000;2.188966
4222.000000;2.190499
4221.000000;2.195094
4220.000000;2.200643
4219.000000;2.205090
4218.000000;2.209300
4217.000000;2.215056
4216.000000;2.222608
4215.000000;2.231369
4214.000000;2.241175
4213.000000;2.251270
4212.000000;2.258981
4211.000000;2.261952
4210.000000;2.261488
4209.000000;2.260652
4208.000000;2.260069
4207.000000;2.258823
4206.000000;2.258470
4205.000000;2.262811
4204.000000;2.272693
4203.000000;2.283162
4202.000000;2.288019
4201.000000;2.287020
4200.000000;2.286406
4199.000000;2.291635
4198.000000;2.301461
4197.000000;2.309873
4196.000000;2.313330
4195.000000;2.314877
4194.000000;2.319968
4193.000000;2.329743
4192.000000;2.340110
4191.000000;2.346811
4190.000000;2.349746
4189.000000;2.351938
4188.000000;2.356378
4187.000000;2.364601
4186.000000;2.376033
4185.000000;2.387544
4184.000000;2.395287
4183.000000;2.398114
4182.000000;2.398300
4181.000000;2.399025
4180.000000;2.401864
4179.000000;2.406380
4178.000000;2.411624
4177.000000;2.417264
4176.000000;2.423285
4175.000000;2.429230
4174.000000;2.433034
4173.000000;2.431560
4172.000000;2.425701
4171.000000;2.423624
4170.000000;2.434484
4169.000000;2.458861
4168.000000;2.485859
4167.000000;2.500941
4166.000000;2.499096
4165.000000;2.487712
4164.000000;2.476993
4163.000000;2.472140
4162.000000;2.472488
4161.000000;2.474358
4160.000000;2.475415
4159.000000;2.476822
4158.000000;2.480107
4157.000000;2.483970
4156.000000;2.486634
4155.000000;2.490071
4154.000000;2.498254
4153.000000;2.510549
4152.000000;2.521283
4151.000000;2.527378
4150.000000;2.531630
4149.000000;2.536716
4148.000000;2.540846
4147.000000;2.541573
4146.000000;2.540505
4145.000000;2.541284
4144.000000;2.545901
4143.000000;2.555137
4142.000000;2.568598
4141.000000;2.580937
4140.000000;2.583279
4139.000000;2.575520
4138.000000;2.569377
4137.000000;2.573507
4136.000000;2.584862
4135.000000;2.596166
4134.000000;2.605662
4133.000000;2.616380
4132.000000;2.629532
4131.000000;2.642263
4130.000000;2.651166
4129.000000;2.655990
4128.000000;2.658738
4127.000000;2.659715
4126.000000;2.658867
4125.000000;2.658835
4124.000000;2.660673
4123.000000;2.663402
4122.000000;2.667655
4121.000000;2.672652
4120.000000;2.675413
4119.000000;2.675982
4118.000000;2.678289
4117.000000;2.684374
4116.000000;2.691481
4115.000000;2.697318
4114.000000;2.704356
4113.000000;2.714638
4112.000000;2.724297
4111.000000;2.728036
4110.000000;2.725634
4109.000000;2.719137
4108.000000;2.707906
4107.000000;2.693127
4106.000000;2.680656
4105.000000;2.672582
4104.000000;2.665299
4103.000000;2.660624
4102.000000;2.668373
4101.000000;2.690681
4100.000000;2.710322
4099.000000;2.707756
4098.000000;2.691378
4097.000000;2.690175
4096.000000;2.721860
4095.000000;2.778995
4094.000000;2.834123
4093.000000;2.856786
4092.000000;2.844141
4091.000000;2.821135
4090.000000;2.807544
4089.000000;2.809457
4088.000000;2.822061
4087.000000;2.835098
4086.000000;2.843876
4085.000000;2.849776
4084.000000;2.850133
4083.000000;2.840422
4082.000000;2.826286
4081.000000;2.820348
4080.000000;2.826937
4079.000000;2.837225
4078.000000;2.840505
4077.000000;2.835382
4076.000000;2.825763
4075.000000;2.815338
4074.000000;2.810215
4073.000000;2.816307
4072.000000;2.829595
4071.000000;2.835565
4070.000000;2.826862
4069.000000;2.815524
4068.000000;2.817823
4067.000000;2.837013
4066.000000;2.862696
4065.000000;2.880250
4064.000000;2.882446
4063.000000;2.875772
4062.000000;2.875647
4061.000000;2.893706
4060.000000;2.925178
4059.000000;2.949700
4058.000000;2.954828
4057.000000;2.948168
4056.000000;2.941479
4055.000000;2.935396
4054.000000;2.923218
4053.000000;2.910832
4052.000000;2.914878
4051.000000;2.943487
4050.000000;2.985803
4049.000000;3.012269
4048.000000;2.998430
4047.000000;2.955240
4046.000000;2.913096
4045.000000;2.892157
4044.000000;2.897218
4043.000000;2.921952
4042.000000;2.951476
4041.000000;2.966738
4040.000000;2.957521
4039.000000;2.932055
4038.000000;2.906815
4037.000000;2.891146
4036.000000;2.886053
4035.000000;2.892826
4034.000000;2.914831
4033.000000;2.950214
4032.000000;2.987664
4031.000000;3.012739
4030.000000;3.019326
4029.000000;3.012273
4028.000000;3.000812
4027.000000;2.994737
4026.000000;3.002044
4025.000000;3.021546
4024.000000;3.038588
4023.000000;3.038075
4022.000000;3.030202
4021.000000;3.033428
4020.000000;3.037759
4019.000000;3.020018
4018.000000;2.985461
4017.000000;2.963449
4016.000000;2.970282
4015.000000;2.998753
4014.000000;3.036393
4013.000000;3.073854
4012.000000;3.089191
4011.000000;3.062139
4010.000000;3.013377
4009.000000;2.980882
4008.000000;2.980623
4007.000000;3.001180
4006.000000;3.018772
4005.000000;3.017692
4004.000000;2.997929
4003.000000;2.965598
4002.000000;2.930443
4001.000000;2.911328
4000.000000;2.926125
3999.000000;2.976646
3998.000000;3.038630
3997.000000;3.076175
3996.000000;3.083230
3995.000000;3.087214
3994.000000;3.109651
3993.000000;3.146896
3992.000000;3.183990
3991.000000;3.213183
3990.000000;3.222843
3989.000000;3.209481
3988.000000;3.197708
3987.000000;3.202820
3986.000000;3.212952
3985.000000;3.212724
3984.000000;3.210164
3983.000000;3.225268
3982.000000;3.255333
3981.000000;3.274416
3980.000000;3.270332
3979.000000;3.244681
3978.000000;3.191683
3977.000000;3.111942
3976.000000;3.031045
3975.000000;2.981784
3974.000000;2.981702
3973.000000;3.031426
3972.000000;3.116360
3971.000000;3.205643
3970.000000;3.264325
3969.000000;3.286285
3968.000000;3.291608
3967.000000;3.301002
3966.000000;3.325823
3965.000000;3.353214
3964.000000;3.354991
3963.000000;3.330412
3962.000000;3.309285
3961.000000;3.308912
3960.000000;3.314394
3959.000000;3.292792
3958.000000;3.240372
3957.000000;3.193734
3956.000000;3.174711
3955.000000;3.168357
3954.000000;3.164377
3953.000000;3.186623
3952.000000;3.222279
3951.000000;3.215516
3950.000000;3.197254
3949.000000;3.217158
3948.000000;3.249921
3947.000000;3.242337
3946.000000;3.192493
3945.000000;3.140524
3944.000000;3.104151
3943.000000;3.084380
3942.000000;3.093734
3941.000000;3.158224
3940.000000;3.284071
3939.000000;3.397705
3938.000000;3.408131
3937.000000;3.337798
3936.000000;3.262063
3935.000000;3.232110
3934.000000;3.255614
3933.000000;3.313755
3932.000000;3.371314
3931.000000;3.398584
3930.000000;3.400647
3929.000000;3.392155
3928.000000;3.363594
3927.000000;3.308086
3926.000000;3.250352
3925.000000;3.215017
3924.000000;3.200633
3923.000000;3.196814
3922.000000;3.214409
3921.000000;3.263600
3920.000000;3.302051
3919.000000;3.295251
3918.000000;3.295542
3917.000000;3.361953
3916.000000;3.460026
3915.000000;3.442447
3914.000000;3.365354
3913.000000;3.351810
3912.000000;3.398432
3911.000000;3.461295
3910.000000;3.516072
3909.000000;3.586174
3908.000000;3.716396
3907.000000;3.950784
3906.000000;3.834762
3905.000000;3.583661
3904.000000;3.484916
3903.000000;3.478405
3902.000000;3.512739
3901.000000;3.545454
3900.000000;3.540817
3899.000000;3.476047
3898.000000;3.382318
3897.000000;3.313956
3896.000000;3.295153
3895.000000;3.316951
3894.000000;3.370295
3893.000000;3.471374
3892.000000;3.637650
3891.000000;3.819013
3890.000000;3.770177
3889.000000;3.601944
3888.000000;3.573440
3887.000000;3.670597
3886.000000;3.794467
3885.000000;3.813725
3884.000000;3.750373
3883.000000;3.710986
3882.000000;3.786825
3881.000000;4.084508
3880.000000;4.099625
3879.000000;3.851486
3878.000000;3.956796
3877.000000;4.506904
3876.000000;4.138352
3875.000000;3.934306
3874.000000;3.908094
3873.000000;4.006753
3872.000000;4.351174
3871.000000;4.318599
3870.000000;3.929118
3869.000000;3.745438
3868.000000;3.681245
3867.000000;3.696297
3866.000000;3.768254
3865.000000;3.868363
3864.000000;3.910277
3863.000000;3.791231
3862.000000;3.619672
3861.000000;3.561882
3860.000000;3.687704
3859.000000;3.833735
3858.000000;3.783933
3857.000000;3.777002
3856.000000;3.956689
3855.000000;4.289714
3854.000000;4.290165
3853.000000;4.306055
3852.000000;4.367991
3851.000000;4.310955
3850.000000;4.235692
3849.000000;4.173577
3848.000000;4.081704
3847.000000;3.901444
3846.000000;3.734158
3845.000000;3.682605
3844.000000;3.670224
3843.000000;3.597359
3842.000000;3.492316
3841.000000;3.425463
3840.000000;3.403153
3839.000000;3.363571
3838.000000;3.329023
3837.000000;3.370733
3836.000000;3.498893
3835.000000;3.718155
3834.000000;4.081543
3833.000000;4.150276
3832.000000;3.957957
3831.000000;3.972532
3830.000000;4.132510
3829.000000;4.121189
3828.000000;3.954405
3827.000000;3.820877
3826.000000;3.922032
3825.000000;4.374240
3824.000000;3.724401
3823.000000;3.443975
3822.000000;3.410876
3821.000000;3.440051
3820.000000;3.487640
3819.000000;3.500872
3818.000000;3.516900
3817.000000;3.567696
3816.000000;3.666577
3815.000000;3.814952
3814.000000;3.978554
3813.000000;4.075597
3812.000000;4.103458
3811.000000;4.216058
3810.000000;4.424409
3809.000000;4.100116
3808.000000;3.812047
3807.000000;3.712908
3806.000000;3.663020
3805.000000;3.637738
3804.000000;3.634927
3803.000000;3.652443
3802.000000;3.710011
3801.000000;3.831291
3800.000000;4.076047
3799.000000;4.140017
3798.000000;4.213646
3797.000000;4.522011
3796.000000;4.427990
3795.000000;4.632085
3794.000000;3.792516
3793.000000;3.476735
3792.000000;3.404413
3791.000000;3.397444
3790.000000;3.447041
3789.000000;3.546883
3788.000000;3.693911
3787.000000;3.841801
3786.000000;3.989636
3785.000000;4.075199
3784.000000;4.058136
3783.000000;4.086145
3782.000000;4.409371
3781.000000;4.219371
3780.000000;3.780473
3779.000000;3.635662
3778.000000;3.627930
3777.000000;3.732896
3776.000000;3.806293
3775.000000;3.716472
3774.000000;3.628336
3773.000000;3.663332
3772.000000;3.827295
3771.000000;3.743816
3770.000000;3.533191
3769.000000;3.429508
3768.000000;3.413426
3767.000000;3.454127
3766.000000;3.536126
3765.000000;3.632508
3764.000000;3.894078
3763.000000;4.199709
3762.000000;3.723673
3761.000000;3.520795
3760.000000;3.442307
3759.000000;3.412805
3758.000000;3.452950
3757.000000;3.604545
3756.000000;3.903511
3755.000000;3.877234
3754.000000;3.750297
3753.000000;3.879738
3752.000000;3.977294
3751.000000;3.857518
3750.000000;3.800319
3749.000000;3.815591
3748.000000;3.853788
3747.000000;3.902966
3746.000000;3.987590
3745.000000;4.143661
3744.000000;4.372595
3743.000000;4.556797
3742.000000;4.570028
3741.000000;4.416635
3740.000000;4.234454
3739.000000;4.049672
3738.000000;4.134317
3737.000000;3.969292
3736.000000;3.578311
3735.000000;3.444510
3734.000000;3.410719
3733.000000;3.395497
3732.000000;3.385505
3731.000000;3.418280
3730.000000;3.519776
3729.000000;3.635329
3728.000000;3.713506
3727.000000;3.757946
3726.000000;3.850968
3725.000000;4.022882
3724.000000;4.009200
3723.000000;3.849385
3722.000000;3.808518
3721.000000;3.828757
3720.000000;3.865388
3719.000000;3.895619
3718.000000;4.009752
3717.000000;4.204571
3716.000000;4.192935
3715.000000;4.184708
3714.000000;3.878917
3713.000000;3.637641
3712.000000;3.625440
3711.000000;3.802530
3710.000000;3.984695
3709.000000;3.994086
3708.000000;4.286434
3707.000000;4.200581
3706.000000;3.780651
3705.000000;3.604974
3704.000000;3.519897
3703.000000;3.510723
3702.000000;3.502483
3701.000000;3.462752
3700.000000;3.461652
3699.000000;3.577074
3698.000000;3.843992
3697.000000;4.219819
3696.000000;4.516660
3695.000000;4.227733
3694.000000;3.897021
3693.000000;3.727817
3692.000000;3.651521
3691.000000;3.692679
3690.000000;3.919029
3689.000000;3.863096
3688.000000;3.620007
3687.000000;3.593108
3686.000000;3.695006
3685.000000;3.739525
3684.000000;3.799176
3683.000000;4.046834
3682.000000;3.720748
3681.000000;3.453539
3680.000000;3.494375
3679.000000;3.922042
3678.000000;4.386251
3677.000000;3.861540
3676.000000;4.006376
3675.000000;4.158837
3674.000000;3.861988
3673.000000;3.680497
3672.000000;3.670211
3671.000000;3.807058
3670.000000;3.969999
3669.000000;3.946158
3668.000000;3.763241
3667.000000;3.689737
3666.000000;3.723972
3665.000000;3.819999
3664.000000;3.948204
3663.000000;4.135300
3662.000000;4.353139
3661.000000;4.245166
3660.000000;4.035603
3659.000000;3.902566
3658.000000;3.777884
3657.000000;3.671740
3656.000000;3.655876
3655.000000;3.699132
3654.000000;3.674547
3653.000000;3.593272
3652.000000;3.565171
3651.000000;3.641452
3650.000000;3.748329
3649.000000;4.018988
3648.000000;4.186710
3647.000000;3.604011
3646.000000;3.367495
3645.000000;3.305437
3644.000000;3.318654
3643.000000;3.401879
3642.000000;3.551758
3641.000000;3.901067
3640.000000;4.055112
3639.000000;3.973700
3638.000000;4.018369
3637.000000;3.758089
3636.000000;3.645022
3635.000000;3.646978
3634.000000;3.503920
3633.000000;3.372908
3632.000000;3.367233
3631.000000;3.489237
3630.000000;3.582416
3629.000000;3.545017
3628.000000;3.514282
3627.000000;3.500921
3626.000000;3.554274
3625.000000;3.697007
3624.000000;3.776214
3623.000000;3.749912
3622.000000;3.752715
3621.000000;3.717441
3620.000000;3.700440
3619.000000;3.771936
3618.000000;3.857803
3617.000000;3.854078
3616.000000;3.688138
3615.000000;3.636841
3614.000000;3.807348
3613.000000;3.840083
3612.000000;3.643189
3611.000000;3.588697
3610.000000;3.731717
3609.000000;3.828524
3608.000000;3.703463
3607.000000;3.656057
3606.000000;3.774326
3605.000000;4.150048
3604.000000;4.191350
3603.000000;3.950051
3602.000000;3.959854
3601.000000;4.223209
3600.000000;4.268785
3599.000000;3.832509
3598.000000;3.677734
3597.000000;3.637791
3596.000000;3.567049
3595.000000;3.482546
3594.000000;3.436344
3593.000000;3.530686
3592.000000;3.871029
3591.000000;4.097555
3590.000000;3.993657
3589.000000;3.929436
3588.000000;3.810928
3587.000000;3.811441
3586.000000;3.947212
3585.000000;4.127333
3584.000000;4.048725
3583.000000;4.018497
3582.000000;4.008987
3581.000000;3.806591
3580.000000;3.638699
3579.000000;3.498697
3578.000000;3.404427
3577.000000;3.406719
3576.000000;3.555858
3575.000000;3.810834
3574.000000;3.864210
3573.000000;3.732609
3572.000000;3.925301
3571.000000;4.374122
3570.000000;3.798704
3569.000000;3.544439
3568.000000;3.452425
3567.000000;3.399788
3566.000000;3.385884
3565.000000;3.324686
3564.000000;3.259840
3563.000000;3.283058
3562.000000;3.465360
3561.000000;3.937763
3560.000000;4.023754
3559.000000;3.702593
3558.000000;3.632337
3557.000000;3.641147
3556.000000;3.741775
3555.000000;4.090559
3554.000000;4.424569
3553.000000;4.062337
3552.000000;3.703128
3551.000000;3.468110
3550.000000;3.393736
3549.000000;3.649735
3548.000000;4.291756
3547.000000;3.790191
3546.000000;3.784472
3545.000000;3.960571
3544.000000;3.628291
3543.000000;3.433579
3542.000000;3.427658
3541.000000;3.608889
3540.000000;4.059314
3539.000000;4.501230
3538.000000;4.182849
3537.000000;4.123634
3536.000000;4.212295
3535.000000;4.093382
3534.000000;3.803850
3533.000000;3.675544
3532.000000;3.717409
3531.000000;3.840018
3530.000000;4.112723
3529.000000;4.189055
3528.000000;3.803720
3527.000000;3.612632
3526.000000;3.690015
3525.000000;4.260439
3524.000000;4.066830
3523.000000;4.091749
3522.000000;5.046544
3521.000000;4.103539
3520.000000;4.189183
3519.000000;3.869419
3518.000000;3.581209
3517.000000;3.533735
3516.000000;3.557169
3515.000000;3.580026
3514.000000;3.518231
3513.000000;3.455420
3512.000000;3.422974
3511.000000;3.415453
3510.000000;3.422040
3509.000000;3.454418
3508.000000;3.527145
3507.000000;3.615977
3506.000000;3.696809
3505.000000;3.781113
3504.000000;3.821558
3503.000000;3.769937
3502.000000;3.712869
3501.000000;3.727343
3500.000000;3.872206
3499.000000;4.184658
3498.000000;4.389572
3497.000000;4.272041
3496.000000;4.355304
3495.000000;4.535220
3494.000000;4.253037
3493.000000;4.239169
3492.000000;4.719716
3491.000000;4.531598
3490.000000;4.222181
3489.000000;3.983543
3488.000000;3.801146
3487.000000;3.720127
3486.000000;3.760298
3485.000000;4.209098
3484.000000;4.027064
3483.000000;3.547591
3482.000000;3.467703
3481.000000;3.518015
3480.000000;3.710746
3479.000000;4.396863
3478.000000;4.100038
3477.000000;3.641854
3476.000000;3.545799
3475.000000;3.550490
3474.000000;3.595485
3473.000000;3.628402
3472.000000;3.772903
3471.000000;4.067387
3470.000000;3.900194
3469.000000;3.738497
3468.000000;3.697067
3467.000000;3.645939
3466.000000;3.636843
3465.000000;3.747083
3464.000000;4.217293
3463.000000;4.435089
3462.000000;4.101992
3461.000000;4.369340
3460.000000;4.615905
3459.000000;4.783497
3458.000000;4.326790
3457.000000;3.851321
3456.000000;3.704263
3455.000000;3.719638
3454.000000;3.972475
3453.000000;4.369694
3452.000000;4.242187
3451.000000;3.993259
3450.000000;3.799955
3449.000000;3.885667
3448.000000;3.900662
3447.000000;3.584726
3446.000000;3.447396
3445.000000;3.370346
3444.000000;3.316149
3443.000000;3.396463
3442.000000;3.614933
3441.000000;3.699889
3440.000000;3.615926
3439.000000;3.686412
3438.000000;3.842436
3437.000000;3.812698
3436.000000;3.758361
3435.000000;3.827611
3434.000000;3.952743
3433.000000;4.129451
3432.000000;4.118448
3431.000000;3.848338
3430.000000;3.694146
3429.000000;3.639507
3428.000000;3.632565
3427.000000;3.643744
3426.000000;3.636817
3425.000000;3.658751
3424.000000;3.742392
3423.000000;3.753389
3422.000000;3.690979
3421.000000;3.656497
3420.000000;3.710197
3419.000000;3.837986
3418.000000;3.747626
3417.000000;3.638371
3416.000000;3.667232
3415.000000;3.743600
3414.000000;3.779755
3413.000000;3.695311
3412.000000;3.590615
3411.000000;3.550133
3410.000000;3.543511
3409.000000;3.544637
3408.000000;3.602911
3407.000000;3.770153
3406.000000;4.107057
3405.000000;4.352931
3404.000000;3.976423
3403.000000;3.728850
3402.000000;3.700176
3401.000000;3.801776
3400.000000;3.912885
3399.000000;3.856544
3398.000000;3.938780
3397.000000;4.489822
3396.000000;3.962099
3395.000000;3.765219
3394.000000;4.106803
3393.000000;4.153001
3392.000000;3.823406
3391.000000;3.818680
3390.000000;4.068863
3389.000000;4.085358
3388.000000;3.886715
3387.000000;3.847311
3386.000000;3.850952
3385.000000;3.840922
3384.000000;3.827789
3383.000000;3.805447
3382.000000;3.806283
3381.000000;3.847972
3380.000000;3.964990
3379.000000;4.133088
3378.000000;4.216958
3377.000000;4.203765
3376.000000;3.999332
3375.000000;3.742810
3374.000000;3.587801
3373.000000;3.549304
3372.000000;3.623075
3371.000000;3.812945
3370.000000;4.078461
3369.000000;4.060438
3368.000000;3.936691
3367.000000;3.991065
3366.000000;4.128548
3365.000000;4.112934
3364.000000;3.918237
3363.000000;3.733754
3362.000000;3.649495
3361.000000;3.654379
3360.000000;3.676974
3359.000000;3.701890
3358.000000;3.771132
3357.000000;3.742175
3356.000000;3.606094
3355.000000;3.547839
3354.000000;3.590197
3353.000000;3.704576
3352.000000;3.874737
3351.000000;4.006425
3350.000000;3.953895
3349.000000;3.831141
3348.000000;3.814551
3347.000000;4.070795
3346.000000;4.198903
3345.000000;3.961916
3344.000000;4.006649
3343.000000;4.330306
3342.000000;4.728465
3341.000000;4.300471
3340.000000;3.999320
3339.000000;3.884091
3338.000000;3.920394
3337.000000;4.070099
3336.000000;4.151645
3335.000000;4.200531
3334.000000;4.545047
3333.000000;4.640537
3332.000000;3.918241
3331.000000;3.633576
3330.000000;3.556955
3329.000000;3.632987
3328.000000;3.822321
3327.000000;4.069832
3326.000000;4.222755
3325.000000;3.962714
3324.000000;3.820330
3323.000000;4.081702
3322.000000;4.345803
3321.000000;3.877371
3320.000000;3.669199
3319.000000;3.580464
3318.000000;3.537443
3317.000000;3.550772
3316.000000;3.623889
3315.000000;3.768393
3314.000000;3.953495
3313.000000;3.918837
3312.000000;3.715798
3311.000000;3.584044
3310.000000;3.536830
3309.000000;3.570099
3308.000000;3.725108
3307.000000;3.986341
3306.000000;3.960827
3305.000000;3.813284
3304.000000;3.763969
3303.000000;3.751240
3302.000000;3.767646
3301.000000;3.827901
3300.000000;3.943991
3299.000000;3.968274
3298.000000;3.789695
3297.000000;3.646133
3296.000000;3.598227
3295.000000;3.629819
3294.000000;3.603303
3293.000000;3.543767
3292.000000;3.553799
3291.000000;3.688682
3290.000000;4.313170
3289.000000;4.058987
3288.000000;3.623812
3287.000000;3.557245
3286.000000;3.646911
3285.000000;3.922499
3284.000000;4.301095
3283.000000;4.268656
3282.000000;4.061825
3281.000000;3.947402
3280.000000;3.933753
3279.000000;3.941808
3278.000000;3.866747
3277.000000;3.762095
3276.000000;3.681356
3275.000000;3.633605
3274.000000;3.624154
3273.000000;3.653032
3272.000000;3.709858
3271.000000;3.786470
3270.000000;3.903483
3269.000000;4.055879
3268.000000;4.131219
3267.000000;4.053975
3266.000000;3.977079
3265.000000;4.029677
3264.000000;3.982729
3263.000000;3.795839
3262.000000;3.721138
3261.000000;3.751249
3260.000000;3.813833
3259.000000;3.857844
3258.000000;3.881441
3257.000000;3.990967
3256.000000;4.096553
3255.000000;4.012723
3254.000000;4.220780
3253.000000;4.145039
3252.000000;3.686016
3251.000000;3.572444
3250.000000;3.644318
3249.000000;3.715688
3248.000000;3.622716
3247.000000;3.582032
3246.000000;3.678921
3245.000000;3.973717
3244.000000;4.458007
3243.000000;4.100576
3242.000000;3.821149
3241.000000;3.669924
3240.000000;3.566572
3239.000000;3.540840
3238.000000;3.568108
3237.000000;3.621594
3236.000000;3.640240
3235.000000;3.596106
3234.000000;3.601317
3233.000000;3.734358
3232.000000;3.947531
3231.000000;4.228426
3230.000000;4.458169
3229.000000;4.151840
3228.000000;3.961326
3227.000000;3.775061
3226.000000;3.592971
3225.000000;3.498261
3224.000000;3.521432
3223.000000;3.688211
3222.000000;3.967159
3221.000000;4.234352
3220.000000;4.165236
3219.000000;3.965003
3218.000000;3.956869
3217.000000;3.974166
3216.000000;3.890082
3215.000000;3.761527
3214.000000;3.697468
3213.000000;3.661369
3212.000000;3.633792
3211.000000;3.632464
3210.000000;3.737730
3209.000000;4.413621
3208.000000;4.122367
3207.000000;3.803297
3206.000000;3.925132
3205.000000;4.097325
3204.000000;4.243255
3203.000000;4.128947
3202.000000;3.774306
3201.000000;3.592950
3200.000000;3.559574
3199.000000;3.636320
3198.000000;3.831458
3197.000000;4.007305
3196.000000;3.889408
3195.000000;3.818773
3194.000000;3.893764
3193.000000;3.938906
3192.000000;3.881105
3191.000000;3.890674
3190.000000;4.276612
3189.000000;4.479549
3188.000000;3.860263
3187.000000;3.679531
3186.000000;3.697956
3185.000000;3.845568
3184.000000;3.862299
3183.000000;3.753429
3182.000000;3.694597
3181.000000;3.639939
3180.000000;3.619660
3179.000000;3.649031
3178.000000;3.780037
3177.000000;4.258555
3176.000000;4.000929
3175.000000;3.611564
3174.000000;3.511489
3173.000000;3.552159
3172.000000;3.870240
3171.000000;4.448642
3170.000000;3.660419
3169.000000;3.469198
3168.000000;3.435453
3167.000000;3.524132
3166.000000;3.817666
3165.000000;4.395988
3164.000000;4.494902
3163.000000;4.272111
3162.000000;4.118990
3161.000000;4.073845
3160.000000;4.148963
3159.000000;4.028383
3158.000000;3.864309
3157.000000;3.835951
3156.000000;3.952547
3155.000000;4.192929
3154.000000;4.471258
3153.000000;4.287255
3152.000000;4.160768
3151.000000;4.014986
3150.000000;3.762572
3149.000000;3.664849
3148.000000;3.745059
3147.000000;3.956181
3146.000000;3.995210
3145.000000;3.884579
3144.000000;3.944243
3143.000000;4.149128
3142.000000;4.095850
3141.000000;3.907627
3140.000000;3.848862
3139.000000;3.922431
3138.000000;4.135993
3137.000000;4.209898
3136.000000;4.076829
3135.000000;3.945140
3134.000000;3.806663
3133.000000;3.767242
3132.000000;3.848810
3131.000000;4.047585
3130.000000;4.192306
3129.000000;4.154707
3128.000000;4.037868
3127.000000;3.997097
3126.000000;4.498992
3125.000000;3.932059
3124.000000;3.608172
3123.000000;3.597929
3122.000000;3.710002
3121.000000;3.735884
3120.000000;3.670827
3119.000000;3.605820
3118.000000;3.568740
3117.000000;3.585517
3116.000000;3.659424
3115.000000;3.782819
3114.000000;4.154184
3113.000000;4.292603
3112.000000;3.732623
3111.000000;3.586364
3110.000000;3.577253
3109.000000;3.686230
3108.000000;3.937295
3107.000000;4.413950
3106.000000;4.200420
3105.000000;3.908462
3104.000000;3.872303
3103.000000;3.936549
3102.000000;4.324409
3101.000000;4.271929
3100.000000;3.918002
3099.000000;3.834167
3098.000000;3.897061
3097.000000;3.979582
3096.000000;3.874832
3095.000000;3.717161
3094.000000;3.601964
3093.000000;3.559315
3092.000000;3.690464
3091.000000;4.165452
3090.000000;4.002565
3089.000000;3.776647
3088.000000;3.884357
3087.000000;4.233385
3086.000000;4.825363
3085.000000;4.691371
3084.000000;4.370289
3083.000000;4.059763
3082.000000;3.799229
3081.000000;3.626439
3080.000000;3.558212
3079.000000;3.603832
3078.000000;3.754356
3077.000000;3.943777
3076.000000;3.938811
3075.000000;3.792778
3074.000000;3.677521
3073.000000;3.636690
3072.000000;3.708738
3071.000000;3.860128
3070.000000;3.860527
3069.000000;3.693244
3068.000000;3.574460
3067.000000;3.580780
3066.000000;3.758428
3065.000000;4.126859
3064.000000;4.042077
3063.000000;3.856127
3062.000000;3.836425
3061.000000;3.897024
3060.000000;4.000742
3059.000000;4.233897
3058.000000;4.807684
3057.000000;5.283869
3056.000000;4.429500
3055.000000;4.060761
3054.000000;3.967973
3053.000000;4.253768
3052.000000;4.443637
3051.000000;4.150713
3050.000000;4.215112
3049.000000;4.126445
3048.000000;3.915600
3047.000000;3.809944
3046.000000;3.805857
3045.000000;3.921307
3044.000000;4.201512
3043.000000;4.554829
3042.000000;4.327407
3041.000000;4.057049
3040.000000;3.846939
3039.000000;3.726461
3038.000000;3.693370
3037.000000;3.702422
3036.000000;3.701683
3035.000000;3.704824
3034.000000;3.732867
3033.000000;3.819589
3032.000000;4.024044
3031.000000;3.845254
3030.000000;3.510131
3029.000000;3.376506
3028.000000;3.382466
3027.000000;3.525354
3026.000000;3.851618
3025.000000;4.426434
3024.000000;4.243722
3023.000000;4.178929
3022.000000;4.455317
3021.000000;4.521001
3020.000000;4.074956
3019.000000;3.815881
3018.000000;3.811535
3017.000000;4.151378
3016.000000;4.291490
3015.000000;3.852907
3014.000000;3.706284
3013.000000;3.726023
3012.000000;3.838823
3011.000000;3.743199
3010.000000;3.617667
3009.000000;3.632829
3008.000000;3.728434
3007.000000;3.735693
3006.000000;3.595645
3005.000000;3.487322
3004.000000;3.482053
3003.000000;3.622146
3002.000000;4.038374
3001.000000;3.948789
3000.000000;3.631521
2999.000000;3.601219
2998.000000;3.659964
2997.000000;3.777852
2996.000000;3.775847
2995.000000;3.766362
2994.000000;3.953803
2993.000000;4.036966
2992.000000;3.875923
2991.000000;3.791404
2990.000000;3.712255
2989.000000;3.639833
2988.000000;3.622048
2987.000000;3.694928
2986.000000;3.957079
2985.000000;4.356889
2984.000000;3.931922
2983.000000;3.864462
2982.000000;3.911564
2981.000000;3.893889
2980.000000;3.851860
2979.000000;3.896573
2978.000000;3.955252
2977.000000;3.933772
2976.000000;3.908542
2975.000000;4.062709
2974.000000;4.099886
2973.000000;3.730180
2972.000000;3.548390
2971.000000;3.542803
2970.000000;3.651909
2969.000000;3.758148
2968.000000;3.770889
2967.000000;3.777902
2966.000000;3.854814
2965.000000;4.071918
2964.000000;4.269484
2963.000000;4.268155
2962.000000;4.100524
2961.000000;3.774172
2960.000000;3.588125
2959.000000;3.504848
2958.000000;3.486621
2957.000000;3.532177
2956.000000;3.632444
2955.000000;3.732160
2954.000000;3.728430
2953.000000;3.659895
2952.000000;3.747548
2951.000000;4.181129
2950.000000;3.972749
2949.000000;3.600632
2948.000000;3.503511
2947.000000;3.483280
2946.000000;3.559278
2945.000000;3.833519
2944.000000;4.094854
2943.000000;3.777270
2942.000000;3.666016
2941.000000;3.767330
2940.000000;3.904751
2939.000000;3.845000
2938.000000;3.779581
2937.000000;3.788182
2936.000000;3.815876
2935.000000;3.822518
2934.000000;3.809194
2933.000000;3.837359
2932.000000;3.949425
2931.000000;4.157046
2930.000000;4.483745
2929.000000;4.693687
2928.000000;4.327677
2927.000000;4.146767
2926.000000;4.217131
2925.000000;4.102872
2924.000000;3.861914
2923.000000;3.910340
2922.000000;4.335572
2921.000000;4.202337
2920.000000;3.868592
2919.000000;3.845897
2918.000000;3.815160
2917.000000;3.825126
2916.000000;4.099716
2915.000000;4.140109
2914.000000;3.822236
2913.000000;3.719337
2912.000000;3.755311
2911.000000;3.988767
2910.000000;4.539673
2909.000000;4.005688
2908.000000;4.019339
2907.000000;4.156439
2906.000000;3.884860
2905.000000;3.908753
2904.000000;3.826697
2903.000000;3.533465
2902.000000;3.349412
2901.000000;3.278732
2900.000000;3.306840
2899.000000;3.404499
2898.000000;3.541308
2897.000000;3.683020
2896.000000;3.794379
2895.000000;3.894284
2894.000000;3.931578
2893.000000;3.862061
2892.000000;3.787339
2891.000000;3.691397
2890.000000;3.603263
2889.000000;3.541072
2888.000000;3.508202
2887.000000;3.501136
2886.000000;3.476128
2885.000000;3.495534
2884.000000;3.643066
2883.000000;4.040607
2882.000000;3.713007
2881.000000;3.474710
2880.000000;3.419820
2879.000000;3.487627
2878.000000;3.675165
2877.000000;3.938019
2876.000000;4.091400
2875.000000;4.025727
2874.000000;3.858226
2873.000000;3.731853
2872.000000;3.713965
2871.000000;3.715745
2870.000000;3.687302
2869.000000;3.761771
2868.000000;4.118377
2867.000000;4.165415
2866.000000;3.904937
2865.000000;4.344789
2864.000000;3.928333
2863.000000;3.556756
2862.000000;3.501429
2861.000000;3.555020
2860.000000;3.685034
2859.000000;3.734300
2858.000000;3.659353
2857.000000;3.585399
2856.000000;3.578627
2855.000000;3.633999
2854.000000;3.698884
2853.000000;3.768306
2852.000000;3.975082
2851.000000;4.729663
2850.000000;3.970417
2849.000000;3.833823
2848.000000;3.877280
2847.000000;4.089188
2846.000000;4.472597
2845.000000;4.332223
2844.000000;3.854292
2843.000000;3.612632
2842.000000;3.504666
2841.000000;3.495218
2840.000000;3.554757
2839.000000;3.673034
2838.000000;3.805328
2837.000000;3.889116
2836.000000;4.207767
2835.000000;4.120166
2834.000000;3.766788
2833.000000;3.609338
2832.000000;3.526998
2831.000000;3.522431
2830.000000;3.554389
2829.000000;3.641337
2828.000000;3.837781
2827.000000;4.789641
2826.000000;4.071394
2825.000000;3.829773
2824.000000;3.796013
2823.000000;3.890048
2822.000000;3.985565
2821.000000;4.001083
2820.000000;4.016813
2819.000000;3.926878
2818.000000;3.825775
2817.000000;3.751622
2816.000000;3.627397
2815.000000;3.532568
2814.000000;3.549322
2813.000000;3.670599
2812.000000;3.840842
2811.000000;3.904442
2810.000000;3.867006
2809.000000;3.906180
2808.000000;4.171670
2807.000000;4.509378
2806.000000;4.032634
2805.000000;3.767364
2804.000000;3.675522
2803.000000;3.688693
2802.000000;3.787213
2801.000000;3.913780
2800.000000;4.024858
2799.000000;4.109484
2798.000000;4.240575
2797.000000;4.034297
2796.000000;3.749369
2795.000000;3.675510
2794.000000;3.841468
2793.000000;4.353877
2792.000000;4.229191
2791.000000;4.044331
2790.000000;3.969477
2789.000000;4.048764
2788.000000;3.934241
2787.000000;3.682938
2786.000000;3.659192
2785.000000;3.801452
2784.000000;3.949600
2783.000000;3.827185
2782.000000;3.640908
2781.000000;3.537479
2780.000000;3.565549
2779.000000;3.717936
2778.000000;4.093893
2777.000000;4.126942
2776.000000;3.858001
2775.000000;3.797078
2774.000000;3.824937
2773.000000;3.899485
2772.000000;4.184598
2771.000000;4.013714
2770.000000;3.621725
2769.000000;3.410468
2768.000000;3.297664
2767.000000;3.277736
2766.000000;3.363402
2765.000000;3.569626
2764.000000;3.833833
2763.000000;4.054137
2762.000000;4.102539
2761.000000;3.893309
2760.000000;3.815549
2759.000000;3.774708
2758.000000;3.675937
2757.000000;3.560314
2756.000000;3.479998
2755.000000;3.420087
2754.000000;3.382643
2753.000000;3.430369
2752.000000;3.645783
2751.000000;4.267787
2750.000000;3.736038
2749.000000;3.547726
2748.000000;3.646321
2747.000000;4.053771
2746.000000;4.033302
2745.000000;3.795725
2744.000000;3.814409
2743.000000;3.863181
2742.000000;3.795772
2741.000000;3.802199
2740.000000;3.889437
2739.000000;3.832455
2738.000000;3.729311
2737.000000;3.715718
2736.000000;3.692184
2735.000000;3.636275
2734.000000;3.636293
2733.000000;3.737754
2732.000000;4.080313
2731.000000;4.079023
2730.000000;3.826817
2729.000000;3.859015
2728.000000;3.958305
2727.000000;4.356281
2726.000000;4.261262
2725.000000;3.992065
2724.000000;3.794249
2723.000000;3.599033
2722.000000;3.512052
2721.000000;3.507100
2720.000000;3.544897
2719.000000;3.612434
2718.000000;3.738579
2717.000000;3.988385
2716.000000;4.260542
2715.000000;3.780349
2714.000000;3.563074
2713.000000;3.513052
2712.000000;3.598396
2711.000000;3.800225
2710.000000;4.069725
2709.000000;4.007530
2708.000000;3.817883
2707.000000;3.788737
2706.000000;4.001798
2705.000000;4.196308
2704.000000;3.831577
2703.000000;3.674491
2702.000000;3.699422
2701.000000;3.864183
2700.000000;4.015428
2699.000000;3.967245
2698.000000;3.937808
2697.000000;4.345011
2696.000000;4.192869
2695.000000;3.877184
2694.000000;3.818211
2693.000000;3.803412
2692.000000;3.845603
2691.000000;3.987914
2690.000000;4.023215
2689.000000;3.944236
2688.000000;3.815425
2687.000000;3.678297
2686.000000;3.649981
2685.000000;3.746666
2684.000000;4.087865
2683.000000;4.529580
2682.000000;4.047885
2681.000000;3.986311
2680.000000;3.909664
2679.000000;3.830090
2678.000000;3.809722
2677.000000;3.749808
2676.000000;3.644358
2675.000000;3.582467
2674.000000;3.574378
2673.000000;3.603477
2672.000000;3.683332
2671.000000;3.928577
2670.000000;4.249021
2669.000000;3.812844
2668.000000;3.573702
2667.000000;3.498661
2666.000000;3.504362
2665.000000;3.548654
2664.000000;3.579354
2663.000000;3.577871
2662.000000;3.545968
2661.000000;3.513983
2660.000000;3.553487
2659.000000;3.743401
2658.000000;3.967653
2657.000000;3.841529
2656.000000;3.760802
2655.000000;3.702925
2654.000000;3.594035
2653.000000;3.491284
2652.000000;3.479662
2651.000000;3.596448
2650.000000;3.741863
2649.000000;3.804368
2648.000000;3.994214
2647.000000;4.141122
2646.000000;3.985085
2645.000000;3.799081
2644.000000;3.644305
2643.000000;3.571601
2642.000000;3.601338
2641.000000;3.757645
2640.000000;4.009939
2639.000000;4.028906
2638.000000;4.029137
2637.000000;4.359833
2636.000000;4.197289
2635.000000;3.942978
2634.000000;3.993301
2633.000000;4.160600
2632.000000;4.130457
2631.000000;4.269158
2630.000000;4.712572
2629.000000;4.177693
2628.000000;4.000466
2627.000000;4.018939
2626.000000;3.878535
2625.000000;3.716824
2624.000000;3.717880
2623.000000;3.962696
2622.000000;4.045189
2621.000000;3.702218
2620.000000;3.533699
2619.000000;3.499600
2618.000000;3.586209
2617.000000;3.800816
2616.000000;4.105549
2615.000000;4.523670
2614.000000;4.067141
2613.000000;3.814347
2612.000000;3.849878
2611.000000;4.155292
2610.000000;4.707519
2609.000000;4.356293
2608.000000;3.977240
2607.000000;3.868151
2606.000000;3.843793
2605.000000;3.733443
2604.000000;3.684734
2603.000000;3.788558
2602.000000;3.826825
2601.000000;3.722554
2600.000000;3.755968
2599.000000;3.846868
2598.000000;3.929875
2597.000000;4.077844
2596.000000;4.172462
2595.000000;3.971497
2594.000000;3.745342
2593.000000;3.665111
2592.000000;3.729799
2591.000000;3.949142
2590.000000;4.182040
2589.000000;4.262609
2588.000000;4.420981
2587.000000;4.333928
2586.000000;4.233042
2585.000000;4.195126
2584.000000;4.150845
2583.000000;4.022173
2582.000000;3.826401
2581.000000;3.685422
2580.000000;3.623734
2579.000000;3.637839
2578.000000;3.834001
2577.000000;4.076170
2576.000000;3.730605
2575.000000;3.619022
2574.000000;3.741993
2573.000000;4.064405
2572.000000;3.952820
2571.000000;3.700358
2570.000000;3.649701
2569.000000;3.723626
2568.000000;3.832887
2567.000000;3.793960
2566.000000;3.756881
2565.000000;3.772569
2564.000000;3.815297
2563.000000;3.857546
2562.000000;3.760967
2561.000000;3.683443
2560.000000;3.739441
2559.000000;3.785132
2558.000000;3.652360
2557.000000;3.515826
2556.000000;3.438715
2555.000000;3.422837
2554.000000;3.473579
2553.000000;3.561343
2552.000000;3.634159
2551.000000;3.718195
2550.000000;3.806673
2549.000000;3.806351
2548.000000;3.804032
2547.000000;3.846497
2546.000000;3.860271
2545.000000;3.889479
2544.000000;3.883528
2543.000000;3.746728
2542.000000;3.634178
2541.000000;3.580177
2540.000000;3.544989
2539.000000;3.499128
2538.000000;3.487504
2537.000000;3.585067
2536.000000;3.852206
2535.000000;4.542328
2534.000000;4.100835
2533.000000;3.799953
2532.000000;3.775057
2531.000000;3.909379
2530.000000;4.146917
2529.000000;4.022211
2528.000000;3.821657
2527.000000;3.697200
2526.000000;3.634102
2525.000000;3.631224
2524.000000;3.701985
2523.000000;3.843651
2522.000000;3.972872
2521.000000;3.837762
2520.000000;3.655955
2519.000000;3.634017
2518.000000;3.767536
2517.000000;4.209417
2516.000000;4.304691
2515.000000;3.941869
2514.000000;3.924113
2513.000000;4.010313
2512.000000;4.026340
2511.000000;4.050526
2510.000000;4.323019
2509.000000;4.127279
2508.000000;3.876004
2507.000000;3.768061
2506.000000;3.661959
2505.000000;3.581139
2504.000000;3.557772
2503.000000;3.624694
2502.000000;3.737825
2501.000000;3.713662
2500.000000;3.663867
2499.000000;3.716576
2498.000000;3.958420
2497.000000;4.355717
2496.000000;4.015414
2495.000000;3.837255
2494.000000;3.800324
2493.000000;3.778420
2492.000000;3.730598
2491.000000;3.676016
2490.000000;3.654591
2489.000000;3.670384
2488.000000;3.743205
2487.000000;3.765006
2486.000000;3.651630
2485.000000;3.598022
2484.000000;3.694241
2483.000000;3.966716
2482.000000;4.210182
2481.000000;4.075841
2480.000000;4.096529
2479.000000;4.486412
2478.000000;4.085361
2477.000000;4.015714
2476.000000;4.488024
2475.000000;3.909785
2474.000000;3.689650
2473.000000;3.693524
2472.000000;3.707083
2471.000000;3.612707
2470.000000;3.506981
2469.000000;3.480948
2468.000000;3.551589
2467.000000;3.732048
2466.000000;3.923940
2465.000000;3.985262
2464.000000;4.050058
2463.000000;4.366516
2462.000000;4.484385
2461.000000;3.960188
2460.000000;3.709697
2459.000000;3.656094
2458.000000;3.771206
2457.000000;4.078402
2456.000000;4.319390
2455.000000;3.981036
2454.000000;3.765386
2453.000000;3.755057
2452.000000;3.940983
2451.000000;4.355792
2450.000000;4.472446
2449.000000;4.350432
2448.000000;4.238891
2447.000000;4.106529
2446.000000;3.992620
2445.000000;3.954349
2444.000000;3.899506
2443.000000;3.767753
2442.000000;3.712172
2441.000000;3.866874
2440.000000;4.194281
2439.000000;3.891168
2438.000000;3.637049
2437.000000;3.615155
2436.000000;3.650981
2435.000000;3.628448
2434.000000;3.642782
2433.000000;3.783326
2432.000000;4.090509
2431.000000;4.794394
2430.000000;4.659046
2429.000000;4.191735
2428.000000;3.992075
2427.000000;3.863455
2426.000000;3.832094
2425.000000;3.902275
2424.000000;4.185908
2423.000000;4.889688
2422.000000;4.300696
2421.000000;4.076605
2420.000000;3.871641
2419.000000;3.668095
2418.000000;3.593656
2417.000000;3.629071
2416.000000;3.749967
2415.000000;3.977080
2414.000000;4.481198
2413.000000;4.578316
2412.000000;4.145104
2411.000000;3.948232
2410.000000;3.845394
2409.000000;3.876940
2408.000000;3.932860
2407.000000;3.849076
2406.000000;3.772767
2405.000000;3.766072
2404.000000;3.746337
2403.000000;3.684398
2402.000000;3.643032
2401.000000;3.686692
2400.000000;3.851703
2399.000000;4.117286
2398.000000;4.207316
2397.000000;4.038315
2396.000000;3.927094
2395.000000;3.899679
2394.000000;4.000773
2393.000000;4.237220
2392.000000;4.201048
2391.000000;4.102342
2390.000000;4.421999
2389.000000;4.632690
2388.000000;3.990630
2387.000000;3.778733
2386.000000;3.671117
2385.000000;3.645311
2384.000000;3.746382
2383.000000;4.044777
2382.000000;4.784096
2381.000000;4.547766
2380.000000;4.053031
2379.000000;3.981785
2378.000000;4.254018
2377.000000;4.677520
2376.000000;4.920128
2375.000000;4.467484
2374.000000;4.109669
2373.000000;4.042499
2372.000000;4.133200
2371.000000;4.489333
2370.000000;4.553681
2369.000000;4.070435
2368.000000;3.922909
2367.000000;4.001322
2366.000000;4.223452
2365.000000;4.252797
2364.000000;4.199988
2363.000000;4.440699
2362.000000;4.463506
2361.000000;4.070604
2360.000000;3.917921
2359.000000;3.879796
2358.000000;3.897194
2357.000000;3.943721
2356.000000;4.007757
2355.000000;4.104887
2354.000000;4.199891
2353.000000;4.241078
2352.000000;4.171211
2351.000000;4.046862
2350.000000;3.998794
2349.000000;4.079335
2348.000000;4.344630
2347.000000;4.722603
2346.000000;4.426883
2345.000000;4.144060
2344.000000;4.033015
2343.000000;4.008914
2342.000000;4.013793
2341.000000;3.984547
2340.000000;3.912185
2339.000000;3.812579
2338.000000;3.734447
2337.000000;3.723544
2336.000000;3.799844
2335.000000;3.976513
2334.000000;4.227488
2333.000000;4.327600
2332.000000;4.240345
2331.000000;4.265904
2330.000000;4.256064
2329.000000;4.058613
2328.000000;3.990434
2327.000000;4.142681
2326.000000;4.411097
2325.000000;4.694415
2324.000000;4.562608
2323.000000;4.110914
2322.000000;3.903780
2321.000000;3.843576
2320.000000;3.850150
2319.000000;3.883833
2318.000000;3.865622
2317.000000;3.792814
2316.000000;3.713748
2315.000000;3.644007
2314.000000;3.607206
2313.000000;3.641243
2312.000000;3.739923
2311.000000;3.816571
2310.000000;3.829417
2309.000000;3.816327
2308.000000;3.816519
2307.000000;3.870694
2306.000000;4.089050
2305.000000;4.278720
2304.000000;4.123842
2303.000000;4.497820
2302.000000;4.671066
2301.000000;4.008881
2300.000000;3.813644
2299.000000;3.679757
2298.000000;3.616899
2297.000000;3.613307
2296.000000;3.656419
2295.000000;3.719093
2294.000000;3.709759
2293.000000;3.707854
2292.000000;3.826008
2291.000000;4.019878
2290.000000;3.986820
2289.000000;3.782913
2288.000000;3.652734
2287.000000;3.634254
2286.000000;3.680814
2285.000000;3.737978
2284.000000;3.813827
2283.000000;3.943818
2282.000000;4.128564
2281.000000;4.348384
2280.000000;4.528762
2279.000000;4.308502
2278.000000;3.965161
2277.000000;3.733042
2276.000000;3.604643
2275.000000;3.570345
2274.000000;3.581424
2273.000000;3.562892
2272.000000;3.520614
2271.000000;3.512056
2270.000000;3.566388
2269.000000;3.696767
2268.000000;3.882278
2267.000000;3.905601
2266.000000;3.781955
2265.000000;3.715386
2264.000000;3.786874
2263.000000;4.171912
2262.000000;4.357711
2261.000000;3.950814
2260.000000;3.731638
2259.000000;3.610626
2258.000000;3.617110
2257.000000;3.891409
2256.000000;4.167473
2255.000000;3.788203
2254.000000;3.676435
2253.000000;3.680377
2252.000000;3.723351
2251.000000;3.813650
2250.000000;3.824710
2249.000000;3.859266
2248.000000;4.015593
2247.000000;3.872967
2246.000000;3.663299
2245.000000;3.644678
2244.000000;3.799944
2243.000000;4.365148
2242.000000;4.226311
2241.000000;3.845389
2240.000000;3.755396
2239.000000;3.715364
2238.000000;3.769661
2237.000000;3.788046
2236.000000;3.667644
2235.000000;3.542978
2234.000000;3.487890
2233.000000;3.509624
2232.000000;3.639904
2231.000000;3.912425
2230.000000;3.975333
2229.000000;3.841266
2228.000000;3.811452
2227.000000;3.711103
2226.000000;3.595690
2225.000000;3.552785
2224.000000;3.596695
2223.000000;3.826769
2222.000000;3.989394
2221.000000;3.851856
2220.000000;4.020129
2219.000000;4.507058
2218.000000;4.652332
2217.000000;4.497995
2216.000000;4.199911
2215.000000;4.193758
2214.000000;4.293206
2213.000000;3.969004
2212.000000;3.708155
2211.000000;3.565147
2210.000000;3.469981
2209.000000;3.412834
2208.000000;3.386274
2207.000000;3.393860
2206.000000;3.426442
2205.000000;3.497665
2204.000000;3.610314
2203.000000;3.809802
2202.000000;4.037813
2201.000000;3.753816
2200.000000;3.493392
2199.000000;3.421814
2198.000000;3.520423
2197.000000;3.697203
2196.000000;3.654243
2195.000000;3.558850
2194.000000;3.560919
2193.000000;3.611058
2192.000000;3.728153
2191.000000;3.960840
2190.000000;3.903427
2189.000000;3.617833
2188.000000;3.488604
2187.000000;3.438986
2186.000000;3.468476
2185.000000;3.558397
2184.000000;3.797645
2183.000000;4.445505
2182.000000;4.138597
2181.000000;3.924291
2180.000000;3.935410
2179.000000;3.797135
2178.000000;3.865300
2177.000000;4.099407
2176.000000;3.690457
2175.000000;3.411287
2174.000000;3.320437
2173.000000;3.321551
2172.000000;3.390424
2171.000000;3.490574
2170.000000;3.620439
2169.000000;3.763926
2168.000000;3.922343
2167.000000;4.074678
2166.000000;4.421997
2165.000000;4.834912
2164.000000;4.433471
2163.000000;4.333303
2162.000000;4.054717
2161.000000;3.756320
2160.000000;3.637213
2159.000000;3.655588
2158.000000;3.762047
2157.000000;3.834327
2156.000000;3.851282
2155.000000;3.908900
2154.000000;4.015259
2153.000000;4.139855
2152.000000;4.163835
2151.000000;4.273582
2150.000000;4.252913
2149.000000;3.928494
2148.000000;3.863225
2147.000000;3.988025
2146.000000;4.169845
2145.000000;4.132565
2144.000000;3.817374
2143.000000;3.606606
2142.000000;3.532862
2141.000000;3.582051
2140.000000;3.711538
2139.000000;3.779203
2138.000000;3.711225
2137.000000;3.603612
2136.000000;3.528442
2135.000000;3.508933
2134.000000;3.563118
2133.000000;3.670407
2132.000000;3.756578
2131.000000;3.784942
2130.000000;4.022485
2129.000000;4.510422
2128.000000;4.084270
2127.000000;4.062251
2126.000000;4.184868
2125.000000;3.981930
2124.000000;3.811058
2123.000000;3.693753
2122.000000;3.679815
2121.000000;3.786251
2120.000000;3.969847
2119.000000;3.881406
2118.000000;3.703882
2117.000000;3.674254
2116.000000;3.794364
2115.000000;4.297987
2114.000000;4.210822
2113.000000;3.867100
2112.000000;4.020458
2111.000000;3.905055
2110.000000;3.669288
2109.000000;3.650318
2108.000000;3.773895
2107.000000;3.840358
2106.000000;3.759855
2105.000000;3.761174
2104.000000;3.897793
2103.000000;4.215426
2102.000000;4.265838
2101.000000;4.127132
2100.000000;4.165800
2099.000000;4.081588
2098.000000;3.967229
2097.000000;3.953704
2096.000000;4.018866
2095.000000;4.036074
2094.000000;3.975596
2093.000000;3.897096
2092.000000;4.112467
2091.000000;4.596323
2090.000000;4.052096
2089.000000;3.924200
2088.000000;4.000638
2087.000000;4.021983
2086.000000;4.114956
2085.000000;4.284623
2084.000000;4.411885
2083.000000;4.165616
2082.000000;4.066256
2081.000000;4.049779
2080.000000;3.921973
2079.000000;3.734478
2078.000000;3.810383
2077.000000;4.410793
2076.000000;4.053923
2075.000000;3.779340
2074.000000;3.994149
2073.000000;4.352006
2072.000000;3.932695
2071.000000;3.863501
2070.000000;4.301793
2069.000000;4.398675
2068.000000;4.219982
2067.000000;4.010749
2066.000000;3.666402
2065.000000;3.567189
2064.000000;3.671892
2063.000000;3.983756
2062.000000;4.415364
2061.000000;4.214143
2060.000000;4.051110
2059.000000;3.925732
2058.000000;3.814825
2057.000000;3.706776
2056.000000;3.667246
2055.000000;3.702738
2054.000000;3.878217
2053.000000;4.462960
2052.000000;4.328369
2051.000000;4.029054
2050.000000;4.000914
2049.000000;3.954471
2048.000000;3.963134
2047.000000;4.067179
2046.000000;4.186555
2045.000000;4.017690
2044.000000;3.832597
2043.000000;3.685997
2042.000000;3.549468
2041.000000;3.484161
2040.000000;3.565191
2039.000000;3.825605
2038.000000;3.903409
2037.000000;3.830003
2036.000000;3.985106
2035.000000;4.079860
2034.000000;3.927344
2033.000000;3.746793
2032.000000;3.679132
2031.000000;3.956717
2030.000000;4.276373
2029.000000;3.811847
2028.000000;3.650120
2027.000000;3.634812
2026.000000;3.604319
2025.000000;3.577322
2024.000000;3.589388
2023.000000;3.650928
2022.000000;3.720577
2021.000000;3.751450
2020.000000;3.782753
2019.000000;3.869254
2018.000000;3.954901
2017.000000;4.024953
2016.000000;4.007638
2015.000000;3.890772
2014.000000;3.860663
2013.000000;4.022334
2012.000000;4.248437
2011.000000;4.122839
2010.000000;3.998835
2009.000000;3.860670
2008.000000;3.723215
2007.000000;3.692407
2006.000000;3.777258
2005.000000;3.927710
2004.000000;4.098641
2003.000000;4.441446
2002.000000;4.092137
2001.000000;3.759581
2000.000000;3.719509
1999.000000;3.864375
1998.000000;4.305505
1997.000000;4.691220
1996.000000;4.347842
1995.000000;4.131561
1994.000000;3.930028
1993.000000;3.810999
1992.000000;3.824901
1991.000000;3.918650
1990.000000;3.912431
1989.000000;3.888963
1988.000000;3.968464
1987.000000;4.023220
1986.000000;3.976043
1985.000000;4.274184
1984.000000;4.857816
1983.000000;4.147697
1982.000000;4.073803
1981.000000;4.383318
1980.000000;4.491672
1979.000000;4.432739
1978.000000;4.513330
1977.000000;4.156452
1976.000000;3.882290
1975.000000;3.872796
1974.000000;4.373812
1973.000000;4.307149
1972.000000;3.887059
1971.000000;3.791341
1970.000000;3.657547
1969.000000;3.624206
1968.000000;3.730539
1967.000000;3.876464
1966.000000;3.828787
1965.000000;3.643987
1964.000000;3.523975
1963.000000;3.523007
1962.000000;3.631210
1961.000000;3.650228
1960.000000;3.554606
1959.000000;3.548252
1958.000000;3.617697
1957.000000;3.710072
1956.000000;3.798373
1955.000000;3.941729
1954.000000;4.327742
1953.000000;4.232600
1952.000000;3.967973
1951.000000;4.051693
1950.000000;4.220777
1949.000000;4.165653
1948.000000;3.837349
1947.000000;3.603875
1946.000000;3.516919
1945.000000;3.583631
1944.000000;3.687385
1943.000000;3.591568
1942.000000;3.508564
1941.000000;3.611872
1940.000000;4.042570
1939.000000;4.152947
1938.000000;3.856254
1937.000000;3.896773
1936.000000;3.983551
1935.000000;3.945043
1934.000000;3.937846
1933.000000;3.939700
1932.000000;3.811093
1931.000000;3.706021
1930.000000;3.738357
1929.000000;3.948753
1928.000000;4.128132
1927.000000;4.023826
1926.000000;4.052733
1925.000000;4.171118
1924.000000;4.065792
1923.000000;3.862391
1922.000000;3.754448
1921.000000;3.840669
1920.000000;3.946552
1919.000000;3.961192
1918.000000;4.226124
1917.000000;4.001747
1916.000000;3.688752
1915.000000;3.576163
1914.000000;3.546599
1913.000000;3.600700
1912.000000;3.816639
1911.000000;4.118091
1910.000000;4.195439
1909.000000;4.452892
1908.000000;4.082806
1907.000000;3.901402
1906.000000;3.979943
1905.000000;4.331527
1904.000000;4.446277
1903.000000;3.852846
1902.000000;3.745234
1901.000000;3.811016
1900.000000;3.713833
1899.000000;3.555687
1898.000000;3.539377
1897.000000;3.732422
1896.000000;3.927800
1895.000000;3.692450
1894.000000;3.582194
1893.000000;3.693951
1892.000000;4.014848
1891.000000;4.864625
1890.000000;4.768669
1889.000000;4.289130
1888.000000;3.996164
1887.000000;3.799081
1886.000000;3.756167
1885.000000;3.830562
1884.000000;4.015399
1883.000000;4.155352
1882.000000;4.136381
1881.000000;4.180433
1880.000000;4.466168
1879.000000;4.660425
1878.000000;4.068914
1877.000000;3.823168
1876.000000;3.759316
1875.000000;3.788253
1874.000000;3.817632
1873.000000;3.814575
1872.000000;3.938018
1871.000000;4.137877
1870.000000;4.082514
1869.000000;4.024282
1868.000000;4.075369
1867.000000;4.092829
1866.000000;4.151922
1865.000000;4.254833
1864.000000;4.073349
1863.000000;3.916327
1862.000000;3.886499
1861.000000;3.805700
1860.000000;3.785215
1859.000000;3.956269
1858.000000;3.908545
1857.000000;3.627595
1856.000000;3.481823
1855.000000;3.441725
1854.000000;3.477936
1853.000000;3.567990
1852.000000;3.729524
1851.000000;3.949761
1850.000000;4.285885
1849.000000;4.632741
1848.000000;4.081006
1847.000000;3.865297
1846.000000;3.840096
1845.000000;3.829783
1844.000000;3.706322
1843.000000;3.579401
1842.000000;3.549852
1841.000000;3.596777
1840.000000;3.638224
1839.000000;3.639852
1838.000000;3.802593
1837.000000;4.066312
1836.000000;3.823906
1835.000000;3.699813
1834.000000;3.768561
1833.000000;3.933913
1832.000000;4.328029
1831.000000;4.453648
1830.000000;4.251867
1829.000000;4.292788
1828.000000;4.337135
1827.000000;4.213741
1826.000000;3.935821
1825.000000;3.812635
1824.000000;3.868610
1823.000000;4.121656
1822.000000;4.351095
1821.000000;3.857212
1820.000000;3.595777
1819.000000;3.536225
1818.000000;3.632912
1817.000000;4.195259
1816.000000;4.090005
1815.000000;3.597992
1814.000000;3.541148
1813.000000;3.558168
1812.000000;3.565903
1811.000000;3.572416
1810.000000;3.658478
1809.000000;3.869454
1808.000000;4.020969
1807.000000;3.877773
1806.000000;3.707119
1805.000000;3.610958
1804.000000;3.547974
1803.000000;3.559659
1802.000000;3.649034
1801.000000;3.976730
1800.000000;4.976496
1799.000000;4.032994
1798.000000;3.921669
1797.000000;4.103391
1796.000000;4.330286
1795.000000;4.034841
1794.000000;3.787302
1793.000000;3.691163
1792.000000;3.696018
1791.000000;3.841205
1790.000000;4.287547
1789.000000;4.291385
1788.000000;3.855875
1787.000000;3.691979
1786.000000;3.601337
1785.000000;3.559177
1784.000000;3.528094
1783.000000;3.546557
1782.000000;3.636656
1781.000000;3.739124
1780.000000;3.721705
1779.000000;3.608078
1778.000000;3.537120
1777.000000;3.545185
1776.000000;3.610114
1775.000000;3.659484
1774.000000;3.624445
1773.000000;3.567282
1772.000000;3.599158
1771.000000;3.792354
1770.000000;4.073112
1769.000000;3.961548
1768.000000;3.737148
1767.000000;3.611395
1766.000000;3.566848
1765.000000;3.591176
1764.000000;3.600288
1763.000000;3.581727
1762.000000;3.640021
1761.000000;3.754381
1760.000000;3.770132
1759.000000;3.706983
1758.000000;3.662448
1757.000000;3.663884
1756.000000;3.704772
1755.000000;3.788929
1754.000000;3.951833
1753.000000;4.018628
1752.000000;3.907687
1751.000000;4.075448
1750.000000;4.965599
1749.000000;4.595412
1748.000000;4.862875
1747.000000;4.560037
1746.000000;4.282962
1745.000000;4.127239
1744.000000;3.963260
1743.000000;3.890141
1742.000000;4.046046
1741.000000;4.300224
1740.000000;4.117107
1739.000000;4.237825
1738.000000;4.647137
1737.000000;4.224605
1736.000000;3.981071
1735.000000;3.986446
1734.000000;4.142642
1733.000000;4.504108
1732.000000;4.228995
1731.000000;3.863379
1730.000000;3.757773
1729.000000;3.806121
1728.000000;3.963997
1727.000000;4.092149
1726.000000;3.994332
1725.000000;3.871103
1724.000000;3.912088
1723.000000;3.979230
1722.000000;3.807291
1721.000000;3.701831
1720.000000;3.691193
1719.000000;3.738413
1718.000000;3.851787
1717.000000;3.867708
1716.000000;3.751619
1715.000000;3.708859
1714.000000;3.750481
1713.000000;3.841691
1712.000000;3.974401
1711.000000;4.342599
1710.000000;4.280609
1709.000000;3.867301
1708.000000;3.773323
1707.000000;3.790084
1706.000000;3.872822
1705.000000;3.948793
1704.000000;3.967927
1703.000000;3.969253
1702.000000;4.034404
1701.000000;4.124400
1700.000000;4.025303
1699.000000;3.963308
1698.000000;3.993541
1697.000000;4.056658
1696.000000;3.933309
1695.000000;3.897109
1694.000000;4.065867
1693.000000;4.043870
1692.000000;3.955860
1691.000000;3.970746
1690.000000;4.078168
1689.000000;4.056601
1688.000000;3.800607
1687.000000;3.689222
1686.000000;3.690751
1685.000000;3.703013
1684.000000;3.691478
1683.000000;3.783922
1682.000000;4.280833
1681.000000;4.268176
1680.000000;3.764427
1679.000000;3.649887
1678.000000;3.711560
1677.000000;3.889409
1676.000000;3.871626
1675.000000;3.818437
1674.000000;3.848878
1673.000000;3.897869
1672.000000;4.019847
1671.000000;4.408013
1670.000000;4.288160
1669.000000;4.064556
1668.000000;4.116651
1667.000000;4.326551
1666.000000;4.332055
1665.000000;4.083402
1664.000000;3.950270
1663.000000;4.059627
1662.000000;4.256407
1661.000000;4.057656
1660.000000;4.034380
1659.000000;4.138851
1658.000000;3.896621
1657.000000;3.718916
1656.000000;3.881399
1655.000000;4.322692
1654.000000;3.957399
1653.000000;3.771653
1652.000000;3.876489
1651.000000;4.103444
1650.000000;4.168827
1649.000000;3.877702
1648.000000;3.734048
1647.000000;3.693355
1646.000000;3.705025
1645.000000;3.750214
1644.000000;3.791336
1643.000000;3.828802
1642.000000;3.861164
1641.000000;3.890442
1640.000000;3.959378
1639.000000;4.093823
1638.000000;4.299562
1637.000000;4.205507
1636.000000;3.954654
1635.000000;3.884465
1634.000000;3.937525
1633.000000;4.030152
1632.000000;4.017057
1631.000000;3.930394
1630.000000;3.938431
1629.000000;4.055745
1628.000000;4.585162
1627.000000;4.548884
1626.000000;4.089586
1625.000000;3.961504
1624.000000;3.833023
1623.000000;3.731128
1622.000000;3.671498
1621.000000;3.691609
1620.000000;3.880098
1619.000000;4.348277
1618.000000;3.888847
1617.000000;3.722146
1616.000000;3.860927
1615.000000;4.538236
1614.000000;4.183802
1613.000000;4.008843
1612.000000;4.135473
1611.000000;4.293189
1610.000000;4.044566
1609.000000;3.792576
1608.000000;3.689471
1607.000000;3.726251
1606.000000;3.851985
1605.000000;3.890454
1604.000000;3.859845
1603.000000;3.916943
1602.000000;3.901997
1601.000000;3.736274
1600.000000;3.633303
1599.000000;3.667896
1598.000000;3.867591
1597.000000;4.265695
1596.000000;4.442958
1595.000000;4.109673
1594.000000;3.864345
1593.000000;3.772089
1592.000000;3.819358
1591.000000;3.985853
1590.000000;4.671633
1589.000000;4.247792
1588.000000;3.959522
1587.000000;3.880365
1586.000000;3.834379
1585.000000;3.867302
1584.000000;3.898001
1583.000000;3.779104
1582.000000;3.665397
1581.000000;3.622036
1580.000000;3.643377
1579.000000;3.703759
1578.000000;3.764504
1577.000000;3.808373
1576.000000;4.001342
1575.000000;4.258090
1574.000000;3.965684
1573.000000;3.802876
1572.000000;3.758049
1571.000000;3.775978
1570.000000;3.874669
1569.000000;4.038907
1568.000000;4.107926
1567.000000;3.907480
1566.000000;3.689053
1565.000000;3.580510
1564.000000;3.607457
1563.000000;3.793988
1562.000000;4.129168
1561.000000;3.999370
1560.000000;3.927918
1559.000000;3.971236
1558.000000;3.980423
1557.000000;3.969208
1556.000000;3.961468
1555.000000;4.028704
1554.000000;4.208525
1553.000000;4.274440
1552.000000;4.132117
1551.000000;4.033289
1550.000000;4.028408
1549.000000;4.228185
1548.000000;4.571493
1547.000000;4.215407
1546.000000;3.954579
1545.000000;3.907586
1544.000000;3.992609
1543.000000;4.201122
1542.000000;4.504036
1541.000000;5.062177
1540.000000;4.421382
1539.000000;4.112445
1538.000000;4.317226
1537.000000;4.242493
1536.000000;3.740177
1535.000000;3.608713
1534.000000;3.644592
1533.000000;3.759875
1532.000000;3.926135
1531.000000;4.200508
1530.000000;4.313867
1529.000000;4.096123
1528.000000;4.179777
1527.000000;4.310708
1526.000000;4.341720
1525.000000;4.250860
1524.000000;4.088859
1523.000000;4.064665
1522.000000;4.071775
1521.000000;4.018482
1520.000000;4.029670
1519.000000;4.173283
1518.000000;4.817565
1517.000000;4.472785
1516.000000;4.117964
1515.000000;4.024234
1514.000000;3.875398
1513.000000;3.779170
1512.000000;3.823345
1511.000000;4.102433
1510.000000;4.514650
1509.000000;4.223228
1508.000000;4.063505
1507.000000;3.928102
1506.000000;3.830388
1505.000000;3.800848
1504.000000;3.796372
1503.000000;3.878062
1502.000000;4.065957
1501.000000;4.037238
1500.000000;4.113987
1499.000000;4.307808
1498.000000;4.093432
1497.000000;3.976090
1496.000000;3.990383
1495.000000;4.112828
1494.000000;4.282929
1493.000000;4.319621
1492.000000;4.249145
1491.000000;4.246540
1490.000000;4.392602
1489.000000;4.760258
1488.000000;4.575916
1487.000000;4.276443
1486.000000;4.071121
1485.000000;3.983626
1484.000000;4.128532
1483.000000;4.169721
1482.000000;3.889828
1481.000000;3.775644
1480.000000;3.779392
1479.000000;3.857135
1478.000000;4.042460
1477.000000;4.399788
1476.000000;4.082498
1475.000000;3.892055
1474.000000;4.014808
1473.000000;4.325014
1472.000000;3.981467
1471.000000;3.832866
1470.000000;3.831418
1469.000000;4.001331
1468.000000;4.247839
1467.000000;3.953951
1466.000000;3.800472
1465.000000;3.917423
1464.000000;4.556436
1463.000000;4.405088
1462.000000;4.047589
1461.000000;3.990983
1460.000000;3.909465
1459.000000;3.871897
1458.000000;3.848895
1457.000000;3.823296
1456.000000;3.796165
1455.000000;3.795399
1454.000000;3.864415
1453.000000;4.020554
1452.000000;4.195761
1451.000000;4.479312
1450.000000;4.635458
1449.000000;4.265316
1448.000000;4.125259
1447.000000;4.256813
1446.000000;4.673914
1445.000000;4.704976
1444.000000;4.506416
1443.000000;4.630879
1442.000000;4.821955
1441.000000;4.218204
1440.000000;3.965072
1439.000000;3.897391
1438.000000;3.972982
1437.000000;4.144332
1436.000000;4.191524
1435.000000;4.025257
1434.000000;3.820345
1433.000000;3.723496
1432.000000;3.757856
1431.000000;3.814136
1430.000000;3.796987
1429.000000;3.756276
1428.000000;3.724794
1427.000000;3.718674
1426.000000;3.746148
1425.000000;3.789198
1424.000000;3.813653
1423.000000;3.837026
1422.000000;3.948716
1421.000000;4.299920
1420.000000;4.623216
1419.000000;4.202755
1418.000000;3.939348
1417.000000;3.752159
1416.000000;3.689533
1415.000000;3.712636
1414.000000;3.794715
1413.000000;3.878662
1412.000000;3.912404
1411.000000;3.855950
1410.000000;3.761441
1409.000000;3.713453
1408.000000;3.792846
1407.000000;3.996654
1406.000000;4.780478
1405.000000;4.218695
1404.000000;3.847275
1403.000000;3.743357
1402.000000;3.735188
1401.000000;3.766838
1400.000000;3.797313
1399.000000;3.829650
1398.000000;3.870693
1397.000000;3.937695
1396.000000;3.996519
1395.000000;3.945628
1394.000000;3.856178
1393.000000;3.803186
1392.000000;3.743516
1391.000000;3.703396
1390.000000;3.693493
1389.000000;4.119892
1388.000000;4.339856
1387.000000;3.647875
1386.000000;3.593667
1385.000000;3.681008
1384.000000;3.984311
1383.000000;4.608991
1382.000000;4.452904
1381.000000;4.290412
1380.000000;4.329799
1379.000000;4.237525
1378.000000;4.229781
1377.000000;4.120381
1376.000000;3.954388
1375.000000;3.818865
1374.000000;3.757496
1373.000000;3.764817
1372.000000;3.822141
1371.000000;3.893301
1370.000000;3.816314
1369.000000;3.693495
1368.000000;3.684931
1367.000000;3.795012
1366.000000;3.952662
1365.000000;4.039145
1364.000000;4.234648
1363.000000;4.391715
1362.000000;4.089705
1361.000000;3.962567
1360.000000;3.936836
1359.000000;4.227766
1358.000000;4.440361
1357.000000;3.949820
1356.000000;3.809339
1355.000000;3.808056
1354.000000;3.801975
1353.000000;3.694171
1352.000000;3.555018
1351.000000;3.472125
1350.000000;3.461056
1349.000000;3.482707
1348.000000;3.481671
1347.000000;3.455409
1346.000000;3.460665
1345.000000;3.560583
1344.000000;3.800282
1343.000000;3.886169
1342.000000;3.733334
1341.000000;3.751299
1340.000000;3.951788
1339.000000;4.369193
1338.000000;4.414835
1337.000000;3.968166
1336.000000;3.744341
1335.000000;3.685795
1334.000000;3.743520
1333.000000;3.890153
1332.000000;3.942831
1331.000000;3.872137
1330.000000;3.927392
1329.000000;4.545315
1328.000000;4.255823
1327.000000;3.945585
1326.000000;3.916279
1325.000000;3.893877
1324.000000;3.981449
1323.000000;4.554993
1322.000000;4.261703
1321.000000;3.938400
1320.000000;3.851455
1319.000000;3.836072
1318.000000;3.886876
1317.000000;4.006902
1316.000000;4.145243
1315.000000;4.161178
1314.000000;4.094036
1313.000000;4.036605
1312.000000;3.963385
1311.000000;3.820691
1310.000000;3.677324
1309.000000;3.635057
1308.000000;3.725825
1307.000000;3.975962
1306.000000;4.090963
1305.000000;3.982943
1304.000000;4.113282
1303.000000;4.339188
1302.000000;4.098065
1301.000000;3.888667
1300.000000;3.826380
1299.000000;3.829545
1298.000000;3.826386
1297.000000;3.796819
1296.000000;3.814730
1295.000000;3.810781
1294.000000;3.733328
1293.000000;3.707648
1292.000000;3.764974
1291.000000;3.863366
1290.000000;3.937741
1289.000000;3.928273
1288.000000;3.861745
1287.000000;3.821218
1286.000000;3.835137
1285.000000;3.866545
1284.000000;3.916035
1283.000000;4.035545
1282.000000;4.335878
1281.000000;4.656458
1280.000000;4.444462
1279.000000;4.237162
1278.000000;4.005172
1277.000000;3.887503
1276.000000;3.919110
1275.000000;4.116249
1274.000000;4.372377
1273.000000;4.813058
1272.000000;4.369571
1271.000000;3.985514
1270.000000;3.799720
1269.000000;3.682542
1268.000000;3.622263
1267.000000;3.627444
1266.000000;3.719993
1265.000000;3.865467
1264.000000;3.896066
1263.000000;3.886801
1262.000000;3.946859
1261.000000;4.001851
1260.000000;4.030815
1259.000000;4.164986
1258.000000;4.536664
1257.000000;4.463038
1256.000000;4.087415
1255.000000;3.922523
1254.000000;3.871576
1253.000000;3.800335
1252.000000;3.641968
1251.000000;3.555920
1250.000000;3.557095
1249.000000;3.594624
1248.000000;3.647952
1247.000000;3.731483
1246.000000;3.802796
1245.000000;3.837295
1244.000000;3.912032
1243.000000;4.034325
1242.000000;4.138858
1241.000000;4.366229
1240.000000;4.854926
1239.000000;4.377885
1238.000000;4.243875
1237.000000;4.085061
1236.000000;3.854567
1235.000000;3.704781
1234.000000;3.667566
1233.000000;3.717576
1232.000000;3.785255
1231.000000;3.806950
1230.000000;3.802653
1229.000000;3.810810
1228.000000;3.850408
1227.000000;4.024331
1226.000000;4.227381
1225.000000;4.158028
1224.000000;4.067817
1223.000000;3.923599
1222.000000;3.833109
1221.000000;3.819557
1220.000000;3.773498
1219.000000;3.692484
1218.000000;3.656778
1217.000000;3.678685
1216.000000;3.709906
1215.000000;3.706116
1214.000000;3.671816
1213.000000;3.645039
1212.000000;3.696376
1211.000000;3.889984
1210.000000;3.845770
1209.000000;3.608486
1208.000000;3.532540
1207.000000;3.587241
1206.000000;3.776162
1205.000000;4.087036
1204.000000;4.054213
1203.000000;3.842812
1202.000000;3.931031
1201.000000;4.278064
1200.000000;3.953624
