Criado como novo conjunto de dados;"Jao_teste_celulas.spp","542.1 Secs"
cm-1;Abs
10000.000000;0.779811
9999.000000;0.779415
9998.000000;0.779080
9997.000000;0.778815
9996.000000;0.778465
9995.000000;0.777845
9994.000000;0.777007
9993.000000;0.776258
9992.000000;0.775839
9991.000000;0.775654
9990.000000;0.775372
9989.000000;0.774822
9988.000000;0.774220
9987.000000;0.773959
9986.000000;0.774152
9985.000000;0.774429
9984.000000;0.774230
9983.000000;0.773334
9982.000000;0.772027
9981.000000;0.770769
9980.000000;0.769788
9979.000000;0.769046
9978.000000;0.768490
9977.000000;0.768137
9976.000000;0.767933
9975.000000;0.767697
9974.000000;0.767302
9973.000000;0.766802
9972.000000;0.766306
9971.000000;0.765833
9970.000000;0.765379
9969.000000;0.765031
9968.000000;0.764859
9967.000000;0.764742
9966.000000;0.764483
9965.000000;0.764086
9964.000000;0.763756
9963.000000;0.763576
9962.000000;0.763328
9961.000000;0.762765
9960.000000;0.761939
9959.000000;0.761115
9958.000000;0.760417
9957.000000;0.759730
9956.000000;0.758958
9955.000000;0.758239
9954.000000;0.757802
9953.000000;0.757663
9952.000000;0.757569
9951.000000;0.757280
9950.000000;0.756849
9949.000000;0.756555
9948.000000;0.756529
9947.000000;0.756531
9946.000000;0.756186
9945.000000;0.755409
9944.000000;0.754481
9943.000000;0.753713
9942.000000;0.753173
9941.000000;0.752800
9940.000000;0.752609
9939.000000;0.752598
9938.000000;0.752556
9937.000000;0.752161
9936.000000;0.751332
9935.000000;0.750373
9934.000000;0.749701
9933.000000;0.749472
9932.000000;0.749465
9931.000000;0.749301
9930.000000;0.748785
9929.000000;0.748085
9928.000000;0.747539
9927.000000;0.747268
9926.000000;0.747040
9925.000000;0.746579
9924.000000;0.745901
9923.000000;0.745231
9922.000000;0.744651
9921.000000;0.744010
9920.000000;0.743179
9919.000000;0.742240
9918.000000;0.741412
9917.000000;0.740886
9916.000000;0.740712
9915.000000;0.740703
9914.000000;0.740496
9913.000000;0.739860
9912.000000;0.738976
9911.000000;0.738248
9910.000000;0.737828
9909.000000;0.737525
9908.000000;0.737204
9907.000000;0.737042
9906.000000;0.737228
9905.000000;0.737594
9904.000000;0.737715
9903.000000;0.737322
9902.000000;0.736490
9901.000000;0.735490
9900.000000;0.734553
9899.000000;0.733758
9898.000000;0.733040
9897.000000;0.732344
9896.000000;0.731786
9895.000000;0.731538
9894.000000;0.731517
9893.000000;0.731356
9892.000000;0.730807
9891.000000;0.730041
9890.000000;0.729402
9889.000000;0.728979
9888.000000;0.728599
9887.000000;0.728160
9886.000000;0.727747
9885.000000;0.727437
9884.000000;0.727186
9883.000000;0.726918
9882.000000;0.726579
9881.000000;0.726086
9880.000000;0.725365
9879.000000;0.724522
9878.000000;0.723847
9877.000000;0.723586
9876.000000;0.723712
9875.000000;0.723914
9874.000000;0.723808
9873.000000;0.723196
9872.000000;0.722230
9871.000000;0.721311
9870.000000;0.720767
9869.000000;0.720610
9868.000000;0.720616
9867.000000;0.720571
9866.000000;0.720383
9865.000000;0.720014
9864.000000;0.719446
9863.000000;0.718696
9862.000000;0.717815
9861.000000;0.716883
9860.000000;0.716059
9859.000000;0.715541
9858.000000;0.715349
9857.000000;0.715198
9856.000000;0.714727
9855.000000;0.713881
9854.000000;0.712983
9853.000000;0.712438
9852.000000;0.712423
9851.000000;0.712777
9850.000000;0.713092
9849.000000;0.712962
9848.000000;0.712314
9847.000000;0.711480
9846.000000;0.710799
9845.000000;0.710221
9844.000000;0.709477
9843.000000;0.708580
9842.000000;0.707885
9841.000000;0.707587
9840.000000;0.707432
9839.000000;0.707061
9838.000000;0.706453
9837.000000;0.705844
9836.000000;0.705337
9835.000000;0.704814
9834.000000;0.704198
9833.000000;0.703579
9832.000000;0.703046
9831.000000;0.702549
9830.000000;0.702003
9829.000000;0.701464
9828.000000;0.701100
9827.000000;0.700970
9826.000000;0.700898
9825.000000;0.700614
9824.000000;0.700061
9823.000000;0.699510
9822.000000;0.699292
9821.000000;0.699408
9820.000000;0.699484
9819.000000;0.699139
9818.000000;0.698338
9817.000000;0.697342
9816.000000;0.696398
9815.000000;0.695592
9814.000000;0.694965
9813.000000;0.694627
9812.000000;0.694618
9811.000000;0.694721
9810.000000;0.694550
9809.000000;0.693930
9808.000000;0.693118
9807.000000;0.692546
9806.000000;0.692367
9805.000000;0.692365
9804.000000;0.692291
9803.000000;0.692124
9802.000000;0.691916
9801.000000;0.691573
9800.000000;0.690971
9799.000000;0.690206
9798.000000;0.689549
9797.000000;0.689142
9796.000000;0.688881
9795.000000;0.688594
9794.000000;0.688194
9793.000000;0.687660
9792.000000;0.687007
9791.000000;0.686297
9790.000000;0.685608
9789.000000;0.684951
9788.000000;0.684323
9787.000000;0.683805
9786.000000;0.683487
9785.000000;0.683285
9784.000000;0.682977
9783.000000;0.682461
9782.000000;0.681872
9781.000000;0.681370
9780.000000;0.680947
9779.000000;0.680506
9778.000000;0.680010
9777.000000;0.679464
9776.000000;0.678847
9775.000000;0.678171
9774.000000;0.677553
9773.000000;0.677141
9772.000000;0.676991
9771.000000;0.677043
9770.000000;0.677146
9769.000000;0.677084
9768.000000;0.676723
9767.000000;0.676177
9766.000000;0.675715
9765.000000;0.675422
9764.000000;0.675074
9763.000000;0.674459
9762.000000;0.673713
9761.000000;0.673140
9760.000000;0.672798
9759.000000;0.672449
9758.000000;0.671944
9757.000000;0.671429
9756.000000;0.671100
9755.000000;0.670899
9754.000000;0.670571
9753.000000;0.669961
9752.000000;0.669122
9751.000000;0.668178
9750.000000;0.667216
9749.000000;0.666342
9748.000000;0.665733
9747.000000;0.665518
9746.000000;0.665605
9745.000000;0.665691
9744.000000;0.665503
9743.000000;0.664997
9742.000000;0.664351
9741.000000;0.663774
9740.000000;0.663352
9739.000000;0.663023
9738.000000;0.662653
9737.000000;0.662158
9736.000000;0.661568
9735.000000;0.660970
9734.000000;0.660394
9733.000000;0.659830
9732.000000;0.659374
9731.000000;0.659226
9730.000000;0.659435
9729.000000;0.659723
9728.000000;0.659696
9727.000000;0.659243
9726.000000;0.658611
9725.000000;0.658086
9724.000000;0.657698
9723.000000;0.657285
9722.000000;0.656731
9721.000000;0.656118
9720.000000;0.655659
9719.000000;0.655508
9718.000000;0.655575
9717.000000;0.655548
9716.000000;0.655153
9715.000000;0.654395
9714.000000;0.653502
9713.000000;0.652685
9712.000000;0.652041
9711.000000;0.651586
9710.000000;0.651211
9709.000000;0.650662
9708.000000;0.649769
9707.000000;0.648739
9706.000000;0.648005
9705.000000;0.647759
9704.000000;0.647769
9703.000000;0.647714
9702.000000;0.647515
9701.000000;0.647249
9700.000000;0.646921
9699.000000;0.646480
9698.000000;0.645929
9697.000000;0.645286
9696.000000;0.644529
9695.000000;0.643697
9694.000000;0.642964
9693.000000;0.642461
9692.000000;0.642136
9691.000000;0.641906
9690.000000;0.641835
9689.000000;0.642002
9688.000000;0.642248
9687.000000;0.642231
9686.000000;0.641739
9685.000000;0.640825
9684.000000;0.639711
9683.000000;0.638682
9682.000000;0.638021
9681.000000;0.637853
9680.000000;0.638001
9679.000000;0.638119
9678.000000;0.637974
9677.000000;0.637561
9676.000000;0.636979
9675.000000;0.636324
9674.000000;0.635666
9673.000000;0.634997
9672.000000;0.634226
9671.000000;0.633339
9670.000000;0.632546
9669.000000;0.632144
9668.000000;0.632197
9667.000000;0.632451
9666.000000;0.632562
9665.000000;0.632361
9664.000000;0.631910
9663.000000;0.631420
9662.000000;0.631072
9661.000000;0.630816
9660.000000;0.630375
9659.000000;0.629581
9658.000000;0.628684
9657.000000;0.628142
9656.000000;0.628067
9655.000000;0.628050
9654.000000;0.627638
9653.000000;0.626844
9652.000000;0.626067
9651.000000;0.625624
9650.000000;0.625497
9649.000000;0.625447
9648.000000;0.625249
9647.000000;0.624805
9646.000000;0.624161
9645.000000;0.623459
9644.000000;0.622839
9643.000000;0.622344
9642.000000;0.621924
9641.000000;0.621524
9640.000000;0.621137
9639.000000;0.620785
9638.000000;0.620462
9637.000000;0.620114
9636.000000;0.619699
9635.000000;0.619281
9634.000000;0.618993
9633.000000;0.618843
9632.000000;0.618595
9631.000000;0.617970
9630.000000;0.616980
9629.000000;0.615974
9628.000000;0.615289
9627.000000;0.614965
9626.000000;0.614830
9625.000000;0.614775
9624.000000;0.614802
9623.000000;0.614848
9622.000000;0.614731
9621.000000;0.614321
9620.000000;0.613684
9619.000000;0.612986
9618.000000;0.612315
9617.000000;0.611683
9616.000000;0.611142
9615.000000;0.610781
9614.000000;0.610579
9613.000000;0.610360
9612.000000;0.609971
9611.000000;0.609442
9610.000000;0.608915
9609.000000;0.608457
9608.000000;0.608051
9607.000000;0.607730
9606.000000;0.607567
9605.000000;0.607500
9604.000000;0.607315
9603.000000;0.606873
9602.000000;0.606279
9601.000000;0.605749
9600.000000;0.605351
9599.000000;0.604947
9598.000000;0.604358
9597.000000;0.603558
9596.000000;0.602735
9595.000000;0.602186
9594.000000;0.602029
9593.000000;0.602014
9592.000000;0.601721
9591.000000;0.601045
9590.000000;0.600342
9589.000000;0.599982
9588.000000;0.599876
9587.000000;0.599617
9586.000000;0.598996
9585.000000;0.598200
9584.000000;0.597511
9583.000000;0.597038
9582.000000;0.596752
9581.000000;0.596619
9580.000000;0.596590
9579.000000;0.596569
9578.000000;0.596466
9577.000000;0.596221
9576.000000;0.595769
9575.000000;0.595075
9574.000000;0.594228
9573.000000;0.593418
9572.000000;0.592792
9571.000000;0.592394
9570.000000;0.592205
9569.000000;0.592125
9568.000000;0.591945
9567.000000;0.591493
9566.000000;0.590832
9565.000000;0.590213
9564.000000;0.589797
9563.000000;0.589553
9562.000000;0.589416
9561.000000;0.589384
9560.000000;0.589408
9559.000000;0.589332
9558.000000;0.589028
9557.000000;0.588483
9556.000000;0.587708
9555.000000;0.586715
9554.000000;0.585661
9553.000000;0.584863
9552.000000;0.584531
9551.000000;0.584571
9550.000000;0.584726
9549.000000;0.584811
9548.000000;0.584710
9547.000000;0.584295
9546.000000;0.583513
9545.000000;0.582496
9544.000000;0.581449
9543.000000;0.580486
9542.000000;0.579701
9541.000000;0.579268
9540.000000;0.579287
9539.000000;0.579539
9538.000000;0.579618
9537.000000;0.579337
9536.000000;0.578861
9535.000000;0.578418
9534.000000;0.578041
9533.000000;0.577635
9532.000000;0.577177
9531.000000;0.576745
9530.000000;0.576400
9529.000000;0.576149
9528.000000;0.575989
9527.000000;0.575919
9526.000000;0.575884
9525.000000;0.575742
9524.000000;0.575355
9523.000000;0.574733
9522.000000;0.574071
9521.000000;0.573591
9520.000000;0.573326
9519.000000;0.573136
9518.000000;0.572901
9517.000000;0.572606
9516.000000;0.572207
9515.000000;0.571581
9514.000000;0.570722
9513.000000;0.569887
9512.000000;0.569361
9511.000000;0.569145
9510.000000;0.569010
9509.000000;0.568826
9508.000000;0.568662
9507.000000;0.568566
9506.000000;0.568405
9505.000000;0.567996
9504.000000;0.567292
9503.000000;0.566405
9502.000000;0.565537
9501.000000;0.564902
9500.000000;0.564598
9499.000000;0.564473
9498.000000;0.564232
9497.000000;0.563722
9496.000000;0.563067
9495.000000;0.562493
9494.000000;0.562116
9493.000000;0.561923
9492.000000;0.561828
9491.000000;0.561686
9490.000000;0.561358
9489.000000;0.560875
9488.000000;0.560423
9487.000000;0.560109
9486.000000;0.559815
9485.000000;0.559413
9484.000000;0.558993
9483.000000;0.558720
9482.000000;0.558502
9481.000000;0.558027
9480.000000;0.557168
9479.000000;0.556185
9478.000000;0.555442
9477.000000;0.555034
9476.000000;0.554812
9475.000000;0.554677
9474.000000;0.554677
9473.000000;0.554825
9472.000000;0.554949
9471.000000;0.554828
9470.000000;0.554414
9469.000000;0.553873
9468.000000;0.553401
9467.000000;0.553050
9466.000000;0.552739
9465.000000;0.552373
9464.000000;0.551914
9463.000000;0.551370
9462.000000;0.550765
9461.000000;0.550136
9460.000000;0.549533
9459.000000;0.549013
9458.000000;0.548624
9457.000000;0.548386
9456.000000;0.548242
9455.000000;0.548046
9454.000000;0.547653
9453.000000;0.547050
9452.000000;0.546382
9451.000000;0.545835
9450.000000;0.545498
9449.000000;0.545337
9448.000000;0.545241
9447.000000;0.545089
9446.000000;0.544809
9445.000000;0.544410
9444.000000;0.543968
9443.000000;0.543557
9442.000000;0.543202
9441.000000;0.542900
9440.000000;0.542654
9439.000000;0.542452
9438.000000;0.542236
9437.000000;0.541933
9436.000000;0.541515
9435.000000;0.541017
9434.000000;0.540462
9433.000000;0.539827
9432.000000;0.539096
9431.000000;0.538364
9430.000000;0.537810
9429.000000;0.537537
9428.000000;0.537438
9427.000000;0.537275
9426.000000;0.536926
9425.000000;0.536501
9424.000000;0.536188
9423.000000;0.536013
9422.000000;0.535814
9421.000000;0.535441
9420.000000;0.534907
9419.000000;0.534327
9418.000000;0.533782
9417.000000;0.533288
9416.000000;0.532865
9415.000000;0.532560
9414.000000;0.532398
9413.000000;0.532329
9412.000000;0.532228
9411.000000;0.531966
9410.000000;0.531500
9409.000000;0.530918
9408.000000;0.530386
9407.000000;0.530022
9406.000000;0.529830
9405.000000;0.529717
9404.000000;0.529553
9403.000000;0.529224
9402.000000;0.528686
9401.000000;0.528019
9400.000000;0.527398
9399.000000;0.526951
9398.000000;0.526655
9397.000000;0.526376
9396.000000;0.526002
9395.000000;0.525521
9394.000000;0.524995
9393.000000;0.524502
9392.000000;0.524084
9391.000000;0.523721
9390.000000;0.523351
9389.000000;0.522949
9388.000000;0.522577
9387.000000;0.522328
9386.000000;0.522207
9385.000000;0.522085
9384.000000;0.521825
9383.000000;0.521444
9382.000000;0.521096
9381.000000;0.520881
9380.000000;0.520698
9379.000000;0.520344
9378.000000;0.519748
9377.000000;0.519039
9376.000000;0.518371
9375.000000;0.517765
9374.000000;0.517191
9373.000000;0.516731
9372.000000;0.516528
9371.000000;0.516558
9370.000000;0.516581
9369.000000;0.516370
9368.000000;0.515934
9367.000000;0.515452
9366.000000;0.515038
9365.000000;0.514652
9364.000000;0.514223
9363.000000;0.513763
9362.000000;0.513356
9361.000000;0.513064
9360.000000;0.512873
9359.000000;0.512719
9358.000000;0.512527
9357.000000;0.512234
9356.000000;0.511789
9355.000000;0.511187
9354.000000;0.510527
9353.000000;0.510002
9352.000000;0.509749
9351.000000;0.509679
9350.000000;0.509526
9349.000000;0.509097
9348.000000;0.508442
9347.000000;0.507752
9346.000000;0.507168
9345.000000;0.506726
9344.000000;0.506420
9343.000000;0.506216
9342.000000;0.506025
9341.000000;0.505748
9340.000000;0.505369
9339.000000;0.504956
9338.000000;0.504562
9337.000000;0.504198
9336.000000;0.503886
9335.000000;0.503700
9334.000000;0.503694
9333.000000;0.503803
9332.000000;0.503840
9331.000000;0.503598
9330.000000;0.503015
9329.000000;0.502246
9328.000000;0.501554
9327.000000;0.501070
9326.000000;0.500688
9325.000000;0.500228
9324.000000;0.499680
9323.000000;0.499217
9322.000000;0.498989
9321.000000;0.498968
9320.000000;0.498977
9319.000000;0.498818
9318.000000;0.498386
9317.000000;0.497733
9316.000000;0.497044
9315.000000;0.496503
9314.000000;0.496149
9313.000000;0.495902
9312.000000;0.495707
9311.000000;0.495561
9310.000000;0.495404
9309.000000;0.495098
9308.000000;0.494596
9307.000000;0.494038
9306.000000;0.493621
9305.000000;0.493395
9304.000000;0.493259
9303.000000;0.493112
9302.000000;0.492932
9301.000000;0.492727
9300.000000;0.492486
9299.000000;0.492178
9298.000000;0.491791
9297.000000;0.491357
9296.000000;0.490952
9295.000000;0.490652
9294.000000;0.490434
9293.000000;0.490175
9292.000000;0.489777
9291.000000;0.489293
9290.000000;0.488845
9289.000000;0.488468
9288.000000;0.488082
9287.000000;0.487622
9286.000000;0.487094
9285.000000;0.486532
9284.000000;0.485963
9283.000000;0.485473
9282.000000;0.485201
9281.000000;0.485192
9280.000000;0.485293
9279.000000;0.485279
9278.000000;0.485058
9277.000000;0.484686
9276.000000;0.484216
9275.000000;0.483637
9274.000000;0.482997
9273.000000;0.482469
9272.000000;0.482191
9271.000000;0.482096
9270.000000;0.481983
9269.000000;0.481740
9268.000000;0.481414
9267.000000;0.481074
9266.000000;0.480722
9265.000000;0.480359
9264.000000;0.480034
9263.000000;0.479742
9262.000000;0.479362
9261.000000;0.478792
9260.000000;0.478139
9259.000000;0.477654
9258.000000;0.477471
9257.000000;0.477458
9256.000000;0.477358
9255.000000;0.477033
9254.000000;0.476564
9253.000000;0.476145
9252.000000;0.475899
9251.000000;0.475762
9250.000000;0.475530
9249.000000;0.475060
9248.000000;0.474445
9247.000000;0.473929
9246.000000;0.473646
9245.000000;0.473478
9244.000000;0.473222
9243.000000;0.472830
9242.000000;0.472428
9241.000000;0.472113
9240.000000;0.471821
9239.000000;0.471417
9238.000000;0.470892
9237.000000;0.470400
9236.000000;0.470087
9235.000000;0.469914
9234.000000;0.469687
9233.000000;0.469278
9232.000000;0.468766
9231.000000;0.468335
9230.000000;0.468067
9229.000000;0.467889
9228.000000;0.467694
9227.000000;0.467454
9226.000000;0.467183
9225.000000;0.466888
9224.000000;0.466584
9223.000000;0.466307
9222.000000;0.466064
9221.000000;0.465783
9220.000000;0.465391
9219.000000;0.464918
9218.000000;0.464493
9217.000000;0.464211
9216.000000;0.464051
9215.000000;0.463910
9214.000000;0.463706
9213.000000;0.463439
9212.000000;0.463166
9211.000000;0.462915
9210.000000;0.462643
9209.000000;0.462281
9208.000000;0.461841
9207.000000;0.461421
9206.000000;0.461097
9205.000000;0.460841
9204.000000;0.460559
9203.000000;0.460191
9202.000000;0.459749
9201.000000;0.459276
9200.000000;0.458816
9199.000000;0.458417
9198.000000;0.458125
9197.000000;0.457927
9196.000000;0.457732
9195.000000;0.457437
9194.000000;0.457026
9193.000000;0.456589
9192.000000;0.456222
9191.000000;0.455912
9190.000000;0.455549
9189.000000;0.455067
9188.000000;0.454544
9187.000000;0.454137
9186.000000;0.453941
9185.000000;0.453925
9184.000000;0.453973
9183.000000;0.453934
9182.000000;0.453669
9181.000000;0.453121
9180.000000;0.452386
9179.000000;0.451671
9178.000000;0.451143
9177.000000;0.450841
9176.000000;0.450689
9175.000000;0.450555
9174.000000;0.450316
9173.000000;0.449941
9172.000000;0.449546
9171.000000;0.449293
9170.000000;0.449201
9169.000000;0.449118
9168.000000;0.448890
9167.000000;0.448518
9166.000000;0.448133
9165.000000;0.447866
9164.000000;0.447769
9163.000000;0.447779
9162.000000;0.447719
9161.000000;0.447402
9160.000000;0.446812
9159.000000;0.446132
9158.000000;0.445551
9157.000000;0.445118
9156.000000;0.444807
9155.000000;0.444628
9154.000000;0.444548
9153.000000;0.444391
9152.000000;0.443977
9151.000000;0.443346
9150.000000;0.442743
9149.000000;0.442346
9148.000000;0.442120
9147.000000;0.441943
9146.000000;0.441762
9145.000000;0.441582
9144.000000;0.441383
9143.000000;0.441127
9142.000000;0.440806
9141.000000;0.440440
9140.000000;0.440045
9139.000000;0.439639
9138.000000;0.439247
9137.000000;0.438891
9136.000000;0.438582
9135.000000;0.438329
9134.000000;0.438130
9133.000000;0.437938
9132.000000;0.437682
9131.000000;0.437323
9130.000000;0.436882
9129.000000;0.436408
9128.000000;0.435953
9127.000000;0.435569
9126.000000;0.435289
9125.000000;0.435106
9124.000000;0.434980
9123.000000;0.434848
9122.000000;0.434643
9121.000000;0.434328
9120.000000;0.433955
9119.000000;0.433658
9118.000000;0.433497
9117.000000;0.433348
9116.000000;0.433006
9115.000000;0.432415
9114.000000;0.431740
9113.000000;0.431202
9112.000000;0.430917
9111.000000;0.430852
9110.000000;0.430855
9109.000000;0.430726
9108.000000;0.430344
9107.000000;0.429802
9106.000000;0.429338
9105.000000;0.429089
9104.000000;0.428964
9103.000000;0.428792
9102.000000;0.428531
9101.000000;0.428282
9100.000000;0.428123
9099.000000;0.428008
9098.000000;0.427836
9097.000000;0.427556
9096.000000;0.427213
9095.000000;0.426890
9094.000000;0.426620
9093.000000;0.426360
9092.000000;0.426063
9091.000000;0.425747
9090.000000;0.425456
9089.000000;0.425168
9088.000000;0.424807
9087.000000;0.424349
9086.000000;0.423861
9085.000000;0.423423
9084.000000;0.423073
9083.000000;0.422837
9082.000000;0.422731
9081.000000;0.422669
9080.000000;0.422461
9079.000000;0.421987
9078.000000;0.421350
9077.000000;0.420788
9076.000000;0.420437
9075.000000;0.420227
9074.000000;0.420009
9073.000000;0.419707
9072.000000;0.419362
9071.000000;0.419044
9070.000000;0.418775
9069.000000;0.418519
9068.000000;0.418222
9067.000000;0.417863
9066.000000;0.417456
9065.000000;0.417019
9064.000000;0.416565
9063.000000;0.416133
9062.000000;0.415792
9061.000000;0.415594
9060.000000;0.415531
9059.000000;0.415552
9058.000000;0.415595
9057.000000;0.415597
9056.000000;0.415503
9055.000000;0.415282
9054.000000;0.414926
9053.000000;0.414433
9052.000000;0.413828
9051.000000;0.413214
9050.000000;0.412742
9049.000000;0.412498
9048.000000;0.412420
9047.000000;0.412350
9046.000000;0.412165
9045.000000;0.411857
9044.000000;0.411520
9043.000000;0.411273
9042.000000;0.411145
9041.000000;0.411037
9040.000000;0.410811
9039.000000;0.410443
9038.000000;0.410042
9037.000000;0.409721
9036.000000;0.409482
9035.000000;0.409259
9034.000000;0.408992
9033.000000;0.408639
9032.000000;0.408155
9031.000000;0.407549
9030.000000;0.406933
9029.000000;0.406479
9028.000000;0.406290
9027.000000;0.406333
9026.000000;0.406453
9025.000000;0.406465
9024.000000;0.406269
9023.000000;0.405926
9022.000000;0.405579
9021.000000;0.405293
9020.000000;0.404994
9019.000000;0.404607
9018.000000;0.404184
9017.000000;0.403828
9016.000000;0.403552
9015.000000;0.403270
9014.000000;0.402921
9013.000000;0.402522
9012.000000;0.402122
9011.000000;0.401767
9010.000000;0.401510
9009.000000;0.401387
9008.000000;0.401339
9007.000000;0.401216
9006.000000;0.400894
9005.000000;0.400385
9004.000000;0.399834
9003.000000;0.399399
9002.000000;0.399134
9001.000000;0.398957
9000.000000;0.398747
8999.000000;0.398466
8998.000000;0.398157
8997.000000;0.397850
8996.000000;0.397529
8995.000000;0.397211
8994.000000;0.396961
8993.000000;0.396766
8992.000000;0.396492
8991.000000;0.396056
8990.000000;0.395592
8989.000000;0.395320
8988.000000;0.395281
8987.000000;0.395288
8986.000000;0.395146
8985.000000;0.394821
8984.000000;0.394382
8983.000000;0.393911
8982.000000;0.393505
8981.000000;0.393259
8980.000000;0.393163
8979.000000;0.393079
8978.000000;0.392895
8977.000000;0.392642
8976.000000;0.392419
8975.000000;0.392228
8974.000000;0.391968
8973.000000;0.391562
8972.000000;0.391057
8971.000000;0.390580
8970.000000;0.390240
8969.000000;0.390037
8968.000000;0.389859
8967.000000;0.389582
8966.000000;0.389198
8965.000000;0.388819
8964.000000;0.388543
8963.000000;0.388337
8962.000000;0.388092
8961.000000;0.387757
8960.000000;0.387381
8959.000000;0.387071
8958.000000;0.386923
8957.000000;0.386967
8956.000000;0.387106
8955.000000;0.387144
8954.000000;0.386934
8953.000000;0.386521
8952.000000;0.386082
8951.000000;0.385738
8950.000000;0.385459
8949.000000;0.385130
8948.000000;0.384680
8947.000000;0.384134
8946.000000;0.383600
8945.000000;0.383218
8944.000000;0.383072
8943.000000;0.383105
8942.000000;0.383148
8941.000000;0.383072
8940.000000;0.382881
8939.000000;0.382642
8938.000000;0.382340
8937.000000;0.381897
8936.000000;0.381317
8935.000000;0.380760
8934.000000;0.380413
8933.000000;0.380285
8932.000000;0.380190
8931.000000;0.379944
8930.000000;0.379551
8929.000000;0.379179
8928.000000;0.378975
8927.000000;0.378917
8926.000000;0.378839
8925.000000;0.378590
8924.000000;0.378164
8923.000000;0.377681
8922.000000;0.377268
8921.000000;0.376968
8920.000000;0.376770
8919.000000;0.376672
8918.000000;0.376669
8917.000000;0.376677
8916.000000;0.376555
8915.000000;0.376225
8914.000000;0.375773
8913.000000;0.375361
8912.000000;0.375087
8911.000000;0.374933
8910.000000;0.374825
8909.000000;0.374686
8908.000000;0.374446
8907.000000;0.374073
8906.000000;0.373611
8905.000000;0.373147
8904.000000;0.372729
8903.000000;0.372368
8902.000000;0.372102
8901.000000;0.371981
8900.000000;0.371963
8899.000000;0.371887
8898.000000;0.371617
8897.000000;0.371182
8896.000000;0.370735
8895.000000;0.370402
8894.000000;0.370194
8893.000000;0.370043
8892.000000;0.369847
8891.000000;0.369528
8890.000000;0.369111
8889.000000;0.368736
8888.000000;0.368534
8887.000000;0.368492
8886.000000;0.368475
8885.000000;0.368382
8884.000000;0.368213
8883.000000;0.367991
8882.000000;0.367723
8881.000000;0.367443
8880.000000;0.367215
8879.000000;0.367035
8878.000000;0.366788
8877.000000;0.366389
8876.000000;0.365908
8875.000000;0.365505
8874.000000;0.365248
8873.000000;0.365069
8872.000000;0.364888
8871.000000;0.364709
8870.000000;0.364577
8869.000000;0.364494
8868.000000;0.364416
8867.000000;0.364286
8866.000000;0.364076
8865.000000;0.363809
8864.000000;0.363553
8863.000000;0.363347
8862.000000;0.363134
8861.000000;0.362805
8860.000000;0.362347
8859.000000;0.361896
8858.000000;0.361601
8857.000000;0.361450
8856.000000;0.361293
8855.000000;0.361032
8854.000000;0.360735
8853.000000;0.360553
8852.000000;0.360533
8851.000000;0.360559
8850.000000;0.360469
8849.000000;0.360226
8848.000000;0.359933
8847.000000;0.359699
8846.000000;0.359517
8845.000000;0.359308
8844.000000;0.359052
8843.000000;0.358825
8842.000000;0.358681
8841.000000;0.358575
8840.000000;0.358421
8839.000000;0.358184
8838.000000;0.357879
8837.000000;0.357520
8836.000000;0.357127
8835.000000;0.356774
8834.000000;0.356550
8833.000000;0.356479
8832.000000;0.356491
8831.000000;0.356493
8830.000000;0.356433
8829.000000;0.356293
8828.000000;0.356081
8827.000000;0.355840
8826.000000;0.355632
8825.000000;0.355484
8824.000000;0.355348
8823.000000;0.355145
8822.000000;0.354851
8821.000000;0.354546
8820.000000;0.354366
8819.000000;0.354377
8818.000000;0.354505
8817.000000;0.354598
8816.000000;0.354586
8815.000000;0.354552
8814.000000;0.354621
8813.000000;0.354797
8812.000000;0.354941
8811.000000;0.354888
8810.000000;0.354580
8809.000000;0.354087
8808.000000;0.353556
8807.000000;0.353113
8806.000000;0.352793
8805.000000;0.352573
8804.000000;0.352466
8803.000000;0.352526
8802.000000;0.352706
8801.000000;0.352782
8800.000000;0.352532
8799.000000;0.351978
8798.000000;0.351362
8797.000000;0.350894
8796.000000;0.350622
8795.000000;0.350518
8794.000000;0.350566
8793.000000;0.350697
8792.000000;0.350777
8791.000000;0.350734
8790.000000;0.350640
8789.000000;0.350585
8788.000000;0.350553
8787.000000;0.350480
8786.000000;0.350386
8785.000000;0.350347
8784.000000;0.350373
8783.000000;0.350381
8782.000000;0.350291
8781.000000;0.350095
8780.000000;0.349869
8779.000000;0.349738
8778.000000;0.349797
8777.000000;0.349989
8776.000000;0.350131
8775.000000;0.350108
8774.000000;0.350003
8773.000000;0.349940
8772.000000;0.349865
8771.000000;0.349622
8770.000000;0.349220
8769.000000;0.348892
8768.000000;0.348831
8767.000000;0.348969
8766.000000;0.349070
8765.000000;0.348985
8764.000000;0.348752
8763.000000;0.348506
8762.000000;0.348335
8761.000000;0.348237
8760.000000;0.348161
8759.000000;0.348077
8758.000000;0.348002
8757.000000;0.347948
8756.000000;0.347890
8755.000000;0.347801
8754.000000;0.347706
8753.000000;0.347627
8752.000000;0.347514
8751.000000;0.347304
8750.000000;0.347053
8749.000000;0.346921
8748.000000;0.346979
8747.000000;0.347124
8746.000000;0.347210
8745.000000;0.347219
8744.000000;0.347225
8743.000000;0.347252
8742.000000;0.347266
8741.000000;0.347265
8740.000000;0.347297
8739.000000;0.347350
8738.000000;0.347324
8737.000000;0.347156
8736.000000;0.346921
8735.000000;0.346757
8734.000000;0.346698
8733.000000;0.346662
8732.000000;0.346588
8731.000000;0.346530
8730.000000;0.346555
8729.000000;0.346606
8728.000000;0.346551
8727.000000;0.346361
8726.000000;0.346168
8725.000000;0.346113
8724.000000;0.346180
8723.000000;0.346233
8722.000000;0.346163
8721.000000;0.345981
8720.000000;0.345782
8719.000000;0.345669
8718.000000;0.345700
8717.000000;0.345837
8716.000000;0.345958
8715.000000;0.345951
8714.000000;0.345818
8713.000000;0.345667
8712.000000;0.345581
8711.000000;0.345537
8710.000000;0.345441
8709.000000;0.345230
8708.000000;0.344938
8707.000000;0.344677
8706.000000;0.344537
8705.000000;0.344495
8704.000000;0.344423
8703.000000;0.344216
8702.000000;0.343907
8701.000000;0.343634
8700.000000;0.343518
8699.000000;0.343571
8698.000000;0.343708
8697.000000;0.343801
8696.000000;0.343742
8695.000000;0.343509
8694.000000;0.343189
8693.000000;0.342898
8692.000000;0.342700
8691.000000;0.342607
8690.000000;0.342624
8689.000000;0.342728
8688.000000;0.342834
8687.000000;0.342821
8686.000000;0.342627
8685.000000;0.342286
8684.000000;0.341902
8683.000000;0.341613
8682.000000;0.341542
8681.000000;0.341673
8680.000000;0.341797
8679.000000;0.341699
8678.000000;0.341416
8677.000000;0.341228
8676.000000;0.341309
8675.000000;0.341491
8674.000000;0.341457
8673.000000;0.341109
8672.000000;0.340654
8671.000000;0.340319
8670.000000;0.340121
8669.000000;0.339938
8668.000000;0.339712
8667.000000;0.339504
8666.000000;0.339369
8665.000000;0.339266
8664.000000;0.339137
8663.000000;0.339008
8662.000000;0.338958
8661.000000;0.338991
8660.000000;0.338994
8659.000000;0.338837
8658.000000;0.338491
8657.000000;0.338049
8656.000000;0.337659
8655.000000;0.337443
8654.000000;0.337417
8653.000000;0.337449
8652.000000;0.337349
8651.000000;0.337054
8650.000000;0.336705
8649.000000;0.336496
8648.000000;0.336459
8647.000000;0.336458
8646.000000;0.336352
8645.000000;0.336107
8644.000000;0.335759
8643.000000;0.335363
8642.000000;0.335001
8641.000000;0.334755
8640.000000;0.334629
8639.000000;0.334544
8638.000000;0.334426
8637.000000;0.334255
8636.000000;0.334034
8635.000000;0.333746
8634.000000;0.333386
8633.000000;0.332986
8632.000000;0.332595
8631.000000;0.332261
8630.000000;0.332042
8629.000000;0.331961
8628.000000;0.331949
8627.000000;0.331877
8626.000000;0.331694
8625.000000;0.331485
8624.000000;0.331367
8623.000000;0.331361
8622.000000;0.331392
8621.000000;0.331357
8620.000000;0.331172
8619.000000;0.330805
8618.000000;0.330317
8617.000000;0.329856
8616.000000;0.329540
8615.000000;0.329380
8614.000000;0.329306
8613.000000;0.329255
8612.000000;0.329192
8611.000000;0.329083
8610.000000;0.328911
8609.000000;0.328689
8608.000000;0.328423
8607.000000;0.328086
8606.000000;0.327664
8605.000000;0.327216
8604.000000;0.326839
8603.000000;0.326589
8602.000000;0.326433
8601.000000;0.326286
8600.000000;0.326068
8599.000000;0.325755
8598.000000;0.325411
8597.000000;0.325145
8596.000000;0.325005
8595.000000;0.324918
8594.000000;0.324760
8593.000000;0.324479
8592.000000;0.324121
8591.000000;0.323763
8590.000000;0.323445
8589.000000;0.323165
8588.000000;0.322917
8587.000000;0.322718
8586.000000;0.322590
8585.000000;0.322517
8584.000000;0.322423
8583.000000;0.322227
8582.000000;0.321932
8581.000000;0.321620
8580.000000;0.321362
8579.000000;0.321142
8578.000000;0.320907
8577.000000;0.320635
8576.000000;0.320334
8575.000000;0.320015
8574.000000;0.319700
8573.000000;0.319437
8572.000000;0.319255
8571.000000;0.319108
8570.000000;0.318921
8569.000000;0.318669
8568.000000;0.318394
8567.000000;0.318140
8566.000000;0.317922
8565.000000;0.317737
8564.000000;0.317603
8563.000000;0.317524
8562.000000;0.317447
8561.000000;0.317264
8560.000000;0.316887
8559.000000;0.316349
8558.000000;0.315810
8557.000000;0.315422
8556.000000;0.315192
8555.000000;0.315006
8554.000000;0.314788
8553.000000;0.314586
8552.000000;0.314479
8551.000000;0.314453
8550.000000;0.314405
8549.000000;0.314239
8548.000000;0.313924
8547.000000;0.313485
8546.000000;0.312992
8545.000000;0.312543
8544.000000;0.312207
8543.000000;0.311984
8542.000000;0.311833
8541.000000;0.311725
8540.000000;0.311636
8539.000000;0.311514
8538.000000;0.311300
8537.000000;0.310977
8536.000000;0.310589
8535.000000;0.310210
8534.000000;0.309904
8533.000000;0.309702
8532.000000;0.309577
8531.000000;0.309465
8530.000000;0.309323
8529.000000;0.309145
8528.000000;0.308923
8527.000000;0.308618
8526.000000;0.308215
8525.000000;0.307786
8524.000000;0.307443
8523.000000;0.307220
8522.000000;0.307067
8521.000000;0.306921
8520.000000;0.306754
8519.000000;0.306541
8518.000000;0.306242
8517.000000;0.305843
8516.000000;0.305392
8515.000000;0.304971
8514.000000;0.304630
8513.000000;0.304359
8512.000000;0.304112
8511.000000;0.303858
8510.000000;0.303608
8509.000000;0.303389
8508.000000;0.303204
8507.000000;0.303031
8506.000000;0.302844
8505.000000;0.302616
8504.000000;0.302301
8503.000000;0.301871
8502.000000;0.301396
8501.000000;0.301028
8500.000000;0.300845
8499.000000;0.300746
8498.000000;0.300569
8497.000000;0.300280
8496.000000;0.299992
8495.000000;0.299803
8494.000000;0.299691
8493.000000;0.299580
8492.000000;0.299426
8491.000000;0.299211
8490.000000;0.298909
8489.000000;0.298519
8488.000000;0.298101
8487.000000;0.297750
8486.000000;0.297523
8485.000000;0.297388
8484.000000;0.297247
8483.000000;0.296998
8482.000000;0.296620
8481.000000;0.296199
8480.000000;0.295860
8479.000000;0.295660
8478.000000;0.295551
8477.000000;0.295429
8476.000000;0.295202
8475.000000;0.294836
8474.000000;0.294379
8473.000000;0.293949
8472.000000;0.293652
8471.000000;0.293504
8470.000000;0.293438
8469.000000;0.293386
8468.000000;0.293302
8467.000000;0.293124
8466.000000;0.292783
8465.000000;0.292284
8464.000000;0.291764
8463.000000;0.291391
8462.000000;0.291216
8461.000000;0.291127
8460.000000;0.290960
8459.000000;0.290642
8458.000000;0.290243
8457.000000;0.289900
8456.000000;0.289695
8455.000000;0.289603
8454.000000;0.289542
8453.000000;0.289459
8452.000000;0.289344
8451.000000;0.289178
8450.000000;0.288932
8449.000000;0.288615
8448.000000;0.288296
8447.000000;0.288031
8446.000000;0.287793
8445.000000;0.287503
8444.000000;0.287145
8443.000000;0.286805
8442.000000;0.286582
8441.000000;0.286469
8440.000000;0.286356
8439.000000;0.286144
8438.000000;0.285841
8437.000000;0.285515
8436.000000;0.285195
8435.000000;0.284873
8434.000000;0.284580
8433.000000;0.284392
8432.000000;0.284302
8431.000000;0.284156
8430.000000;0.283796
8429.000000;0.283267
8428.000000;0.282790
8427.000000;0.282539
8426.000000;0.282465
8425.000000;0.282383
8424.000000;0.282180
8423.000000;0.281891
8422.000000;0.281605
8421.000000;0.281361
8420.000000;0.281148
8419.000000;0.280958
8418.000000;0.280804
8417.000000;0.280667
8416.000000;0.280464
8415.000000;0.280103
8414.000000;0.279581
8413.000000;0.279018
8412.000000;0.278567
8411.000000;0.278289
8410.000000;0.278123
8409.000000;0.277954
8408.000000;0.277700
8407.000000;0.277345
8406.000000;0.276938
8405.000000;0.276564
8404.000000;0.276291
8403.000000;0.276122
8402.000000;0.275977
8401.000000;0.275754
8400.000000;0.275411
8399.000000;0.275011
8398.000000;0.274691
8397.000000;0.274549
8396.000000;0.274532
8395.000000;0.274456
8394.000000;0.274174
8393.000000;0.273724
8392.000000;0.273279
8391.000000;0.272976
8390.000000;0.272811
8389.000000;0.272683
8388.000000;0.272506
8387.000000;0.272267
8386.000000;0.272015
8385.000000;0.271800
8384.000000;0.271613
8383.000000;0.271376
8382.000000;0.271033
8381.000000;0.270627
8380.000000;0.270263
8379.000000;0.269987
8378.000000;0.269754
8377.000000;0.269516
8376.000000;0.269275
8375.000000;0.269050
8374.000000;0.268828
8373.000000;0.268602
8372.000000;0.268389
8371.000000;0.268187
8370.000000;0.267930
8369.000000;0.267557
8368.000000;0.267103
8367.000000;0.266676
8366.000000;0.266356
8365.000000;0.266124
8364.000000;0.265915
8363.000000;0.265686
8362.000000;0.265440
8361.000000;0.265190
8360.000000;0.264933
8359.000000;0.264656
8358.000000;0.264366
8357.000000;0.264088
8356.000000;0.263835
8355.000000;0.263585
8354.000000;0.263313
8353.000000;0.263049
8352.000000;0.262839
8351.000000;0.262666
8350.000000;0.262434
8349.000000;0.262078
8348.000000;0.261656
8347.000000;0.261283
8346.000000;0.261005
8345.000000;0.260764
8344.000000;0.260499
8343.000000;0.260220
8342.000000;0.259969
8341.000000;0.259747
8340.000000;0.259511
8339.000000;0.259238
8338.000000;0.258946
8337.000000;0.258664
8336.000000;0.258381
8335.000000;0.258062
8334.000000;0.257703
8333.000000;0.257351
8332.000000;0.257054
8331.000000;0.256795
8330.000000;0.256515
8329.000000;0.256186
8328.000000;0.255851
8327.000000;0.255575
8326.000000;0.255384
8325.000000;0.255259
8324.000000;0.255158
8323.000000;0.255015
8322.000000;0.254754
8321.000000;0.254335
8320.000000;0.253810
8319.000000;0.253296
8318.000000;0.252879
8317.000000;0.252568
8316.000000;0.252324
8315.000000;0.252103
8314.000000;0.251868
8313.000000;0.251597
8312.000000;0.251311
8311.000000;0.251075
8310.000000;0.250940
8309.000000;0.250871
8308.000000;0.250760
8307.000000;0.250514
8306.000000;0.250130
8305.000000;0.249690
8304.000000;0.249293
8303.000000;0.248995
8302.000000;0.248798
8301.000000;0.248650
8300.000000;0.248465
8299.000000;0.248171
8298.000000;0.247758
8297.000000;0.247285
8296.000000;0.246828
8295.000000;0.246410
8294.000000;0.246007
8293.000000;0.245602
8292.000000;0.245217
8291.000000;0.244898
8290.000000;0.244664
8289.000000;0.244489
8288.000000;0.244304
8287.000000;0.244048
8286.000000;0.243719
8285.000000;0.243377
8284.000000;0.243081
8283.000000;0.242814
8282.000000;0.242502
8281.000000;0.242109
8280.000000;0.241682
8279.000000;0.241295
8278.000000;0.240967
8277.000000;0.240669
8276.000000;0.240387
8275.000000;0.240144
8274.000000;0.239969
8273.000000;0.239860
8272.000000;0.239773
8271.000000;0.239635
8270.000000;0.239384
8269.000000;0.239014
8268.000000;0.238595
8267.000000;0.238220
8266.000000;0.237928
8265.000000;0.237686
8264.000000;0.237440
8263.000000;0.237166
8262.000000;0.236872
8261.000000;0.236566
8260.000000;0.236230
8259.000000;0.235832
8258.000000;0.235373
8257.000000;0.234908
8256.000000;0.234520
8255.000000;0.234235
8254.000000;0.233998
8253.000000;0.233724
8252.000000;0.233393
8251.000000;0.233052
8250.000000;0.232750
8249.000000;0.232476
8248.000000;0.232170
8247.000000;0.231787
8246.000000;0.231354
8245.000000;0.230966
8244.000000;0.230720
8243.000000;0.230620
8242.000000;0.230572
8241.000000;0.230454
8240.000000;0.230197
8239.000000;0.229801
8238.000000;0.229300
8237.000000;0.228766
8236.000000;0.228302
8235.000000;0.227987
8234.000000;0.227813
8233.000000;0.227694
8232.000000;0.227541
8231.000000;0.227298
8230.000000;0.226940
8229.000000;0.226491
8228.000000;0.226055
8227.000000;0.225748
8226.000000;0.225577
8225.000000;0.225418
8224.000000;0.225155
8223.000000;0.224796
8222.000000;0.224422
8221.000000;0.224057
8220.000000;0.223669
8219.000000;0.223255
8218.000000;0.222870
8217.000000;0.222547
8216.000000;0.222259
8215.000000;0.221970
8214.000000;0.221695
8213.000000;0.221463
8212.000000;0.221255
8211.000000;0.221028
8210.000000;0.220754
8209.000000;0.220442
8208.000000;0.220099
8207.000000;0.219733
8206.000000;0.219375
8205.000000;0.219068
8204.000000;0.218822
8203.000000;0.218586
8202.000000;0.218294
8201.000000;0.217926
8200.000000;0.217512
8199.000000;0.217102
8198.000000;0.216742
8197.000000;0.216479
8196.000000;0.216333
8195.000000;0.216261
8194.000000;0.216149
8193.000000;0.215889
8192.000000;0.215463
8191.000000;0.214946
8190.000000;0.214432
8189.000000;0.213973
8188.000000;0.213573
8187.000000;0.213215
8186.000000;0.212883
8185.000000;0.212573
8184.000000;0.212295
8183.000000;0.212059
8182.000000;0.211850
8181.000000;0.211613
8180.000000;0.211293
8179.000000;0.210879
8178.000000;0.210413
8177.000000;0.209960
8176.000000;0.209570
8175.000000;0.209261
8174.000000;0.209019
8173.000000;0.208811
8172.000000;0.208607
8171.000000;0.208394
8170.000000;0.208173
8169.000000;0.207941
8168.000000;0.207674
8167.000000;0.207349
8166.000000;0.206968
8165.000000;0.206588
8164.000000;0.206282
8163.000000;0.206060
8162.000000;0.205846
8161.000000;0.205552
8160.000000;0.205178
8159.000000;0.204806
8158.000000;0.204502
8157.000000;0.204251
8156.000000;0.203990
8155.000000;0.203676
8154.000000;0.203303
8153.000000;0.202887
8152.000000;0.202478
8151.000000;0.202155
8150.000000;0.201949
8149.000000;0.201793
8148.000000;0.201573
8147.000000;0.201244
8146.000000;0.200865
8145.000000;0.200507
8144.000000;0.200172
8143.000000;0.199811
8142.000000;0.199406
8141.000000;0.199010
8140.000000;0.198697
8139.000000;0.198500
8138.000000;0.198373
8137.000000;0.198233
8136.000000;0.198001
8135.000000;0.197641
8134.000000;0.197161
8133.000000;0.196615
8132.000000;0.196080
8131.000000;0.195620
8130.000000;0.195243
8129.000000;0.194923
8128.000000;0.194645
8127.000000;0.194412
8126.000000;0.194202
8125.000000;0.193959
8124.000000;0.193664
8123.000000;0.193357
8122.000000;0.193087
8121.000000;0.192833
8120.000000;0.192535
8119.000000;0.192172
8118.000000;0.191770
8117.000000;0.191359
8116.000000;0.190960
8115.000000;0.190613
8114.000000;0.190347
8113.000000;0.190128
8112.000000;0.189888
8111.000000;0.189601
8110.000000;0.189299
8109.000000;0.189001
8108.000000;0.188676
8107.000000;0.188322
8106.000000;0.187995
8105.000000;0.187735
8104.000000;0.187492
8103.000000;0.187180
8102.000000;0.186781
8101.000000;0.186357
8100.000000;0.185964
8099.000000;0.185611
8098.000000;0.185284
8097.000000;0.184984
8096.000000;0.184718
8095.000000;0.184483
8094.000000;0.184254
8093.000000;0.183996
8092.000000;0.183683
8091.000000;0.183313
8090.000000;0.182909
8089.000000;0.182487
8088.000000;0.182049
8087.000000;0.181613
8086.000000;0.181232
8085.000000;0.180946
8084.000000;0.180721
8083.000000;0.180468
8082.000000;0.180117
8081.000000;0.179674
8080.000000;0.179210
8079.000000;0.178812
8078.000000;0.178535
8077.000000;0.178359
8076.000000;0.178190
8075.000000;0.177930
8074.000000;0.177553
8073.000000;0.177129
8072.000000;0.176762
8071.000000;0.176510
8070.000000;0.176339
8069.000000;0.176144
8068.000000;0.175829
8067.000000;0.175390
8066.000000;0.174923
8065.000000;0.174535
8064.000000;0.174260
8063.000000;0.174045
8062.000000;0.173814
8061.000000;0.173519
8060.000000;0.173160
8059.000000;0.172776
8058.000000;0.172420
8057.000000;0.172114
8056.000000;0.171830
8055.000000;0.171527
8054.000000;0.171199
8053.000000;0.170868
8052.000000;0.170552
8051.000000;0.170250
8050.000000;0.169953
8049.000000;0.169654
8048.000000;0.169343
8047.000000;0.169017
8046.000000;0.168675
8045.000000;0.168306
8044.000000;0.167890
8043.000000;0.167446
8042.000000;0.167042
8041.000000;0.166725
8040.000000;0.166466
8039.000000;0.166197
8038.000000;0.165900
8037.000000;0.165591
8036.000000;0.165261
8035.000000;0.164872
8034.000000;0.164455
8033.000000;0.164108
8032.000000;0.163877
8031.000000;0.163677
8030.000000;0.163385
8029.000000;0.162970
8028.000000;0.162511
8027.000000;0.162096
8026.000000;0.161751
8025.000000;0.161453
8024.000000;0.161169
8023.000000;0.160882
8022.000000;0.160599
8021.000000;0.160343
8020.000000;0.160098
8019.000000;0.159804
8018.000000;0.159419
8017.000000;0.158989
8016.000000;0.158604
8015.000000;0.158298
8014.000000;0.158014
8013.000000;0.157681
8012.000000;0.157287
8011.000000;0.156884
8010.000000;0.156530
8009.000000;0.156249
8008.000000;0.156017
8007.000000;0.155769
8006.000000;0.155444
8005.000000;0.155039
8004.000000;0.154615
8003.000000;0.154245
8002.000000;0.153953
8001.000000;0.153719
8000.000000;0.153499
7999.000000;0.153241
7998.000000;0.152904
7997.000000;0.152500
7996.000000;0.152108
7995.000000;0.151801
7994.000000;0.151559
7993.000000;0.151283
7992.000000;0.150898
7991.000000;0.150429
7990.000000;0.149962
7989.000000;0.149561
7988.000000;0.149239
7987.000000;0.148977
7986.000000;0.148736
7985.000000;0.148477
7984.000000;0.148201
7983.000000;0.147949
7982.000000;0.147733
7981.000000;0.147490
7980.000000;0.147140
7979.000000;0.146692
7978.000000;0.146239
7977.000000;0.145840
7976.000000;0.145467
7975.000000;0.145076
7974.000000;0.144681
7973.000000;0.144324
7972.000000;0.143991
7971.000000;0.143628
7970.000000;0.143226
7969.000000;0.142850
7968.000000;0.142577
7967.000000;0.142409
7966.000000;0.142269
7965.000000;0.142057
7964.000000;0.141723
7963.000000;0.141307
7962.000000;0.140904
7961.000000;0.140570
7960.000000;0.140273
7959.000000;0.139939
7958.000000;0.139555
7957.000000;0.139185
7956.000000;0.138887
7955.000000;0.138638
7954.000000;0.138359
7953.000000;0.138003
7952.000000;0.137599
7951.000000;0.137220
7950.000000;0.136921
7949.000000;0.136707
7948.000000;0.136527
7947.000000;0.136298
7946.000000;0.135953
7945.000000;0.135500
7944.000000;0.135040
7943.000000;0.134693
7942.000000;0.134482
7941.000000;0.134301
7940.000000;0.134017
7939.000000;0.133599
7938.000000;0.133131
7937.000000;0.132705
7936.000000;0.132340
7935.000000;0.132000
7934.000000;0.131661
7933.000000;0.131326
7932.000000;0.131002
7931.000000;0.130687
7930.000000;0.130373
7929.000000;0.130043
7928.000000;0.129688
7927.000000;0.129328
7926.000000;0.129008
7925.000000;0.128744
7924.000000;0.128496
7923.000000;0.128223
7922.000000;0.127928
7921.000000;0.127650
7920.000000;0.127389
7919.000000;0.127103
7918.000000;0.126768
7917.000000;0.126413
7916.000000;0.126089
7915.000000;0.125816
7914.000000;0.125565
7913.000000;0.125270
7912.000000;0.124884
7911.000000;0.124435
7910.000000;0.124020
7909.000000;0.123705
7908.000000;0.123450
7907.000000;0.123164
7906.000000;0.122827
7905.000000;0.122502
7904.000000;0.122235
7903.000000;0.121986
7902.000000;0.121690
7901.000000;0.121333
7900.000000;0.120948
7899.000000;0.120570
7898.000000;0.120218
7897.000000;0.119894
7896.000000;0.119576
7895.000000;0.119230
7894.000000;0.118860
7893.000000;0.118526
7892.000000;0.118278
7891.000000;0.118094
7890.000000;0.117898
7889.000000;0.117626
7888.000000;0.117261
7887.000000;0.116836
7886.000000;0.116419
7885.000000;0.116079
7884.000000;0.115833
7883.000000;0.115626
7882.000000;0.115391
7881.000000;0.115110
7880.000000;0.114796
7879.000000;0.114441
7878.000000;0.114022
7877.000000;0.113566
7876.000000;0.113151
7875.000000;0.112827
7874.000000;0.112564
7873.000000;0.112299
7872.000000;0.112012
7871.000000;0.111736
7870.000000;0.111499
7869.000000;0.111282
7868.000000;0.111038
7867.000000;0.110739
7866.000000;0.110404
7865.000000;0.110075
7864.000000;0.109767
7863.000000;0.109457
7862.000000;0.109132
7861.000000;0.108824
7860.000000;0.108575
7859.000000;0.108368
7858.000000;0.108125
7857.000000;0.107792
7856.000000;0.107397
7855.000000;0.107013
7854.000000;0.106682
7853.000000;0.106398
7852.000000;0.106128
7851.000000;0.105843
7850.000000;0.105530
7849.000000;0.105199
7848.000000;0.104886
7847.000000;0.104617
7846.000000;0.104381
7845.000000;0.104140
7844.000000;0.103872
7843.000000;0.103572
7842.000000;0.103240
7841.000000;0.102884
7840.000000;0.102540
7839.000000;0.102251
7838.000000;0.102015
7837.000000;0.101775
7836.000000;0.101490
7835.000000;0.101184
7834.000000;0.100904
7833.000000;0.100647
7832.000000;0.100365
7831.000000;0.100015
7830.000000;0.099602
7829.000000;0.099164
7828.000000;0.098759
7827.000000;0.098448
7826.000000;0.098261
7825.000000;0.098143
7824.000000;0.097984
7823.000000;0.097712
7822.000000;0.097352
7821.000000;0.096983
7820.000000;0.096654
7819.000000;0.096358
7818.000000;0.096075
7817.000000;0.095804
7816.000000;0.095560
7815.000000;0.095340
7814.000000;0.095115
7813.000000;0.094859
7812.000000;0.094570
7811.000000;0.094285
7810.000000;0.094033
7809.000000;0.093800
7808.000000;0.093541
7807.000000;0.093241
7806.000000;0.092939
7805.000000;0.092691
7804.000000;0.092498
7803.000000;0.092307
7802.000000;0.092059
7801.000000;0.091734
7800.000000;0.091361
7799.000000;0.090992
7798.000000;0.090674
7797.000000;0.090422
7796.000000;0.090204
7795.000000;0.089975
7794.000000;0.089708
7793.000000;0.089409
7792.000000;0.089111
7791.000000;0.088857
7790.000000;0.088661
7789.000000;0.088492
7788.000000;0.088280
7787.000000;0.087985
7786.000000;0.087637
7785.000000;0.087305
7784.000000;0.087020
7783.000000;0.086767
7782.000000;0.086536
7781.000000;0.086346
7780.000000;0.086202
7779.000000;0.086055
7778.000000;0.085842
7777.000000;0.085543
7776.000000;0.085193
7775.000000;0.084843
7774.000000;0.084525
7773.000000;0.084242
7772.000000;0.083967
7771.000000;0.083665
7770.000000;0.083325
7769.000000;0.082986
7768.000000;0.082713
7767.000000;0.082530
7766.000000;0.082389
7765.000000;0.082212
7764.000000;0.081964
7763.000000;0.081671
7762.000000;0.081380
7761.000000;0.081118
7760.000000;0.080891
7759.000000;0.080697
7758.000000;0.080529
7757.000000;0.080366
7756.000000;0.080179
7755.000000;0.079952
7754.000000;0.079693
7753.000000;0.079422
7752.000000;0.079163
7751.000000;0.078927
7750.000000;0.078708
7749.000000;0.078491
7748.000000;0.078274
7747.000000;0.078072
7746.000000;0.077894
7745.000000;0.077719
7744.000000;0.077503
7743.000000;0.077228
7742.000000;0.076921
7741.000000;0.076639
7740.000000;0.076421
7739.000000;0.076260
7738.000000;0.076099
7737.000000;0.075872
7736.000000;0.075569
7735.000000;0.075253
7734.000000;0.075011
7733.000000;0.074863
7732.000000;0.074742
7731.000000;0.074561
7730.000000;0.074291
7729.000000;0.073990
7728.000000;0.073742
7727.000000;0.073585
7726.000000;0.073477
7725.000000;0.073337
7724.000000;0.073117
7723.000000;0.072840
7722.000000;0.072561
7721.000000;0.072320
7720.000000;0.072127
7719.000000;0.071974
7718.000000;0.071825
7717.000000;0.071636
7716.000000;0.071392
7715.000000;0.071121
7714.000000;0.070854
7713.000000;0.070591
7712.000000;0.070332
7711.000000;0.070110
7710.000000;0.069951
7709.000000;0.069814
7708.000000;0.069644
7707.000000;0.069458
7706.000000;0.069319
7705.000000;0.069218
7704.000000;0.069060
7703.000000;0.068789
7702.000000;0.068462
7701.000000;0.068163
7700.000000;0.067907
7699.000000;0.067673
7698.000000;0.067464
7697.000000;0.067290
7696.000000;0.067113
7695.000000;0.066890
7694.000000;0.066643
7693.000000;0.066431
7692.000000;0.066269
7691.000000;0.066116
7690.000000;0.065955
7689.000000;0.065801
7688.000000;0.065661
7687.000000;0.065510
7686.000000;0.065346
7685.000000;0.065196
7684.000000;0.065069
7683.000000;0.064930
7682.000000;0.064762
7681.000000;0.064602
7680.000000;0.064495
7679.000000;0.064415
7678.000000;0.064290
7677.000000;0.064089
7676.000000;0.063855
7675.000000;0.063660
7674.000000;0.063518
7673.000000;0.063396
7672.000000;0.063260
7671.000000;0.063121
7670.000000;0.062997
7669.000000;0.062878
7668.000000;0.062728
7667.000000;0.062520
7666.000000;0.062261
7665.000000;0.061978
7664.000000;0.061726
7663.000000;0.061567
7662.000000;0.061510
7661.000000;0.061473
7660.000000;0.061339
7659.000000;0.061080
7658.000000;0.060779
7657.000000;0.060538
7656.000000;0.060384
7655.000000;0.060283
7654.000000;0.060200
7653.000000;0.060118
7652.000000;0.060017
7651.000000;0.059885
7650.000000;0.059725
7649.000000;0.059546
7648.000000;0.059348
7647.000000;0.059146
7646.000000;0.058968
7645.000000;0.058832
7644.000000;0.058718
7643.000000;0.058606
7642.000000;0.058500
7641.000000;0.058399
7640.000000;0.058287
7639.000000;0.058163
7638.000000;0.058063
7637.000000;0.058011
7636.000000;0.057971
7635.000000;0.057889
7634.000000;0.057756
7633.000000;0.057612
7632.000000;0.057487
7631.000000;0.057385
7630.000000;0.057307
7629.000000;0.057261
7628.000000;0.057229
7627.000000;0.057172
7626.000000;0.057062
7625.000000;0.056904
7624.000000;0.056726
7623.000000;0.056567
7622.000000;0.056459
7621.000000;0.056398
7620.000000;0.056343
7619.000000;0.056255
7618.000000;0.056139
7617.000000;0.056029
7616.000000;0.055947
7615.000000;0.055896
7614.000000;0.055875
7613.000000;0.055862
7612.000000;0.055805
7611.000000;0.055668
7610.000000;0.055480
7609.000000;0.055315
7608.000000;0.055227
7607.000000;0.055210
7606.000000;0.055223
7605.000000;0.055222
7604.000000;0.055179
7603.000000;0.055098
7602.000000;0.055011
7601.000000;0.054939
7600.000000;0.054869
7599.000000;0.054783
7598.000000;0.054699
7597.000000;0.054646
7596.000000;0.054629
7595.000000;0.054629
7594.000000;0.054632
7593.000000;0.054623
7592.000000;0.054577
7591.000000;0.054480
7590.000000;0.054362
7589.000000;0.054261
7588.000000;0.054178
7587.000000;0.054094
7586.000000;0.054024
7585.000000;0.054000
7584.000000;0.054017
7583.000000;0.054020
7582.000000;0.053972
7581.000000;0.053887
7580.000000;0.053810
7579.000000;0.053772
7578.000000;0.053787
7577.000000;0.053842
7576.000000;0.053903
7575.000000;0.053938
7574.000000;0.053938
7573.000000;0.053912
7572.000000;0.053866
7571.000000;0.053798
7570.000000;0.053712
7569.000000;0.053617
7568.000000;0.053524
7567.000000;0.053459
7566.000000;0.053463
7565.000000;0.053537
7564.000000;0.053616
7563.000000;0.053622
7562.000000;0.053558
7561.000000;0.053502
7560.000000;0.053517
7559.000000;0.053583
7558.000000;0.053640
7557.000000;0.053663
7556.000000;0.053672
7555.000000;0.053676
7554.000000;0.053657
7553.000000;0.053601
7552.000000;0.053542
7551.000000;0.053542
7550.000000;0.053615
7549.000000;0.053693
7548.000000;0.053705
7547.000000;0.053664
7546.000000;0.053646
7545.000000;0.053690
7544.000000;0.053756
7543.000000;0.053794
7542.000000;0.053812
7541.000000;0.053838
7540.000000;0.053879
7539.000000;0.053926
7538.000000;0.053986
7537.000000;0.054059
7536.000000;0.054122
7535.000000;0.054161
7534.000000;0.054190
7533.000000;0.054214
7532.000000;0.054204
7531.000000;0.054158
7530.000000;0.054135
7529.000000;0.054186
7528.000000;0.054284
7527.000000;0.054372
7526.000000;0.054448
7525.000000;0.054555
7524.000000;0.054690
7523.000000;0.054797
7522.000000;0.054835
7521.000000;0.054821
7520.000000;0.054790
7519.000000;0.054771
7518.000000;0.054781
7517.000000;0.054815
7516.000000;0.054843
7515.000000;0.054852
7514.000000;0.054881
7513.000000;0.054983
7512.000000;0.055151
7511.000000;0.055324
7510.000000;0.055452
7509.000000;0.055523
7508.000000;0.055551
7507.000000;0.055566
7506.000000;0.055608
7505.000000;0.055695
7504.000000;0.055788
7503.000000;0.055840
7502.000000;0.055856
7501.000000;0.055882
7500.000000;0.055945
7499.000000;0.056029
7498.000000;0.056117
7497.000000;0.056209
7496.000000;0.056300
7495.000000;0.056377
7494.000000;0.056448
7493.000000;0.056545
7492.000000;0.056687
7491.000000;0.056862
7490.000000;0.057038
7489.000000;0.057178
7488.000000;0.057259
7487.000000;0.057292
7486.000000;0.057314
7485.000000;0.057356
7484.000000;0.057420
7483.000000;0.057501
7482.000000;0.057605
7481.000000;0.057727
7480.000000;0.057833
7479.000000;0.057893
7478.000000;0.057920
7477.000000;0.057947
7476.000000;0.057986
7475.000000;0.058036
7474.000000;0.058105
7473.000000;0.058197
7472.000000;0.058301
7471.000000;0.058404
7470.000000;0.058509
7469.000000;0.058621
7468.000000;0.058740
7467.000000;0.058881
7466.000000;0.059054
7465.000000;0.059211
7464.000000;0.059288
7463.000000;0.059295
7462.000000;0.059330
7461.000000;0.059454
7460.000000;0.059617
7459.000000;0.059754
7458.000000;0.059879
7457.000000;0.060021
7456.000000;0.060137
7455.000000;0.060161
7454.000000;0.060108
7453.000000;0.060049
7452.000000;0.060026
7451.000000;0.060047
7450.000000;0.060125
7449.000000;0.060252
7448.000000;0.060373
7447.000000;0.060436
7446.000000;0.060467
7445.000000;0.060532
7444.000000;0.060654
7443.000000;0.060803
7442.000000;0.060955
7441.000000;0.061086
7440.000000;0.061161
7439.000000;0.061182
7438.000000;0.061226
7437.000000;0.061360
7436.000000;0.061545
7435.000000;0.061681
7434.000000;0.061725
7433.000000;0.061709
7432.000000;0.061676
7431.000000;0.061662
7430.000000;0.061691
7429.000000;0.061749
7428.000000;0.061797
7427.000000;0.061842
7426.000000;0.061942
7425.000000;0.062110
7424.000000;0.062266
7423.000000;0.062346
7422.000000;0.062389
7421.000000;0.062462
7420.000000;0.062558
7419.000000;0.062613
7418.000000;0.062615
7417.000000;0.062615
7416.000000;0.062643
7415.000000;0.062686
7414.000000;0.062728
7413.000000;0.062762
7412.000000;0.062765
7411.000000;0.062730
7410.000000;0.062716
7409.000000;0.062752
7408.000000;0.062773
7407.000000;0.062701
7406.000000;0.062589
7405.000000;0.062590
7404.000000;0.062789
7403.000000;0.063094
7402.000000;0.063365
7401.000000;0.063548
7400.000000;0.063645
7399.000000;0.063689
7398.000000;0.063742
7397.000000;0.063790
7396.000000;0.063737
7395.000000;0.063595
7394.000000;0.063483
7393.000000;0.063385
7392.000000;0.063116
7391.000000;0.062649
7390.000000;0.062321
7389.000000;0.062459
7388.000000;0.062972
7387.000000;0.063519
7386.000000;0.063911
7385.000000;0.064118
7384.000000;0.064108
7383.000000;0.063900
7382.000000;0.063682
7381.000000;0.063712
7380.000000;0.064038
7379.000000;0.064422
7378.000000;0.064576
7377.000000;0.064402
7376.000000;0.064091
7375.000000;0.063975
7374.000000;0.064209
7373.000000;0.064632
7372.000000;0.064911
7371.000000;0.064820
7370.000000;0.064457
7369.000000;0.064098
7368.000000;0.063914
7367.000000;0.064007
7366.000000;0.064447
7365.000000;0.064988
7364.000000;0.065113
7363.000000;0.064636
7362.000000;0.063946
7361.000000;0.063660
7360.000000;0.064073
7359.000000;0.064904
7358.000000;0.065525
7357.000000;0.065480
7356.000000;0.064923
7355.000000;0.064473
7354.000000;0.064675
7353.000000;0.065469
7352.000000;0.066266
7351.000000;0.066519
7350.000000;0.066213
7349.000000;0.065793
7348.000000;0.065649
7347.000000;0.065752
7346.000000;0.065770
7345.000000;0.065534
7344.000000;0.065284
7343.000000;0.065456
7342.000000;0.066187
7341.000000;0.067088
7340.000000;0.067633
7339.000000;0.067688
7338.000000;0.067597
7337.000000;0.067624
7336.000000;0.067690
7335.000000;0.067653
7334.000000;0.067600
7333.000000;0.067753
7332.000000;0.068170
7331.000000;0.068537
7330.000000;0.068420
7329.000000;0.067849
7328.000000;0.067471
7327.000000;0.067756
7326.000000;0.068365
7325.000000;0.068672
7324.000000;0.068500
7323.000000;0.068223
7322.000000;0.068329
7321.000000;0.068957
7320.000000;0.069791
7319.000000;0.070418
7318.000000;0.070856
7317.000000;0.071443
7316.000000;0.072232
7315.000000;0.072824
7314.000000;0.072822
7313.000000;0.072450
7312.000000;0.072497
7311.000000;0.073382
7310.000000;0.074543
7309.000000;0.075027
7308.000000;0.074575
7307.000000;0.073814
7306.000000;0.073521
7305.000000;0.074038
7304.000000;0.075174
7303.000000;0.076259
7302.000000;0.076611
7301.000000;0.076171
7300.000000;0.075635
7299.000000;0.075864
7298.000000;0.076993
7297.000000;0.078264
7296.000000;0.078803
7295.000000;0.078617
7294.000000;0.078554
7293.000000;0.079255
7292.000000;0.080569
7291.000000;0.081919
7290.000000;0.082941
7289.000000;0.083734
7288.000000;0.084569
7287.000000;0.085436
7286.000000;0.086039
7285.000000;0.086303
7284.000000;0.086581
7283.000000;0.087151
7282.000000;0.087940
7281.000000;0.088718
7280.000000;0.089407
7279.000000;0.090116
7278.000000;0.090912
7277.000000;0.091761
7276.000000;0.092677
7275.000000;0.093690
7274.000000;0.094717
7273.000000;0.095681
7272.000000;0.096640
7271.000000;0.097666
7270.000000;0.098697
7269.000000;0.099664
7268.000000;0.100633
7267.000000;0.101702
7266.000000;0.102856
7265.000000;0.104052
7264.000000;0.105357
7263.000000;0.106808
7262.000000;0.108232
7261.000000;0.109418
7260.000000;0.110396
7259.000000;0.111381
7258.000000;0.112523
7257.000000;0.113840
7256.000000;0.115277
7255.000000;0.116771
7254.000000;0.118333
7253.000000;0.120017
7252.000000;0.121713
7251.000000;0.123236
7250.000000;0.124534
7249.000000;0.125759
7248.000000;0.127272
7247.000000;0.129288
7246.000000;0.131478
7245.000000;0.133252
7244.000000;0.134559
7243.000000;0.136022
7242.000000;0.138109
7241.000000;0.140518
7240.000000;0.142656
7239.000000;0.144308
7238.000000;0.145780
7237.000000;0.147636
7236.000000;0.150114
7235.000000;0.152798
7234.000000;0.155105
7233.000000;0.156931
7232.000000;0.158599
7231.000000;0.160505
7230.000000;0.162736
7229.000000;0.165026
7228.000000;0.167239
7227.000000;0.169528
7226.000000;0.172004
7225.000000;0.174557
7224.000000;0.177093
7223.000000;0.179614
7222.000000;0.182038
7221.000000;0.184305
7220.000000;0.186631
7219.000000;0.189265
7218.000000;0.192129
7217.000000;0.194983
7216.000000;0.197775
7215.000000;0.200592
7214.000000;0.203468
7213.000000;0.206390
7212.000000;0.209385
7211.000000;0.212526
7210.000000;0.215828
7209.000000;0.219242
7208.000000;0.222768
7207.000000;0.226406
7206.000000;0.230039
7205.000000;0.233574
7204.000000;0.237085
7203.000000;0.240642
7202.000000;0.244128
7201.000000;0.247453
7200.000000;0.250775
7199.000000;0.254282
7198.000000;0.257935
7197.000000;0.261630
7196.000000;0.265414
7195.000000;0.269371
7194.000000;0.273381
7193.000000;0.277306
7192.000000;0.281220
7191.000000;0.285280
7190.000000;0.289429
7189.000000;0.293532
7188.000000;0.297636
7187.000000;0.301870
7186.000000;0.306221
7185.000000;0.310468
7184.000000;0.314398
7183.000000;0.318070
7182.000000;0.321857
7181.000000;0.326172
7180.000000;0.331149
7179.000000;0.336503
7178.000000;0.341712
7177.000000;0.346506
7176.000000;0.351114
7175.000000;0.355854
7174.000000;0.360702
7173.000000;0.365491
7172.000000;0.370264
7171.000000;0.375203
7170.000000;0.380276
7169.000000;0.385312
7168.000000;0.390169
7167.000000;0.394829
7166.000000;0.399507
7165.000000;0.404406
7164.000000;0.409351
7163.000000;0.413904
7162.000000;0.418032
7161.000000;0.422398
7160.000000;0.427692
7159.000000;0.433798
7158.000000;0.439900
7157.000000;0.445393
7156.000000;0.450425
7155.000000;0.455412
7154.000000;0.460453
7153.000000;0.465492
7152.000000;0.470539
7151.000000;0.475665
7150.000000;0.480923
7149.000000;0.486290
7148.000000;0.491564
7147.000000;0.496542
7146.000000;0.501313
7145.000000;0.506291
7144.000000;0.511810
7143.000000;0.517641
7142.000000;0.523129
7141.000000;0.527934
7140.000000;0.532437
7139.000000;0.537247
7138.000000;0.542432
7137.000000;0.547589
7136.000000;0.552514
7135.000000;0.557439
7134.000000;0.562639
7133.000000;0.568117
7132.000000;0.573621
7131.000000;0.578911
7130.000000;0.583950
7129.000000;0.588891
7128.000000;0.593939
7127.000000;0.599145
7126.000000;0.604326
7125.000000;0.609284
7124.000000;0.614077
7123.000000;0.619033
7122.000000;0.624392
7121.000000;0.629932
7120.000000;0.635120
7119.000000;0.639688
7118.000000;0.644011
7117.000000;0.648753
7116.000000;0.654125
7115.000000;0.659625
7114.000000;0.664618
7113.000000;0.669044
7112.000000;0.673418
7111.000000;0.678138
7110.000000;0.683067
7109.000000;0.687914
7108.000000;0.692648
7107.000000;0.697274
7106.000000;0.701669
7105.000000;0.705840
7104.000000;0.710022
7103.000000;0.714462
7102.000000;0.719148
7101.000000;0.723851
7100.000000;0.728432
7099.000000;0.732875
7098.000000;0.737066
7097.000000;0.740883
7096.000000;0.744546
7095.000000;0.748544
7094.000000;0.753106
7093.000000;0.757961
7092.000000;0.762723
7091.000000;0.767268
7090.000000;0.771639
7089.000000;0.775833
7088.000000;0.779831
7087.000000;0.783696
7086.000000;0.787566
7085.000000;0.791556
7084.000000;0.795693
7083.000000;0.799893
7082.000000;0.803954
7081.000000;0.807665
7080.000000;0.811052
7079.000000;0.814420
7078.000000;0.817989
7077.000000;0.821724
7076.000000;0.825530
7075.000000;0.829363
7074.000000;0.833127
7073.000000;0.836678
7072.000000;0.840022
7071.000000;0.843351
7070.000000;0.846804
7069.000000;0.850374
7068.000000;0.854062
7067.000000;0.857895
7066.000000;0.861750
7065.000000;0.865357
7064.000000;0.868546
7063.000000;0.871431
7062.000000;0.874306
7061.000000;0.877381
7060.000000;0.880682
7059.000000;0.884080
7058.000000;0.887304
7057.000000;0.890145
7056.000000;0.892767
7055.000000;0.895566
7054.000000;0.898678
7053.000000;0.901842
7052.000000;0.904756
7051.000000;0.907403
7050.000000;0.909978
7049.000000;0.912707
7048.000000;0.915785
7047.000000;0.919264
7046.000000;0.922880
7045.000000;0.926198
7044.000000;0.929098
7043.000000;0.931956
7042.000000;0.935180
7041.000000;0.938648
7040.000000;0.941849
7039.000000;0.944546
7038.000000;0.947001
7037.000000;0.949524
7036.000000;0.952030
7035.000000;0.954242
7034.000000;0.956173
7033.000000;0.958204
7032.000000;0.960631
7031.000000;0.963314
7030.000000;0.965898
7029.000000;0.968259
7028.000000;0.970581
7027.000000;0.973045
7026.000000;0.975628
7025.000000;0.978217
7024.000000;0.980752
7023.000000;0.983160
7022.000000;0.985323
7021.000000;0.987215
7020.000000;0.988986
7019.000000;0.990848
7018.000000;0.992972
7017.000000;0.995501
7016.000000;0.998419
7015.000000;1.001341
7014.000000;1.003720
7013.000000;1.005445
7012.000000;1.007047
7011.000000;1.009075
7010.000000;1.011415
7009.000000;1.013484
7008.000000;1.015022
7007.000000;1.016403
7006.000000;1.018145
7005.000000;1.020314
7004.000000;1.022523
7003.000000;1.024394
7002.000000;1.025959
7001.000000;1.027631
7000.000000;1.029762
6999.000000;1.032241
6998.000000;1.034633
6997.000000;1.036703
6996.000000;1.038600
6995.000000;1.040463
6994.000000;1.042091
6993.000000;1.043269
6992.000000;1.044235
6991.000000;1.045503
6990.000000;1.047303
6989.000000;1.049471
6988.000000;1.051799
6987.000000;1.054245
6986.000000;1.056779
6985.000000;1.059251
6984.000000;1.061478
6983.000000;1.063353
6982.000000;1.064809
6981.000000;1.065828
6980.000000;1.066507
6979.000000;1.067054
6978.000000;1.067648
6977.000000;1.068386
6976.000000;1.069339
6975.000000;1.070557
6974.000000;1.072004
6973.000000;1.073631
6972.000000;1.075448
6971.000000;1.077436
6970.000000;1.079402
6969.000000;1.081072
6968.000000;1.082268
6967.000000;1.082991
6966.000000;1.083392
6965.000000;1.083757
6964.000000;1.084429
6963.000000;1.085614
6962.000000;1.087193
6961.000000;1.088797
6960.000000;1.090114
6959.000000;1.091128
6958.000000;1.092087
6957.000000;1.093273
6956.000000;1.094749
6955.000000;1.096297
6954.000000;1.097642
6953.000000;1.098725
6952.000000;1.099720
6951.000000;1.100818
6950.000000;1.102072
6949.000000;1.103422
6948.000000;1.104705
6947.000000;1.105648
6946.000000;1.106070
6945.000000;1.106120
6944.000000;1.106142
6943.000000;1.106314
6942.000000;1.106619
6941.000000;1.107133
6940.000000;1.108057
6939.000000;1.109392
6938.000000;1.110825
6937.000000;1.112035
6936.000000;1.112903
6935.000000;1.113383
6934.000000;1.113448
6933.000000;1.113285
6932.000000;1.113278
6931.000000;1.113649
6930.000000;1.114298
6929.000000;1.115110
6928.000000;1.116143
6927.000000;1.117321
6926.000000;1.118287
6925.000000;1.118804
6924.000000;1.119015
6923.000000;1.119093
6922.000000;1.118944
6921.000000;1.118483
6920.000000;1.117972
6919.000000;1.117795
6918.000000;1.118060
6917.000000;1.118617
6916.000000;1.119290
6915.000000;1.119853
6914.000000;1.119994
6913.000000;1.119628
6912.000000;1.119125
6911.000000;1.118948
6910.000000;1.119140
6909.000000;1.119454
6908.000000;1.119864
6907.000000;1.120574
6906.000000;1.121530
6905.000000;1.122295
6904.000000;1.122522
6903.000000;1.122375
6902.000000;1.122354
6901.000000;1.122732
6900.000000;1.123234
6899.000000;1.123350
6898.000000;1.122974
6897.000000;1.122632
6896.000000;1.122922
6895.000000;1.123801
6894.000000;1.124674
6893.000000;1.125171
6892.000000;1.125482
6891.000000;1.125823
6890.000000;1.125969
6889.000000;1.125617
6888.000000;1.124957
6887.000000;1.124480
6886.000000;1.124357
6885.000000;1.124325
6884.000000;1.124152
6883.000000;1.123929
6882.000000;1.123874
6881.000000;1.124022
6880.000000;1.124147
6879.000000;1.123940
6878.000000;1.123309
6877.000000;1.122599
6876.000000;1.122352
6875.000000;1.122688
6874.000000;1.123087
6873.000000;1.122951
6872.000000;1.122237
6871.000000;1.121321
6870.000000;1.120434
6869.000000;1.119570
6868.000000;1.118867
6867.000000;1.118605
6866.000000;1.118761
6865.000000;1.118895
6864.000000;1.118643
6863.000000;1.118112
6862.000000;1.117646
6861.000000;1.117337
6860.000000;1.116964
6859.000000;1.116314
6858.000000;1.115385
6857.000000;1.114309
6856.000000;1.113222
6855.000000;1.112241
6854.000000;1.111476
6853.000000;1.110964
6852.000000;1.110575
6851.000000;1.110089
6850.000000;1.109443
6849.000000;1.108797
6848.000000;1.108263
6847.000000;1.107634
6846.000000;1.106599
6845.000000;1.105226
6844.000000;1.104021
6843.000000;1.103410
6842.000000;1.103309
6841.000000;1.103188
6840.000000;1.102445
6839.000000;1.100766
6838.000000;1.098386
6837.000000;1.096084
6836.000000;1.094668
6835.000000;1.094250
6834.000000;1.094125
6833.000000;1.093508
6832.000000;1.092262
6831.000000;1.090769
6830.000000;1.089311
6829.000000;1.087811
6828.000000;1.086098
6827.000000;1.084143
6826.000000;1.082034
6825.000000;1.079914
6824.000000;1.077995
6823.000000;1.076474
6822.000000;1.075323
6821.000000;1.074206
6820.000000;1.072717
6819.000000;1.070758
6818.000000;1.068651
6817.000000;1.066784
6816.000000;1.065192
6815.000000;1.063593
6814.000000;1.061807
6813.000000;1.059944
6812.000000;1.058078
6811.000000;1.056004
6810.000000;1.053608
6809.000000;1.051240
6808.000000;1.049352
6807.000000;1.047891
6806.000000;1.046420
6805.000000;1.044789
6804.000000;1.043255
6803.000000;1.041888
6802.000000;1.040313
6801.000000;1.038222
6800.000000;1.035807
6799.000000;1.033424
6798.000000;1.031148
6797.000000;1.028872
6796.000000;1.026582
6795.000000;1.024288
6794.000000;1.021911
6793.000000;1.019465
6792.000000;1.017141
6791.000000;1.014993
6790.000000;1.012717
6789.000000;1.009999
6788.000000;1.006910
6787.000000;1.003722
6786.000000;1.000534
6785.000000;0.997361
6784.000000;0.994468
6783.000000;0.992234
6782.000000;0.990682
6781.000000;0.989393
6780.000000;0.987931
6779.000000;0.986140
6778.000000;0.983998
6777.000000;0.981434
6776.000000;0.978413
6775.000000;0.975095
6774.000000;0.971763
6773.000000;0.968619
6772.000000;0.965721
6771.000000;0.963072
6770.000000;0.960676
6769.000000;0.958507
6768.000000;0.956450
6767.000000;0.954371
6766.000000;0.952203
6765.000000;0.949923
6764.000000;0.947439
6763.000000;0.944636
6762.000000;0.941571
6761.000000;0.938506
6760.000000;0.935628
6759.000000;0.932848
6758.000000;0.930030
6757.000000;0.927311
6756.000000;0.924938
6755.000000;0.922834
6754.000000;0.920562
6753.000000;0.917783
6752.000000;0.914582
6751.000000;0.911289
6750.000000;0.908162
6749.000000;0.905284
6748.000000;0.902577
6747.000000;0.899849
6746.000000;0.896980
6745.000000;0.894112
6744.000000;0.891473
6743.000000;0.888973
6742.000000;0.886213
6741.000000;0.883007
6740.000000;0.879691
6739.000000;0.876725
6738.000000;0.874152
6737.000000;0.871646
6736.000000;0.868960
6735.000000;0.866147
6734.000000;0.863361
6733.000000;0.860605
6732.000000;0.857704
6731.000000;0.854487
6730.000000;0.851013
6729.000000;0.847637
6728.000000;0.844742
6727.000000;0.842362
6726.000000;0.840139
6725.000000;0.837713
6724.000000;0.835045
6723.000000;0.832309
6722.000000;0.829594
6721.000000;0.826835
6720.000000;0.823928
6719.000000;0.820831
6718.000000;0.817550
6717.000000;0.814201
6716.000000;0.810933
6715.000000;0.807901
6714.000000;0.805145
6713.000000;0.802591
6712.000000;0.800083
6711.000000;0.797439
6710.000000;0.794530
6709.000000;0.791506
6708.000000;0.788566
6707.000000;0.785628
6706.000000;0.782528
6705.000000;0.779246
6704.000000;0.775993
6703.000000;0.772973
6702.000000;0.770142
6701.000000;0.767346
6700.000000;0.764551
6699.000000;0.761833
6698.000000;0.759216
6697.000000;0.756631
6696.000000;0.753985
6695.000000;0.751195
6694.000000;0.748225
6693.000000;0.745140
6692.000000;0.742064
6691.000000;0.739060
6690.000000;0.736111
6689.000000;0.733243
6688.000000;0.730532
6687.000000;0.727950
6686.000000;0.725344
6685.000000;0.722626
6684.000000;0.719879
6683.000000;0.717172
6682.000000;0.714426
6681.000000;0.711566
6680.000000;0.708666
6679.000000;0.705821
6678.000000;0.702974
6677.000000;0.700021
6676.000000;0.697016
6675.000000;0.694099
6674.000000;0.691273
6673.000000;0.688415
6672.000000;0.685484
6671.000000;0.682574
6670.000000;0.679740
6669.000000;0.676895
6668.000000;0.673946
6667.000000;0.670947
6666.000000;0.668058
6665.000000;0.665379
6664.000000;0.662848
6663.000000;0.660299
6662.000000;0.657612
6661.000000;0.654808
6660.000000;0.651982
6659.000000;0.649173
6658.000000;0.646338
6657.000000;0.643470
6656.000000;0.640640
6655.000000;0.637906
6654.000000;0.635242
6653.000000;0.632594
6652.000000;0.629974
6651.000000;0.627430
6650.000000;0.624960
6649.000000;0.622484
6648.000000;0.619897
6647.000000;0.617124
6646.000000;0.614174
6645.000000;0.611167
6644.000000;0.608273
6643.000000;0.605577
6642.000000;0.603020
6641.000000;0.600473
6640.000000;0.597849
6639.000000;0.595133
6638.000000;0.592368
6637.000000;0.589631
6636.000000;0.586969
6635.000000;0.584355
6634.000000;0.581730
6633.000000;0.579098
6632.000000;0.576525
6631.000000;0.574020
6630.000000;0.571477
6629.000000;0.568781
6628.000000;0.565949
6627.000000;0.563118
6626.000000;0.560417
6625.000000;0.557845
6624.000000;0.555264
6623.000000;0.552552
6622.000000;0.549768
6621.000000;0.547128
6620.000000;0.544751
6619.000000;0.542472
6618.000000;0.540005
6617.000000;0.537267
6616.000000;0.534442
6615.000000;0.531740
6614.000000;0.529211
6613.000000;0.526789
6612.000000;0.524408
6611.000000;0.522016
6610.000000;0.519571
6609.000000;0.517082
6608.000000;0.514578
6607.000000;0.512015
6606.000000;0.509307
6605.000000;0.506468
6604.000000;0.503659
6603.000000;0.501024
6602.000000;0.498574
6601.000000;0.496252
6600.000000;0.494031
6599.000000;0.491882
6598.000000;0.489709
6597.000000;0.487402
6596.000000;0.484933
6595.000000;0.482365
6594.000000;0.479806
6593.000000;0.477361
6592.000000;0.475068
6591.000000;0.472845
6590.000000;0.470549
6589.000000;0.468124
6588.000000;0.465643
6587.000000;0.463194
6586.000000;0.460777
6585.000000;0.458338
6584.000000;0.455855
6583.000000;0.453345
6582.000000;0.450850
6581.000000;0.448434
6580.000000;0.446134
6579.000000;0.443899
6578.000000;0.441634
6577.000000;0.439320
6576.000000;0.437023
6575.000000;0.434768
6574.000000;0.432474
6573.000000;0.430072
6572.000000;0.427614
6571.000000;0.425226
6570.000000;0.422980
6569.000000;0.420866
6568.000000;0.418822
6567.000000;0.416770
6566.000000;0.414644
6565.000000;0.412414
6564.000000;0.410064
6563.000000;0.407576
6562.000000;0.404992
6561.000000;0.402474
6560.000000;0.400172
6559.000000;0.398045
6558.000000;0.395892
6557.000000;0.393607
6556.000000;0.391288
6555.000000;0.389071
6554.000000;0.386964
6553.000000;0.384905
6552.000000;0.382866
6551.000000;0.380831
6550.000000;0.378744
6549.000000;0.376577
6548.000000;0.374393
6547.000000;0.372264
6546.000000;0.370176
6545.000000;0.368073
6544.000000;0.365947
6543.000000;0.363819
6542.000000;0.361682
6541.000000;0.359523
6540.000000;0.357369
6539.000000;0.355244
6538.000000;0.353142
6537.000000;0.351071
6536.000000;0.349081
6535.000000;0.347185
6534.000000;0.345304
6533.000000;0.343343
6532.000000;0.341298
6531.000000;0.339225
6530.000000;0.337148
6529.000000;0.335058
6528.000000;0.332966
6527.000000;0.330899
6526.000000;0.328857
6525.000000;0.326822
6524.000000;0.324789
6523.000000;0.322750
6522.000000;0.320693
6521.000000;0.318640
6520.000000;0.316645
6519.000000;0.314716
6518.000000;0.312790
6517.000000;0.310827
6516.000000;0.308867
6515.000000;0.306944
6514.000000;0.305011
6513.000000;0.303016
6512.000000;0.301009
6511.000000;0.299079
6510.000000;0.297234
6509.000000;0.295399
6508.000000;0.293518
6507.000000;0.291590
6506.000000;0.289641
6505.000000;0.287701
6504.000000;0.285802
6503.000000;0.283936
6502.000000;0.282056
6501.000000;0.280140
6500.000000;0.278245
6499.000000;0.276415
6498.000000;0.274602
6497.000000;0.272736
6496.000000;0.270838
6495.000000;0.268990
6494.000000;0.267203
6493.000000;0.265403
6492.000000;0.263555
6491.000000;0.261713
6490.000000;0.259940
6489.000000;0.258227
6488.000000;0.256523
6487.000000;0.254787
6486.000000;0.253000
6485.000000;0.251152
6484.000000;0.249263
6483.000000;0.247392
6482.000000;0.245620
6481.000000;0.243985
6480.000000;0.242421
6479.000000;0.240781
6478.000000;0.238953
6477.000000;0.236985
6476.000000;0.235047
6475.000000;0.233262
6474.000000;0.231609
6473.000000;0.230009
6472.000000;0.228436
6471.000000;0.226888
6470.000000;0.225318
6469.000000;0.223650
6468.000000;0.221879
6467.000000;0.220072
6466.000000;0.218292
6465.000000;0.216553
6464.000000;0.214858
6463.000000;0.213223
6462.000000;0.211651
6461.000000;0.210110
6460.000000;0.208549
6459.000000;0.206924
6458.000000;0.205232
6457.000000;0.203522
6456.000000;0.201866
6455.000000;0.200283
6454.000000;0.198718
6453.000000;0.197109
6452.000000;0.195463
6451.000000;0.193840
6450.000000;0.192273
6449.000000;0.190741
6448.000000;0.189197
6447.000000;0.187601
6446.000000;0.185937
6445.000000;0.184242
6444.000000;0.182583
6443.000000;0.181008
6442.000000;0.179504
6441.000000;0.178036
6440.000000;0.176587
6439.000000;0.175131
6438.000000;0.173622
6437.000000;0.172040
6436.000000;0.170439
6435.000000;0.168903
6434.000000;0.167449
6433.000000;0.166021
6432.000000;0.164560
6431.000000;0.163067
6430.000000;0.161584
6429.000000;0.160142
6428.000000;0.158729
6427.000000;0.157300
6426.000000;0.155818
6425.000000;0.154306
6424.000000;0.152825
6423.000000;0.151408
6422.000000;0.150019
6421.000000;0.148596
6420.000000;0.147123
6419.000000;0.145632
6418.000000;0.144163
6417.000000;0.142730
6416.000000;0.141320
6415.000000;0.139905
6414.000000;0.138473
6413.000000;0.137056
6412.000000;0.135697
6411.000000;0.134384
6410.000000;0.133040
6409.000000;0.131622
6408.000000;0.130181
6407.000000;0.128803
6406.000000;0.127508
6405.000000;0.126240
6404.000000;0.124942
6403.000000;0.123607
6402.000000;0.122252
6401.000000;0.120893
6400.000000;0.119535
6399.000000;0.118185
6398.000000;0.116833
6397.000000;0.115456
6396.000000;0.114036
6395.000000;0.112586
6394.000000;0.111160
6393.000000;0.109815
6392.000000;0.108551
6391.000000;0.107298
6390.000000;0.105989
6389.000000;0.104638
6388.000000;0.103321
6387.000000;0.102081
6386.000000;0.100886
6385.000000;0.099679
6384.000000;0.098434
6383.000000;0.097137
6382.000000;0.095788
6381.000000;0.094427
6380.000000;0.093135
6379.000000;0.091944
6378.000000;0.090795
6377.000000;0.089595
6376.000000;0.088313
6375.000000;0.086984
6374.000000;0.085662
6373.000000;0.084398
6372.000000;0.083229
6371.000000;0.082140
6370.000000;0.081052
6369.000000;0.079890
6368.000000;0.078652
6367.000000;0.077402
6366.000000;0.076188
6365.000000;0.075011
6364.000000;0.073841
6363.000000;0.072646
6362.000000;0.071407
6361.000000;0.070145
6360.000000;0.068917
6359.000000;0.067779
6358.000000;0.066728
6357.000000;0.065708
6356.000000;0.064643
6355.000000;0.063480
6354.000000;0.062214
6353.000000;0.060910
6352.000000;0.059662
6351.000000;0.058513
6350.000000;0.057424
6349.000000;0.056330
6348.000000;0.055222
6347.000000;0.054131
6346.000000;0.053064
6345.000000;0.051987
6344.000000;0.050873
6343.000000;0.049735
6342.000000;0.048612
6341.000000;0.047519
6340.000000;0.046433
6339.000000;0.045309
6338.000000;0.044146
6337.000000;0.042996
6336.000000;0.041918
6335.000000;0.040911
6334.000000;0.039926
6333.000000;0.038934
6332.000000;0.037951
6331.000000;0.036985
6330.000000;0.036005
6329.000000;0.034976
6328.000000;0.033899
6327.000000;0.032791
6326.000000;0.031670
6325.000000;0.030568
6324.000000;0.029528
6323.000000;0.028551
6322.000000;0.027577
6321.000000;0.026555
6320.000000;0.025496
6319.000000;0.024449
6318.000000;0.023429
6317.000000;0.022428
6316.000000;0.021449
6315.000000;0.020500
6314.000000;0.019563
6313.000000;0.018606
6312.000000;0.017621
6311.000000;0.016622
6310.000000;0.015623
6309.000000;0.014629
6308.000000;0.013642
6307.000000;0.012663
6306.000000;0.011690
6305.000000;0.010725
6304.000000;0.009783
6303.000000;0.008869
6302.000000;0.007965
6301.000000;0.007065
6300.000000;0.006180
6299.000000;0.005302
6298.000000;0.004387
6297.000000;0.003411
6296.000000;0.002407
6295.000000;0.001430
6294.000000;0.000494
6293.000000;-0.000421
6292.000000;-0.001324
6291.000000;-0.002215
6290.000000;-0.003114
6289.000000;-0.004040
6288.000000;-0.004974
6287.000000;-0.005875
6286.000000;-0.006741
6285.000000;-0.007612
6284.000000;-0.008508
6283.000000;-0.009411
6282.000000;-0.010302
6281.000000;-0.011198
6280.000000;-0.012128
6279.000000;-0.013085
6278.000000;-0.014026
6277.000000;-0.014913
6276.000000;-0.015751
6275.000000;-0.016579
6274.000000;-0.017435
6273.000000;-0.018320
6272.000000;-0.019206
6271.000000;-0.020069
6270.000000;-0.020909
6269.000000;-0.021737
6268.000000;-0.022559
6267.000000;-0.023383
6266.000000;-0.024220
6265.000000;-0.025068
6264.000000;-0.025908
6263.000000;-0.026722
6262.000000;-0.027513
6261.000000;-0.028289
6260.000000;-0.029051
6259.000000;-0.029806
6258.000000;-0.030573
6257.000000;-0.031364
6256.000000;-0.032168
6255.000000;-0.032967
6254.000000;-0.033760
6253.000000;-0.034557
6252.000000;-0.035360
6251.000000;-0.036169
6250.000000;-0.036981
6249.000000;-0.037787
6248.000000;-0.038577
6247.000000;-0.039367
6246.000000;-0.040184
6245.000000;-0.041035
6244.000000;-0.041892
6243.000000;-0.042722
6242.000000;-0.043520
6241.000000;-0.044292
6240.000000;-0.045037
6239.000000;-0.045760
6238.000000;-0.046483
6237.000000;-0.047220
6236.000000;-0.047961
6235.000000;-0.048695
6234.000000;-0.049439
6233.000000;-0.050208
6232.000000;-0.050986
6231.000000;-0.051742
6230.000000;-0.052474
6229.000000;-0.053205
6228.000000;-0.053954
6227.000000;-0.054723
6226.000000;-0.055498
6225.000000;-0.056265
6224.000000;-0.057006
6223.000000;-0.057722
6222.000000;-0.058440
6221.000000;-0.059181
6220.000000;-0.059927
6219.000000;-0.060640
6218.000000;-0.061315
6217.000000;-0.061981
6216.000000;-0.062665
6215.000000;-0.063356
6214.000000;-0.064032
6213.000000;-0.064695
6212.000000;-0.065379
6211.000000;-0.066112
6210.000000;-0.066876
6209.000000;-0.067615
6208.000000;-0.068290
6207.000000;-0.068921
6206.000000;-0.069564
6205.000000;-0.070253
6204.000000;-0.070975
6203.000000;-0.071694
6202.000000;-0.072389
6201.000000;-0.073055
6200.000000;-0.073701
6199.000000;-0.074349
6198.000000;-0.075018
6197.000000;-0.075708
6196.000000;-0.076404
6195.000000;-0.077096
6194.000000;-0.077781
6193.000000;-0.078448
6192.000000;-0.079088
6191.000000;-0.079714
6190.000000;-0.080353
6189.000000;-0.081009
6188.000000;-0.081669
6187.000000;-0.082336
6186.000000;-0.083031
6185.000000;-0.083758
6184.000000;-0.084482
6183.000000;-0.085172
6182.000000;-0.085839
6181.000000;-0.086508
6180.000000;-0.087183
6179.000000;-0.087844
6178.000000;-0.088476
6177.000000;-0.089081
6176.000000;-0.089674
6175.000000;-0.090277
6174.000000;-0.090895
6173.000000;-0.091514
6172.000000;-0.092118
6171.000000;-0.092723
6170.000000;-0.093363
6169.000000;-0.094038
6168.000000;-0.094705
6167.000000;-0.095325
6166.000000;-0.095906
6165.000000;-0.096476
6164.000000;-0.097046
6163.000000;-0.097617
6162.000000;-0.098200
6161.000000;-0.098804
6160.000000;-0.099422
6159.000000;-0.100041
6158.000000;-0.100653
6157.000000;-0.101254
6156.000000;-0.101845
6155.000000;-0.102435
6154.000000;-0.103029
6153.000000;-0.103619
6152.000000;-0.104197
6151.000000;-0.104786
6150.000000;-0.105421
6149.000000;-0.106087
6148.000000;-0.106718
6147.000000;-0.107262
6146.000000;-0.107741
6145.000000;-0.108223
6144.000000;-0.108764
6143.000000;-0.109368
6142.000000;-0.109997
6141.000000;-0.110605
6140.000000;-0.111184
6139.000000;-0.111769
6138.000000;-0.112399
6137.000000;-0.113052
6136.000000;-0.113662
6135.000000;-0.114201
6134.000000;-0.114697
6133.000000;-0.115184
6132.000000;-0.115676
6131.000000;-0.116198
6130.000000;-0.116791
6129.000000;-0.117451
6128.000000;-0.118108
6127.000000;-0.118703
6126.000000;-0.119250
6125.000000;-0.119804
6124.000000;-0.120380
6123.000000;-0.120949
6122.000000;-0.121499
6121.000000;-0.122042
6120.000000;-0.122575
6119.000000;-0.123083
6118.000000;-0.123567
6117.000000;-0.124058
6116.000000;-0.124582
6115.000000;-0.125143
6114.000000;-0.125728
6113.000000;-0.126314
6112.000000;-0.126867
6111.000000;-0.127365
6110.000000;-0.127812
6109.000000;-0.128244
6108.000000;-0.128698
6107.000000;-0.129194
6106.000000;-0.129733
6105.000000;-0.130290
6104.000000;-0.130834
6103.000000;-0.131348
6102.000000;-0.131842
6101.000000;-0.132340
6100.000000;-0.132856
6099.000000;-0.133384
6098.000000;-0.133911
6097.000000;-0.134423
6096.000000;-0.134928
6095.000000;-0.135451
6094.000000;-0.136007
6093.000000;-0.136574
6092.000000;-0.137108
6091.000000;-0.137599
6090.000000;-0.138070
6089.000000;-0.138541
6088.000000;-0.139009
6087.000000;-0.139471
6086.000000;-0.139931
6085.000000;-0.140387
6084.000000;-0.140831
6083.000000;-0.141281
6082.000000;-0.141772
6081.000000;-0.142302
6080.000000;-0.142821
6079.000000;-0.143297
6078.000000;-0.143755
6077.000000;-0.144230
6076.000000;-0.144719
6075.000000;-0.145205
6074.000000;-0.145694
6073.000000;-0.146197
6072.000000;-0.146695
6071.000000;-0.147159
6070.000000;-0.147598
6069.000000;-0.148047
6068.000000;-0.148517
6067.000000;-0.148986
6066.000000;-0.149433
6065.000000;-0.149851
6064.000000;-0.150248
6063.000000;-0.150647
6062.000000;-0.151074
6061.000000;-0.151539
6060.000000;-0.152014
6059.000000;-0.152463
6058.000000;-0.152886
6057.000000;-0.153320
6056.000000;-0.153796
6055.000000;-0.154309
6054.000000;-0.154818
6053.000000;-0.155285
6052.000000;-0.155704
6051.000000;-0.156111
6050.000000;-0.156546
6049.000000;-0.157013
6048.000000;-0.157481
6047.000000;-0.157922
6046.000000;-0.158327
6045.000000;-0.158690
6044.000000;-0.159012
6043.000000;-0.159329
6042.000000;-0.159698
6041.000000;-0.160134
6040.000000;-0.160591
6039.000000;-0.161019
6038.000000;-0.161413
6037.000000;-0.161796
6036.000000;-0.162178
6035.000000;-0.162559
6034.000000;-0.162949
6033.000000;-0.163358
6032.000000;-0.163774
6031.000000;-0.164182
6030.000000;-0.164577
6029.000000;-0.164968
6028.000000;-0.165362
6027.000000;-0.165765
6026.000000;-0.166182
6025.000000;-0.166600
6024.000000;-0.166994
6023.000000;-0.167356
6022.000000;-0.167717
6021.000000;-0.168103
6020.000000;-0.168500
6019.000000;-0.168871
6018.000000;-0.169204
6017.000000;-0.169521
6016.000000;-0.169853
6015.000000;-0.170213
6014.000000;-0.170603
6013.000000;-0.171009
6012.000000;-0.171414
6011.000000;-0.171806
6010.000000;-0.172181
6009.000000;-0.172537
6008.000000;-0.172882
6007.000000;-0.173237
6006.000000;-0.173617
6005.000000;-0.173995
6004.000000;-0.174328
6003.000000;-0.174615
6002.000000;-0.174907
6001.000000;-0.175246
6000.000000;-0.175628
5999.000000;-0.176023
5998.000000;-0.176410
5997.000000;-0.176765
5996.000000;-0.177066
5995.000000;-0.177321
5994.000000;-0.177584
5993.000000;-0.177893
5992.000000;-0.178238
5991.000000;-0.178589
5990.000000;-0.178933
5989.000000;-0.179267
5988.000000;-0.179576
5987.000000;-0.179850
5986.000000;-0.180113
5985.000000;-0.180386
5984.000000;-0.180663
5983.000000;-0.180924
5982.000000;-0.181180
5981.000000;-0.181455
5980.000000;-0.181751
5979.000000;-0.182061
5978.000000;-0.182387
5977.000000;-0.182728
5976.000000;-0.183060
5975.000000;-0.183352
5974.000000;-0.183595
5973.000000;-0.183805
5972.000000;-0.184008
5971.000000;-0.184232
5970.000000;-0.184506
5969.000000;-0.184831
5968.000000;-0.185170
5967.000000;-0.185479
5966.000000;-0.185736
5965.000000;-0.185948
5964.000000;-0.186133
5963.000000;-0.186330
5962.000000;-0.186576
5961.000000;-0.186880
5960.000000;-0.187200
5959.000000;-0.187495
5958.000000;-0.187760
5957.000000;-0.188008
5956.000000;-0.188235
5955.000000;-0.188437
5954.000000;-0.188635
5953.000000;-0.188864
5952.000000;-0.189136
5951.000000;-0.189437
5950.000000;-0.189747
5949.000000;-0.190044
5948.000000;-0.190309
5947.000000;-0.190537
5946.000000;-0.190748
5945.000000;-0.190958
5944.000000;-0.191156
5943.000000;-0.191331
5942.000000;-0.191487
5941.000000;-0.191635
5940.000000;-0.191773
5939.000000;-0.191910
5938.000000;-0.192082
5937.000000;-0.192322
5936.000000;-0.192606
5935.000000;-0.192879
5934.000000;-0.193109
5933.000000;-0.193309
5932.000000;-0.193492
5931.000000;-0.193652
5930.000000;-0.193786
5929.000000;-0.193916
5928.000000;-0.194072
5927.000000;-0.194270
5926.000000;-0.194498
5925.000000;-0.194728
5924.000000;-0.194929
5923.000000;-0.195097
5922.000000;-0.195255
5921.000000;-0.195431
5920.000000;-0.195631
5919.000000;-0.195839
5918.000000;-0.196042
5917.000000;-0.196240
5916.000000;-0.196435
5915.000000;-0.196626
5914.000000;-0.196812
5913.000000;-0.196988
5912.000000;-0.197153
5911.000000;-0.197318
5910.000000;-0.197493
5909.000000;-0.197666
5908.000000;-0.197813
5907.000000;-0.197938
5906.000000;-0.198068
5905.000000;-0.198221
5904.000000;-0.198382
5903.000000;-0.198538
5902.000000;-0.198691
5901.000000;-0.198846
5900.000000;-0.198992
5899.000000;-0.199127
5898.000000;-0.199268
5897.000000;-0.199433
5896.000000;-0.199619
5895.000000;-0.199800
5894.000000;-0.199958
5893.000000;-0.200084
5892.000000;-0.200177
5891.000000;-0.200256
5890.000000;-0.200351
5889.000000;-0.200474
5888.000000;-0.200615
5887.000000;-0.200764
5886.000000;-0.200928
5885.000000;-0.201105
5884.000000;-0.201279
5883.000000;-0.201438
5882.000000;-0.201595
5881.000000;-0.201756
5880.000000;-0.201904
5879.000000;-0.202025
5878.000000;-0.202131
5877.000000;-0.202239
5876.000000;-0.202347
5875.000000;-0.202438
5874.000000;-0.202506
5873.000000;-0.202558
5872.000000;-0.202615
5871.000000;-0.202699
5870.000000;-0.202826
5869.000000;-0.202974
5868.000000;-0.203093
5867.000000;-0.203160
5866.000000;-0.203198
5865.000000;-0.203242
5864.000000;-0.203307
5863.000000;-0.203386
5862.000000;-0.203461
5861.000000;-0.203511
5860.000000;-0.203519
5859.000000;-0.203514
5858.000000;-0.203552
5857.000000;-0.203648
5856.000000;-0.203753
5855.000000;-0.203811
5854.000000;-0.203822
5853.000000;-0.203824
5852.000000;-0.203840
5851.000000;-0.203878
5850.000000;-0.203949
5849.000000;-0.204052
5848.000000;-0.204158
5847.000000;-0.204238
5846.000000;-0.204288
5845.000000;-0.204316
5844.000000;-0.204310
5843.000000;-0.204264
5842.000000;-0.204208
5841.000000;-0.204179
5840.000000;-0.204173
5839.000000;-0.204152
5838.000000;-0.204097
5837.000000;-0.204025
5836.000000;-0.203956
5835.000000;-0.203888
5834.000000;-0.203814
5833.000000;-0.203735
5832.000000;-0.203664
5831.000000;-0.203613
5830.000000;-0.203589
5829.000000;-0.203578
5828.000000;-0.203554
5827.000000;-0.203505
5826.000000;-0.203441
5825.000000;-0.203378
5824.000000;-0.203318
5823.000000;-0.203253
5822.000000;-0.203177
5821.000000;-0.203083
5820.000000;-0.202971
5819.000000;-0.202859
5818.000000;-0.202762
5817.000000;-0.202667
5816.000000;-0.202539
5815.000000;-0.202374
5814.000000;-0.202212
5813.000000;-0.202082
5812.000000;-0.201979
5811.000000;-0.201886
5810.000000;-0.201803
5809.000000;-0.201718
5808.000000;-0.201602
5807.000000;-0.201448
5806.000000;-0.201297
5805.000000;-0.201184
5804.000000;-0.201092
5803.000000;-0.200982
5802.000000;-0.200852
5801.000000;-0.200728
5800.000000;-0.200617
5799.000000;-0.200503
5798.000000;-0.200376
5797.000000;-0.200236
5796.000000;-0.200078
5795.000000;-0.199900
5794.000000;-0.199719
5793.000000;-0.199541
5792.000000;-0.199345
5791.000000;-0.199113
5790.000000;-0.198873
5789.000000;-0.198675
5788.000000;-0.198530
5787.000000;-0.198400
5786.000000;-0.198244
5785.000000;-0.198046
5784.000000;-0.197816
5783.000000;-0.197568
5782.000000;-0.197317
5781.000000;-0.197069
5780.000000;-0.196829
5779.000000;-0.196618
5778.000000;-0.196454
5777.000000;-0.196312
5776.000000;-0.196122
5775.000000;-0.195834
5774.000000;-0.195469
5773.000000;-0.195087
5772.000000;-0.194741
5771.000000;-0.194456
5770.000000;-0.194232
5769.000000;-0.194028
5768.000000;-0.193783
5767.000000;-0.193466
5766.000000;-0.193111
5765.000000;-0.192773
5764.000000;-0.192477
5763.000000;-0.192214
5762.000000;-0.191960
5761.000000;-0.191686
5760.000000;-0.191365
5759.000000;-0.191017
5758.000000;-0.190698
5757.000000;-0.190424
5756.000000;-0.190145
5755.000000;-0.189812
5754.000000;-0.189445
5753.000000;-0.189092
5752.000000;-0.188741
5751.000000;-0.188333
5750.000000;-0.187858
5749.000000;-0.187379
5748.000000;-0.186966
5747.000000;-0.186619
5746.000000;-0.186285
5745.000000;-0.185918
5744.000000;-0.185513
5743.000000;-0.185106
5742.000000;-0.184733
5741.000000;-0.184386
5740.000000;-0.184030
5739.000000;-0.183649
5738.000000;-0.183269
5737.000000;-0.182907
5736.000000;-0.182530
5735.000000;-0.182091
5734.000000;-0.181583
5733.000000;-0.181037
5732.000000;-0.180487
5731.000000;-0.179960
5730.000000;-0.179473
5729.000000;-0.179016
5728.000000;-0.178556
5727.000000;-0.178074
5726.000000;-0.177590
5725.000000;-0.177131
5724.000000;-0.176691
5723.000000;-0.176248
5722.000000;-0.175786
5721.000000;-0.175294
5720.000000;-0.174766
5719.000000;-0.174216
5718.000000;-0.173689
5717.000000;-0.173198
5716.000000;-0.172704
5715.000000;-0.172166
5714.000000;-0.171595
5713.000000;-0.171028
5712.000000;-0.170481
5711.000000;-0.169953
5710.000000;-0.169442
5709.000000;-0.168932
5708.000000;-0.168389
5707.000000;-0.167803
5706.000000;-0.167210
5705.000000;-0.166650
5704.000000;-0.166109
5703.000000;-0.165560
5702.000000;-0.165009
5701.000000;-0.164477
5700.000000;-0.163942
5699.000000;-0.163362
5698.000000;-0.162729
5697.000000;-0.162068
5696.000000;-0.161409
5695.000000;-0.160778
5694.000000;-0.160206
5693.000000;-0.159698
5692.000000;-0.159208
5691.000000;-0.158688
5690.000000;-0.158135
5689.000000;-0.157577
5688.000000;-0.157014
5687.000000;-0.156430
5686.000000;-0.155833
5685.000000;-0.155242
5684.000000;-0.154646
5683.000000;-0.154018
5682.000000;-0.153375
5681.000000;-0.152760
5680.000000;-0.152194
5679.000000;-0.151651
5678.000000;-0.151085
5677.000000;-0.150461
5676.000000;-0.149778
5675.000000;-0.149081
5674.000000;-0.148438
5673.000000;-0.147880
5672.000000;-0.147367
5671.000000;-0.146839
5670.000000;-0.146288
5669.000000;-0.145738
5668.000000;-0.145203
5667.000000;-0.144680
5666.000000;-0.144178
5665.000000;-0.143684
5664.000000;-0.143148
5663.000000;-0.142534
5662.000000;-0.141887
5661.000000;-0.141289
5660.000000;-0.140763
5659.000000;-0.140266
5658.000000;-0.139769
5657.000000;-0.139282
5656.000000;-0.138810
5655.000000;-0.138336
5654.000000;-0.137858
5653.000000;-0.137399
5652.000000;-0.136967
5651.000000;-0.136534
5650.000000;-0.136074
5649.000000;-0.135583
5648.000000;-0.135080
5647.000000;-0.134597
5646.000000;-0.134163
5645.000000;-0.133770
5644.000000;-0.133369
5643.000000;-0.132918
5642.000000;-0.132440
5641.000000;-0.131980
5640.000000;-0.131544
5639.000000;-0.131108
5638.000000;-0.130681
5637.000000;-0.130306
5636.000000;-0.130001
5635.000000;-0.129733
5634.000000;-0.129459
5633.000000;-0.129160
5632.000000;-0.128845
5631.000000;-0.128547
5630.000000;-0.128300
5629.000000;-0.128105
5628.000000;-0.127910
5627.000000;-0.127663
5626.000000;-0.127367
5625.000000;-0.127066
5624.000000;-0.126788
5623.000000;-0.126531
5622.000000;-0.126285
5621.000000;-0.126053
5620.000000;-0.125842
5619.000000;-0.125664
5618.000000;-0.125526
5617.000000;-0.125404
5616.000000;-0.125269
5615.000000;-0.125127
5614.000000;-0.125010
5613.000000;-0.124911
5612.000000;-0.124774
5611.000000;-0.124581
5610.000000;-0.124401
5609.000000;-0.124303
5608.000000;-0.124266
5607.000000;-0.124220
5606.000000;-0.124147
5605.000000;-0.124085
5604.000000;-0.124048
5603.000000;-0.124019
5602.000000;-0.123998
5601.000000;-0.123996
5600.000000;-0.124001
5599.000000;-0.123993
5598.000000;-0.123990
5597.000000;-0.124022
5596.000000;-0.124078
5595.000000;-0.124129
5594.000000;-0.124174
5593.000000;-0.124231
5592.000000;-0.124302
5591.000000;-0.124385
5590.000000;-0.124503
5589.000000;-0.124660
5588.000000;-0.124801
5587.000000;-0.124881
5586.000000;-0.124943
5585.000000;-0.125062
5584.000000;-0.125229
5583.000000;-0.125376
5582.000000;-0.125486
5581.000000;-0.125603
5580.000000;-0.125749
5579.000000;-0.125907
5578.000000;-0.126080
5577.000000;-0.126297
5576.000000;-0.126547
5575.000000;-0.126782
5574.000000;-0.126985
5573.000000;-0.127170
5572.000000;-0.127330
5571.000000;-0.127450
5570.000000;-0.127569
5569.000000;-0.127745
5568.000000;-0.127973
5567.000000;-0.128208
5566.000000;-0.128447
5565.000000;-0.128732
5564.000000;-0.129063
5563.000000;-0.129385
5562.000000;-0.129677
5561.000000;-0.129973
5560.000000;-0.130280
5559.000000;-0.130559
5558.000000;-0.130800
5557.000000;-0.131022
5556.000000;-0.131225
5555.000000;-0.131394
5554.000000;-0.131566
5553.000000;-0.131800
5552.000000;-0.132088
5551.000000;-0.132373
5550.000000;-0.132643
5549.000000;-0.132929
5548.000000;-0.133226
5547.000000;-0.133495
5546.000000;-0.133752
5545.000000;-0.134053
5544.000000;-0.134393
5543.000000;-0.134712
5542.000000;-0.134995
5541.000000;-0.135270
5540.000000;-0.135537
5539.000000;-0.135797
5538.000000;-0.136093
5537.000000;-0.136447
5536.000000;-0.136789
5535.000000;-0.137049
5534.000000;-0.137270
5533.000000;-0.137542
5532.000000;-0.137857
5531.000000;-0.138137
5530.000000;-0.138374
5529.000000;-0.138627
5528.000000;-0.138918
5527.000000;-0.139198
5526.000000;-0.139437
5525.000000;-0.139669
5524.000000;-0.139915
5523.000000;-0.140167
5522.000000;-0.140447
5521.000000;-0.140761
5520.000000;-0.141062
5519.000000;-0.141305
5518.000000;-0.141510
5517.000000;-0.141733
5516.000000;-0.141966
5515.000000;-0.142178
5514.000000;-0.142417
5513.000000;-0.142726
5512.000000;-0.143022
5511.000000;-0.143207
5510.000000;-0.143333
5509.000000;-0.143519
5508.000000;-0.143770
5507.000000;-0.144000
5506.000000;-0.144219
5505.000000;-0.144529
5504.000000;-0.144900
5503.000000;-0.145175
5502.000000;-0.145307
5501.000000;-0.145389
5500.000000;-0.145519
5499.000000;-0.145707
5498.000000;-0.145835
5497.000000;-0.145809
5496.000000;-0.145693
5495.000000;-0.145664
5494.000000;-0.145817
5493.000000;-0.146009
5492.000000;-0.146063
5491.000000;-0.145997
5490.000000;-0.146000
5489.000000;-0.146189
5488.000000;-0.146493
5487.000000;-0.146780
5486.000000;-0.146996
5485.000000;-0.147146
5484.000000;-0.147189
5483.000000;-0.147103
5482.000000;-0.147059
5481.000000;-0.147150
5480.000000;-0.147139
5479.000000;-0.146838
5478.000000;-0.146453
5477.000000;-0.146338
5476.000000;-0.146463
5475.000000;-0.146533
5474.000000;-0.146507
5473.000000;-0.146530
5472.000000;-0.146592
5471.000000;-0.146607
5470.000000;-0.146620
5469.000000;-0.146635
5468.000000;-0.146529
5467.000000;-0.146303
5466.000000;-0.146116
5465.000000;-0.146013
5464.000000;-0.145805
5463.000000;-0.145407
5462.000000;-0.145080
5461.000000;-0.144970
5460.000000;-0.144800
5459.000000;-0.144419
5458.000000;-0.144112
5457.000000;-0.144071
5456.000000;-0.144053
5455.000000;-0.143796
5454.000000;-0.143330
5453.000000;-0.142795
5452.000000;-0.142253
5451.000000;-0.141745
5450.000000;-0.141291
5449.000000;-0.140721
5448.000000;-0.139974
5447.000000;-0.139375
5446.000000;-0.139088
5445.000000;-0.138764
5444.000000;-0.138097
5443.000000;-0.137331
5442.000000;-0.136894
5441.000000;-0.136742
5440.000000;-0.136392
5439.000000;-0.135603
5438.000000;-0.134624
5437.000000;-0.133757
5436.000000;-0.133040
5435.000000;-0.132423
5434.000000;-0.131804
5433.000000;-0.130940
5432.000000;-0.129800
5431.000000;-0.128773
5430.000000;-0.128072
5429.000000;-0.127385
5428.000000;-0.126476
5427.000000;-0.125529
5426.000000;-0.124728
5425.000000;-0.123983
5424.000000;-0.123105
5423.000000;-0.122020
5422.000000;-0.120724
5421.000000;-0.119289
5420.000000;-0.117809
5419.000000;-0.116230
5418.000000;-0.114481
5417.000000;-0.112665
5416.000000;-0.111019
5415.000000;-0.109583
5414.000000;-0.108087
5413.000000;-0.106375
5412.000000;-0.104623
5411.000000;-0.103048
5410.000000;-0.101615
5409.000000;-0.100076
5408.000000;-0.098271
5407.000000;-0.096288
5406.000000;-0.094335
5405.000000;-0.092421
5404.000000;-0.090354
5403.000000;-0.088113
5402.000000;-0.085712
5401.000000;-0.083138
5400.000000;-0.080546
5399.000000;-0.077965
5398.000000;-0.075255
5397.000000;-0.072374
5396.000000;-0.069443
5395.000000;-0.066548
5394.000000;-0.063566
5393.000000;-0.060475
5392.000000;-0.057420
5391.000000;-0.054357
5390.000000;-0.051104
5389.000000;-0.047655
5388.000000;-0.044170
5387.000000;-0.040664
5386.000000;-0.036961
5385.000000;-0.032904
5384.000000;-0.028645
5383.000000;-0.024477
5382.000000;-0.020278
5381.000000;-0.015736
5380.000000;-0.010942
5379.000000;-0.006223
5378.000000;-0.001589
5377.000000;0.003219
5376.000000;0.008238
5375.000000;0.013306
5374.000000;0.018490
5373.000000;0.023912
5372.000000;0.029497
5371.000000;0.035189
5370.000000;0.041102
5369.000000;0.047330
5368.000000;0.053818
5367.000000;0.060503
5366.000000;0.067395
5365.000000;0.074535
5364.000000;0.081861
5363.000000;0.089310
5362.000000;0.097042
5361.000000;0.105097
5360.000000;0.113264
5359.000000;0.121536
5358.000000;0.130254
5357.000000;0.139543
5356.000000;0.148984
5355.000000;0.158279
5354.000000;0.167794
5353.000000;0.177991
5352.000000;0.188633
5351.000000;0.199160
5350.000000;0.209643
5349.000000;0.220655
5348.000000;0.232353
5347.000000;0.244383
5346.000000;0.256575
5345.000000;0.269128
5344.000000;0.282114
5343.000000;0.295392
5342.000000;0.309015
5341.000000;0.322943
5340.000000;0.336943
5339.000000;0.351209
5338.000000;0.366256
5337.000000;0.382162
5336.000000;0.398418
5335.000000;0.414617
5334.000000;0.430916
5333.000000;0.447829
5332.000000;0.465555
5331.000000;0.483777
5330.000000;0.502310
5329.000000;0.521296
5328.000000;0.540814
5327.000000;0.560865
5326.000000;0.581504
5325.000000;0.602643
5324.000000;0.624063
5323.000000;0.645807
5322.000000;0.668306
5321.000000;0.691758
5320.000000;0.715714
5319.000000;0.739756
5318.000000;0.764253
5317.000000;0.789753
5316.000000;0.816007
5315.000000;0.842390
5314.000000;0.868882
5313.000000;0.895924
5312.000000;0.923446
5311.000000;0.950822
5310.000000;0.977889
5309.000000;1.005168
5308.000000;1.033071
5307.000000;1.061637
5306.000000;1.091002
5305.000000;1.121132
5304.000000;1.151183
5303.000000;1.180309
5302.000000;1.208916
5301.000000;1.237737
5300.000000;1.266108
5299.000000;1.292919
5298.000000;1.318755
5297.000000;1.344852
5296.000000;1.370595
5295.000000;1.394427
5294.000000;1.416644
5293.000000;1.438976
5292.000000;1.461791
5291.000000;1.484056
5290.000000;1.505373
5289.000000;1.525509
5288.000000;1.542912
5287.000000;1.556732
5286.000000;1.569379
5285.000000;1.584008
5284.000000;1.600223
5283.000000;1.615076
5282.000000;1.627293
5281.000000;1.637370
5280.000000;1.644997
5279.000000;1.650128
5278.000000;1.655089
5277.000000;1.661934
5276.000000;1.669211
5275.000000;1.674452
5274.000000;1.678044
5273.000000;1.681654
5272.000000;1.685085
5271.000000;1.687594
5270.000000;1.690133
5269.000000;1.693220
5268.000000;1.694931
5267.000000;1.694418
5266.000000;1.694664
5265.000000;1.698255
5264.000000;1.703012
5263.000000;1.705260
5262.000000;1.705380
5261.000000;1.706048
5260.000000;1.707448
5259.000000;1.708158
5258.000000;1.708235
5257.000000;1.708181
5256.000000;1.707114
5255.000000;1.704791
5254.000000;1.703376
5253.000000;1.704330
5252.000000;1.705837
5251.000000;1.705892
5250.000000;1.705613
5249.000000;1.706716
5248.000000;1.707758
5247.000000;1.706676
5246.000000;1.705191
5245.000000;1.706553
5244.000000;1.710815
5243.000000;1.715316
5242.000000;1.717946
5241.000000;1.717676
5240.000000;1.714092
5239.000000;1.708973
5238.000000;1.705996
5237.000000;1.706515
5236.000000;1.707873
5235.000000;1.707730
5234.000000;1.707633
5233.000000;1.709866
5232.000000;1.713523
5231.000000;1.716625
5230.000000;1.719471
5229.000000;1.722491
5228.000000;1.723458
5227.000000;1.720744
5226.000000;1.716908
5225.000000;1.715273
5224.000000;1.715341
5223.000000;1.714986
5222.000000;1.714692
5221.000000;1.715798
5220.000000;1.717042
5219.000000;1.716630
5218.000000;1.715838
5217.000000;1.717013
5216.000000;1.719478
5215.000000;1.720650
5214.000000;1.719918
5213.000000;1.718161
5212.000000;1.715190
5211.000000;1.711083
5210.000000;1.708259
5209.000000;1.709049
5208.000000;1.712403
5207.000000;1.715355
5206.000000;1.716739
5205.000000;1.717098
5204.000000;1.716345
5203.000000;1.714390
5202.000000;1.712789
5201.000000;1.713241
5200.000000;1.715464
5199.000000;1.718203
5198.000000;1.720897
5197.000000;1.722689
5196.000000;1.721786
5195.000000;1.718132
5194.000000;1.714589
5193.000000;1.713277
5192.000000;1.713127
5191.000000;1.712883
5190.000000;1.713859
5189.000000;1.717282
5188.000000;1.721194
5187.000000;1.722654
5186.000000;1.721501
5185.000000;1.719501
5184.000000;1.717567
5183.000000;1.716160
5182.000000;1.716411
5181.000000;1.718332
5180.000000;1.719619
5179.000000;1.718539
5178.000000;1.716456
5177.000000;1.715388
5176.000000;1.715266
5175.000000;1.715455
5174.000000;1.716279
5173.000000;1.716994
5172.000000;1.715074
5171.000000;1.710189
5170.000000;1.706311
5169.000000;1.707071
5168.000000;1.711294
5167.000000;1.715415
5166.000000;1.718249
5165.000000;1.720803
5164.000000;1.723359
5163.000000;1.725811
5162.000000;1.729052
5161.000000;1.732950
5160.000000;1.734621
5159.000000;1.731900
5158.000000;1.726858
5157.000000;1.722984
5156.000000;1.721126
5155.000000;1.720674
5154.000000;1.722219
5153.000000;1.725869
5152.000000;1.728813
5151.000000;1.727912
5150.000000;1.723686
5149.000000;1.718863
5148.000000;1.714509
5147.000000;1.710534
5146.000000;1.708310
5145.000000;1.709516
5144.000000;1.713140
5143.000000;1.716308
5142.000000;1.717798
5141.000000;1.718614
5140.000000;1.719686
5139.000000;1.721088
5138.000000;1.722878
5137.000000;1.724803
5136.000000;1.725938
5135.000000;1.726131
5134.000000;1.726683
5133.000000;1.728133
5132.000000;1.728930
5131.000000;1.727955
5130.000000;1.726581
5129.000000;1.726322
5128.000000;1.726529
5127.000000;1.726284
5126.000000;1.726417
5125.000000;1.727408
5124.000000;1.727346
5123.000000;1.724593
5122.000000;1.720797
5121.000000;1.718597
5120.000000;1.717912
5119.000000;1.716980
5118.000000;1.715683
5117.000000;1.715398
5116.000000;1.716659
5115.000000;1.719153
5114.000000;1.722967
5113.000000;1.727811
5112.000000;1.732023
5111.000000;1.734387
5110.000000;1.735813
5109.000000;1.737249
5108.000000;1.737312
5107.000000;1.734155
5106.000000;1.728577
5105.000000;1.723323
5104.000000;1.720383
5103.000000;1.720385
5102.000000;1.722932
5101.000000;1.725982
5100.000000;1.726749
5099.000000;1.725085
5098.000000;1.724146
5097.000000;1.726027
5096.000000;1.728928
5095.000000;1.730473
5094.000000;1.731545
5093.000000;1.733962
5092.000000;1.736250
5091.000000;1.735081
5090.000000;1.730142
5089.000000;1.724633
5088.000000;1.721441
5087.000000;1.721079
5086.000000;1.722457
5085.000000;1.723779
5084.000000;1.723692
5083.000000;1.723174
5082.000000;1.724805
5081.000000;1.728703
5080.000000;1.731122
5079.000000;1.729250
5078.000000;1.725471
5077.000000;1.724030
5076.000000;1.725450
5075.000000;1.726925
5074.000000;1.726939
5073.000000;1.726851
5072.000000;1.728446
5071.000000;1.732186
5070.000000;1.737132
5069.000000;1.740873
5068.000000;1.740813
5067.000000;1.737391
5066.000000;1.734327
5065.000000;1.733796
5064.000000;1.733315
5063.000000;1.729588
5062.000000;1.723869
5061.000000;1.720557
5060.000000;1.721672
5059.000000;1.725278
5058.000000;1.728368
5057.000000;1.729238
5056.000000;1.727785
5055.000000;1.725563
5054.000000;1.724985
5053.000000;1.726816
5052.000000;1.728998
5051.000000;1.729234
5050.000000;1.727821
5049.000000;1.726364
5048.000000;1.725166
5047.000000;1.724086
5046.000000;1.724453
5045.000000;1.727453
5044.000000;1.731384
5043.000000;1.732901
5042.000000;1.730844
5041.000000;1.726902
5040.000000;1.723031
5039.000000;1.720371
5038.000000;1.719780
5037.000000;1.721044
5036.000000;1.722090
5035.000000;1.721058
5034.000000;1.718807
5033.000000;1.717514
5032.000000;1.717594
5031.000000;1.717984
5030.000000;1.718604
5029.000000;1.720221
5028.000000;1.722171
5027.000000;1.722467
5026.000000;1.720406
5025.000000;1.717248
5024.000000;1.714331
5023.000000;1.712169
5022.000000;1.711104
5021.000000;1.711308
5020.000000;1.712124
5019.000000;1.712637
5018.000000;1.712819
5017.000000;1.713073
5016.000000;1.713034
5015.000000;1.712055
5014.000000;1.710593
5013.000000;1.709797
5012.000000;1.709923
5011.000000;1.710256
5010.000000;1.710271
5009.000000;1.709904
5008.000000;1.708974
5007.000000;1.707128
5006.000000;1.704296
5005.000000;1.700619
5004.000000;1.696539
5003.000000;1.693107
5002.000000;1.691130
5001.000000;1.689806
5000.000000;1.687509
4999.000000;1.684661
4998.000000;1.683988
4997.000000;1.686868
4996.000000;1.691090
4995.000000;1.693502
4994.000000;1.693645
4993.000000;1.693151
4992.000000;1.692846
4991.000000;1.692488
4990.000000;1.692303
4989.000000;1.692703
4988.000000;1.692933
4987.000000;1.691679
4986.000000;1.688805
4985.000000;1.684997
4984.000000;1.680226
4983.000000;1.674354
4982.000000;1.668705
4981.000000;1.665356
4980.000000;1.664910
4979.000000;1.665860
4978.000000;1.666096
4977.000000;1.664595
4976.000000;1.661896
4975.000000;1.659312
4974.000000;1.657539
4973.000000;1.655905
4972.000000;1.653405
4971.000000;1.650325
4970.000000;1.647861
4969.000000;1.646255
4968.000000;1.644558
4967.000000;1.642366
4966.000000;1.640291
4965.000000;1.638331
4964.000000;1.635539
4963.000000;1.632065
4962.000000;1.629753
4961.000000;1.629731
4960.000000;1.630808
4959.000000;1.631202
4958.000000;1.630629
4957.000000;1.629597
4956.000000;1.627967
4955.000000;1.625365
4954.000000;1.621978
4953.000000;1.618051
4952.000000;1.613759
4951.000000;1.610168
4950.000000;1.608635
4949.000000;1.608394
4948.000000;1.606461
4947.000000;1.601286
4946.000000;1.594895
4945.000000;1.589965
4944.000000;1.586589
4943.000000;1.583414
4942.000000;1.580291
4941.000000;1.577811
4940.000000;1.575438
4939.000000;1.572193
4938.000000;1.568565
4937.000000;1.565905
4936.000000;1.564368
4935.000000;1.562862
4934.000000;1.560532
4933.000000;1.557143
4932.000000;1.552617
4931.000000;1.547459
4930.000000;1.542965
4929.000000;1.539823
4928.000000;1.537150
4927.000000;1.533883
4926.000000;1.530220
4925.000000;1.526552
4924.000000;1.522133
4923.000000;1.516415
4922.000000;1.510751
4921.000000;1.506979
4920.000000;1.504881
4919.000000;1.502622
4918.000000;1.499351
4917.000000;1.495792
4916.000000;1.492600
4915.000000;1.489785
4914.000000;1.487551
4913.000000;1.485999
4912.000000;1.483989
4911.000000;1.479907
4910.000000;1.473852
4909.000000;1.467603
4908.000000;1.462275
4907.000000;1.457465
4906.000000;1.452880
4905.000000;1.449138
4904.000000;1.446214
4903.000000;1.442519
4902.000000;1.436785
4901.000000;1.430104
4900.000000;1.424777
4899.000000;1.421462
4898.000000;1.418493
4897.000000;1.414179
4896.000000;1.408997
4895.000000;1.404871
4894.000000;1.402600
4893.000000;1.400785
4892.000000;1.397521
4891.000000;1.392667
4890.000000;1.387693
4889.000000;1.383503
4888.000000;1.379339
4887.000000;1.374127
4886.000000;1.368163
4885.000000;1.362775
4884.000000;1.358637
4883.000000;1.355043
4882.000000;1.350871
4881.000000;1.345844
4880.000000;1.340700
4879.000000;1.336284
4878.000000;1.332623
4877.000000;1.328990
4876.000000;1.324905
4875.000000;1.320743
4874.000000;1.317064
4873.000000;1.313626
4872.000000;1.309564
4871.000000;1.304436
4870.000000;1.298579
4869.000000;1.292559
4868.000000;1.286873
4867.000000;1.282027
4866.000000;1.278135
4865.000000;1.274352
4864.000000;1.269546
4863.000000;1.263787
4862.000000;1.258393
4861.000000;1.254199
4860.000000;1.250540
4859.000000;1.246310
4858.000000;1.241368
4857.000000;1.236359
4856.000000;1.231725
4855.000000;1.227441
4854.000000;1.223285
4853.000000;1.218852
4852.000000;1.213644
4851.000000;1.207652
4850.000000;1.201595
4849.000000;1.196219
4848.000000;1.191601
4847.000000;1.187406
4846.000000;1.183420
4845.000000;1.179532
4844.000000;1.175549
4843.000000;1.171393
4842.000000;1.167155
4841.000000;1.162711
4840.000000;1.157670
4839.000000;1.152058
4838.000000;1.146602
4837.000000;1.141924
4836.000000;1.137807
4835.000000;1.133652
4834.000000;1.129292
4833.000000;1.124911
4832.000000;1.120457
4831.000000;1.115677
4830.000000;1.110551
4829.000000;1.105282
4828.000000;1.099979
4827.000000;1.094750
4826.000000;1.089899
4825.000000;1.085675
4824.000000;1.081927
4823.000000;1.078305
4822.000000;1.074610
4821.000000;1.070634
4820.000000;1.065956
4819.000000;1.060419
4818.000000;1.054675
4817.000000;1.049713
4816.000000;1.045798
4815.000000;1.042213
4814.000000;1.038166
4813.000000;1.033640
4812.000000;1.029177
4811.000000;1.025067
4810.000000;1.020975
4809.000000;1.016417
4808.000000;1.011458
4807.000000;1.006754
4806.000000;1.002797
4805.000000;0.999278
4804.000000;0.995497
4803.000000;0.991309
4802.000000;0.987231
4801.000000;0.983546
4800.000000;0.979805
4799.000000;0.975462
4798.000000;0.970607
4797.000000;0.965705
4796.000000;0.960921
4795.000000;0.956136
4794.000000;0.951398
4793.000000;0.946922
4792.000000;0.942710
4791.000000;0.938572
4790.000000;0.934499
4789.000000;0.930664
4788.000000;0.927044
4787.000000;0.923353
4786.000000;0.919415
4785.000000;0.915392
4784.000000;0.911556
4783.000000;0.907965
4782.000000;0.904424
4781.000000;0.900667
4780.000000;0.896555
4779.000000;0.892169
4778.000000;0.887738
4777.000000;0.883459
4776.000000;0.879383
4775.000000;0.875455
4774.000000;0.871582
4773.000000;0.867680
4772.000000;0.863780
4771.000000;0.860058
4770.000000;0.856582
4769.000000;0.853047
4768.000000;0.849040
4767.000000;0.844663
4766.000000;0.840559
4765.000000;0.837162
4764.000000;0.834148
4763.000000;0.830843
4762.000000;0.826966
4761.000000;0.822750
4760.000000;0.818521
4759.000000;0.814472
4758.000000;0.810733
4757.000000;0.807336
4756.000000;0.804116
4755.000000;0.800844
4754.000000;0.797454
4753.000000;0.794008
4752.000000;0.790489
4751.000000;0.786828
4750.000000;0.783099
4749.000000;0.779505
4748.000000;0.776148
4747.000000;0.772955
4746.000000;0.769776
4745.000000;0.766474
4744.000000;0.762961
4743.000000;0.759297
4742.000000;0.755689
4741.000000;0.752274
4740.000000;0.748952
4739.000000;0.745560
4738.000000;0.742146
4737.000000;0.738901
4736.000000;0.735887
4735.000000;0.732988
4734.000000;0.730130
4733.000000;0.727330
4732.000000;0.724528
4731.000000;0.721532
4730.000000;0.718210
4729.000000;0.714640
4728.000000;0.711034
4727.000000;0.707555
4726.000000;0.704231
4725.000000;0.700996
4724.000000;0.697784
4723.000000;0.694622
4722.000000;0.691585
4721.000000;0.688652
4720.000000;0.685697
4719.000000;0.682658
4718.000000;0.679647
4717.000000;0.676801
4716.000000;0.674096
4715.000000;0.671416
4714.000000;0.668717
4713.000000;0.666038
4712.000000;0.663390
4711.000000;0.660758
4710.000000;0.658164
4709.000000;0.655623
4708.000000;0.653069
4707.000000;0.650430
4706.000000;0.647740
4705.000000;0.645077
4704.000000;0.642437
4703.000000;0.639786
4702.000000;0.637188
4701.000000;0.634753
4700.000000;0.632430
4699.000000;0.630006
4698.000000;0.627349
4697.000000;0.624562
4696.000000;0.621861
4695.000000;0.619364
4694.000000;0.617033
4693.000000;0.614769
4692.000000;0.612517
4691.000000;0.610278
4690.000000;0.608057
4689.000000;0.605824
4688.000000;0.603576
4687.000000;0.601407
4686.000000;0.599422
4685.000000;0.597545
4684.000000;0.595518
4683.000000;0.593164
4682.000000;0.590582
4681.000000;0.588016
4680.000000;0.585602
4679.000000;0.583339
4678.000000;0.581225
4677.000000;0.579271
4676.000000;0.577414
4675.000000;0.575541
4674.000000;0.573608
4673.000000;0.571672
4672.000000;0.569797
4671.000000;0.568004
4670.000000;0.566283
4669.000000;0.564572
4668.000000;0.562750
4667.000000;0.560747
4666.000000;0.558662
4665.000000;0.556687
4664.000000;0.554913
4663.000000;0.553267
4662.000000;0.551634
4661.000000;0.549958
4660.000000;0.548233
4659.000000;0.546468
4658.000000;0.544689
4657.000000;0.542926
4656.000000;0.541178
4655.000000;0.539437
4654.000000;0.537727
4653.000000;0.536090
4652.000000;0.534530
4651.000000;0.533017
4650.000000;0.531514
4649.000000;0.529984
4648.000000;0.528384
4647.000000;0.526737
4646.000000;0.525157
4645.000000;0.523722
4644.000000;0.522354
4643.000000;0.520897
4642.000000;0.519315
4641.000000;0.517740
4640.000000;0.516308
4639.000000;0.515041
4638.000000;0.513887
4637.000000;0.512787
4636.000000;0.511658
4635.000000;0.510407
4634.000000;0.509020
4633.000000;0.507617
4632.000000;0.506351
4631.000000;0.505251
4630.000000;0.504186
4629.000000;0.502985
4628.000000;0.501602
4627.000000;0.500171
4626.000000;0.498905
4625.000000;0.497928
4624.000000;0.497160
4623.000000;0.496388
4622.000000;0.495437
4621.000000;0.494307
4620.000000;0.493146
4619.000000;0.492105
4618.000000;0.491175
4617.000000;0.490179
4616.000000;0.488961
4615.000000;0.487594
4614.000000;0.486340
4613.000000;0.485381
4612.000000;0.484632
4611.000000;0.483856
4610.000000;0.482900
4609.000000;0.481800
4608.000000;0.480702
4607.000000;0.479752
4606.000000;0.479013
4605.000000;0.478420
4604.000000;0.477822
4603.000000;0.477108
4602.000000;0.476308
4601.000000;0.475532
4600.000000;0.474831
4599.000000;0.474151
4598.000000;0.473425
4597.000000;0.472645
4596.000000;0.471868
4595.000000;0.471179
4594.000000;0.470642
4593.000000;0.470247
4592.000000;0.469914
4591.000000;0.469550
4590.000000;0.469095
4589.000000;0.468525
4588.000000;0.467863
4587.000000;0.467201
4586.000000;0.466633
4585.000000;0.466146
4584.000000;0.465633
4583.000000;0.465041
4582.000000;0.464465
4581.000000;0.464037
4580.000000;0.463784
4579.000000;0.463650
4578.000000;0.463583
4577.000000;0.463532
4576.000000;0.463414
4575.000000;0.463181
4574.000000;0.462897
4573.000000;0.462665
4572.000000;0.462499
4571.000000;0.462342
4570.000000;0.462165
4569.000000;0.461979
4568.000000;0.461789
4567.000000;0.461616
4566.000000;0.461561
4565.000000;0.461727
4564.000000;0.462077
4563.000000;0.462446
4562.000000;0.462706
4561.000000;0.462853
4560.000000;0.462922
4559.000000;0.462926
4558.000000;0.462914
4557.000000;0.463024
4556.000000;0.463380
4555.000000;0.463968
4554.000000;0.464622
4553.000000;0.465151
4552.000000;0.465464
4551.000000;0.465621
4550.000000;0.465774
4549.000000;0.466076
4548.000000;0.466605
4547.000000;0.467339
4546.000000;0.468153
4545.000000;0.468863
4544.000000;0.469339
4543.000000;0.469631
4542.000000;0.469922
4541.000000;0.470343
4540.000000;0.470860
4539.000000;0.471373
4538.000000;0.471852
4537.000000;0.472307
4536.000000;0.472724
4535.000000;0.473107
4534.000000;0.473567
4533.000000;0.474237
4532.000000;0.475109
4531.000000;0.476019
4530.000000;0.476793
4529.000000;0.477363
4528.000000;0.477782
4527.000000;0.478193
4526.000000;0.478761
4525.000000;0.479536
4524.000000;0.480390
4523.000000;0.481137
4522.000000;0.481724
4521.000000;0.482235
4520.000000;0.482737
4519.000000;0.483235
4518.000000;0.483774
4517.000000;0.484458
4516.000000;0.485302
4515.000000;0.486154
4514.000000;0.486827
4513.000000;0.487289
4512.000000;0.487677
4511.000000;0.488163
4510.000000;0.488838
4509.000000;0.489694
4508.000000;0.490673
4507.000000;0.491716
4506.000000;0.492765
4505.000000;0.493744
4504.000000;0.494572
4503.000000;0.495250
4502.000000;0.495904
4501.000000;0.496662
4500.000000;0.497514
4499.000000;0.498350
4498.000000;0.499147
4497.000000;0.500048
4496.000000;0.501190
4495.000000;0.502508
4494.000000;0.503759
4493.000000;0.504764
4492.000000;0.505576
4491.000000;0.506408
4490.000000;0.507417
4489.000000;0.508580
4488.000000;0.509791
4487.000000;0.511026
4486.000000;0.512379
4485.000000;0.513930
4484.000000;0.515640
4483.000000;0.517355
4482.000000;0.518897
4481.000000;0.520178
4480.000000;0.521299
4479.000000;0.522525
4478.000000;0.524077
4477.000000;0.525897
4476.000000;0.527696
4475.000000;0.529266
4474.000000;0.530661
4473.000000;0.532041
4472.000000;0.533473
4471.000000;0.534976
4470.000000;0.536652
4469.000000;0.538608
4468.000000;0.540770
4467.000000;0.542900
4466.000000;0.544826
4465.000000;0.546587
4464.000000;0.548344
4463.000000;0.550237
4462.000000;0.552314
4461.000000;0.554534
4460.000000;0.556800
4459.000000;0.559032
4458.000000;0.561204
4457.000000;0.563309
4456.000000;0.565348
4455.000000;0.567402
4454.000000;0.569632
4453.000000;0.572114
4452.000000;0.574711
4451.000000;0.577179
4450.000000;0.579415
4449.000000;0.581512
4448.000000;0.583607
4447.000000;0.585753
4446.000000;0.587920
4445.000000;0.590063
4444.000000;0.592195
4443.000000;0.594455
4442.000000;0.597005
4441.000000;0.599808
4440.000000;0.602559
4439.000000;0.604971
4438.000000;0.607091
4437.000000;0.609236
4436.000000;0.611675
4435.000000;0.614465
4434.000000;0.617511
4433.000000;0.620632
4432.000000;0.623579
4431.000000;0.626201
4430.000000;0.628628
4429.000000;0.631142
4428.000000;0.633832
4427.000000;0.636506
4426.000000;0.638962
4425.000000;0.641226
4424.000000;0.643484
4423.000000;0.645932
4422.000000;0.648738
4421.000000;0.651969
4420.000000;0.655452
4419.000000;0.658790
4418.000000;0.661681
4417.000000;0.664195
4416.000000;0.666689
4415.000000;0.669467
4414.000000;0.672554
4413.000000;0.675749
4412.000000;0.678845
4411.000000;0.681821
4410.000000;0.684841
4409.000000;0.688065
4408.000000;0.691458
4407.000000;0.694835
4406.000000;0.698070
4405.000000;0.701203
4404.000000;0.704352
4403.000000;0.707641
4402.000000;0.711190
4401.000000;0.715054
4400.000000;0.719098
4399.000000;0.723027
4398.000000;0.726606
4397.000000;0.729822
4396.000000;0.732831
4395.000000;0.735807
4394.000000;0.738882
4393.000000;0.742130
4392.000000;0.745578
4391.000000;0.749239
4390.000000;0.753138
4389.000000;0.757214
4388.000000;0.761245
4387.000000;0.764983
4386.000000;0.768402
4385.000000;0.771722
4384.000000;0.775163
4383.000000;0.778788
4382.000000;0.782594
4381.000000;0.786586
4380.000000;0.790650
4379.000000;0.794493
4378.000000;0.797883
4377.000000;0.800946
4376.000000;0.804138
4375.000000;0.807900
4374.000000;0.812342
4373.000000;0.817194
4372.000000;0.821987
4371.000000;0.826352
4370.000000;0.830271
4369.000000;0.834049
4368.000000;0.838007
4367.000000;0.842196
4366.000000;0.846443
4365.000000;0.850620
4364.000000;0.854800
4363.000000;0.859151
4362.000000;0.863726
4361.000000;0.868392
4360.000000;0.872965
4359.000000;0.877416
4358.000000;0.881936
4357.000000;0.886755
4356.000000;0.891868
4355.000000;0.896981
4354.000000;0.901799
4353.000000;0.906350
4352.000000;0.910965
4351.000000;0.915909
4350.000000;0.921098
4349.000000;0.926233
4348.000000;0.931146
4347.000000;0.935968
4346.000000;0.940945
4345.000000;0.946164
4344.000000;0.951477
4343.000000;0.956634
4342.000000;0.961485
4341.000000;0.966130
4340.000000;0.970919
4339.000000;0.976196
4338.000000;0.981963
4337.000000;0.987875
4336.000000;0.993668
4335.000000;0.999461
4334.000000;1.005493
4333.000000;1.011666
4332.000000;1.017612
4331.000000;1.023176
4330.000000;1.028585
4329.000000;1.034136
4328.000000;1.039934
4327.000000;1.045973
4326.000000;1.052176
4325.000000;1.058245
4324.000000;1.063752
4323.000000;1.068607
4322.000000;1.073318
4321.000000;1.078601
4320.000000;1.084794
4319.000000;1.091664
4318.000000;1.098612
4317.000000;1.105009
4316.000000;1.110613
4315.000000;1.115820
4314.000000;1.121374
4313.000000;1.127713
4312.000000;1.134706
4311.000000;1.141987
4310.000000;1.149238
4309.000000;1.156087
4308.000000;1.162186
4307.000000;1.167711
4306.000000;1.173378
4305.000000;1.179558
4304.000000;1.185653
4303.000000;1.190807
4302.000000;1.195102
4301.000000;1.199607
4300.000000;1.205277
4299.000000;1.212217
4298.000000;1.219936
4297.000000;1.227886
4296.000000;1.235615
4295.000000;1.242792
4294.000000;1.249315
4293.000000;1.255373
4292.000000;1.261329
4291.000000;1.267553
4290.000000;1.274202
4289.000000;1.281039
4288.000000;1.287613
4287.000000;1.293815
4286.000000;1.300147
4285.000000;1.307146
4284.000000;1.314658
4283.000000;1.321980
4282.000000;1.328697
4281.000000;1.335053
4280.000000;1.341487
4279.000000;1.348123
4278.000000;1.354829
4277.000000;1.361548
4276.000000;1.368378
4275.000000;1.375377
4274.000000;1.382379
4273.000000;1.388951
4272.000000;1.394667
4271.000000;1.399591
4270.000000;1.404527
4269.000000;1.410657
4268.000000;1.418854
4267.000000;1.429101
4266.000000;1.440263
4265.000000;1.450497
4264.000000;1.458424
4263.000000;1.464212
4262.000000;1.469347
4261.000000;1.475256
4260.000000;1.482286
4259.000000;1.489890
4258.000000;1.497447
4257.000000;1.504810
4256.000000;1.512336
4255.000000;1.520467
4254.000000;1.529008
4253.000000;1.536940
4252.000000;1.543519
4251.000000;1.549516
4250.000000;1.556563
4249.000000;1.565215
4248.000000;1.574281
4247.000000;1.582341
4246.000000;1.589175
4245.000000;1.595384
4244.000000;1.601598
4243.000000;1.608565
4242.000000;1.616947
4241.000000;1.626224
4240.000000;1.634594
4239.000000;1.640968
4238.000000;1.646517
4237.000000;1.653281
4236.000000;1.661682
4235.000000;1.670287
4234.000000;1.677688
4233.000000;1.683786
4232.000000;1.689586
4231.000000;1.696556
4230.000000;1.705734
4229.000000;1.716647
4228.000000;1.727427
4227.000000;1.736765
4226.000000;1.745305
4225.000000;1.754197
4224.000000;1.762997
4223.000000;1.770143
4222.000000;1.775007
4221.000000;1.778542
4220.000000;1.782386
4219.000000;1.788160
4218.000000;1.796960
4217.000000;1.808221
4216.000000;1.819475
4215.000000;1.828695
4214.000000;1.836452
4213.000000;1.844184
4212.000000;1.851249
4211.000000;1.856054
4210.000000;1.859773
4209.000000;1.866386
4208.000000;1.878307
4207.000000;1.893518
4206.000000;1.907626
4205.000000;1.917911
4204.000000;1.924663
4203.000000;1.929538
4202.000000;1.934217
4201.000000;1.940239
4200.000000;1.948369
4199.000000;1.957760
4198.000000;1.966576
4197.000000;1.973945
4196.000000;1.981121
4195.000000;1.990373
4194.000000;2.002699
4193.000000;2.017078
4192.000000;2.031942
4191.000000;2.046205
4190.000000;2.057888
4189.000000;2.063330
4188.000000;2.061072
4187.000000;2.056124
4186.000000;2.056635
4185.000000;2.066011
4184.000000;2.079915
4183.000000;2.091366
4182.000000;2.098242
4181.000000;2.103889
4180.000000;2.111336
4179.000000;2.120294
4178.000000;2.129074
4177.000000;2.136821
4176.000000;2.144437
4175.000000;2.154197
4174.000000;2.166892
4173.000000;2.178713
4172.000000;2.184158
4171.000000;2.184251
4170.000000;2.187723
4169.000000;2.201238
4168.000000;2.221582
4167.000000;2.239472
4166.000000;2.249924
4165.000000;2.254674
4164.000000;2.256013
4163.000000;2.254367
4162.000000;2.251502
4161.000000;2.251093
4160.000000;2.254036
4159.000000;2.258518
4158.000000;2.265617
4157.000000;2.278439
4156.000000;2.294607
4155.000000;2.304121
4154.000000;2.300103
4153.000000;2.289678
4152.000000;2.286678
4151.000000;2.296924
4150.000000;2.313952
4149.000000;2.326617
4148.000000;2.331156
4147.000000;2.334089
4146.000000;2.342333
4145.000000;2.355922
4144.000000;2.370221
4143.000000;2.380648
4142.000000;2.386873
4141.000000;2.393803
4140.000000;2.405520
4139.000000;2.420060
4138.000000;2.430750
4137.000000;2.430951
4136.000000;2.422622
4135.000000;2.419007
4134.000000;2.432932
4133.000000;2.465280
4132.000000;2.501194
4131.000000;2.518300
4130.000000;2.509454
4129.000000;2.491682
4128.000000;2.485664
4127.000000;2.496919
4126.000000;2.514927
4125.000000;2.525512
4124.000000;2.527344
4123.000000;2.532137
4122.000000;2.545278
4121.000000;2.554537
4120.000000;2.547309
4119.000000;2.531106
4118.000000;2.523769
4117.000000;2.535104
4116.000000;2.560349
4115.000000;2.586042
4114.000000;2.600642
4113.000000;2.598341
4112.000000;2.581720
4111.000000;2.564096
4110.000000;2.558856
4109.000000;2.566215
4108.000000;2.577676
4107.000000;2.590471
4106.000000;2.607442
4105.000000;2.628825
4104.000000;2.649434
4103.000000;2.661669
4102.000000;2.663720
4101.000000;2.662236
4100.000000;2.666414
4099.000000;2.680231
4098.000000;2.695916
4097.000000;2.698916
4096.000000;2.685813
4095.000000;2.673262
4094.000000;2.683547
4093.000000;2.718512
4092.000000;2.755098
4091.000000;2.772091
4090.000000;2.758737
4089.000000;2.722824
4088.000000;2.694100
4087.000000;2.693130
4086.000000;2.726814
4085.000000;2.790125
4084.000000;2.853745
4083.000000;2.879866
4082.000000;2.872475
4081.000000;2.861038
4080.000000;2.847708
4079.000000;2.816312
4078.000000;2.770446
4077.000000;2.733753
4076.000000;2.717961
4075.000000;2.711537
4074.000000;2.699434
4073.000000;2.683914
4072.000000;2.679228
4071.000000;2.694565
4070.000000;2.726954
4069.000000;2.766444
4068.000000;2.796067
4067.000000;2.791645
4066.000000;2.765452
4065.000000;2.750176
4064.000000;2.749750
4063.000000;2.756702
4062.000000;2.771158
4061.000000;2.794055
4060.000000;2.824826
4059.000000;2.860869
4058.000000;2.894406
4057.000000;2.915516
4056.000000;2.919241
4055.000000;2.909530
4054.000000;2.897790
4053.000000;2.888720
4052.000000;2.857678
4051.000000;2.796151
4050.000000;2.754924
4049.000000;2.774502
4048.000000;2.846148
4047.000000;2.917206
4046.000000;2.953910
4045.000000;2.964604
4044.000000;2.941375
4043.000000;2.899437
4042.000000;2.878410
4041.000000;2.897530
4040.000000;2.938085
4039.000000;2.956614
4038.000000;2.945696
4037.000000;2.918140
4036.000000;2.879046
4035.000000;2.845788
4034.000000;2.830323
4033.000000;2.825641
4032.000000;2.819739
4031.000000;2.815899
4030.000000;2.833526
4029.000000;2.889153
4028.000000;2.953729
4027.000000;2.946498
4026.000000;2.884630
4025.000000;2.843777
4024.000000;2.844977
4023.000000;2.894072
4022.000000;2.989254
4021.000000;3.095099
4020.000000;3.142426
4019.000000;3.099359
4018.000000;3.022161
4017.000000;2.978325
4016.000000;2.985362
4015.000000;3.025572
4014.000000;3.060174
4013.000000;3.047538
4012.000000;2.983065
4011.000000;2.901320
4010.000000;2.842217
4009.000000;2.825862
4008.000000;2.848835
4007.000000;2.897997
4006.000000;2.970098
4005.000000;3.066587
4004.000000;3.148730
4003.000000;3.143672
4002.000000;3.080157
4001.000000;3.032839
4000.000000;3.022009
3999.000000;3.044036
3998.000000;3.104057
3997.000000;3.208703
3996.000000;3.327030
3995.000000;3.380127
3994.000000;3.321494
3993.000000;3.213779
3992.000000;3.134653
3991.000000;3.084345
3990.000000;3.027140
3989.000000;2.979655
3988.000000;2.979439
3987.000000;3.029309
3986.000000;3.099545
3985.000000;3.149698
3984.000000;3.160801
3983.000000;3.171216
3982.000000;3.240657
3981.000000;3.370086
3980.000000;3.443421
3979.000000;3.364804
3978.000000;3.265611
3977.000000;3.235686
3976.000000;3.283583
3975.000000;3.409367
3974.000000;3.664562
3973.000000;3.876159
3972.000000;3.647704
3971.000000;3.447390
3970.000000;3.287396
3969.000000;3.155689
3968.000000;3.075766
3967.000000;3.061729
3966.000000;3.119766
3965.000000;3.216265
3964.000000;3.251125
3963.000000;3.203385
3962.000000;3.167098
3961.000000;3.178471
3960.000000;3.197642
3959.000000;3.168868
3958.000000;3.108889
3957.000000;3.076746
3956.000000;3.105125
3955.000000;3.198437
3954.000000;3.313825
3953.000000;3.366570
3952.000000;3.401565
3951.000000;3.509491
3950.000000;3.573395
3949.000000;3.456397
3948.000000;3.365099
3947.000000;3.348356
3946.000000;3.369827
3945.000000;3.395687
3944.000000;3.397419
3943.000000;3.356541
3942.000000;3.274568
3941.000000;3.166470
3940.000000;3.062496
3939.000000;2.999336
3938.000000;2.997279
3937.000000;3.054818
3936.000000;3.147070
3935.000000;3.238822
3934.000000;3.318582
3933.000000;3.383404
3932.000000;3.401058
3931.000000;3.361377
3930.000000;3.320227
3929.000000;3.333500
3928.000000;3.427548
3927.000000;3.594905
3926.000000;3.839198
3925.000000;4.184756
3924.000000;3.897134
3923.000000;3.549487
3922.000000;3.438845
3921.000000;3.471146
3920.000000;3.705604
3919.000000;3.944646
3918.000000;3.628999
3917.000000;3.573212
3916.000000;3.633063
3915.000000;3.396115
3914.000000;3.191335
3913.000000;3.115440
3912.000000;3.080211
3911.000000;3.041867
3910.000000;2.998154
3909.000000;2.970193
3908.000000;2.973104
3907.000000;3.015842
3906.000000;3.123760
3905.000000;3.410893
3904.000000;3.854676
3903.000000;3.485538
3902.000000;3.250575
3901.000000;3.241128
3900.000000;3.390253
3899.000000;3.641919
3898.000000;3.952591
3897.000000;3.995510
3896.000000;3.630813
3895.000000;3.523186
3894.000000;3.523949
3893.000000;3.463674
3892.000000;3.402213
3891.000000;3.437283
3890.000000;3.596346
3889.000000;3.801850
3888.000000;3.823041
3887.000000;3.627116
3886.000000;3.377509
3885.000000;3.192370
3884.000000;3.123099
3883.000000;3.216179
3882.000000;3.444070
3881.000000;3.757510
3880.000000;3.770155
3879.000000;3.342919
3878.000000;3.120638
3877.000000;3.086692
3876.000000;3.172686
3875.000000;3.282399
3874.000000;3.373904
3873.000000;3.409565
3872.000000;3.234184
3871.000000;3.126841
3870.000000;3.192693
3869.000000;3.360039
3868.000000;3.421458
3867.000000;3.388321
3866.000000;3.444013
3865.000000;3.547235
3864.000000;3.424749
3863.000000;3.214517
3862.000000;3.107734
3861.000000;3.086290
3860.000000;3.138851
3859.000000;3.252966
3858.000000;3.373334
3857.000000;3.276515
3856.000000;3.138700
3855.000000;3.215437
3854.000000;3.416962
3853.000000;3.481331
3852.000000;3.405756
3851.000000;3.347731
3850.000000;3.369126
3849.000000;3.462172
3848.000000;3.598342
3847.000000;3.683938
3846.000000;3.521144
3845.000000;3.346318
3844.000000;3.339300
3843.000000;3.373333
3842.000000;3.296362
3841.000000;3.234513
3840.000000;3.199426
3839.000000;3.154286
3838.000000;3.147958
3837.000000;3.256080
3836.000000;3.648714
3835.000000;4.213212
3834.000000;3.888626
3833.000000;3.856064
3832.000000;3.870876
3831.000000;3.844113
3830.000000;3.785037
3829.000000;3.632706
3828.000000;3.520705
3827.000000;3.625467
3826.000000;3.984000
3825.000000;3.565440
3824.000000;3.371789
3823.000000;3.624659
3822.000000;4.355601
3821.000000;3.712029
3820.000000;3.511255
3819.000000;3.547573
3818.000000;3.801474
3817.000000;3.863851
3816.000000;3.552628
3815.000000;3.527627
3814.000000;3.660965
3813.000000;3.845104
3812.000000;3.761064
3811.000000;3.503587
3810.000000;3.305087
3809.000000;3.269502
3808.000000;3.400330
3807.000000;3.556272
3806.000000;3.567788
3805.000000;3.396800
3804.000000;3.260347
3803.000000;3.268416
3802.000000;3.391651
3801.000000;3.585610
3800.000000;3.778829
3799.000000;3.704224
3798.000000;3.511918
3797.000000;3.442029
3796.000000;3.569685
3795.000000;3.933028
3794.000000;3.760120
3793.000000;3.475886
3792.000000;3.396006
3791.000000;3.453276
3790.000000;3.639936
3789.000000;3.901136
3788.000000;4.022636
3787.000000;3.733218
3786.000000;3.484222
3785.000000;3.356294
3784.000000;3.302444
3783.000000;3.313852
3782.000000;3.479563
3781.000000;3.851191
3780.000000;3.687347
3779.000000;3.469840
3778.000000;3.469403
3777.000000;3.571582
3776.000000;3.898874
3775.000000;3.815178
3774.000000;3.413033
3773.000000;3.202093
3772.000000;3.116206
3771.000000;3.131979
3770.000000;3.233776
3769.000000;3.415427
3768.000000;3.539436
3767.000000;3.549831
3766.000000;3.591188
3765.000000;3.683901
3764.000000;3.776519
3763.000000;3.662543
3762.000000;3.573108
3761.000000;3.468434
3760.000000;3.302592
3759.000000;3.222998
3758.000000;3.254950
3757.000000;3.618073
3756.000000;4.047230
3755.000000;3.455378
3754.000000;3.447570
3753.000000;3.913427
3752.000000;3.995639
3751.000000;3.550670
3750.000000;3.438071
3749.000000;3.494024
3748.000000;3.839300
3747.000000;3.479531
3746.000000;3.288831
3745.000000;3.360867
3744.000000;3.350745
3743.000000;3.321109
3742.000000;3.310300
3741.000000;3.274462
3740.000000;3.134703
3739.000000;3.081788
3738.000000;3.202014
3737.000000;3.466513
3736.000000;3.505443
3735.000000;3.616022
3734.000000;3.835076
3733.000000;3.530385
3732.000000;3.535121
3731.000000;3.714757
3730.000000;3.648110
3729.000000;3.421327
3728.000000;3.266625
3727.000000;3.206706
3726.000000;3.188505
3725.000000;3.184147
3724.000000;3.197084
3723.000000;3.212768
3722.000000;3.226554
3721.000000;3.286339
3720.000000;3.432033
3719.000000;3.696904
3718.000000;3.696267
3717.000000;3.432321
3716.000000;3.336676
3715.000000;3.566420
3714.000000;3.697589
3713.000000;3.614710
3712.000000;3.992869
3711.000000;3.702235
3710.000000;3.468332
3709.000000;3.532919
3708.000000;3.681966
3707.000000;3.772727
3706.000000;3.670948
3705.000000;3.546063
3704.000000;3.412398
3703.000000;3.317438
3702.000000;3.281018
3701.000000;3.307165
3700.000000;3.402833
3699.000000;3.572204
3698.000000;3.811538
3697.000000;4.090726
3696.000000;4.294474
3695.000000;4.142511
3694.000000;3.839090
3693.000000;3.509102
3692.000000;3.285553
3691.000000;3.188657
3690.000000;3.242831
3689.000000;3.431494
3688.000000;3.768968
3687.000000;4.501971
3686.000000;3.889410
3685.000000;3.485894
3684.000000;3.357836
3683.000000;3.400850
3682.000000;3.552526
3681.000000;3.595006
3680.000000;3.458646
3679.000000;3.301841
3678.000000;3.258260
3677.000000;3.146115
3676.000000;3.062950
3675.000000;3.134267
3674.000000;3.178686
3673.000000;3.105244
3672.000000;3.102109
3671.000000;3.193216
3670.000000;3.307916
3669.000000;3.451748
3668.000000;3.675082
3667.000000;3.868102
3666.000000;3.655391
3665.000000;3.397162
3664.000000;3.237553
3663.000000;3.171470
3662.000000;3.199198
3661.000000;3.248216
3660.000000;3.187332
3659.000000;3.113300
3658.000000;3.098508
3657.000000;3.122640
3656.000000;3.144115
3655.000000;3.272350
3654.000000;3.684034
3653.000000;3.370575
3652.000000;3.178342
3651.000000;3.318772
3650.000000;3.805972
3649.000000;4.048406
3648.000000;3.562419
3647.000000;3.578672
3646.000000;3.824818
3645.000000;4.071701
3644.000000;3.667287
3643.000000;3.407491
3642.000000;3.372732
3641.000000;3.432588
3640.000000;3.608266
3639.000000;4.210438
3638.000000;3.970090
3637.000000;3.513174
3636.000000;3.401836
3635.000000;3.370462
3634.000000;3.247824
3633.000000;3.018701
3632.000000;2.896842
3631.000000;2.917752
3630.000000;3.041771
3629.000000;3.219933
3628.000000;3.364484
3627.000000;3.435097
3626.000000;3.467167
3625.000000;3.466930
3624.000000;3.416602
3623.000000;3.428213
3622.000000;3.537556
3621.000000;3.578502
3620.000000;3.563278
3619.000000;3.599995
3618.000000;3.602181
3617.000000;3.550102
3616.000000;3.514672
3615.000000;3.591338
3614.000000;3.755627
3613.000000;3.553127
3612.000000;3.341470
3611.000000;3.310516
3610.000000;3.409653
3609.000000;3.797005
3608.000000;4.006161
3607.000000;3.560315
3606.000000;3.428268
3605.000000;3.397658
3604.000000;3.384073
3603.000000;3.421835
3602.000000;3.562242
3601.000000;3.914067
3600.000000;4.186238
3599.000000;4.134235
3598.000000;4.395727
3597.000000;4.105860
3596.000000;3.758985
3595.000000;3.944073
3594.000000;3.998890
3593.000000;3.356378
3592.000000;3.101182
3591.000000;3.045316
3590.000000;3.241098
3589.000000;3.831736
3588.000000;3.623942
3587.000000;3.442597
3586.000000;3.568175
3585.000000;3.748140
3584.000000;3.973043
3583.000000;3.982823
3582.000000;3.798266
3581.000000;3.702698
3580.000000;3.670983
3579.000000;3.833506
3578.000000;4.085953
3577.000000;3.647078
3576.000000;3.443515
3575.000000;3.456727
3574.000000;3.477153
3573.000000;3.438532
3572.000000;3.539993
3571.000000;3.832549
3570.000000;4.089487
3569.000000;3.937935
3568.000000;3.477481
3567.000000;3.283820
3566.000000;3.236885
3565.000000;3.340243
3564.000000;3.726855
3563.000000;3.496217
3562.000000;3.193854
3561.000000;3.155905
3560.000000;3.205071
3559.000000;3.318639
3558.000000;3.522929
3557.000000;3.980411
3556.000000;3.945510
3555.000000;3.680722
3554.000000;3.886214
3553.000000;3.835430
3552.000000;3.462748
3551.000000;3.367963
3550.000000;3.480929
3549.000000;3.815225
3548.000000;4.250522
3547.000000;3.778738
3546.000000;3.474275
3545.000000;3.365261
3544.000000;3.361363
3543.000000;3.405667
3542.000000;3.463396
3541.000000;3.553674
3540.000000;3.632759
3539.000000;3.587440
3538.000000;3.476256
3537.000000;3.422152
3536.000000;3.464835
3535.000000;3.536579
3534.000000;3.520225
3533.000000;3.510042
3532.000000;3.508128
3531.000000;3.468141
3530.000000;3.486277
3529.000000;3.571153
3528.000000;3.645737
3527.000000;3.582964
3526.000000;3.451468
3525.000000;3.376921
3524.000000;3.362156
3523.000000;3.387628
3522.000000;3.444701
3521.000000;3.511598
3520.000000;3.591235
3519.000000;3.623664
3518.000000;3.422195
3517.000000;3.219971
3516.000000;3.160573
3515.000000;3.238541
3514.000000;3.434469
3513.000000;3.526577
3512.000000;3.473975
3511.000000;3.438543
3510.000000;3.437068
3509.000000;3.410442
3508.000000;3.483169
3507.000000;3.914248
3506.000000;3.704950
3505.000000;3.416447
3504.000000;3.481519
3503.000000;3.612510
3502.000000;3.553728
3501.000000;3.468956
3500.000000;3.500757
3499.000000;3.573233
3498.000000;3.640092
3497.000000;3.859280
3496.000000;3.806420
3495.000000;3.401979
3494.000000;3.243417
3493.000000;3.204701
3492.000000;3.203898
3491.000000;3.252474
3490.000000;3.410720
3489.000000;3.652749
3488.000000;3.637463
3487.000000;3.574491
3486.000000;3.728363
3485.000000;4.346418
3484.000000;4.599274
3483.000000;3.972071
3482.000000;3.780820
3481.000000;3.624671
3480.000000;3.578051
3479.000000;3.695460
3478.000000;3.702410
3477.000000;3.490896
3476.000000;3.392762
3475.000000;3.389128
3474.000000;3.348253
3473.000000;3.302172
3472.000000;3.277903
3471.000000;3.302860
3470.000000;3.393243
3469.000000;3.693605
3468.000000;4.162245
3467.000000;3.736235
3466.000000;3.628656
3465.000000;3.673952
3464.000000;3.629734
3463.000000;3.578575
3462.000000;3.569136
3461.000000;3.625512
3460.000000;3.644161
3459.000000;3.646205
3458.000000;3.752327
3457.000000;3.966023
3456.000000;3.985804
3455.000000;3.658068
3454.000000;3.439676
3453.000000;3.388436
3452.000000;3.496473
3451.000000;3.904336
3450.000000;4.181216
3449.000000;3.873373
3448.000000;3.938713
3447.000000;3.983451
3446.000000;3.771625
3445.000000;3.635443
3444.000000;3.731560
3443.000000;3.855697
3442.000000;3.525693
3441.000000;3.348744
3440.000000;3.351289
3439.000000;3.468624
3438.000000;3.717172
3437.000000;4.130633
3436.000000;4.048230
3435.000000;3.680611
3434.000000;3.856856
3433.000000;3.938103
3432.000000;3.398940
3431.000000;3.164242
3430.000000;3.080958
3429.000000;3.098404
3428.000000;3.210640
3427.000000;3.377380
3426.000000;3.502134
3425.000000;3.478034
3424.000000;3.390712
3423.000000;3.321861
3422.000000;3.312799
3421.000000;3.384386
3420.000000;3.542921
3419.000000;3.802781
3418.000000;4.156667
3417.000000;4.554786
3416.000000;4.357111
3415.000000;3.995924
3414.000000;3.756513
3413.000000;3.895497
3412.000000;4.415226
3411.000000;3.762646
3410.000000;3.479885
3409.000000;3.384001
3408.000000;3.382622
3407.000000;3.490179
3406.000000;3.647622
3405.000000;3.776336
3404.000000;3.694722
3403.000000;3.484100
3402.000000;3.305454
3401.000000;3.220936
3400.000000;3.232779
3399.000000;3.244045
3398.000000;3.199576
3397.000000;3.208673
3396.000000;3.357518
3395.000000;3.626603
3394.000000;3.726988
3393.000000;3.594167
3392.000000;3.407646
3391.000000;3.329684
3390.000000;3.413340
3389.000000;3.761395
3388.000000;4.166672
3387.000000;3.700700
3386.000000;3.786473
3385.000000;3.805297
3384.000000;3.367538
3383.000000;3.201222
3382.000000;3.180516
3381.000000;3.218208
3380.000000;3.262605
3379.000000;3.315533
3378.000000;3.416005
3377.000000;3.435793
3376.000000;3.347329
3375.000000;3.301177
3374.000000;3.398718
3373.000000;3.845743
3372.000000;3.829839
3371.000000;3.431341
3370.000000;3.349210
3369.000000;3.432793
3368.000000;3.684981
3367.000000;3.852913
3366.000000;3.998637
3365.000000;4.111618
3364.000000;3.768083
3363.000000;3.619504
3362.000000;3.553577
3361.000000;3.467947
3360.000000;3.416980
3359.000000;3.439008
3358.000000;3.544633
3357.000000;3.762336
3356.000000;3.935331
3355.000000;3.936185
3354.000000;4.009718
3353.000000;3.782724
3352.000000;3.504932
3351.000000;3.334251
3350.000000;3.254070
3349.000000;3.261292
3348.000000;3.305584
3347.000000;3.360372
3346.000000;3.450666
3345.000000;3.607978
3344.000000;3.532455
3343.000000;3.394379
3342.000000;3.393977
3341.000000;3.594803
3340.000000;4.119861
3339.000000;3.629754
3338.000000;3.366153
3337.000000;3.358190
3336.000000;3.461113
3335.000000;3.562676
3334.000000;3.430647
3333.000000;3.283460
3332.000000;3.232622
3331.000000;3.259134
3330.000000;3.323535
3329.000000;3.488917
3328.000000;3.749274
3327.000000;3.676241
3326.000000;3.547147
3325.000000;3.456335
3324.000000;3.290799
3323.000000;3.202065
3322.000000;3.223166
3321.000000;3.375250
3320.000000;3.458702
3319.000000;3.378267
3318.000000;3.317399
3317.000000;3.441780
3316.000000;3.977863
3315.000000;3.491595
3314.000000;3.217271
3313.000000;3.291107
3312.000000;3.679704
3311.000000;3.749682
3310.000000;3.394230
3309.000000;3.326775
3308.000000;3.441462
3307.000000;3.607340
3306.000000;3.417697
3305.000000;3.292735
3304.000000;3.368921
3303.000000;3.642155
3302.000000;4.174075
3301.000000;4.249285
3300.000000;3.874491
3299.000000;3.608956
3298.000000;3.454191
3297.000000;3.395906
3296.000000;3.427452
3295.000000;3.492444
3294.000000;3.520338
3293.000000;3.535811
3292.000000;3.531824
3291.000000;3.491532
3290.000000;3.546730
3289.000000;3.932692
3288.000000;4.027190
3287.000000;3.847477
3286.000000;4.281362
3285.000000;3.932973
3284.000000;3.517816
3283.000000;3.370200
3282.000000;3.331194
3281.000000;3.390251
3280.000000;3.527567
3279.000000;3.814439
3278.000000;4.288821
3277.000000;3.760609
3276.000000;3.421180
3275.000000;3.342730
3274.000000;3.430213
3273.000000;3.582134
3272.000000;3.762724
3271.000000;3.975049
3270.000000;3.688855
3269.000000;3.486251
3268.000000;3.494923
3267.000000;3.568091
3266.000000;3.624894
3265.000000;3.617617
3264.000000;3.558835
3263.000000;3.472403
3262.000000;3.386178
3261.000000;3.345367
3260.000000;3.376428
3259.000000;3.453616
3258.000000;3.577408
3257.000000;3.861873
3256.000000;3.977686
3255.000000;3.766313
3254.000000;3.595189
3253.000000;3.438491
3252.000000;3.438427
3251.000000;3.679423
3250.000000;3.960173
3249.000000;3.791748
3248.000000;3.710279
3247.000000;3.697157
3246.000000;3.662177
3245.000000;3.662330
3244.000000;3.869350
3243.000000;3.782309
3242.000000;3.482540
3241.000000;3.441931
3240.000000;3.543352
3239.000000;3.705076
3238.000000;3.933747
3237.000000;4.109213
3236.000000;4.276060
3235.000000;4.185438
3234.000000;3.593947
3233.000000;3.287642
3232.000000;3.168732
3231.000000;3.157997
3230.000000;3.296856
3229.000000;3.710937
3228.000000;3.605831
3227.000000;3.329913
3226.000000;3.322166
3225.000000;3.489509
3224.000000;3.887129
3223.000000;3.977622
3222.000000;3.608211
3221.000000;3.430340
3220.000000;3.411258
3219.000000;3.502855
3218.000000;3.519285
3217.000000;3.477644
3216.000000;3.530793
3215.000000;3.897185
3214.000000;4.171305
3213.000000;3.674939
3212.000000;3.509864
3211.000000;3.431481
3210.000000;3.381285
3209.000000;3.433609
3208.000000;3.648160
3207.000000;3.787069
3206.000000;3.748033
3205.000000;3.861209
3204.000000;3.849566
3203.000000;3.618898
3202.000000;3.472052
3201.000000;3.515867
3200.000000;3.774185
3199.000000;4.251074
3198.000000;4.062107
3197.000000;3.502282
3196.000000;3.306577
3195.000000;3.265615
3194.000000;3.305505
3193.000000;3.392824
3192.000000;3.517243
3191.000000;3.758948
3190.000000;4.182139
3189.000000;4.020909
3188.000000;3.843058
3187.000000;4.318400
3186.000000;4.042482
3185.000000;3.579201
3184.000000;3.472558
3183.000000;3.489628
3182.000000;3.597681
3181.000000;3.729340
3180.000000;3.722425
3179.000000;3.567705
3178.000000;3.494528
3177.000000;3.531346
3176.000000;3.486361
3175.000000;3.411580
3174.000000;3.472558
3173.000000;3.581156
3172.000000;3.580553
3171.000000;3.705391
3170.000000;3.878762
3169.000000;3.611925
3168.000000;3.445334
3167.000000;3.396729
3166.000000;3.367617
3165.000000;3.353305
3164.000000;3.383126
3163.000000;3.423241
3162.000000;3.495388
3161.000000;3.750158
3160.000000;4.071538
3159.000000;3.941014
3158.000000;3.701764
3157.000000;3.541806
3156.000000;3.529116
3155.000000;3.554759
3154.000000;3.443138
3153.000000;3.353185
3152.000000;3.396254
3151.000000;3.563195
3150.000000;3.755728
3149.000000;3.758733
3148.000000;3.630928
3147.000000;3.471643
3146.000000;3.318767
3145.000000;3.256980
3144.000000;3.324913
3143.000000;3.491163
3142.000000;3.573105
3141.000000;3.539054
3140.000000;3.613325
3139.000000;3.713380
3138.000000;3.483707
3137.000000;3.279828
3136.000000;3.246255
3135.000000;3.342828
3134.000000;3.625455
3133.000000;4.038973
3132.000000;3.688763
3131.000000;3.437621
3130.000000;3.367246
3129.000000;3.318756
3128.000000;3.291771
3127.000000;3.336634
3126.000000;3.498971
3125.000000;3.801950
3124.000000;3.964045
3123.000000;3.855015
3122.000000;3.697343
3121.000000;3.568208
3120.000000;3.559169
3119.000000;3.621869
3118.000000;3.696005
3117.000000;3.866918
3116.000000;3.787031
3115.000000;3.545219
3114.000000;3.703102
3113.000000;4.066785
3112.000000;3.513965
3111.000000;3.317384
3110.000000;3.320267
3109.000000;3.413966
3108.000000;3.425446
3107.000000;3.353438
3106.000000;3.343713
3105.000000;3.467129
3104.000000;3.686095
3103.000000;3.677117
3102.000000;3.635670
3101.000000;3.680667
3100.000000;3.720192
3099.000000;3.791204
3098.000000;3.817224
3097.000000;3.505880
3096.000000;3.287675
3095.000000;3.239403
3094.000000;3.331944
3093.000000;3.480555
3092.000000;3.418676
3091.000000;3.298525
3090.000000;3.256382
3089.000000;3.278803
3088.000000;3.417312
3087.000000;3.616716
3086.000000;3.447468
3085.000000;3.281066
3084.000000;3.277004
3083.000000;3.341594
3082.000000;3.373406
3081.000000;3.350332
3080.000000;3.324535
3079.000000;3.361570
3078.000000;3.576485
3077.000000;3.802925
3076.000000;3.623396
3075.000000;3.487329
3074.000000;3.418517
3073.000000;3.373322
3072.000000;3.394501
3071.000000;3.515743
3070.000000;3.757568
3069.000000;3.850276
3068.000000;3.700581
3067.000000;3.650613
3066.000000;3.667418
3065.000000;3.626916
3064.000000;3.551270
3063.000000;3.478529
3062.000000;3.415325
3061.000000;3.391054
3060.000000;3.430561
3059.000000;3.537305
3058.000000;3.655264
3057.000000;3.795589
3056.000000;3.804197
3055.000000;3.519684
3054.000000;3.341465
3053.000000;3.317729
3052.000000;3.400226
3051.000000;3.492710
3050.000000;3.565402
3049.000000;3.632800
3048.000000;3.544518
3047.000000;3.401794
3046.000000;3.280112
3045.000000;3.227656
3044.000000;3.319509
3043.000000;3.652062
3042.000000;4.049884
3041.000000;3.797378
3040.000000;3.655805
3039.000000;3.612075
3038.000000;3.718416
3037.000000;3.996968
3036.000000;3.962634
3035.000000;3.772361
3034.000000;3.864656
3033.000000;3.895106
3032.000000;3.649753
3031.000000;3.606271
3030.000000;3.777470
3029.000000;3.882592
3028.000000;3.936655
3027.000000;3.756072
3026.000000;3.392947
3025.000000;3.253754
3024.000000;3.273425
3023.000000;3.437275
3022.000000;3.853460
3021.000000;3.983746
3020.000000;3.797169
3019.000000;4.010265
3018.000000;3.896934
3017.000000;3.608594
3016.000000;3.537068
3015.000000;3.616204
3014.000000;3.839819
3013.000000;4.076729
3012.000000;3.873217
3011.000000;3.783015
3010.000000;3.870656
3009.000000;3.908752
3008.000000;3.629862
3007.000000;3.528173
3006.000000;3.738927
3005.000000;3.921027
3004.000000;3.638301
3003.000000;3.667134
3002.000000;3.837183
3001.000000;3.950621
3000.000000;3.735368
2999.000000;3.963156
2998.000000;3.912250
2997.000000;3.440646
2996.000000;3.305337
2995.000000;3.339046
2994.000000;3.521063
2993.000000;3.738087
2992.000000;3.685613
2991.000000;3.618102
2990.000000;3.664690
2989.000000;3.648141
2988.000000;3.559000
2987.000000;3.515651
2986.000000;3.578774
2985.000000;3.603495
2984.000000;3.447788
2983.000000;3.388204
2982.000000;3.420790
2981.000000;3.515057
2980.000000;3.671824
2979.000000;3.716393
2978.000000;3.657000
2977.000000;3.687360
2976.000000;3.700915
2975.000000;3.676118
2974.000000;3.729720
2973.000000;3.917344
2972.000000;4.085885
2971.000000;4.078694
2970.000000;4.019281
2969.000000;3.792813
2968.000000;3.559778
2967.000000;3.397370
2966.000000;3.364903
2965.000000;3.522233
2964.000000;3.946261
2963.000000;3.653185
2962.000000;3.472529
2961.000000;3.458840
2960.000000;3.503903
2959.000000;3.560665
2958.000000;3.623820
2957.000000;3.743894
2956.000000;3.844392
2955.000000;3.932707
2954.000000;3.944757
2953.000000;3.735109
2952.000000;3.559565
2951.000000;3.431783
2950.000000;3.378855
2949.000000;3.438663
2948.000000;3.635247
2947.000000;3.808669
2946.000000;3.957598
2945.000000;3.793133
2944.000000;3.494618
2943.000000;3.415810
2942.000000;3.528869
2941.000000;3.609708
2940.000000;3.438932
2939.000000;3.377637
2938.000000;3.486622
2937.000000;3.726593
2936.000000;3.984416
2935.000000;3.979708
2934.000000;3.720811
2933.000000;3.537951
2932.000000;3.483365
2931.000000;3.547368
2930.000000;3.547550
2929.000000;3.347261
2928.000000;3.210199
2927.000000;3.185520
2926.000000;3.294744
2925.000000;3.433360
2924.000000;3.308388
2923.000000;3.184820
2922.000000;3.200599
2921.000000;3.353586
2920.000000;3.803046
2919.000000;3.753122
2918.000000;3.438507
2917.000000;3.473801
2916.000000;3.646795
2915.000000;3.685126
2914.000000;3.591065
2913.000000;3.662250
2912.000000;3.802210
2911.000000;3.626706
2910.000000;3.429679
2909.000000;3.356721
2908.000000;3.373677
2907.000000;3.389673
2906.000000;3.380589
2905.000000;3.489899
2904.000000;3.790230
2903.000000;3.819552
2902.000000;3.929181
2901.000000;4.230525
2900.000000;3.763771
2899.000000;3.656708
2898.000000;3.600086
2897.000000;3.502977
2896.000000;3.435365
2895.000000;3.510302
2894.000000;3.963004
2893.000000;3.796874
2892.000000;3.414579
2891.000000;3.357524
2890.000000;3.355146
2889.000000;3.441563
2888.000000;3.577278
2887.000000;3.839549
2886.000000;3.661686
2885.000000;3.408746
2884.000000;3.359500
2883.000000;3.383843
2882.000000;3.359006
2881.000000;3.336871
2880.000000;3.388019
2879.000000;3.474552
2878.000000;3.444114
2877.000000;3.441017
2876.000000;3.571802
2875.000000;3.799229
2874.000000;3.800385
2873.000000;3.586982
2872.000000;3.439767
2871.000000;3.379637
2870.000000;3.422237
2869.000000;3.473672
2868.000000;3.436815
2867.000000;3.413070
2866.000000;3.420532
2865.000000;3.393024
2864.000000;3.335495
2863.000000;3.310687
2862.000000;3.357737
2861.000000;3.483742
2860.000000;3.672802
2859.000000;3.886437
2858.000000;4.049205
2857.000000;4.028667
2856.000000;3.806648
2855.000000;3.578376
2854.000000;3.435960
2853.000000;3.368802
2852.000000;3.346537
2851.000000;3.371877
2850.000000;3.492531
2849.000000;3.797170
2848.000000;3.995985
2847.000000;3.933936
2846.000000;4.283403
2845.000000;3.868326
2844.000000;3.569543
2843.000000;3.403504
2842.000000;3.291323
2841.000000;3.236661
2840.000000;3.247686
2839.000000;3.325586
2838.000000;3.430071
2837.000000;3.427988
2836.000000;3.300561
2835.000000;3.182348
2834.000000;3.130666
2833.000000;3.171147
2832.000000;3.322313
2831.000000;3.607076
2830.000000;3.828906
2829.000000;4.187527
2828.000000;3.803447
2827.000000;3.443485
2826.000000;3.299460
2825.000000;3.285477
2824.000000;3.405897
2823.000000;3.720706
2822.000000;3.818588
2821.000000;3.648863
2820.000000;3.590882
2819.000000;3.368703
2818.000000;3.172574
2817.000000;3.076493
2816.000000;3.073213
2815.000000;3.157176
2814.000000;3.319493
2813.000000;3.511332
2812.000000;3.666358
2811.000000;3.810312
2810.000000;4.013352
2809.000000;3.903404
2808.000000;3.748769
2807.000000;3.779471
2806.000000;3.870596
2805.000000;3.951053
2804.000000;4.039835
2803.000000;3.864596
2802.000000;3.693864
2801.000000;3.615953
2800.000000;3.483893
2799.000000;3.396091
2798.000000;3.417982
2797.000000;3.498183
2796.000000;3.520915
2795.000000;3.452797
2794.000000;3.356311
2793.000000;3.275641
2792.000000;3.228694
2791.000000;3.237566
2790.000000;3.317213
2789.000000;3.410105
2788.000000;3.408901
2787.000000;3.519680
2786.000000;3.719214
2785.000000;3.556843
2784.000000;3.482288
2783.000000;3.552800
2782.000000;3.605364
2781.000000;3.675525
2780.000000;3.929538
2779.000000;4.307478
2778.000000;4.037659
2777.000000;3.792258
2776.000000;3.649644
2775.000000;3.617453
2774.000000;3.917457
2773.000000;3.909863
2772.000000;3.532419
2771.000000;3.441517
2770.000000;3.468515
2769.000000;3.577797
2768.000000;3.859934
2767.000000;4.452493
2766.000000;3.722697
2765.000000;3.441722
2764.000000;3.342759
2763.000000;3.423096
2762.000000;3.668349
2761.000000;4.082465
2760.000000;4.590829
2759.000000;4.187922
2758.000000;4.452346
2757.000000;4.096643
2756.000000;3.678873
2755.000000;3.646485
2754.000000;3.750789
2753.000000;4.010621
2752.000000;4.003435
2751.000000;4.465594
2750.000000;4.013728
2749.000000;3.506607
2748.000000;3.299899
2747.000000;3.233812
2746.000000;3.292935
2745.000000;3.494609
2744.000000;3.817870
2743.000000;3.963325
2742.000000;4.240373
2741.000000;4.455263
2740.000000;3.822767
2739.000000;3.421533
2738.000000;3.248877
2737.000000;3.215991
2736.000000;3.233177
2735.000000;3.233819
2734.000000;3.235589
2733.000000;3.261986
2732.000000;3.322521
2731.000000;3.409118
2730.000000;3.461420
2729.000000;3.464654
2728.000000;3.498037
2727.000000;3.540236
2726.000000;3.480967
2725.000000;3.362906
2724.000000;3.241874
2723.000000;3.175999
2722.000000;3.226611
2721.000000;3.430726
2720.000000;3.850362
2719.000000;3.903084
2718.000000;3.654563
2717.000000;3.588740
2716.000000;3.803760
2715.000000;3.727975
2714.000000;3.369971
2713.000000;3.269862
2712.000000;3.270096
2711.000000;3.289712
2710.000000;3.312461
2709.000000;3.385501
2708.000000;3.592655
2707.000000;3.846337
2706.000000;3.730490
2705.000000;3.666262
2704.000000;3.726963
2703.000000;3.717460
2702.000000;3.555776
2701.000000;3.402807
2700.000000;3.339103
2699.000000;3.396726
2698.000000;3.564923
2697.000000;3.967657
2696.000000;3.994992
2695.000000;3.551781
2694.000000;3.367988
2693.000000;3.304897
2692.000000;3.287637
2691.000000;3.325389
2690.000000;3.493286
2689.000000;3.933887
2688.000000;3.669604
2687.000000;3.413017
2686.000000;3.318279
2685.000000;3.291578
2684.000000;3.329631
2683.000000;3.461629
2682.000000;3.867338
2681.000000;4.058263
2680.000000;3.635186
2679.000000;3.638369
2678.000000;3.795870
2677.000000;3.719154
2676.000000;3.495799
2675.000000;3.494221
2674.000000;3.694175
2673.000000;4.020101
2672.000000;4.292069
2671.000000;4.375616
2670.000000;3.768426
2669.000000;3.447377
2668.000000;3.318312
2667.000000;3.324926
2666.000000;3.471570
2665.000000;3.658178
2664.000000;3.772990
2663.000000;4.150140
2662.000000;3.881434
2661.000000;3.641127
2660.000000;3.586253
2659.000000;3.585369
2658.000000;3.606481
2657.000000;3.682178
2656.000000;3.957506
2655.000000;4.274986
2654.000000;3.983504
2653.000000;4.312413
2652.000000;4.531350
2651.000000;3.981296
2650.000000;4.044388
2649.000000;3.931209
2648.000000;3.722834
2647.000000;3.641366
2646.000000;3.605613
2645.000000;3.620962
2644.000000;3.783451
2643.000000;4.361013
2642.000000;3.929226
2641.000000;3.668910
2640.000000;3.660687
2639.000000;3.932537
2638.000000;4.156055
2637.000000;3.634069
2636.000000;3.488614
2635.000000;3.497151
2634.000000;3.607842
2633.000000;3.758110
2632.000000;3.898212
2631.000000;4.290104
2630.000000;4.172172
2629.000000;3.709249
2628.000000;3.578685
2627.000000;3.577044
2626.000000;3.791110
2625.000000;4.030286
2624.000000;4.068044
2623.000000;4.089720
2622.000000;3.675830
2621.000000;3.434520
2620.000000;3.353500
2619.000000;3.383759
2618.000000;3.753818
2617.000000;3.941361
2616.000000;3.578967
2615.000000;3.605535
2614.000000;3.841553
2613.000000;3.899932
2612.000000;4.260849
2611.000000;4.248511
2610.000000;3.940387
2609.000000;3.713067
2608.000000;3.471495
2607.000000;3.324743
2606.000000;3.291273
2605.000000;3.360959
2604.000000;3.537843
2603.000000;3.947901
2602.000000;3.625648
2601.000000;3.240895
2600.000000;3.135269
2599.000000;3.133797
2598.000000;3.187396
2597.000000;3.216039
2596.000000;3.255540
2595.000000;3.409287
2594.000000;3.660448
2593.000000;3.811854
2592.000000;3.875835
2591.000000;3.842265
2590.000000;3.671533
2589.000000;3.592060
2588.000000;3.675909
2587.000000;3.724973
2586.000000;3.546059
2585.000000;3.437047
2584.000000;3.434887
2583.000000;3.479106
2582.000000;3.552691
2581.000000;3.567987
2580.000000;3.410299
2579.000000;3.264866
2578.000000;3.198110
2577.000000;3.198014
2576.000000;3.255308
2575.000000;3.365854
2574.000000;3.534121
2573.000000;3.697899
2572.000000;3.657253
2571.000000;3.540022
2570.000000;3.523553
2569.000000;3.632358
2568.000000;3.721233
2567.000000;3.627858
2566.000000;3.585729
2565.000000;3.599160
2564.000000;3.466560
2563.000000;3.301448
2562.000000;3.225835
2561.000000;3.230830
2560.000000;3.274133
2559.000000;3.344527
2558.000000;3.523771
2557.000000;3.924517
2556.000000;3.852598
2555.000000;3.591733
2554.000000;3.522477
2553.000000;3.679587
2552.000000;3.897431
2551.000000;3.696840
2550.000000;3.761393
2549.000000;4.068128
2548.000000;3.983780
2547.000000;3.787267
2546.000000;3.813250
2545.000000;3.673609
2544.000000;3.436373
2543.000000;3.377797
2542.000000;3.417060
2541.000000;3.533362
2540.000000;3.830794
2539.000000;3.750682
2538.000000;3.542175
2537.000000;3.545655
2536.000000;3.665836
2535.000000;3.712914
2534.000000;3.499611
2533.000000;3.355745
2532.000000;3.353927
2531.000000;3.481484
2530.000000;3.703504
2529.000000;3.843303
2528.000000;3.731664
2527.000000;3.532134
2526.000000;3.375985
2525.000000;3.276525
2524.000000;3.247709
2523.000000;3.305753
2522.000000;3.479769
2521.000000;3.785805
2520.000000;3.812038
2519.000000;3.601487
2518.000000;3.550376
2517.000000;3.581264
2516.000000;3.659573
2515.000000;3.746568
2514.000000;3.824058
2513.000000;4.276772
2512.000000;4.046268
2511.000000;3.601621
2510.000000;3.496442
2509.000000;3.587146
2508.000000;3.850489
2507.000000;3.691299
2506.000000;3.585788
2505.000000;3.816139
2504.000000;3.856483
2503.000000;3.538451
2502.000000;3.356684
2501.000000;3.249916
2500.000000;3.209247
2499.000000;3.217703
2498.000000;3.264257
2497.000000;3.381448
2496.000000;3.737026
2495.000000;4.418248
2494.000000;3.988161
2493.000000;3.984732
2492.000000;3.752799
2491.000000;3.501735
2490.000000;3.421272
2489.000000;3.352560
2488.000000;3.270478
2487.000000;3.277987
2486.000000;3.443677
2485.000000;3.841154
2484.000000;4.160406
2483.000000;3.909399
2482.000000;3.612476
2481.000000;3.566720
2480.000000;4.150655
2479.000000;3.746348
2478.000000;3.427332
2477.000000;3.451236
2476.000000;3.526526
2475.000000;3.463771
2474.000000;3.372620
2473.000000;3.292668
2472.000000;3.220359
2471.000000;3.202069
2470.000000;3.242325
2469.000000;3.329798
2468.000000;3.420156
2467.000000;3.434425
2466.000000;3.433765
2465.000000;3.496961
2464.000000;3.600009
2463.000000;3.734599
2462.000000;3.603853
2461.000000;3.342387
2460.000000;3.244216
2459.000000;3.300040
2458.000000;3.512975
2457.000000;3.982424
2456.000000;3.995698
2455.000000;3.586988
2454.000000;3.427907
2453.000000;3.405083
2452.000000;3.451156
2451.000000;3.519722
2450.000000;3.527601
2449.000000;3.442419
2448.000000;3.374174
2447.000000;3.366988
2446.000000;3.399190
2445.000000;3.453486
2444.000000;3.580380
2443.000000;3.773905
2442.000000;3.683856
2441.000000;3.500159
2440.000000;3.447899
2439.000000;3.581768
2438.000000;3.982843
2437.000000;3.866566
2436.000000;3.729949
2435.000000;4.079766
2434.000000;3.951273
2433.000000;3.669628
2432.000000;3.559826
2431.000000;3.483198
2430.000000;3.587066
2429.000000;3.839990
2428.000000;3.759273
2427.000000;3.798895
2426.000000;3.885664
2425.000000;3.579623
2424.000000;3.463853
2423.000000;3.560092
2422.000000;3.865012
2421.000000;3.867891
2420.000000;3.901871
2419.000000;4.428997
2418.000000;3.889037
2417.000000;3.727912
2416.000000;4.030662
2415.000000;4.492242
2414.000000;3.838030
2413.000000;3.701826
2412.000000;3.702178
2411.000000;3.678200
2410.000000;3.620778
2409.000000;3.580067
2408.000000;3.619470
2407.000000;3.796882
2406.000000;4.376896
2405.000000;4.200485
2404.000000;3.822179
2403.000000;3.768409
2402.000000;3.901270
2401.000000;3.829448
2400.000000;3.548361
2399.000000;3.444391
2398.000000;3.567052
2397.000000;3.615009
2396.000000;3.340467
2395.000000;3.231960
2394.000000;3.282168
2393.000000;3.394980
2392.000000;3.568283
2391.000000;3.825289
2390.000000;3.872942
2389.000000;3.643590
2388.000000;3.485972
2387.000000;3.400509
2386.000000;3.359841
2385.000000;3.348356
2384.000000;3.406254
2383.000000;3.584274
2382.000000;3.487280
2381.000000;3.210475
2380.000000;3.086375
2379.000000;3.076774
2378.000000;3.162651
2377.000000;3.334661
2376.000000;3.454652
2375.000000;3.425944
2374.000000;3.347051
2373.000000;3.357180
2372.000000;3.730072
2371.000000;3.642464
2370.000000;3.193234
2369.000000;3.059080
2368.000000;3.072770
2367.000000;3.180217
2366.000000;3.178081
2365.000000;3.039085
2364.000000;3.010280
2363.000000;3.055119
2362.000000;3.079751
2361.000000;3.067277
2360.000000;3.046337
2359.000000;3.057323
2358.000000;3.063018
2357.000000;3.061389
2356.000000;3.084831
2355.000000;3.145698
2354.000000;3.335437
2353.000000;3.384054
2352.000000;3.175496
2351.000000;3.081705
2350.000000;3.070537
2349.000000;3.076791
2348.000000;3.026866
2347.000000;2.917774
2346.000000;2.874766
2345.000000;2.916936
2344.000000;3.003461
2343.000000;3.039364
2342.000000;3.014667
2341.000000;3.050969
2340.000000;3.372114
2339.000000;3.671895
2338.000000;3.153411
2337.000000;3.061816
2336.000000;3.193634
2335.000000;3.428999
2334.000000;3.418448
2333.000000;3.448699
2332.000000;3.459851
2331.000000;3.191681
2330.000000;3.239894
2329.000000;3.568028
2328.000000;3.636787
2327.000000;3.400046
2326.000000;3.176564
2325.000000;3.028337
2324.000000;2.989622
2323.000000;2.993128
2322.000000;2.981354
2321.000000;2.973691
2320.000000;3.013584
2319.000000;3.122184
2318.000000;3.216099
2317.000000;3.218333
2316.000000;3.206675
2315.000000;3.272954
2314.000000;3.422466
2313.000000;3.676894
2312.000000;4.018945
2311.000000;3.732442
2310.000000;3.434474
2309.000000;3.369276
2308.000000;3.575845
2307.000000;3.706457
2306.000000;3.388119
2305.000000;3.218339
2304.000000;3.174050
2303.000000;3.255941
2302.000000;3.332417
2301.000000;3.325043
2300.000000;3.333932
2299.000000;3.262947
2298.000000;3.215642
2297.000000;3.296146
2296.000000;3.513561
2295.000000;3.726614
2294.000000;3.743581
2293.000000;3.870006
2292.000000;4.281089
2291.000000;4.956560
2290.000000;4.696830
2289.000000;4.133813
2288.000000;3.942792
2287.000000;3.926870
2286.000000;3.696078
2285.000000;3.440341
2284.000000;3.319663
2283.000000;3.280913
2282.000000;3.245522
2281.000000;3.175545
2280.000000;3.121833
2279.000000;3.123690
2278.000000;3.195023
2277.000000;3.309570
2276.000000;3.397496
2275.000000;3.474872
2274.000000;3.639951
2273.000000;3.890849
2272.000000;3.755439
2271.000000;3.557023
2270.000000;3.551816
2269.000000;3.639593
2268.000000;3.694737
2267.000000;3.508007
2266.000000;3.306651
2265.000000;3.244668
2264.000000;3.296773
2263.000000;3.395683
2262.000000;3.455730
2261.000000;3.434319
2260.000000;3.352014
2259.000000;3.286970
2258.000000;3.292639
2257.000000;3.361337
2256.000000;3.452312
2255.000000;3.518881
2254.000000;3.470180
2253.000000;3.362855
2252.000000;3.336505
2251.000000;3.366284
2250.000000;3.374605
2249.000000;3.395009
2248.000000;3.480028
2247.000000;3.748639
2246.000000;3.945131
2245.000000;3.740703
2244.000000;3.674722
2243.000000;3.820834
2242.000000;4.483841
2241.000000;4.230059
2240.000000;3.822268
2239.000000;3.851205
2238.000000;4.103879
2237.000000;4.019278
2236.000000;3.944412
2235.000000;4.041600
2234.000000;3.722170
2233.000000;3.619589
2232.000000;3.699561
2231.000000;3.677012
2230.000000;3.594930
2229.000000;3.580045
2228.000000;3.663071
2227.000000;4.043402
2226.000000;4.323512
2225.000000;3.866839
2224.000000;3.853381
2223.000000;4.180294
2222.000000;4.351519
2221.000000;3.919966
2220.000000;3.580319
2219.000000;3.502969
2218.000000;3.764893
2217.000000;3.512048
2216.000000;3.182436
2215.000000;3.124089
2214.000000;3.208633
2213.000000;3.434288
2212.000000;3.822348
2211.000000;3.885333
2210.000000;3.821777
2209.000000;4.230663
2208.000000;3.800045
2207.000000;3.401001
2206.000000;3.318031
2205.000000;3.381945
2204.000000;3.700355
2203.000000;4.267735
2202.000000;3.749492
2201.000000;3.498045
2200.000000;3.400699
2199.000000;3.411850
2198.000000;3.575946
2197.000000;3.831795
2196.000000;3.890548
2195.000000;3.797200
2194.000000;4.036046
2193.000000;4.352066
2192.000000;4.049539
2191.000000;3.822983
2190.000000;3.615475
2189.000000;3.413207
2188.000000;3.294943
2187.000000;3.281522
2186.000000;3.378415
2185.000000;3.562069
2184.000000;3.710349
2183.000000;3.742601
2182.000000;3.604646
2181.000000;3.399966
2180.000000;3.280083
2179.000000;3.234183
2178.000000;3.221539
2177.000000;3.216731
2176.000000;3.215458
2175.000000;3.242477
2174.000000;3.325075
2173.000000;3.493562
2172.000000;3.741933
2171.000000;3.870872
2170.000000;3.744150
2169.000000;3.598470
2168.000000;3.641288
2167.000000;3.626339
2166.000000;3.394049
2165.000000;3.283731
2164.000000;3.350404
2163.000000;3.555678
2162.000000;3.781182
2161.000000;3.788255
2160.000000;3.631162
2159.000000;3.490187
2158.000000;3.591340
2157.000000;4.178665
2156.000000;3.976002
2155.000000;3.804795
2154.000000;3.923671
2153.000000;3.653399
2152.000000;3.460561
2151.000000;3.369582
2150.000000;3.312266
2149.000000;3.242690
2148.000000;3.206567
2147.000000;3.245426
2146.000000;3.497257
2145.000000;4.023624
2144.000000;3.600881
2143.000000;3.304235
2142.000000;3.196332
2141.000000;3.157043
2140.000000;3.195695
2139.000000;3.275935
2138.000000;3.468804
2137.000000;3.607129
2136.000000;3.340736
2135.000000;3.169682
2134.000000;3.219779
2133.000000;3.564916
2132.000000;3.870151
2131.000000;3.624669
2130.000000;3.667059
2129.000000;3.856466
2128.000000;3.869196
2127.000000;3.652817
2126.000000;3.425653
2125.000000;3.292255
2124.000000;3.271339
2123.000000;3.369888
2122.000000;3.597528
2121.000000;3.722095
2120.000000;3.549370
2119.000000;3.479863
2118.000000;3.511628
2117.000000;3.565702
2116.000000;3.652657
2115.000000;3.730763
2114.000000;3.680423
2113.000000;3.616842
2112.000000;3.792406
2111.000000;3.839400
2110.000000;3.479838
2109.000000;3.309157
2108.000000;3.319852
2107.000000;3.457714
2106.000000;3.569588
2105.000000;3.801083
2104.000000;4.177479
2103.000000;3.689247
2102.000000;3.535043
2101.000000;3.571586
2100.000000;3.534075
2099.000000;3.412041
2098.000000;3.293492
2097.000000;3.249661
2096.000000;3.281329
2095.000000;3.394933
2094.000000;3.598600
2093.000000;3.846624
2092.000000;3.855674
2091.000000;3.731239
2090.000000;3.825058
2089.000000;3.974104
2088.000000;3.855921
2087.000000;3.755949
2086.000000;3.633762
2085.000000;3.550637
2084.000000;3.519712
2083.000000;3.386336
2082.000000;3.225383
2081.000000;3.150740
2080.000000;3.183524
2079.000000;3.288145
2078.000000;3.362153
2077.000000;3.384523
2076.000000;3.383885
2075.000000;3.316087
2074.000000;3.211701
2073.000000;3.166165
2072.000000;3.217467
2071.000000;3.421116
2070.000000;3.707467
2069.000000;3.618050
2068.000000;3.613927
2067.000000;3.663529
2066.000000;3.451423
2065.000000;3.326204
2064.000000;3.347202
2063.000000;3.463544
2062.000000;3.557733
2061.000000;3.608273
2060.000000;3.727504
2059.000000;3.801208
2058.000000;3.961289
2057.000000;4.253053
2056.000000;3.823227
2055.000000;3.557940
2054.000000;3.535592
2053.000000;3.727782
2052.000000;3.866407
2051.000000;3.672957
2050.000000;3.797144
2049.000000;4.001474
2048.000000;3.707584
2047.000000;3.701814
2046.000000;3.708074
2045.000000;3.475260
2044.000000;3.348952
2043.000000;3.361643
2042.000000;3.473830
2041.000000;3.565546
2040.000000;3.555255
2039.000000;3.518876
2038.000000;3.521796
2037.000000;3.630045
2036.000000;3.942919
2035.000000;3.929075
2034.000000;3.626542
2033.000000;3.687488
2032.000000;3.885204
2031.000000;3.634181
2030.000000;3.440712
2029.000000;3.434117
2028.000000;3.485001
2027.000000;3.481183
2026.000000;3.497069
2025.000000;3.801068
2024.000000;4.053203
2023.000000;3.598133
2022.000000;3.442926
2021.000000;3.428898
2020.000000;3.400789
2019.000000;3.356623
2018.000000;3.377789
2017.000000;3.541768
2016.000000;3.780786
2015.000000;3.776872
2014.000000;3.582190
2013.000000;3.416114
2012.000000;3.315750
2011.000000;3.275455
2010.000000;3.312124
2009.000000;3.435024
2008.000000;3.547902
2007.000000;3.593499
2006.000000;3.524266
2005.000000;3.358692
2004.000000;3.295669
2003.000000;3.389272
2002.000000;3.481912
2001.000000;3.444815
2000.000000;3.433907
1999.000000;3.466143
1998.000000;3.483135
1997.000000;3.598894
1996.000000;3.900300
1995.000000;3.826877
1994.000000;3.590188
1993.000000;3.507560
1992.000000;3.486984
1991.000000;3.561625
1990.000000;3.588242
1989.000000;3.416792
1988.000000;3.281085
1987.000000;3.260855
1986.000000;3.334067
1985.000000;3.578779
1984.000000;4.023378
1983.000000;3.797376
1982.000000;3.586545
1981.000000;3.609931
1980.000000;3.708600
1979.000000;3.718282
1978.000000;3.589293
1977.000000;3.495871
1976.000000;3.455976
1975.000000;3.444671
1974.000000;3.450239
1973.000000;3.449619
1972.000000;3.426076
1971.000000;3.400157
1970.000000;3.434652
1969.000000;3.561008
1968.000000;3.552260
1967.000000;3.383124
1966.000000;3.274826
1965.000000;3.226246
1964.000000;3.227678
1963.000000;3.292323
1962.000000;3.395118
1961.000000;3.454738
1960.000000;3.405759
1959.000000;3.321742
1958.000000;3.333973
1957.000000;3.517106
1956.000000;3.977194
1955.000000;4.783878
1954.000000;4.163754
1953.000000;3.745767
1952.000000;3.539780
1951.000000;3.438208
1950.000000;3.353704
1949.000000;3.261312
1948.000000;3.227592
1947.000000;3.308081
1946.000000;3.529398
1945.000000;3.822732
1944.000000;3.689023
1943.000000;3.370452
1942.000000;3.244869
1941.000000;3.285164
1940.000000;3.325874
1939.000000;3.251639
1938.000000;3.212354
1937.000000;3.220420
1936.000000;3.228107
1935.000000;3.251676
1934.000000;3.546512
1933.000000;3.861325
1932.000000;3.356736
1931.000000;3.287889
1930.000000;3.401377
1929.000000;3.563149
1928.000000;3.710005
1927.000000;3.807069
1926.000000;3.835910
1925.000000;3.683958
1924.000000;3.684829
1923.000000;3.698347
1922.000000;3.573949
1921.000000;3.423206
1920.000000;3.335507
1919.000000;3.308202
1918.000000;3.341698
1917.000000;3.458287
1916.000000;3.670159
1915.000000;3.920192
1914.000000;3.960641
1913.000000;4.055067
1912.000000;4.183763
1911.000000;3.743073
1910.000000;3.488647
1909.000000;3.391016
1908.000000;3.362663
1907.000000;3.391470
1906.000000;3.447955
1905.000000;3.507668
1904.000000;3.590578
1903.000000;3.725507
1902.000000;3.762772
1901.000000;3.668172
1900.000000;3.625545
1899.000000;3.571709
1898.000000;3.441280
1897.000000;3.328046
1896.000000;3.308698
1895.000000;3.401865
1894.000000;3.458625
1893.000000;3.442602
1892.000000;3.552725
1891.000000;3.680729
1890.000000;3.875941
1889.000000;3.976308
1888.000000;3.531303
1887.000000;3.377243
1886.000000;3.444119
1885.000000;3.713570
1884.000000;4.240018
1883.000000;4.094790
1882.000000;3.774850
1881.000000;3.653865
1880.000000;3.934103
1879.000000;3.903070
1878.000000;3.436172
1877.000000;3.320487
1876.000000;3.280230
1875.000000;3.263932
1874.000000;3.299307
1873.000000;3.385242
1872.000000;3.521535
1871.000000;3.736668
1870.000000;3.957396
1869.000000;3.663408
1868.000000;3.419688
1867.000000;3.347339
1866.000000;3.357882
1865.000000;3.416206
1864.000000;3.529378
1863.000000;3.743615
1862.000000;3.716568
1861.000000;3.410315
1860.000000;3.201727
1859.000000;3.094604
1858.000000;3.042042
1857.000000;3.054254
1856.000000;3.161746
1855.000000;3.481616
1854.000000;3.831484
1853.000000;3.428001
1852.000000;3.304430
1851.000000;3.327048
1850.000000;3.428592
1849.000000;3.551367
1848.000000;3.530367
1847.000000;3.623509
1846.000000;3.708704
1845.000000;3.433656
1844.000000;3.257708
1843.000000;3.256858
1842.000000;3.377079
1841.000000;3.600334
1840.000000;3.654978
1839.000000;3.420621
1838.000000;3.286119
1837.000000;3.318322
1836.000000;3.507129
1835.000000;3.822180
1834.000000;3.874353
1833.000000;3.697079
1832.000000;3.538757
1831.000000;3.386950
1830.000000;3.310917
1829.000000;3.425674
1828.000000;3.753618
1827.000000;3.749880
1826.000000;3.770356
1825.000000;4.007993
1824.000000;3.646441
1823.000000;3.345722
1822.000000;3.245304
1821.000000;3.303015
1820.000000;3.551167
1819.000000;3.626290
1818.000000;3.429653
1817.000000;3.441989
1816.000000;3.598621
1815.000000;3.637660
1814.000000;3.594695
1813.000000;3.738967
1812.000000;3.825739
1811.000000;3.719782
1810.000000;3.692522
1809.000000;3.657052
1808.000000;3.824777
1807.000000;4.227709
1806.000000;3.614651
1805.000000;3.347605
1804.000000;3.277601
1803.000000;3.294773
1802.000000;3.376728
1801.000000;3.488101
1800.000000;3.610431
1799.000000;3.659618
1798.000000;3.545416
1797.000000;3.365982
1796.000000;3.271340
1795.000000;3.219573
1794.000000;3.174117
1793.000000;3.146854
1792.000000;3.157676
1791.000000;3.209928
1790.000000;3.323719
1789.000000;3.755777
1788.000000;3.819536
1787.000000;3.434735
1786.000000;3.466847
1785.000000;3.610593
1784.000000;3.457937
1783.000000;3.342946
1782.000000;3.445039
1781.000000;3.767609
1780.000000;4.035749
1779.000000;3.973269
1778.000000;3.750184
1777.000000;3.529320
1776.000000;3.376382
1775.000000;3.274746
1774.000000;3.202199
1773.000000;3.136194
1772.000000;3.095594
1771.000000;3.116897
1770.000000;3.162184
1769.000000;3.152721
1768.000000;3.126309
1767.000000;3.130345
1766.000000;3.172759
1765.000000;3.253459
1764.000000;3.468683
1763.000000;3.716090
1762.000000;3.453343
1761.000000;3.313225
1760.000000;3.405926
1759.000000;3.539825
1758.000000;3.451253
1757.000000;3.305517
1756.000000;3.256304
1755.000000;3.349841
1754.000000;3.654147
1753.000000;3.912706
1752.000000;3.991081
1751.000000;3.521156
1750.000000;3.192332
1749.000000;3.073193
1748.000000;3.022121
1747.000000;3.025845
1746.000000;3.102931
1745.000000;3.391695
1744.000000;3.766061
1743.000000;3.348466
1742.000000;3.261737
1741.000000;3.283126
1740.000000;3.302589
1739.000000;3.285617
1738.000000;3.262056
1737.000000;3.267688
1736.000000;3.282581
1735.000000;3.570122
1734.000000;3.668410
1733.000000;3.276637
1732.000000;3.335586
1731.000000;3.650619
1730.000000;3.442810
1729.000000;3.242674
1728.000000;3.205090
1727.000000;3.244050
1726.000000;3.453417
1725.000000;4.116875
1724.000000;3.415941
1723.000000;3.181327
1722.000000;3.155040
1721.000000;3.167858
1720.000000;3.177119
1719.000000;3.176822
1718.000000;3.334134
1717.000000;3.773108
1716.000000;3.546125
1715.000000;3.266526
1714.000000;3.143284
1713.000000;3.073419
1712.000000;3.074737
1711.000000;3.169831
1710.000000;3.378532
1709.000000;3.766804
1708.000000;3.904862
1707.000000;3.509773
1706.000000;3.308268
1705.000000;3.315651
1704.000000;3.788162
1703.000000;3.713440
1702.000000;3.375271
1701.000000;3.378992
1700.000000;3.548085
1699.000000;3.784166
1698.000000;3.745617
1697.000000;3.524296
1696.000000;3.582050
1695.000000;4.351097
1694.000000;3.610978
1693.000000;3.425858
1692.000000;3.443320
1691.000000;3.478349
1690.000000;3.557880
1689.000000;3.567709
1688.000000;3.424065
1687.000000;3.367327
1686.000000;3.415608
1685.000000;3.514063
1684.000000;3.563633
1683.000000;3.525349
1682.000000;3.689582
1681.000000;3.706115
1680.000000;3.365559
1679.000000;3.185574
1678.000000;3.122907
1677.000000;3.117822
1676.000000;3.132507
1675.000000;3.127945
1674.000000;3.097836
1673.000000;3.113377
1672.000000;3.214947
1671.000000;3.361738
1670.000000;3.470498
1669.000000;3.548676
1668.000000;3.631463
1667.000000;3.681224
1666.000000;3.589780
1665.000000;3.418906
1664.000000;3.296101
1663.000000;3.261576
1662.000000;3.316329
1661.000000;3.420175
1660.000000;3.498727
1659.000000;3.453253
1658.000000;3.312183
1657.000000;3.222353
1656.000000;3.262428
1655.000000;3.471755
1654.000000;3.919551
1653.000000;4.099951
1652.000000;3.902147
1651.000000;3.580062
1650.000000;3.306608
1649.000000;3.209567
1648.000000;3.212608
1647.000000;3.229080
1646.000000;3.255887
1645.000000;3.326164
1644.000000;3.402503
1643.000000;3.583661
1642.000000;3.692133
1641.000000;3.367774
1640.000000;3.208750
1639.000000;3.210718
1638.000000;3.341128
1637.000000;3.541357
1636.000000;3.669968
1635.000000;3.610211
1634.000000;3.480884
1633.000000;3.402304
1632.000000;3.368981
1631.000000;3.384082
1630.000000;3.444992
1629.000000;3.520924
1628.000000;3.600421
1627.000000;3.732393
1626.000000;3.960856
1625.000000;4.246743
1624.000000;3.984481
1623.000000;3.705211
1622.000000;3.587982
1621.000000;3.532682
1620.000000;3.506628
1619.000000;3.508340
1618.000000;3.494205
1617.000000;3.420771
1616.000000;3.339044
1615.000000;3.298100
1614.000000;3.322806
1613.000000;3.403093
1612.000000;3.509681
1611.000000;3.502141
1610.000000;3.372562
1609.000000;3.357755
1608.000000;3.490011
1607.000000;3.646380
1606.000000;3.658095
1605.000000;3.896566
1604.000000;4.186387
1603.000000;3.682704
1602.000000;3.521950
1601.000000;3.515480
1600.000000;3.499852
1599.000000;3.474388
1598.000000;3.659653
1597.000000;4.122299
1596.000000;3.717139
1595.000000;3.528964
1594.000000;3.583170
1593.000000;3.669993
1592.000000;3.663251
1591.000000;3.585937
1590.000000;3.565857
1589.000000;3.633125
1588.000000;3.927300
1587.000000;3.819100
1586.000000;3.539355
1585.000000;3.486552
1584.000000;3.466895
1583.000000;3.418115
1582.000000;3.400340
1581.000000;3.428919
1580.000000;3.509340
1579.000000;3.603606
1578.000000;3.647451
1577.000000;3.679649
1576.000000;3.842028
1575.000000;4.019621
1574.000000;3.889155
1573.000000;3.843219
1572.000000;3.869066
1571.000000;3.787017
1570.000000;3.517422
1569.000000;3.276483
1568.000000;3.165371
1567.000000;3.160702
1566.000000;3.209212
1565.000000;3.272851
1564.000000;3.387158
1563.000000;3.732720
1562.000000;3.897196
1561.000000;3.396771
1560.000000;3.196961
1559.000000;3.197618
1558.000000;3.312570
1557.000000;3.371993
1556.000000;3.418485
1555.000000;3.586289
1554.000000;3.610197
1553.000000;3.321843
1552.000000;3.113978
1551.000000;3.012750
1550.000000;3.034222
1549.000000;3.156673
1548.000000;3.320870
1547.000000;3.448743
1546.000000;3.561908
1545.000000;3.601648
1544.000000;3.675249
1543.000000;3.317950
1542.000000;3.012916
1541.000000;2.923153
1540.000000;2.925464
1539.000000;2.947933
1538.000000;2.978070
1537.000000;3.072662
1536.000000;3.279600
1535.000000;3.758082
1534.000000;3.644063
1533.000000;3.403332
1532.000000;3.432254
1531.000000;3.493194
1530.000000;3.420370
1529.000000;3.408415
1528.000000;3.598917
1527.000000;4.158795
1526.000000;4.188835
1525.000000;3.909071
1524.000000;3.883985
1523.000000;3.585599
1522.000000;3.294648
1521.000000;3.190927
1520.000000;3.320150
1519.000000;3.637012
1518.000000;3.420279
1517.000000;3.196638
1516.000000;3.195458
1515.000000;3.318547
1514.000000;3.833731
1513.000000;3.953475
1512.000000;3.666748
1511.000000;3.616343
1510.000000;3.364771
1509.000000;3.205382
1508.000000;3.175887
1507.000000;3.268454
1506.000000;3.286899
1505.000000;3.182916
1504.000000;3.108303
1503.000000;3.087780
1502.000000;3.107815
1501.000000;3.175176
1500.000000;3.268911
1499.000000;3.302923
1498.000000;3.295492
1497.000000;3.552338
1496.000000;3.895152
1495.000000;3.336913
1494.000000;3.108135
1493.000000;3.046400
1492.000000;3.106937
1491.000000;3.396120
1490.000000;3.464771
1489.000000;3.362071
1488.000000;3.434934
1487.000000;3.231692
1486.000000;3.137953
1485.000000;3.219296
1484.000000;3.593958
1483.000000;3.852705
1482.000000;3.467899
1481.000000;3.358509
1480.000000;3.288751
1479.000000;3.186878
1478.000000;3.110920
1477.000000;3.152698
1476.000000;3.468758
1475.000000;3.794370
1474.000000;3.284056
1473.000000;3.240639
1472.000000;3.317343
1471.000000;3.589676
1470.000000;3.977741
1469.000000;3.785011
1468.000000;3.630982
1467.000000;3.671968
1466.000000;3.796700
1465.000000;3.830619
1464.000000;3.648704
1463.000000;3.520946
1462.000000;3.466199
1461.000000;3.433703
1460.000000;3.411393
1459.000000;3.418019
1458.000000;3.507557
1457.000000;3.669554
1456.000000;4.012898
1455.000000;3.681272
1454.000000;3.555900
1453.000000;3.734720
1452.000000;4.321572
1451.000000;3.467027
1450.000000;3.267631
1449.000000;3.254986
1448.000000;3.414969
1447.000000;3.561824
1446.000000;3.477969
1445.000000;3.423878
1444.000000;3.455435
1443.000000;3.553419
1442.000000;3.613067
1441.000000;3.533739
1440.000000;3.421319
1439.000000;3.431206
1438.000000;3.555109
1437.000000;3.438813
1436.000000;3.356686
1435.000000;3.421905
1434.000000;3.510726
1433.000000;3.741037
1432.000000;4.121195
1431.000000;3.865695
1430.000000;3.845224
1429.000000;3.796751
1428.000000;3.601412
1427.000000;3.466839
1426.000000;3.388396
1425.000000;3.431296
1424.000000;3.740839
1423.000000;4.378536
1422.000000;3.683884
1421.000000;3.578440
1420.000000;3.418099
1419.000000;3.324676
1418.000000;3.370711
1417.000000;3.404526
1416.000000;3.343494
1415.000000;3.299115
1414.000000;3.313756
1413.000000;3.422462
1412.000000;3.831977
1411.000000;3.957429
1410.000000;3.666651
1409.000000;3.720764
1408.000000;3.817916
1407.000000;3.780638
1406.000000;3.721432
1405.000000;3.755005
1404.000000;3.864681
1403.000000;3.963281
1402.000000;4.299129
1401.000000;3.874976
1400.000000;3.490117
1399.000000;3.422956
1398.000000;3.677069
1397.000000;3.946284
1396.000000;3.436916
1395.000000;3.320611
1394.000000;3.349284
1393.000000;3.643754
1392.000000;3.902844
1391.000000;3.412505
1390.000000;3.311204
1389.000000;3.532274
1388.000000;3.970896
1387.000000;3.564351
1386.000000;3.500664
1385.000000;3.517974
1384.000000;3.587685
1383.000000;3.777729
1382.000000;4.256410
1381.000000;3.989770
1380.000000;3.765697
1379.000000;3.688067
1378.000000;3.643677
1377.000000;3.731880
1376.000000;3.775042
1375.000000;3.577325
1374.000000;3.587187
1373.000000;3.781790
1372.000000;3.511704
1371.000000;3.355030
1370.000000;3.313362
1369.000000;3.312109
1368.000000;3.328271
1367.000000;3.385706
1366.000000;3.359055
1365.000000;3.183135
1364.000000;3.064526
1363.000000;3.042544
1362.000000;3.085593
1361.000000;3.155291
1360.000000;3.207992
1359.000000;3.229093
1358.000000;3.245078
1357.000000;3.269712
1356.000000;3.328246
1355.000000;3.429353
1354.000000;3.502977
1353.000000;3.488816
1352.000000;3.466865
1351.000000;3.504626
1350.000000;3.546011
1349.000000;3.501992
1348.000000;3.484982
1347.000000;3.584990
1346.000000;3.897805
1345.000000;3.690191
1344.000000;3.459627
1343.000000;3.474437
1342.000000;3.731688
1341.000000;3.645877
1340.000000;3.451345
1339.000000;3.394294
1338.000000;3.278207
1337.000000;3.225515
1336.000000;3.260963
1335.000000;3.358123
1334.000000;3.487399
1333.000000;3.599061
1332.000000;3.737017
1331.000000;3.682467
1330.000000;3.466815
1329.000000;3.383272
1328.000000;3.369246
1327.000000;3.347699
1326.000000;3.324787
1325.000000;3.362801
1324.000000;3.497242
1323.000000;3.783305
1322.000000;3.678454
1321.000000;3.527374
1320.000000;3.591948
1319.000000;3.744543
1318.000000;3.757545
1317.000000;3.724939
1316.000000;3.680715
1315.000000;3.639853
1314.000000;3.789082
1313.000000;4.199172
1312.000000;3.674107
1311.000000;3.488672
1310.000000;3.502516
1309.000000;3.640640
1308.000000;3.975327
1307.000000;3.941229
1306.000000;3.522718
1305.000000;3.369014
1304.000000;3.333148
1303.000000;3.406503
1302.000000;3.544136
1301.000000;4.000422
1300.000000;3.854407
1299.000000;3.455400
1298.000000;3.343810
1297.000000;3.374333
1296.000000;3.504544
1295.000000;3.627183
1294.000000;3.660437
1293.000000;3.547175
1292.000000;3.389271
1291.000000;3.328403
1290.000000;3.423026
1289.000000;3.795804
1288.000000;4.218759
1287.000000;3.575975
1286.000000;3.408827
1285.000000;3.306406
1284.000000;3.244340
1283.000000;3.217117
1282.000000;3.244532
1281.000000;3.304871
1280.000000;3.338319
1279.000000;3.381274
1278.000000;3.514185
1277.000000;4.105891
1276.000000;4.272890
1275.000000;3.820948
1274.000000;3.742317
1273.000000;3.574503
1272.000000;3.475898
1271.000000;3.468911
1270.000000;3.584625
1269.000000;3.624415
1268.000000;3.565543
1267.000000;3.509367
1266.000000;3.320869
1265.000000;3.209921
1264.000000;3.265532
1263.000000;3.508667
1262.000000;3.632823
1261.000000;3.415868
1260.000000;3.335154
1259.000000;3.374866
1258.000000;3.559029
1257.000000;3.900705
1256.000000;4.198004
1255.000000;4.113522
1254.000000;4.038718
1253.000000;4.104588
1252.000000;4.091296
1251.000000;4.343054
1250.000000;4.069473
1249.000000;3.580434
1248.000000;3.436112
1247.000000;3.468573
1246.000000;3.570655
1245.000000;3.688864
1244.000000;3.795234
1243.000000;3.875181
1242.000000;4.108099
1241.000000;4.082631
1240.000000;3.717884
1239.000000;3.538179
1238.000000;3.433957
1237.000000;3.360153
1236.000000;3.362461
1235.000000;3.549273
1234.000000;4.072392
1233.000000;3.607039
1232.000000;3.412148
1231.000000;3.441181
1230.000000;3.627809
1229.000000;3.940679
1228.000000;4.212656
1227.000000;4.382199
1226.000000;4.190576
1225.000000;3.729003
1224.000000;3.550076
1223.000000;3.608471
1222.000000;4.217998
1221.000000;4.014432
1220.000000;3.675998
1219.000000;3.714235
1218.000000;3.736650
1217.000000;3.796058
1216.000000;3.830178
1215.000000;3.772906
1214.000000;3.723972
1213.000000;3.676323
1212.000000;3.641978
1211.000000;3.643517
1210.000000;3.562759
1209.000000;3.489844
1208.000000;3.603798
1207.000000;4.071249
1206.000000;4.081615
1205.000000;3.959415
1204.000000;4.091596
1203.000000;3.837113
1202.000000;3.876708
1201.000000;4.090643
1200.000000;4.455268
