Criado como novo conjunto de dados;"1909daniel.spp","-4258603.7 Secs"
cm-1;Abs
10000.000000;1.834244
9999.000000;1.834149
9998.000000;1.834368
9997.000000;1.833923
9996.000000;1.832134
9995.000000;1.829109
9994.000000;1.826039
9993.000000;1.824812
9992.000000;1.826623
9991.000000;1.830436
9990.000000;1.833131
9989.000000;1.831933
9988.000000;1.827113
9987.000000;1.821933
9986.000000;1.819652
9985.000000;1.820737
9984.000000;1.822987
9983.000000;1.824222
9982.000000;1.824331
9981.000000;1.824295
9980.000000;1.824085
9979.000000;1.822894
9978.000000;1.821223
9977.000000;1.821191
9976.000000;1.824061
9975.000000;1.828365
9974.000000;1.831187
9973.000000;1.830865
9972.000000;1.827784
9971.000000;1.823139
9970.000000;1.818013
9969.000000;1.813433
9968.000000;1.810195
9967.000000;1.808388
9966.000000;1.807542
9965.000000;1.807232
9964.000000;1.807311
9963.000000;1.807715
9962.000000;1.808314
9961.000000;1.808761
9960.000000;1.808222
9959.000000;1.805730
9958.000000;1.801560
9957.000000;1.797895
9956.000000;1.797066
9955.000000;1.798963
9954.000000;1.800949
9953.000000;1.800768
9952.000000;1.798889
9951.000000;1.797385
9950.000000;1.797185
9949.000000;1.797217
9948.000000;1.796274
9947.000000;1.794950
9946.000000;1.794940
9945.000000;1.796847
9944.000000;1.799311
9943.000000;1.800328
9942.000000;1.799021
9941.000000;1.795860
9940.000000;1.791720
9939.000000;1.787454
9938.000000;1.784156
9937.000000;1.782952
9936.000000;1.784095
9935.000000;1.786405
9934.000000;1.787886
9933.000000;1.787241
9932.000000;1.785041
9931.000000;1.783298
9930.000000;1.783596
9929.000000;1.785308
9928.000000;1.785979
9927.000000;1.784021
9926.000000;1.780744
9925.000000;1.778838
9924.000000;1.779082
9923.000000;1.779608
9922.000000;1.778511
9921.000000;1.776099
9920.000000;1.773911
9919.000000;1.772575
9918.000000;1.771626
9917.000000;1.770821
9916.000000;1.770457
9915.000000;1.770438
9914.000000;1.769980
9913.000000;1.768544
9912.000000;1.766619
9911.000000;1.765424
9910.000000;1.766010
9909.000000;1.768411
9908.000000;1.771292
9907.000000;1.772721
9906.000000;1.771956
9905.000000;1.770291
9904.000000;1.769480
9903.000000;1.769556
9902.000000;1.768962
9901.000000;1.766868
9900.000000;1.764502
9899.000000;1.763682
9898.000000;1.764596
9897.000000;1.765695
9896.000000;1.765546
9895.000000;1.764256
9894.000000;1.762928
9893.000000;1.762166
9892.000000;1.761575
9891.000000;1.760765
9890.000000;1.760435
9889.000000;1.761767
9888.000000;1.764548
9887.000000;1.766548
9886.000000;1.765605
9885.000000;1.762187
9884.000000;1.758952
9883.000000;1.757700
9882.000000;1.757686
9881.000000;1.757218
9880.000000;1.755993
9879.000000;1.754982
9878.000000;1.754484
9877.000000;1.753551
9876.000000;1.751582
9875.000000;1.749452
9874.000000;1.748443
9873.000000;1.748623
9872.000000;1.748889
9871.000000;1.748381
9870.000000;1.747197
9869.000000;1.745753
9868.000000;1.744111
9867.000000;1.742270
9866.000000;1.740571
9865.000000;1.739371
9864.000000;1.738557
9863.000000;1.737768
9862.000000;1.736930
9861.000000;1.736171
9860.000000;1.735389
9859.000000;1.734437
9858.000000;1.733654
9857.000000;1.733599
9856.000000;1.734170
9855.000000;1.734497
9854.000000;1.733951
9853.000000;1.732945
9852.000000;1.732387
9851.000000;1.732542
9850.000000;1.732722
9849.000000;1.731985
9848.000000;1.729907
9847.000000;1.726835
9846.000000;1.723658
9845.000000;1.721267
9844.000000;1.719958
9843.000000;1.719460
9842.000000;1.719610
9841.000000;1.720608
9840.000000;1.722239
9839.000000;1.723283
9838.000000;1.722492
9837.000000;1.720262
9836.000000;1.718545
9835.000000;1.718782
9834.000000;1.720515
9833.000000;1.722121
9832.000000;1.722376
9831.000000;1.720999
9830.000000;1.718099
9829.000000;1.713985
9828.000000;1.709599
9827.000000;1.706379
9826.000000;1.705214
9825.000000;1.705690
9824.000000;1.706535
9823.000000;1.706698
9822.000000;1.705995
9821.000000;1.705007
9820.000000;1.704598
9819.000000;1.705245
9818.000000;1.706429
9817.000000;1.706847
9816.000000;1.705699
9815.000000;1.703711
9814.000000;1.702476
9813.000000;1.702809
9812.000000;1.704078
9811.000000;1.705089
9810.000000;1.705233
9809.000000;1.704579
9808.000000;1.703346
9807.000000;1.701807
9806.000000;1.700439
9805.000000;1.699571
9804.000000;1.698941
9803.000000;1.698006
9802.000000;1.696653
9801.000000;1.695361
9800.000000;1.694832
9799.000000;1.695656
9798.000000;1.697964
9797.000000;1.700807
9796.000000;1.702123
9795.000000;1.700324
9794.000000;1.696208
9793.000000;1.692496
9792.000000;1.691154
9791.000000;1.691692
9790.000000;1.692208
9789.000000;1.691490
9788.000000;1.689670
9787.000000;1.687339
9786.000000;1.684944
9785.000000;1.682976
9784.000000;1.682025
9783.000000;1.682400
9782.000000;1.683933
9781.000000;1.686068
9780.000000;1.687966
9779.000000;1.688757
9778.000000;1.687968
9777.000000;1.685625
9776.000000;1.681946
9775.000000;1.677337
9774.000000;1.672871
9773.000000;1.670121
9772.000000;1.669896
9771.000000;1.671355
9770.000000;1.672912
9769.000000;1.673879
9768.000000;1.674583
9767.000000;1.675124
9766.000000;1.674950
9765.000000;1.673850
9764.000000;1.672499
9763.000000;1.671578
9762.000000;1.671017
9761.000000;1.670571
9760.000000;1.670416
9759.000000;1.670516
9758.000000;1.669960
9757.000000;1.667960
9756.000000;1.665441
9755.000000;1.664596
9754.000000;1.666456
9753.000000;1.669405
9752.000000;1.670436
9751.000000;1.667966
9750.000000;1.663159
9749.000000;1.658488
9748.000000;1.655494
9747.000000;1.654055
9746.000000;1.653438
9745.000000;1.653443
9744.000000;1.654296
9743.000000;1.655741
9742.000000;1.656701
9741.000000;1.656024
9740.000000;1.653548
9739.000000;1.650377
9738.000000;1.647995
9737.000000;1.646973
9736.000000;1.646524
9735.000000;1.645486
9734.000000;1.643839
9733.000000;1.642963
9732.000000;1.644154
9731.000000;1.647001
9730.000000;1.649421
9729.000000;1.649443
9728.000000;1.647011
9727.000000;1.644099
9726.000000;1.643141
9725.000000;1.645132
9724.000000;1.648692
9723.000000;1.650866
9722.000000;1.649567
9721.000000;1.645547
9720.000000;1.641581
9719.000000;1.639845
9718.000000;1.640411
9717.000000;1.641858
9716.000000;1.642758
9715.000000;1.642471
9714.000000;1.641072
9713.000000;1.639125
9712.000000;1.637447
9711.000000;1.636666
9710.000000;1.636735
9709.000000;1.636855
9708.000000;1.636014
9707.000000;1.633871
9706.000000;1.631179
9705.000000;1.629114
9704.000000;1.628151
9703.000000;1.627866
9702.000000;1.627949
9701.000000;1.628882
9700.000000;1.631001
9699.000000;1.633298
9698.000000;1.634115
9697.000000;1.633110
9696.000000;1.631555
9695.000000;1.630473
9694.000000;1.629501
9693.000000;1.628025
9692.000000;1.626534
9691.000000;1.625998
9690.000000;1.626283
9689.000000;1.626037
9688.000000;1.624166
9687.000000;1.620956
9686.000000;1.617793
9685.000000;1.616077
9684.000000;1.616251
9683.000000;1.617547
9682.000000;1.618737
9681.000000;1.619375
9680.000000;1.620022
9679.000000;1.620914
9678.000000;1.620939
9677.000000;1.618793
9676.000000;1.614891
9675.000000;1.611279
9674.000000;1.609662
9673.000000;1.610040
9672.000000;1.611182
9671.000000;1.611899
9670.000000;1.611750
9669.000000;1.610909
9668.000000;1.609647
9667.000000;1.607967
9666.000000;1.605760
9665.000000;1.603287
9664.000000;1.601235
9663.000000;1.600103
9662.000000;1.599717
9661.000000;1.599538
9660.000000;1.599254
9659.000000;1.598850
9658.000000;1.598443
9657.000000;1.598409
9656.000000;1.599245
9655.000000;1.600733
9654.000000;1.601559
9653.000000;1.600559
9652.000000;1.598297
9651.000000;1.596587
9650.000000;1.596402
9649.000000;1.596931
9648.000000;1.596838
9647.000000;1.595820
9646.000000;1.594582
9645.000000;1.593795
9644.000000;1.593496
9643.000000;1.593288
9642.000000;1.592868
9641.000000;1.592410
9640.000000;1.592304
9639.000000;1.592313
9638.000000;1.591340
9637.000000;1.588685
9636.000000;1.585396
9635.000000;1.583481
9634.000000;1.583680
9633.000000;1.584703
9632.000000;1.584912
9631.000000;1.584094
9630.000000;1.583129
9629.000000;1.582567
9628.000000;1.582210
9627.000000;1.581693
9626.000000;1.580852
9625.000000;1.579720
9624.000000;1.578634
9623.000000;1.578103
9622.000000;1.578288
9621.000000;1.578859
9620.000000;1.579477
9619.000000;1.579919
9618.000000;1.579595
9617.000000;1.577765
9616.000000;1.574781
9615.000000;1.572387
9614.000000;1.571956
9613.000000;1.572842
9612.000000;1.573260
9611.000000;1.572560
9610.000000;1.571711
9609.000000;1.571725
9608.000000;1.572540
9607.000000;1.573380
9606.000000;1.573443
9605.000000;1.572168
9604.000000;1.569641
9603.000000;1.566971
9602.000000;1.565632
9601.000000;1.566110
9600.000000;1.567526
9599.000000;1.568775
9598.000000;1.569466
9597.000000;1.569492
9596.000000;1.568518
9595.000000;1.566493
9594.000000;1.564177
9593.000000;1.562557
9592.000000;1.561900
9591.000000;1.561664
9590.000000;1.561202
9589.000000;1.560289
9588.000000;1.559127
9587.000000;1.558095
9586.000000;1.557424
9585.000000;1.557054
9584.000000;1.556918
9583.000000;1.557283
9582.000000;1.558395
9581.000000;1.559673
9580.000000;1.559864
9579.000000;1.558411
9578.000000;1.556155
9577.000000;1.554287
9576.000000;1.553226
9575.000000;1.552949
9574.000000;1.553636
9573.000000;1.555054
9572.000000;1.555811
9571.000000;1.554487
9570.000000;1.551506
9569.000000;1.548726
9568.000000;1.547130
9567.000000;1.546011
9566.000000;1.544654
9565.000000;1.543569
9564.000000;1.543391
9563.000000;1.543586
9562.000000;1.543221
9561.000000;1.542359
9560.000000;1.541683
9559.000000;1.541178
9558.000000;1.540260
9557.000000;1.538919
9556.000000;1.537730
9555.000000;1.536784
9554.000000;1.535685
9553.000000;1.534707
9552.000000;1.534714
9551.000000;1.535600
9550.000000;1.535876
9549.000000;1.534443
9548.000000;1.531997
9547.000000;1.530062
9546.000000;1.529294
9545.000000;1.529385
9544.000000;1.529924
9543.000000;1.530502
9542.000000;1.530449
9541.000000;1.529489
9540.000000;1.528476
9539.000000;1.528579
9538.000000;1.529712
9537.000000;1.530429
9536.000000;1.529371
9535.000000;1.526368
9534.000000;1.522229
9533.000000;1.518201
9532.000000;1.515665
9531.000000;1.515489
9530.000000;1.517217
9529.000000;1.519240
9528.000000;1.520054
9527.000000;1.519173
9526.000000;1.516933
9525.000000;1.514044
9524.000000;1.511479
9523.000000;1.510098
9522.000000;1.509974
9521.000000;1.510357
9520.000000;1.510507
9519.000000;1.510229
9518.000000;1.509632
9517.000000;1.509041
9516.000000;1.509272
9515.000000;1.511120
9514.000000;1.514035
9513.000000;1.516045
9512.000000;1.515839
9511.000000;1.514461
9510.000000;1.514070
9509.000000;1.515374
9508.000000;1.517043
9507.000000;1.517451
9506.000000;1.516223
9505.000000;1.514020
9504.000000;1.511600
9503.000000;1.509400
9502.000000;1.507594
9501.000000;1.506300
9500.000000;1.505854
9499.000000;1.506711
9498.000000;1.508658
9497.000000;1.510301
9496.000000;1.510039
9495.000000;1.507709
9494.000000;1.504741
9493.000000;1.502567
9492.000000;1.501378
9491.000000;1.500441
9490.000000;1.499001
9489.000000;1.496759
9488.000000;1.494153
9487.000000;1.492443
9486.000000;1.492894
9485.000000;1.495401
9484.000000;1.498256
9483.000000;1.499678
9482.000000;1.499375
9481.000000;1.498241
9480.000000;1.497041
9479.000000;1.496092
9478.000000;1.495735
9477.000000;1.496115
9476.000000;1.496515
9475.000000;1.495760
9474.000000;1.493526
9473.000000;1.490751
9472.000000;1.488552
9471.000000;1.487178
9470.000000;1.486211
9469.000000;1.485424
9468.000000;1.484985
9467.000000;1.485048
9466.000000;1.485469
9465.000000;1.485777
9464.000000;1.485337
9463.000000;1.483765
9462.000000;1.481459
9461.000000;1.479418
9460.000000;1.478287
9459.000000;1.477917
9458.000000;1.477999
9457.000000;1.478706
9456.000000;1.480280
9455.000000;1.482204
9454.000000;1.483291
9453.000000;1.482720
9452.000000;1.480813
9451.000000;1.478804
9450.000000;1.477930
9449.000000;1.478548
9448.000000;1.479845
9447.000000;1.480548
9446.000000;1.480170
9445.000000;1.479302
9444.000000;1.478494
9443.000000;1.477358
9442.000000;1.475297
9441.000000;1.472783
9440.000000;1.471073
9439.000000;1.470631
9438.000000;1.470603
9437.000000;1.470129
9436.000000;1.469516
9435.000000;1.469656
9434.000000;1.470785
9433.000000;1.472265
9432.000000;1.473133
9431.000000;1.472456
9430.000000;1.469796
9429.000000;1.465986
9428.000000;1.463001
9427.000000;1.462433
9426.000000;1.464227
9425.000000;1.467091
9424.000000;1.469734
9423.000000;1.471338
9422.000000;1.471391
9421.000000;1.470000
9420.000000;1.468240
9419.000000;1.467222
9418.000000;1.466733
9417.000000;1.465522
9416.000000;1.463020
9415.000000;1.460080
9414.000000;1.457948
9413.000000;1.457135
9412.000000;1.457403
9411.000000;1.458162
9410.000000;1.458585
9409.000000;1.458009
9408.000000;1.456678
9407.000000;1.455695
9406.000000;1.455840
9405.000000;1.456746
9404.000000;1.457437
9403.000000;1.457316
9402.000000;1.456409
9401.000000;1.455106
9400.000000;1.453991
9399.000000;1.453501
9398.000000;1.453341
9397.000000;1.452615
9396.000000;1.450878
9395.000000;1.448714
9394.000000;1.446967
9393.000000;1.445838
9392.000000;1.445169
9391.000000;1.445172
9390.000000;1.446223
9389.000000;1.448024
9388.000000;1.449570
9387.000000;1.450046
9386.000000;1.449496
9385.000000;1.448634
9384.000000;1.448317
9383.000000;1.449067
9382.000000;1.450603
9381.000000;1.451782
9380.000000;1.451387
9379.000000;1.449221
9378.000000;1.446295
9377.000000;1.443900
9376.000000;1.442668
9375.000000;1.442352
9374.000000;1.442145
9373.000000;1.441315
9372.000000;1.439973
9371.000000;1.439121
9370.000000;1.439607
9369.000000;1.441009
9368.000000;1.441762
9367.000000;1.440571
9366.000000;1.437696
9365.000000;1.434716
9364.000000;1.433130
9363.000000;1.433233
9362.000000;1.434176
9361.000000;1.434907
9360.000000;1.435005
9359.000000;1.434629
9358.000000;1.433879
9357.000000;1.432562
9356.000000;1.430724
9355.000000;1.429048
9354.000000;1.428325
9353.000000;1.428513
9352.000000;1.428587
9351.000000;1.427501
9350.000000;1.425294
9349.000000;1.423173
9348.000000;1.422478
9347.000000;1.423559
9346.000000;1.425610
9345.000000;1.427396
9344.000000;1.427985
9343.000000;1.426991
9342.000000;1.424605
9341.000000;1.421778
9340.000000;1.420015
9339.000000;1.420340
9338.000000;1.422262
9337.000000;1.424156
9336.000000;1.424884
9335.000000;1.424662
9334.000000;1.424138
9333.000000;1.423260
9332.000000;1.421619
9331.000000;1.419554
9330.000000;1.418124
9329.000000;1.417886
9328.000000;1.418239
9327.000000;1.418171
9326.000000;1.417348
9325.000000;1.416294
9324.000000;1.415645
9323.000000;1.415521
9322.000000;1.415657
9321.000000;1.415944
9320.000000;1.416532
9319.000000;1.417311
9318.000000;1.417626
9317.000000;1.416927
9316.000000;1.415610
9315.000000;1.414677
9314.000000;1.414462
9313.000000;1.414136
9312.000000;1.412773
9311.000000;1.410576
9310.000000;1.408635
9309.000000;1.407669
9308.000000;1.407423
9307.000000;1.407277
9306.000000;1.407041
9305.000000;1.407065
9304.000000;1.407678
9303.000000;1.408584
9302.000000;1.408871
9301.000000;1.407804
9300.000000;1.405655
9299.000000;1.403554
9298.000000;1.402462
9297.000000;1.402403
9296.000000;1.402722
9295.000000;1.402830
9294.000000;1.402507
9293.000000;1.401805
9292.000000;1.401041
9291.000000;1.400736
9290.000000;1.401243
9289.000000;1.402385
9288.000000;1.403549
9287.000000;1.404063
9286.000000;1.403472
9285.000000;1.401730
9284.000000;1.399295
9283.000000;1.396884
9282.000000;1.395009
9281.000000;1.393894
9280.000000;1.393789
9279.000000;1.394880
9278.000000;1.396676
9277.000000;1.397983
9276.000000;1.397918
9275.000000;1.396705
9274.000000;1.395166
9273.000000;1.393841
9272.000000;1.392908
9271.000000;1.392492
9270.000000;1.392527
9269.000000;1.392613
9268.000000;1.392504
9267.000000;1.392507
9266.000000;1.392940
9265.000000;1.393479
9264.000000;1.393544
9263.000000;1.393097
9262.000000;1.392494
9261.000000;1.391810
9260.000000;1.390919
9259.000000;1.390087
9258.000000;1.389773
9257.000000;1.389906
9256.000000;1.389926
9255.000000;1.389518
9254.000000;1.388762
9253.000000;1.387719
9252.000000;1.386577
9251.000000;1.386084
9250.000000;1.386938
9249.000000;1.388591
9248.000000;1.389444
9247.000000;1.388511
9246.000000;1.386281
9245.000000;1.383753
9244.000000;1.381433
9243.000000;1.379594
9242.000000;1.378656
9241.000000;1.378652
9240.000000;1.378822
9239.000000;1.378435
9238.000000;1.377728
9237.000000;1.377497
9236.000000;1.377966
9235.000000;1.378594
9234.000000;1.378837
9233.000000;1.378604
9232.000000;1.378061
9231.000000;1.377450
9230.000000;1.377074
9229.000000;1.377073
9228.000000;1.377176
9227.000000;1.376938
9226.000000;1.376259
9225.000000;1.375441
9224.000000;1.374750
9223.000000;1.374145
9222.000000;1.373509
9221.000000;1.372966
9220.000000;1.372829
9219.000000;1.373227
9218.000000;1.373839
9217.000000;1.374085
9216.000000;1.373626
9215.000000;1.372639
9214.000000;1.371584
9213.000000;1.370775
9212.000000;1.370319
9211.000000;1.370340
9210.000000;1.370983
9209.000000;1.372138
9208.000000;1.373340
9207.000000;1.374032
9206.000000;1.373871
9205.000000;1.372822
9204.000000;1.371147
9203.000000;1.369314
9202.000000;1.367756
9201.000000;1.366727
9200.000000;1.366442
9199.000000;1.367145
9198.000000;1.368660
9197.000000;1.370030
9196.000000;1.370126
9195.000000;1.368800
9194.000000;1.367102
9193.000000;1.366137
9192.000000;1.365916
9191.000000;1.365610
9190.000000;1.364754
9189.000000;1.363859
9188.000000;1.363813
9187.000000;1.364886
9186.000000;1.366416
9185.000000;1.367401
9184.000000;1.367301
9183.000000;1.366242
9182.000000;1.364633
9181.000000;1.362901
9180.000000;1.361603
9179.000000;1.361303
9178.000000;1.361912
9177.000000;1.362497
9176.000000;1.362244
9175.000000;1.361366
9174.000000;1.360559
9173.000000;1.359914
9172.000000;1.358966
9171.000000;1.357608
9170.000000;1.356298
9169.000000;1.355306
9168.000000;1.354462
9167.000000;1.353862
9166.000000;1.354112
9165.000000;1.355448
9164.000000;1.357098
9163.000000;1.357967
9162.000000;1.357682
9161.000000;1.356663
9160.000000;1.355561
9159.000000;1.354923
9158.000000;1.354952
9157.000000;1.355173
9156.000000;1.354764
9155.000000;1.353674
9154.000000;1.353026
9153.000000;1.353809
9152.000000;1.355442
9151.000000;1.356286
9150.000000;1.355525
9149.000000;1.353898
9148.000000;1.352449
9147.000000;1.351280
9146.000000;1.349829
9145.000000;1.347867
9144.000000;1.345871
9143.000000;1.344635
9142.000000;1.344747
9141.000000;1.346224
9140.000000;1.348336
9139.000000;1.349910
9138.000000;1.350159
9137.000000;1.349283
9136.000000;1.348139
9135.000000;1.347331
9134.000000;1.346825
9133.000000;1.346394
9132.000000;1.346111
9131.000000;1.346164
9130.000000;1.346380
9129.000000;1.346334
9128.000000;1.345942
9127.000000;1.345618
9126.000000;1.345723
9125.000000;1.346214
9124.000000;1.346904
9123.000000;1.347697
9122.000000;1.348274
9121.000000;1.347990
9120.000000;1.346657
9119.000000;1.345161
9118.000000;1.344631
9117.000000;1.345110
9116.000000;1.345589
9115.000000;1.345300
9114.000000;1.344341
9113.000000;1.343062
9112.000000;1.341591
9111.000000;1.340211
9110.000000;1.339528
9109.000000;1.339808
9108.000000;1.340577
9107.000000;1.341289
9106.000000;1.341992
9105.000000;1.342864
9104.000000;1.343474
9103.000000;1.343132
9102.000000;1.341862
9101.000000;1.340509
9100.000000;1.339851
9099.000000;1.339896
9098.000000;1.339998
9097.000000;1.339432
9096.000000;1.337966
9095.000000;1.336104
9094.000000;1.334795
9093.000000;1.334727
9092.000000;1.335855
9091.000000;1.337510
9090.000000;1.338741
9089.000000;1.338638
9088.000000;1.336829
9087.000000;1.333978
9086.000000;1.331477
9085.000000;1.330345
9084.000000;1.330569
9083.000000;1.331540
9082.000000;1.332746
9081.000000;1.333771
9080.000000;1.334046
9079.000000;1.333192
9078.000000;1.331534
9077.000000;1.329899
9076.000000;1.328940
9075.000000;1.328851
9074.000000;1.329484
9073.000000;1.330453
9072.000000;1.331301
9071.000000;1.331930
9070.000000;1.332704
9069.000000;1.333839
9068.000000;1.334951
9067.000000;1.335623
9066.000000;1.336116
9065.000000;1.336946
9064.000000;1.337841
9063.000000;1.337776
9062.000000;1.336195
9061.000000;1.333716
9060.000000;1.331463
9059.000000;1.330084
9058.000000;1.329516
9057.000000;1.329383
9056.000000;1.329404
9055.000000;1.329547
9054.000000;1.329843
9053.000000;1.329979
9052.000000;1.329280
9051.000000;1.327426
9050.000000;1.325071
9049.000000;1.323395
9048.000000;1.323116
9047.000000;1.324224
9046.000000;1.326376
9045.000000;1.328975
9044.000000;1.330912
9043.000000;1.331036
9042.000000;1.329337
9041.000000;1.327175
9040.000000;1.325879
9039.000000;1.325440
9038.000000;1.324895
9037.000000;1.323720
9036.000000;1.322379
9035.000000;1.321597
9034.000000;1.321536
9033.000000;1.321823
9032.000000;1.322085
9031.000000;1.322195
9030.000000;1.322102
9029.000000;1.321735
9028.000000;1.321245
9027.000000;1.321186
9026.000000;1.322084
9025.000000;1.323682
9024.000000;1.324844
9023.000000;1.324576
9022.000000;1.323068
9021.000000;1.321476
9020.000000;1.320685
9019.000000;1.320515
9018.000000;1.320084
9017.000000;1.318701
9016.000000;1.316457
9015.000000;1.314215
9014.000000;1.313087
9013.000000;1.313702
9012.000000;1.315785
9011.000000;1.318436
9010.000000;1.320753
9009.000000;1.322136
9008.000000;1.322272
9007.000000;1.321353
9006.000000;1.320288
9005.000000;1.320105
9004.000000;1.320854
9003.000000;1.321397
9002.000000;1.320658
9001.000000;1.318894
9000.000000;1.317378
8999.000000;1.317011
8998.000000;1.317592
8997.000000;1.318246
8996.000000;1.318161
8995.000000;1.316973
8994.000000;1.314944
8993.000000;1.313002
8992.000000;1.312280
8991.000000;1.313214
8990.000000;1.315029
8989.000000;1.316271
8988.000000;1.315997
8987.000000;1.314467
8986.000000;1.312717
8985.000000;1.311591
8984.000000;1.311266
8983.000000;1.311508
8982.000000;1.312089
8981.000000;1.312798
8980.000000;1.313268
8979.000000;1.313167
8978.000000;1.312647
8977.000000;1.312380
8976.000000;1.312902
8975.000000;1.313906
8974.000000;1.314384
8973.000000;1.313594
8972.000000;1.311821
8971.000000;1.310071
8970.000000;1.309056
8969.000000;1.308632
8968.000000;1.308240
8967.000000;1.307709
8966.000000;1.307381
8965.000000;1.307509
8964.000000;1.307886
8963.000000;1.308205
8962.000000;1.308557
8961.000000;1.309288
8960.000000;1.310377
8959.000000;1.311206
8958.000000;1.311087
8957.000000;1.309983
8956.000000;1.308644
8955.000000;1.307907
8954.000000;1.307863
8953.000000;1.307830
8952.000000;1.307205
8951.000000;1.306183
8950.000000;1.305479
8949.000000;1.305498
8948.000000;1.306049
8947.000000;1.306808
8946.000000;1.307636
8945.000000;1.308332
8944.000000;1.308483
8943.000000;1.307838
8942.000000;1.306633
8941.000000;1.305342
8940.000000;1.304250
8939.000000;1.303437
8938.000000;1.302968
8937.000000;1.302892
8936.000000;1.303218
8935.000000;1.304044
8934.000000;1.305465
8933.000000;1.307094
8932.000000;1.308031
8931.000000;1.307706
8930.000000;1.306535
8929.000000;1.305334
8928.000000;1.304354
8927.000000;1.303369
8926.000000;1.302501
8925.000000;1.302262
8924.000000;1.302773
8923.000000;1.303524
8922.000000;1.304088
8921.000000;1.304562
8920.000000;1.305138
8919.000000;1.305656
8918.000000;1.305828
8917.000000;1.305556
8916.000000;1.304822
8915.000000;1.303596
8914.000000;1.302151
8913.000000;1.301150
8912.000000;1.301077
8911.000000;1.301732
8910.000000;1.302517
8909.000000;1.303051
8908.000000;1.303343
8907.000000;1.303552
8906.000000;1.303800
8905.000000;1.304083
8904.000000;1.304131
8903.000000;1.303543
8902.000000;1.302281
8901.000000;1.300838
8900.000000;1.299693
8899.000000;1.298771
8898.000000;1.297718
8897.000000;1.296558
8896.000000;1.295821
8895.000000;1.296059
8894.000000;1.297417
8893.000000;1.299501
8892.000000;1.301452
8891.000000;1.302370
8890.000000;1.302023
8889.000000;1.301048
8888.000000;1.300184
8887.000000;1.299411
8886.000000;1.298148
8885.000000;1.296272
8884.000000;1.294565
8883.000000;1.293993
8882.000000;1.294784
8881.000000;1.296338
8880.000000;1.297835
8879.000000;1.298762
8878.000000;1.299043
8877.000000;1.298940
8876.000000;1.298903
8875.000000;1.299313
8874.000000;1.300189
8873.000000;1.301042
8872.000000;1.301158
8871.000000;1.300219
8870.000000;1.298615
8869.000000;1.297090
8868.000000;1.296159
8867.000000;1.295920
8866.000000;1.296286
8865.000000;1.297123
8864.000000;1.298157
8863.000000;1.298985
8862.000000;1.299358
8861.000000;1.299264
8860.000000;1.298688
8859.000000;1.297584
8858.000000;1.296280
8857.000000;1.295541
8856.000000;1.295867
8855.000000;1.296900
8854.000000;1.297834
8853.000000;1.298255
8852.000000;1.298216
8851.000000;1.297685
8850.000000;1.296495
8849.000000;1.294898
8848.000000;1.293649
8847.000000;1.293330
8846.000000;1.293873
8845.000000;1.294809
8844.000000;1.295708
8843.000000;1.296258
8842.000000;1.296263
8841.000000;1.295842
8840.000000;1.295465
8839.000000;1.295504
8838.000000;1.295853
8837.000000;1.296152
8836.000000;1.296254
8835.000000;1.296293
8834.000000;1.296427
8833.000000;1.296678
8832.000000;1.296939
8831.000000;1.297005
8830.000000;1.296777
8829.000000;1.296591
8828.000000;1.297133
8827.000000;1.298666
8826.000000;1.300438
8825.000000;1.301211
8824.000000;1.300498
8823.000000;1.299040
8822.000000;1.297955
8821.000000;1.297672
8820.000000;1.297797
8819.000000;1.297755
8818.000000;1.297367
8817.000000;1.296894
8816.000000;1.296680
8815.000000;1.296753
8814.000000;1.296704
8813.000000;1.296036
8812.000000;1.294717
8811.000000;1.293334
8810.000000;1.292627
8809.000000;1.292914
8808.000000;1.293941
8807.000000;1.295168
8806.000000;1.296103
8805.000000;1.296481
8804.000000;1.296328
8803.000000;1.295915
8802.000000;1.295522
8801.000000;1.295239
8800.000000;1.295033
8799.000000;1.294933
8798.000000;1.294973
8797.000000;1.294948
8796.000000;1.294505
8795.000000;1.293661
8794.000000;1.293108
8793.000000;1.293662
8792.000000;1.295305
8791.000000;1.296955
8790.000000;1.297416
8789.000000;1.296551
8788.000000;1.295354
8787.000000;1.294887
8786.000000;1.295422
8785.000000;1.296651
8784.000000;1.298311
8783.000000;1.300184
8782.000000;1.301695
8781.000000;1.302123
8780.000000;1.301459
8779.000000;1.300627
8778.000000;1.300517
8777.000000;1.301033
8776.000000;1.301363
8775.000000;1.300955
8774.000000;1.299875
8773.000000;1.298359
8772.000000;1.296595
8771.000000;1.295075
8770.000000;1.294603
8769.000000;1.295555
8768.000000;1.297318
8767.000000;1.298812
8766.000000;1.299514
8765.000000;1.299769
8764.000000;1.300144
8763.000000;1.300790
8762.000000;1.301486
8761.000000;1.302076
8760.000000;1.302651
8759.000000;1.303307
8758.000000;1.303842
8757.000000;1.303845
8756.000000;1.303140
8755.000000;1.302021
8754.000000;1.300923
8753.000000;1.299997
8752.000000;1.299237
8751.000000;1.298927
8750.000000;1.299518
8749.000000;1.300911
8748.000000;1.302263
8747.000000;1.302840
8746.000000;1.302833
8745.000000;1.302915
8744.000000;1.303261
8743.000000;1.303503
8742.000000;1.303532
8741.000000;1.303694
8740.000000;1.304074
8739.000000;1.304141
8738.000000;1.303460
8737.000000;1.302445
8736.000000;1.301990
8735.000000;1.302473
8734.000000;1.303446
8733.000000;1.304241
8732.000000;1.304583
8731.000000;1.304553
8730.000000;1.304250
8729.000000;1.303734
8728.000000;1.303209
8727.000000;1.303077
8726.000000;1.303617
8725.000000;1.304594
8724.000000;1.305321
8723.000000;1.305292
8722.000000;1.304717
8721.000000;1.304263
8720.000000;1.304337
8719.000000;1.304815
8718.000000;1.305453
8717.000000;1.306232
8716.000000;1.307182
8715.000000;1.308139
8714.000000;1.308932
8713.000000;1.309602
8712.000000;1.310175
8711.000000;1.310354
8710.000000;1.309753
8709.000000;1.308457
8708.000000;1.307157
8707.000000;1.306650
8706.000000;1.307183
8705.000000;1.308164
8704.000000;1.308535
8703.000000;1.307713
8702.000000;1.306304
8701.000000;1.305604
8700.000000;1.306161
8699.000000;1.307098
8698.000000;1.307205
8697.000000;1.306457
8696.000000;1.305945
8695.000000;1.306387
8694.000000;1.307367
8693.000000;1.308165
8692.000000;1.308742
8691.000000;1.309500
8690.000000;1.310398
8689.000000;1.310831
8688.000000;1.310375
8687.000000;1.309327
8686.000000;1.308435
8685.000000;1.308206
8684.000000;1.308503
8683.000000;1.308749
8682.000000;1.308533
8681.000000;1.308034
8680.000000;1.307798
8679.000000;1.308096
8678.000000;1.308641
8677.000000;1.308989
8676.000000;1.309005
8675.000000;1.308875
8674.000000;1.308880
8673.000000;1.309305
8672.000000;1.310338
8671.000000;1.311783
8670.000000;1.312958
8669.000000;1.313195
8668.000000;1.312412
8667.000000;1.311043
8666.000000;1.309545
8665.000000;1.308242
8664.000000;1.307540
8663.000000;1.307872
8662.000000;1.309290
8661.000000;1.311315
8660.000000;1.313297
8659.000000;1.314710
8658.000000;1.315062
8657.000000;1.313960
8656.000000;1.311642
8655.000000;1.309231
8654.000000;1.308093
8653.000000;1.308825
8652.000000;1.310837
8651.000000;1.312842
8650.000000;1.313768
8649.000000;1.313416
8648.000000;1.312491
8647.000000;1.311955
8646.000000;1.312091
8645.000000;1.312144
8644.000000;1.311088
8643.000000;1.308894
8642.000000;1.306810
8641.000000;1.306181
8640.000000;1.307101
8639.000000;1.308385
8638.000000;1.308818
8637.000000;1.308284
8636.000000;1.307605
8635.000000;1.307521
8634.000000;1.308057
8633.000000;1.308760
8632.000000;1.309235
8631.000000;1.309357
8630.000000;1.309182
8629.000000;1.308872
8628.000000;1.308661
8627.000000;1.308687
8626.000000;1.308798
8625.000000;1.308637
8624.000000;1.308025
8623.000000;1.307267
8622.000000;1.306996
8621.000000;1.307632
8620.000000;1.308910
8619.000000;1.309967
8618.000000;1.310054
8617.000000;1.309287
8616.000000;1.308569
8615.000000;1.308641
8614.000000;1.309228
8613.000000;1.309298
8612.000000;1.308247
8611.000000;1.306646
8610.000000;1.305638
8609.000000;1.305758
8608.000000;1.306579
8607.000000;1.307407
8606.000000;1.307986
8605.000000;1.308325
8604.000000;1.308195
8603.000000;1.307333
8602.000000;1.306099
8601.000000;1.305443
8600.000000;1.305929
8599.000000;1.307047
8598.000000;1.307778
8597.000000;1.307701
8596.000000;1.307255
8595.000000;1.306991
8594.000000;1.306940
8593.000000;1.306775
8592.000000;1.306272
8591.000000;1.305518
8590.000000;1.304837
8589.000000;1.304598
8588.000000;1.304897
8587.000000;1.305361
8586.000000;1.305461
8585.000000;1.305082
8584.000000;1.304582
8583.000000;1.304304
8582.000000;1.304278
8581.000000;1.304466
8580.000000;1.304888
8579.000000;1.305346
8578.000000;1.305395
8577.000000;1.304904
8576.000000;1.304368
8575.000000;1.304299
8574.000000;1.304485
8573.000000;1.304281
8572.000000;1.303584
8571.000000;1.303103
8570.000000;1.303572
8569.000000;1.304932
8568.000000;1.306347
8567.000000;1.306898
8566.000000;1.306360
8565.000000;1.305406
8564.000000;1.304933
8563.000000;1.305108
8562.000000;1.305265
8561.000000;1.304862
8560.000000;1.304161
8559.000000;1.303643
8558.000000;1.303239
8557.000000;1.302714
8556.000000;1.302462
8555.000000;1.303110
8554.000000;1.304352
8553.000000;1.305025
8552.000000;1.304563
8551.000000;1.303670
8550.000000;1.303185
8549.000000;1.302976
8548.000000;1.302468
8547.000000;1.301736
8546.000000;1.301416
8545.000000;1.301827
8544.000000;1.302719
8543.000000;1.303710
8542.000000;1.304486
8541.000000;1.304688
8540.000000;1.304126
8539.000000;1.303160
8538.000000;1.302531
8537.000000;1.302724
8536.000000;1.303590
8535.000000;1.304455
8534.000000;1.304503
8533.000000;1.303358
8532.000000;1.301574
8531.000000;1.300351
8530.000000;1.300394
8529.000000;1.301222
8528.000000;1.301816
8527.000000;1.301752
8526.000000;1.301351
8525.000000;1.300947
8524.000000;1.300557
8523.000000;1.300198
8522.000000;1.300017
8521.000000;1.300034
8520.000000;1.300111
8519.000000;1.300245
8518.000000;1.300574
8517.000000;1.300987
8516.000000;1.301054
8515.000000;1.300498
8514.000000;1.299584
8513.000000;1.298940
8512.000000;1.299120
8511.000000;1.300196
8510.000000;1.301501
8509.000000;1.301890
8508.000000;1.300778
8507.000000;1.298937
8506.000000;1.297825
8505.000000;1.298022
8504.000000;1.298770
8503.000000;1.299147
8502.000000;1.299180
8501.000000;1.299382
8500.000000;1.299657
8499.000000;1.299346
8498.000000;1.298284
8497.000000;1.297258
8496.000000;1.297177
8495.000000;1.298107
8494.000000;1.299246
8493.000000;1.299689
8492.000000;1.299136
8491.000000;1.298037
8490.000000;1.297217
8489.000000;1.297271
8488.000000;1.298135
8487.000000;1.299111
8486.000000;1.299410
8485.000000;1.298770
8484.000000;1.297595
8483.000000;1.296558
8482.000000;1.296111
8481.000000;1.296343
8480.000000;1.297085
8479.000000;1.297976
8478.000000;1.298545
8477.000000;1.298552
8476.000000;1.298308
8475.000000;1.298362
8474.000000;1.298761
8473.000000;1.298936
8472.000000;1.298485
8471.000000;1.297761
8470.000000;1.297342
8469.000000;1.297198
8468.000000;1.296837
8467.000000;1.296147
8466.000000;1.295594
8465.000000;1.295568
8464.000000;1.295964
8463.000000;1.296505
8462.000000;1.297062
8461.000000;1.297475
8460.000000;1.297459
8459.000000;1.296955
8458.000000;1.296310
8457.000000;1.295848
8456.000000;1.295486
8455.000000;1.294989
8454.000000;1.294414
8453.000000;1.294069
8452.000000;1.294156
8451.000000;1.294651
8450.000000;1.295365
8449.000000;1.295954
8448.000000;1.296022
8447.000000;1.295508
8446.000000;1.294880
8445.000000;1.294705
8444.000000;1.295103
8443.000000;1.295783
8442.000000;1.296501
8441.000000;1.297193
8440.000000;1.297732
8439.000000;1.297850
8438.000000;1.297424
8437.000000;1.296626
8436.000000;1.295705
8435.000000;1.294758
8434.000000;1.293854
8433.000000;1.293263
8432.000000;1.293347
8431.000000;1.294118
8430.000000;1.294978
8429.000000;1.295133
8428.000000;1.294412
8427.000000;1.293533
8426.000000;1.293363
8425.000000;1.293915
8424.000000;1.294321
8423.000000;1.293864
8422.000000;1.292833
8421.000000;1.292156
8420.000000;1.292373
8419.000000;1.293151
8418.000000;1.293717
8417.000000;1.293602
8416.000000;1.292993
8415.000000;1.292509
8414.000000;1.292637
8413.000000;1.293247
8412.000000;1.293646
8411.000000;1.293187
8410.000000;1.291891
8409.000000;1.290486
8408.000000;1.289838
8407.000000;1.290296
8406.000000;1.291456
8405.000000;1.292510
8404.000000;1.292944
8403.000000;1.292968
8402.000000;1.293171
8401.000000;1.293818
8400.000000;1.294655
8399.000000;1.295356
8398.000000;1.295802
8397.000000;1.295804
8396.000000;1.294951
8395.000000;1.293173
8394.000000;1.291229
8393.000000;1.290173
8392.000000;1.290283
8391.000000;1.290838
8390.000000;1.291013
8389.000000;1.290725
8388.000000;1.290454
8387.000000;1.290524
8386.000000;1.290853
8385.000000;1.291310
8384.000000;1.291982
8383.000000;1.292898
8382.000000;1.293648
8381.000000;1.293548
8380.000000;1.292352
8379.000000;1.290684
8378.000000;1.289547
8377.000000;1.289391
8376.000000;1.289800
8375.000000;1.290077
8374.000000;1.289935
8373.000000;1.289539
8372.000000;1.289160
8371.000000;1.289036
8370.000000;1.289381
8369.000000;1.290171
8368.000000;1.290953
8367.000000;1.291172
8366.000000;1.290730
8365.000000;1.290009
8364.000000;1.289364
8363.000000;1.288842
8362.000000;1.288441
8361.000000;1.288302
8360.000000;1.288481
8359.000000;1.288733
8358.000000;1.288691
8357.000000;1.288178
8356.000000;1.287278
8355.000000;1.286250
8354.000000;1.285501
8353.000000;1.285510
8352.000000;1.286504
8351.000000;1.288148
8350.000000;1.289663
8349.000000;1.290349
8348.000000;1.290046
8347.000000;1.289175
8346.000000;1.288402
8345.000000;1.288200
8344.000000;1.288589
8343.000000;1.289214
8342.000000;1.289624
8341.000000;1.289508
8340.000000;1.288789
8339.000000;1.287674
8338.000000;1.286622
8337.000000;1.286094
8336.000000;1.286257
8335.000000;1.286912
8334.000000;1.287689
8333.000000;1.288195
8332.000000;1.288075
8331.000000;1.287232
8330.000000;1.286077
8329.000000;1.285321
8328.000000;1.285314
8327.000000;1.285731
8326.000000;1.286076
8325.000000;1.286336
8324.000000;1.286903
8323.000000;1.287957
8322.000000;1.289198
8321.000000;1.290195
8320.000000;1.290682
8319.000000;1.290490
8318.000000;1.289516
8317.000000;1.288004
8316.000000;1.286646
8315.000000;1.286137
8314.000000;1.286604
8313.000000;1.287584
8312.000000;1.288492
8311.000000;1.288984
8310.000000;1.288939
8309.000000;1.288334
8308.000000;1.287281
8307.000000;1.286088
8306.000000;1.285150
8305.000000;1.284755
8304.000000;1.284981
8303.000000;1.285683
8302.000000;1.286507
8301.000000;1.286965
8300.000000;1.286688
8299.000000;1.285732
8298.000000;1.284634
8297.000000;1.284025
8296.000000;1.284083
8295.000000;1.284361
8294.000000;1.284212
8293.000000;1.283417
8292.000000;1.282353
8291.000000;1.281590
8290.000000;1.281434
8289.000000;1.281842
8288.000000;1.282603
8287.000000;1.283458
8286.000000;1.284123
8285.000000;1.284408
8284.000000;1.284377
8283.000000;1.284295
8282.000000;1.284330
8281.000000;1.284382
8280.000000;1.284230
8279.000000;1.283820
8278.000000;1.283342
8277.000000;1.283056
8276.000000;1.283100
8275.000000;1.283414
8274.000000;1.283821
8273.000000;1.284194
8272.000000;1.284553
8271.000000;1.284948
8270.000000;1.285235
8269.000000;1.285086
8268.000000;1.284350
8267.000000;1.283324
8266.000000;1.282545
8265.000000;1.282289
8264.000000;1.282398
8263.000000;1.282585
8262.000000;1.282749
8261.000000;1.282890
8260.000000;1.282907
8259.000000;1.282730
8258.000000;1.282571
8257.000000;1.282779
8256.000000;1.283367
8255.000000;1.283877
8254.000000;1.283842
8253.000000;1.283257
8252.000000;1.282478
8251.000000;1.281821
8250.000000;1.281458
8249.000000;1.281587
8248.000000;1.282355
8247.000000;1.283534
8246.000000;1.284511
8245.000000;1.284813
8244.000000;1.284554
8243.000000;1.284229
8242.000000;1.284161
8241.000000;1.284280
8240.000000;1.284331
8239.000000;1.284121
8238.000000;1.283627
8237.000000;1.283062
8236.000000;1.282763
8235.000000;1.282829
8234.000000;1.282856
8233.000000;1.282306
8232.000000;1.281195
8231.000000;1.280172
8230.000000;1.279818
8229.000000;1.280073
8228.000000;1.280488
8227.000000;1.280792
8226.000000;1.280983
8225.000000;1.281014
8224.000000;1.280750
8223.000000;1.280246
8222.000000;1.279784
8221.000000;1.279560
8220.000000;1.279515
8219.000000;1.279528
8218.000000;1.279558
8217.000000;1.279524
8216.000000;1.279246
8215.000000;1.278694
8214.000000;1.278119
8213.000000;1.277736
8212.000000;1.277379
8211.000000;1.276726
8210.000000;1.275885
8209.000000;1.275462
8208.000000;1.275907
8207.000000;1.276954
8206.000000;1.277889
8205.000000;1.278259
8204.000000;1.278141
8203.000000;1.277846
8202.000000;1.277635
8201.000000;1.277742
8200.000000;1.278325
8199.000000;1.279205
8198.000000;1.279843
8197.000000;1.279842
8196.000000;1.279368
8195.000000;1.278872
8194.000000;1.278517
8193.000000;1.278152
8192.000000;1.277785
8191.000000;1.277710
8190.000000;1.278073
8189.000000;1.278621
8188.000000;1.279032
8187.000000;1.279286
8186.000000;1.279488
8185.000000;1.279480
8184.000000;1.278927
8183.000000;1.277804
8182.000000;1.276627
8181.000000;1.276109
8180.000000;1.276600
8179.000000;1.277772
8178.000000;1.278822
8177.000000;1.279091
8176.000000;1.278574
8175.000000;1.277786
8174.000000;1.277153
8173.000000;1.276719
8172.000000;1.276421
8171.000000;1.276368
8170.000000;1.276659
8169.000000;1.277132
8168.000000;1.277556
8167.000000;1.277904
8166.000000;1.278196
8165.000000;1.278231
8164.000000;1.277792
8163.000000;1.277054
8162.000000;1.276453
8161.000000;1.276150
8160.000000;1.275902
8159.000000;1.275494
8158.000000;1.274990
8157.000000;1.274501
8156.000000;1.274003
8155.000000;1.273526
8154.000000;1.273248
8153.000000;1.273256
8152.000000;1.273399
8151.000000;1.273562
8150.000000;1.273885
8149.000000;1.274529
8148.000000;1.275357
8147.000000;1.276064
8146.000000;1.276492
8145.000000;1.276649
8144.000000;1.276506
8143.000000;1.276031
8142.000000;1.275380
8141.000000;1.274861
8140.000000;1.274654
8139.000000;1.274692
8138.000000;1.274822
8137.000000;1.274969
8136.000000;1.275136
8135.000000;1.275346
8134.000000;1.275623
8133.000000;1.275943
8132.000000;1.276176
8131.000000;1.276175
8130.000000;1.275948
8129.000000;1.275686
8128.000000;1.275549
8127.000000;1.275479
8126.000000;1.275298
8125.000000;1.274985
8124.000000;1.274746
8123.000000;1.274761
8122.000000;1.274907
8121.000000;1.274872
8120.000000;1.274542
8119.000000;1.274150
8118.000000;1.273942
8117.000000;1.273896
8116.000000;1.273939
8115.000000;1.274282
8114.000000;1.275185
8113.000000;1.276367
8112.000000;1.276983
8111.000000;1.276418
8110.000000;1.274937
8109.000000;1.273372
8108.000000;1.272290
8107.000000;1.271680
8106.000000;1.271323
8105.000000;1.271131
8104.000000;1.271090
8103.000000;1.271118
8102.000000;1.271126
8101.000000;1.271138
8100.000000;1.271222
8099.000000;1.271392
8098.000000;1.271646
8097.000000;1.272010
8096.000000;1.272450
8095.000000;1.272762
8094.000000;1.272715
8093.000000;1.272347
8092.000000;1.272011
8091.000000;1.272038
8090.000000;1.272395
8089.000000;1.272760
8088.000000;1.272884
8087.000000;1.272787
8086.000000;1.272558
8085.000000;1.272140
8084.000000;1.271450
8083.000000;1.270659
8082.000000;1.270169
8081.000000;1.270280
8080.000000;1.270900
8079.000000;1.271605
8078.000000;1.271966
8077.000000;1.271913
8076.000000;1.271839
8075.000000;1.272242
8074.000000;1.273134
8073.000000;1.273861
8072.000000;1.273715
8071.000000;1.272710
8070.000000;1.271554
8069.000000;1.270863
8068.000000;1.270640
8067.000000;1.270543
8066.000000;1.270379
8065.000000;1.270168
8064.000000;1.269951
8063.000000;1.269778
8062.000000;1.269759
8061.000000;1.269934
8060.000000;1.270152
8059.000000;1.270263
8058.000000;1.270367
8057.000000;1.270678
8056.000000;1.271186
8055.000000;1.271632
8054.000000;1.271811
8053.000000;1.271718
8052.000000;1.271399
8051.000000;1.270870
8050.000000;1.270242
8049.000000;1.269765
8048.000000;1.269639
8047.000000;1.269815
8046.000000;1.270030
8045.000000;1.270052
8044.000000;1.269912
8043.000000;1.269912
8042.000000;1.270313
8041.000000;1.270970
8040.000000;1.271367
8039.000000;1.271153
8038.000000;1.270522
8037.000000;1.269879
8036.000000;1.269299
8035.000000;1.268615
8034.000000;1.267975
8033.000000;1.267874
8032.000000;1.268469
8031.000000;1.269209
8030.000000;1.269392
8029.000000;1.268915
8028.000000;1.268261
8027.000000;1.267926
8026.000000;1.268101
8025.000000;1.268713
8024.000000;1.269434
8023.000000;1.269728
8022.000000;1.269288
8021.000000;1.268492
8020.000000;1.268097
8019.000000;1.268384
8018.000000;1.268864
8017.000000;1.268973
8016.000000;1.268777
8015.000000;1.268757
8014.000000;1.269116
8013.000000;1.269590
8012.000000;1.269874
8011.000000;1.269905
8010.000000;1.269712
8009.000000;1.269263
8008.000000;1.268616
8007.000000;1.268046
8006.000000;1.267859
8005.000000;1.268114
8004.000000;1.268593
8003.000000;1.269036
8002.000000;1.269323
8001.000000;1.269448
8000.000000;1.269422
7999.000000;1.269233
7998.000000;1.268917
7997.000000;1.268626
7996.000000;1.268518
7995.000000;1.268543
7994.000000;1.268432
7993.000000;1.268033
7992.000000;1.267594
7991.000000;1.267556
7990.000000;1.268031
7989.000000;1.268697
7988.000000;1.269253
7987.000000;1.269773
7986.000000;1.270452
7985.000000;1.271148
7984.000000;1.271424
7983.000000;1.271011
7982.000000;1.270044
7981.000000;1.268859
7980.000000;1.267792
7979.000000;1.267189
7978.000000;1.267318
7977.000000;1.268072
7976.000000;1.268882
7975.000000;1.269165
7974.000000;1.268890
7973.000000;1.268560
7972.000000;1.268634
7971.000000;1.269060
7970.000000;1.269404
7969.000000;1.269325
7968.000000;1.268854
7967.000000;1.268286
7966.000000;1.267892
7965.000000;1.267722
7964.000000;1.267628
7963.000000;1.267437
7962.000000;1.267135
7961.000000;1.266896
7960.000000;1.266932
7959.000000;1.267273
7958.000000;1.267755
7957.000000;1.268213
7956.000000;1.268626
7955.000000;1.268990
7954.000000;1.269145
7953.000000;1.268880
7952.000000;1.268231
7951.000000;1.267531
7950.000000;1.267098
7949.000000;1.266971
7948.000000;1.267017
7947.000000;1.267172
7946.000000;1.267440
7945.000000;1.267732
7944.000000;1.267893
7943.000000;1.267908
7942.000000;1.267936
7941.000000;1.268085
7940.000000;1.268240
7939.000000;1.268185
7938.000000;1.267835
7937.000000;1.267294
7936.000000;1.266730
7935.000000;1.266251
7934.000000;1.265908
7933.000000;1.265740
7932.000000;1.265798
7931.000000;1.266097
7930.000000;1.266555
7929.000000;1.267010
7928.000000;1.267320
7927.000000;1.267447
7926.000000;1.267451
7925.000000;1.267430
7924.000000;1.267487
7923.000000;1.267701
7922.000000;1.268072
7921.000000;1.268486
7920.000000;1.268796
7919.000000;1.268925
7918.000000;1.268883
7917.000000;1.268697
7916.000000;1.268374
7915.000000;1.267945
7914.000000;1.267493
7913.000000;1.267143
7912.000000;1.267035
7911.000000;1.267265
7910.000000;1.267803
7909.000000;1.268464
7908.000000;1.268986
7907.000000;1.269186
7906.000000;1.269081
7905.000000;1.268886
7904.000000;1.268830
7903.000000;1.268913
7902.000000;1.268867
7901.000000;1.268475
7900.000000;1.267913
7899.000000;1.267605
7898.000000;1.267706
7897.000000;1.267913
7896.000000;1.267915
7895.000000;1.267816
7894.000000;1.267914
7893.000000;1.268182
7892.000000;1.268231
7891.000000;1.267798
7890.000000;1.267035
7889.000000;1.266318
7888.000000;1.265927
7887.000000;1.265950
7886.000000;1.266279
7885.000000;1.266652
7884.000000;1.266824
7883.000000;1.266806
7882.000000;1.266824
7881.000000;1.267026
7880.000000;1.267331
7879.000000;1.267577
7878.000000;1.267698
7877.000000;1.267704
7876.000000;1.267640
7875.000000;1.267637
7874.000000;1.267869
7873.000000;1.268365
7872.000000;1.268938
7871.000000;1.269345
7870.000000;1.269440
7869.000000;1.269162
7868.000000;1.268531
7867.000000;1.267769
7866.000000;1.267247
7865.000000;1.267178
7864.000000;1.267393
7863.000000;1.267525
7862.000000;1.267388
7861.000000;1.267104
7860.000000;1.266907
7859.000000;1.266918
7858.000000;1.267048
7857.000000;1.267087
7856.000000;1.266918
7855.000000;1.266670
7854.000000;1.266593
7853.000000;1.266760
7852.000000;1.267007
7851.000000;1.267181
7850.000000;1.267324
7849.000000;1.267503
7848.000000;1.267627
7847.000000;1.267577
7846.000000;1.267439
7845.000000;1.267437
7844.000000;1.267635
7843.000000;1.267863
7842.000000;1.267969
7841.000000;1.268018
7840.000000;1.268189
7839.000000;1.268534
7838.000000;1.268898
7837.000000;1.269090
7836.000000;1.269105
7835.000000;1.269138
7834.000000;1.269342
7833.000000;1.269632
7832.000000;1.269787
7831.000000;1.269724
7830.000000;1.269560
7829.000000;1.269452
7828.000000;1.269500
7827.000000;1.269773
7826.000000;1.270218
7825.000000;1.270517
7824.000000;1.270273
7823.000000;1.269481
7822.000000;1.268635
7821.000000;1.268236
7820.000000;1.268352
7819.000000;1.268752
7818.000000;1.269237
7817.000000;1.269621
7816.000000;1.269595
7815.000000;1.268993
7814.000000;1.268157
7813.000000;1.267724
7812.000000;1.268008
7811.000000;1.268785
7810.000000;1.269671
7809.000000;1.270447
7808.000000;1.270967
7807.000000;1.271033
7806.000000;1.270562
7805.000000;1.269733
7804.000000;1.268841
7803.000000;1.268092
7802.000000;1.267626
7801.000000;1.267568
7800.000000;1.267888
7799.000000;1.268318
7798.000000;1.268583
7797.000000;1.268700
7796.000000;1.268940
7795.000000;1.269478
7794.000000;1.270210
7793.000000;1.270877
7792.000000;1.271284
7791.000000;1.271393
7790.000000;1.271303
7789.000000;1.271180
7788.000000;1.271145
7787.000000;1.271165
7786.000000;1.271103
7785.000000;1.270894
7784.000000;1.270658
7783.000000;1.270593
7782.000000;1.270774
7781.000000;1.271072
7780.000000;1.271280
7779.000000;1.271286
7778.000000;1.271135
7777.000000;1.270965
7776.000000;1.270911
7775.000000;1.271036
7774.000000;1.271271
7773.000000;1.271427
7772.000000;1.271359
7771.000000;1.271136
7770.000000;1.271005
7769.000000;1.271142
7768.000000;1.271522
7767.000000;1.272023
7766.000000;1.272547
7765.000000;1.272967
7764.000000;1.273093
7763.000000;1.272858
7762.000000;1.272478
7761.000000;1.272278
7760.000000;1.272340
7759.000000;1.272436
7758.000000;1.272343
7757.000000;1.272081
7756.000000;1.271820
7755.000000;1.271678
7754.000000;1.271685
7753.000000;1.271861
7752.000000;1.272201
7751.000000;1.272612
7750.000000;1.272960
7749.000000;1.273168
7748.000000;1.273223
7747.000000;1.273094
7746.000000;1.272750
7745.000000;1.272294
7744.000000;1.272032
7743.000000;1.272282
7742.000000;1.273065
7741.000000;1.274020
7740.000000;1.274673
7739.000000;1.274814
7738.000000;1.274600
7737.000000;1.274314
7736.000000;1.274122
7735.000000;1.274041
7734.000000;1.274050
7733.000000;1.274130
7732.000000;1.274250
7731.000000;1.274378
7730.000000;1.274481
7729.000000;1.274484
7728.000000;1.274285
7727.000000;1.273853
7726.000000;1.273297
7725.000000;1.272792
7724.000000;1.272500
7723.000000;1.272559
7722.000000;1.273031
7721.000000;1.273775
7720.000000;1.274441
7719.000000;1.274760
7718.000000;1.274810
7717.000000;1.274901
7716.000000;1.275210
7715.000000;1.275658
7714.000000;1.276105
7713.000000;1.276517
7712.000000;1.276905
7711.000000;1.277249
7710.000000;1.277517
7709.000000;1.277681
7708.000000;1.277667
7707.000000;1.277396
7706.000000;1.276893
7705.000000;1.276303
7704.000000;1.275773
7703.000000;1.275414
7702.000000;1.275360
7701.000000;1.275727
7700.000000;1.276422
7699.000000;1.277117
7698.000000;1.277521
7697.000000;1.277648
7696.000000;1.277777
7695.000000;1.278179
7694.000000;1.278885
7693.000000;1.279671
7692.000000;1.280209
7691.000000;1.280301
7690.000000;1.279987
7689.000000;1.279411
7688.000000;1.278644
7687.000000;1.277767
7686.000000;1.277064
7685.000000;1.276886
7684.000000;1.277241
7683.000000;1.277705
7682.000000;1.277879
7681.000000;1.277837
7680.000000;1.277956
7679.000000;1.278419
7678.000000;1.279045
7677.000000;1.279570
7676.000000;1.279914
7675.000000;1.280143
7674.000000;1.280338
7673.000000;1.280539
7672.000000;1.280746
7671.000000;1.280904
7670.000000;1.280902
7669.000000;1.280658
7668.000000;1.280205
7667.000000;1.279736
7666.000000;1.279510
7665.000000;1.279627
7664.000000;1.279895
7663.000000;1.280019
7662.000000;1.279974
7661.000000;1.280050
7660.000000;1.280473
7659.000000;1.281105
7658.000000;1.281651
7657.000000;1.282010
7656.000000;1.282250
7655.000000;1.282368
7654.000000;1.282318
7653.000000;1.282220
7652.000000;1.282323
7651.000000;1.282708
7650.000000;1.283217
7649.000000;1.283688
7648.000000;1.284070
7647.000000;1.284299
7646.000000;1.284273
7645.000000;1.284034
7644.000000;1.283824
7643.000000;1.283841
7642.000000;1.284066
7641.000000;1.284398
7640.000000;1.284797
7639.000000;1.285202
7638.000000;1.285457
7637.000000;1.285481
7636.000000;1.285421
7635.000000;1.285500
7634.000000;1.285768
7633.000000;1.286103
7632.000000;1.286378
7631.000000;1.286544
7630.000000;1.286615
7629.000000;1.286685
7628.000000;1.286904
7627.000000;1.287306
7626.000000;1.287747
7625.000000;1.288090
7624.000000;1.288376
7623.000000;1.288681
7622.000000;1.288916
7621.000000;1.288952
7620.000000;1.288866
7619.000000;1.288871
7618.000000;1.288997
7617.000000;1.289053
7616.000000;1.288928
7615.000000;1.288767
7614.000000;1.288786
7613.000000;1.289055
7612.000000;1.289516
7611.000000;1.290087
7610.000000;1.290675
7609.000000;1.291211
7608.000000;1.291709
7607.000000;1.292210
7606.000000;1.292633
7605.000000;1.292817
7604.000000;1.292768
7603.000000;1.292726
7602.000000;1.292861
7601.000000;1.293026
7600.000000;1.292958
7599.000000;1.292650
7598.000000;1.292353
7597.000000;1.292252
7596.000000;1.292287
7595.000000;1.292329
7594.000000;1.292403
7593.000000;1.292647
7592.000000;1.293105
7591.000000;1.293664
7590.000000;1.294177
7589.000000;1.294628
7588.000000;1.295091
7587.000000;1.295535
7586.000000;1.295736
7585.000000;1.295515
7584.000000;1.295055
7583.000000;1.294833
7582.000000;1.295174
7581.000000;1.295946
7580.000000;1.296771
7579.000000;1.297447
7578.000000;1.298026
7577.000000;1.298543
7576.000000;1.298881
7575.000000;1.298956
7574.000000;1.298880
7573.000000;1.298853
7572.000000;1.298944
7571.000000;1.299067
7570.000000;1.299131
7569.000000;1.299145
7568.000000;1.299171
7567.000000;1.299251
7566.000000;1.299395
7565.000000;1.299605
7564.000000;1.299878
7563.000000;1.300183
7562.000000;1.300482
7561.000000;1.300767
7560.000000;1.301058
7559.000000;1.301330
7558.000000;1.301483
7557.000000;1.301490
7556.000000;1.301573
7555.000000;1.302086
7554.000000;1.303125
7553.000000;1.304315
7552.000000;1.305124
7551.000000;1.305364
7550.000000;1.305315
7549.000000;1.305344
7548.000000;1.305574
7547.000000;1.305926
7546.000000;1.306335
7545.000000;1.306803
7544.000000;1.307314
7543.000000;1.307820
7542.000000;1.308300
7541.000000;1.308747
7540.000000;1.309096
7539.000000;1.309223
7538.000000;1.309092
7537.000000;1.308867
7536.000000;1.308842
7535.000000;1.309213
7534.000000;1.309899
7533.000000;1.310598
7532.000000;1.311047
7531.000000;1.311230
7530.000000;1.311314
7529.000000;1.311442
7528.000000;1.311635
7527.000000;1.311894
7526.000000;1.312277
7525.000000;1.312841
7524.000000;1.313550
7523.000000;1.314273
7522.000000;1.314859
7521.000000;1.315198
7520.000000;1.315290
7519.000000;1.315277
7518.000000;1.315367
7517.000000;1.315682
7516.000000;1.316208
7515.000000;1.316853
7514.000000;1.317473
7513.000000;1.317863
7512.000000;1.317890
7511.000000;1.317734
7510.000000;1.317826
7509.000000;1.318397
7508.000000;1.319160
7507.000000;1.319609
7506.000000;1.319602
7505.000000;1.319461
7504.000000;1.319545
7503.000000;1.319897
7502.000000;1.320405
7501.000000;1.321073
7500.000000;1.321913
7499.000000;1.322789
7498.000000;1.323404
7497.000000;1.323575
7496.000000;1.323411
7495.000000;1.323253
7494.000000;1.323411
7493.000000;1.323943
7492.000000;1.324626
7491.000000;1.325170
7490.000000;1.325484
7489.000000;1.325715
7488.000000;1.326009
7487.000000;1.326317
7486.000000;1.326484
7485.000000;1.326484
7484.000000;1.326482
7483.000000;1.326700
7482.000000;1.327263
7481.000000;1.328151
7480.000000;1.329199
7479.000000;1.330116
7478.000000;1.330596
7477.000000;1.330506
7476.000000;1.330041
7475.000000;1.329671
7474.000000;1.329847
7473.000000;1.330666
7472.000000;1.331812
7471.000000;1.332870
7470.000000;1.333693
7469.000000;1.334391
7468.000000;1.335022
7467.000000;1.335455
7466.000000;1.335594
7465.000000;1.335585
7464.000000;1.335670
7463.000000;1.335926
7462.000000;1.336283
7461.000000;1.336702
7460.000000;1.337171
7459.000000;1.337572
7458.000000;1.337723
7457.000000;1.337639
7456.000000;1.337611
7455.000000;1.337948
7454.000000;1.338691
7453.000000;1.339625
7452.000000;1.340509
7451.000000;1.341252
7450.000000;1.341889
7449.000000;1.342454
7448.000000;1.342899
7447.000000;1.343149
7446.000000;1.343231
7445.000000;1.343291
7444.000000;1.343490
7443.000000;1.343894
7442.000000;1.344462
7441.000000;1.345079
7440.000000;1.345584
7439.000000;1.345902
7438.000000;1.346196
7437.000000;1.346770
7436.000000;1.347685
7435.000000;1.348550
7434.000000;1.348851
7433.000000;1.348497
7432.000000;1.347913
7431.000000;1.347648
7430.000000;1.347974
7429.000000;1.348802
7428.000000;1.349807
7427.000000;1.350652
7426.000000;1.351228
7425.000000;1.351678
7424.000000;1.352100
7423.000000;1.352316
7422.000000;1.352086
7421.000000;1.351510
7420.000000;1.351014
7419.000000;1.350913
7418.000000;1.351148
7417.000000;1.351488
7416.000000;1.351805
7415.000000;1.352121
7414.000000;1.352518
7413.000000;1.353109
7412.000000;1.353941
7411.000000;1.354831
7410.000000;1.355436
7409.000000;1.355593
7408.000000;1.355462
7407.000000;1.355292
7406.000000;1.355195
7405.000000;1.355248
7404.000000;1.355656
7403.000000;1.356575
7402.000000;1.357799
7401.000000;1.358803
7400.000000;1.359152
7399.000000;1.358827
7398.000000;1.358226
7397.000000;1.357906
7396.000000;1.358139
7395.000000;1.358714
7394.000000;1.359281
7393.000000;1.359799
7392.000000;1.360430
7391.000000;1.361104
7390.000000;1.361528
7389.000000;1.361686
7388.000000;1.361900
7387.000000;1.362296
7386.000000;1.362594
7385.000000;1.362546
7384.000000;1.362196
7383.000000;1.361633
7382.000000;1.360850
7381.000000;1.360092
7380.000000;1.359975
7379.000000;1.360795
7378.000000;1.362004
7377.000000;1.362751
7376.000000;1.362847
7375.000000;1.362967
7374.000000;1.363840
7373.000000;1.365454
7372.000000;1.367138
7371.000000;1.368148
7370.000000;1.368146
7369.000000;1.367491
7368.000000;1.367040
7367.000000;1.367355
7366.000000;1.368231
7365.000000;1.369156
7364.000000;1.369858
7363.000000;1.370298
7362.000000;1.370505
7361.000000;1.370627
7360.000000;1.370979
7359.000000;1.371694
7358.000000;1.372397
7357.000000;1.372519
7356.000000;1.371985
7355.000000;1.371413
7354.000000;1.371464
7353.000000;1.372217
7352.000000;1.373225
7351.000000;1.373949
7350.000000;1.374036
7349.000000;1.373577
7348.000000;1.373141
7347.000000;1.373229
7346.000000;1.373636
7345.000000;1.373711
7344.000000;1.373200
7343.000000;1.372406
7342.000000;1.371635
7341.000000;1.370997
7340.000000;1.370910
7339.000000;1.372126
7338.000000;1.374769
7337.000000;1.377915
7336.000000;1.380446
7335.000000;1.381948
7334.000000;1.382679
7333.000000;1.383066
7332.000000;1.383384
7331.000000;1.383699
7330.000000;1.383736
7329.000000;1.383042
7328.000000;1.381767
7327.000000;1.381049
7326.000000;1.381810
7325.000000;1.383622
7324.000000;1.385549
7323.000000;1.387372
7322.000000;1.389374
7321.000000;1.391376
7320.000000;1.392776
7319.000000;1.393342
7318.000000;1.393320
7317.000000;1.393014
7316.000000;1.392713
7315.000000;1.392873
7314.000000;1.393733
7313.000000;1.394703
7312.000000;1.394884
7311.000000;1.394375
7310.000000;1.394243
7309.000000;1.394976
7308.000000;1.395844
7307.000000;1.396203
7306.000000;1.396574
7305.000000;1.397774
7304.000000;1.399717
7303.000000;1.401748
7302.000000;1.403412
7301.000000;1.404545
7300.000000;1.405116
7299.000000;1.405411
7298.000000;1.405982
7297.000000;1.406924
7296.000000;1.407576
7295.000000;1.407344
7294.000000;1.406832
7293.000000;1.407462
7292.000000;1.409717
7291.000000;1.412511
7290.000000;1.414435
7289.000000;1.415013
7288.000000;1.414857
7287.000000;1.415064
7286.000000;1.416345
7285.000000;1.418443
7284.000000;1.420460
7283.000000;1.421816
7282.000000;1.422675
7281.000000;1.423529
7280.000000;1.424547
7279.000000;1.425578
7278.000000;1.426578
7277.000000;1.427651
7276.000000;1.428790
7275.000000;1.429933
7274.000000;1.431179
7273.000000;1.432646
7272.000000;1.434223
7271.000000;1.435699
7270.000000;1.437033
7269.000000;1.438303
7268.000000;1.439539
7267.000000;1.440804
7266.000000;1.442233
7265.000000;1.443763
7264.000000;1.445026
7263.000000;1.445870
7262.000000;1.446836
7261.000000;1.448652
7260.000000;1.451294
7259.000000;1.453968
7258.000000;1.456050
7257.000000;1.457640
7256.000000;1.459096
7255.000000;1.460355
7254.000000;1.461098
7253.000000;1.461510
7252.000000;1.462419
7251.000000;1.464392
7250.000000;1.467127
7249.000000;1.469834
7248.000000;1.472003
7247.000000;1.473746
7246.000000;1.475381
7245.000000;1.476819
7244.000000;1.477581
7243.000000;1.477662
7242.000000;1.478122
7241.000000;1.480223
7240.000000;1.484107
7239.000000;1.488829
7238.000000;1.493239
7237.000000;1.496585
7236.000000;1.498729
7235.000000;1.499955
7234.000000;1.500589
7233.000000;1.501022
7232.000000;1.501985
7231.000000;1.504224
7230.000000;1.507790
7229.000000;1.511960
7228.000000;1.515909
7227.000000;1.519387
7226.000000;1.522760
7225.000000;1.526410
7224.000000;1.530192
7223.000000;1.533700
7222.000000;1.536778
7221.000000;1.539517
7220.000000;1.542128
7219.000000;1.545018
7218.000000;1.548567
7217.000000;1.552676
7216.000000;1.556832
7215.000000;1.560701
7214.000000;1.564422
7213.000000;1.568308
7212.000000;1.572464
7211.000000;1.576764
7210.000000;1.581025
7209.000000;1.585012
7208.000000;1.588457
7207.000000;1.591329
7206.000000;1.593941
7205.000000;1.596702
7204.000000;1.599933
7203.000000;1.603958
7202.000000;1.609011
7201.000000;1.614842
7200.000000;1.620725
7199.000000;1.626002
7198.000000;1.630418
7197.000000;1.633959
7196.000000;1.636835
7195.000000;1.639760
7194.000000;1.643719
7193.000000;1.649005
7192.000000;1.654846
7191.000000;1.660336
7190.000000;1.665349
7189.000000;1.670108
7188.000000;1.674449
7187.000000;1.678129
7186.000000;1.681588
7185.000000;1.685630
7184.000000;1.690325
7183.000000;1.694904
7182.000000;1.698954
7181.000000;1.703091
7180.000000;1.708009
7179.000000;1.713505
7178.000000;1.719048
7177.000000;1.724646
7176.000000;1.730615
7175.000000;1.736905
7174.000000;1.743025
7173.000000;1.748489
7172.000000;1.753146
7171.000000;1.757222
7170.000000;1.761243
7169.000000;1.765734
7168.000000;1.770785
7167.000000;1.775846
7166.000000;1.780384
7165.000000;1.784817
7164.000000;1.790200
7163.000000;1.796898
7162.000000;1.804020
7161.000000;1.810421
7160.000000;1.815868
7159.000000;1.820928
7158.000000;1.826201
7157.000000;1.832038
7156.000000;1.838539
7155.000000;1.845400
7154.000000;1.851904
7153.000000;1.857610
7152.000000;1.862965
7151.000000;1.868576
7150.000000;1.874156
7149.000000;1.878937
7148.000000;1.883028
7147.000000;1.887467
7146.000000;1.892820
7145.000000;1.898408
7144.000000;1.903278
7143.000000;1.907422
7142.000000;1.911479
7141.000000;1.915660
7140.000000;1.919661
7139.000000;1.923568
7138.000000;1.928128
7137.000000;1.933856
7136.000000;1.940409
7135.000000;1.947043
7134.000000;1.953351
7133.000000;1.959401
7132.000000;1.965372
7131.000000;1.971145
7130.000000;1.976279
7129.000000;1.980447
7128.000000;1.983980
7127.000000;1.987940
7126.000000;1.993406
7125.000000;2.000454
7124.000000;2.007906
7123.000000;2.014215
7122.000000;2.018651
7121.000000;2.021581
7120.000000;2.023813
7119.000000;2.025955
7118.000000;2.028391
7117.000000;2.031546
7116.000000;2.035691
7115.000000;2.040523
7114.000000;2.045371
7113.000000;2.049910
7112.000000;2.054477
7111.000000;2.059601
7110.000000;2.065245
7109.000000;2.070739
7108.000000;2.075586
7107.000000;2.080001
7106.000000;2.084339
7105.000000;2.088446
7104.000000;2.092082
7103.000000;2.095702
7102.000000;2.100205
7101.000000;2.105685
7100.000000;2.110908
7099.000000;2.114479
7098.000000;2.116452
7097.000000;2.118340
7096.000000;2.121493
7095.000000;2.125901
7094.000000;2.130571
7093.000000;2.134661
7092.000000;2.138011
7091.000000;2.140737
7090.000000;2.142797
7089.000000;2.144249
7088.000000;2.145810
7087.000000;2.148763
7086.000000;2.153956
7085.000000;2.160792
7084.000000;2.167349
7083.000000;2.171799
7082.000000;2.173901
7081.000000;2.175031
7080.000000;2.176812
7079.000000;2.179879
7078.000000;2.183668
7077.000000;2.186986
7076.000000;2.189019
7075.000000;2.190195
7074.000000;2.191939
7073.000000;2.195088
7072.000000;2.198573
7071.000000;2.200273
7070.000000;2.199525
7069.000000;2.198201
7068.000000;2.198845
7067.000000;2.202235
7066.000000;2.206957
7065.000000;2.210821
7064.000000;2.212478
7063.000000;2.212070
7062.000000;2.210915
7061.000000;2.210632
7060.000000;2.212099
7059.000000;2.215076
7058.000000;2.218932
7057.000000;2.223307
7056.000000;2.227671
7055.000000;2.230729
7054.000000;2.231358
7053.000000;2.230328
7052.000000;2.230015
7051.000000;2.231829
7050.000000;2.234700
7049.000000;2.236750
7048.000000;2.237910
7047.000000;2.239864
7046.000000;2.243521
7045.000000;2.247744
7044.000000;2.251000
7043.000000;2.253272
7042.000000;2.255631
7041.000000;2.258430
7040.000000;2.260756
7039.000000;2.261604
7038.000000;2.260880
7037.000000;2.259107
7036.000000;2.256904
7035.000000;2.255183
7034.000000;2.255119
7033.000000;2.257181
7032.000000;2.260422
7031.000000;2.263269
7030.000000;2.265073
7029.000000;2.266479
7028.000000;2.268081
7027.000000;2.269223
7026.000000;2.268620
7025.000000;2.266147
7024.000000;2.263564
7023.000000;2.263200
7022.000000;2.265948
7021.000000;2.270475
7020.000000;2.274382
7019.000000;2.276359
7018.000000;2.277087
7017.000000;2.277747
7016.000000;2.278146
7015.000000;2.277144
7014.000000;2.274914
7013.000000;2.273614
7012.000000;2.274968
7011.000000;2.277927
7010.000000;2.279708
7009.000000;2.279060
7008.000000;2.277389
7007.000000;2.276440
7006.000000;2.276134
7005.000000;2.275340
7004.000000;2.273882
7003.000000;2.272793
7002.000000;2.272966
7001.000000;2.274400
7000.000000;2.276616
6999.000000;2.279137
6998.000000;2.281576
6997.000000;2.283835
6996.000000;2.286320
6995.000000;2.289453
6994.000000;2.292719
6993.000000;2.294644
6992.000000;2.294309
6991.000000;2.292669
6990.000000;2.291648
6989.000000;2.292023
6988.000000;2.292765
6987.000000;2.292516
6986.000000;2.291243
6985.000000;2.290206
6984.000000;2.290518
6983.000000;2.292066
6982.000000;2.293737
6981.000000;2.294361
6980.000000;2.293558
6979.000000;2.292114
6978.000000;2.291562
6977.000000;2.292911
6976.000000;2.295384
6975.000000;2.296665
6974.000000;2.295151
6973.000000;2.292041
6972.000000;2.290507
6971.000000;2.292537
6970.000000;2.296849
6969.000000;2.300084
6968.000000;2.300058
6967.000000;2.297550
6966.000000;2.295002
6965.000000;2.294224
6964.000000;2.295541
6963.000000;2.298268
6962.000000;2.301145
6961.000000;2.302402
6960.000000;2.300428
6959.000000;2.295177
6958.000000;2.288821
6957.000000;2.284482
6956.000000;2.284120
6955.000000;2.287400
6954.000000;2.292249
6953.000000;2.296434
6952.000000;2.298958
6951.000000;2.300284
6950.000000;2.301218
6949.000000;2.301580
6948.000000;2.300297
6947.000000;2.297024
6946.000000;2.293224
6945.000000;2.291064
6944.000000;2.291340
6943.000000;2.292829
6942.000000;2.293694
6941.000000;2.293161
6940.000000;2.291585
6939.000000;2.289703
6938.000000;2.288382
6937.000000;2.288428
6936.000000;2.290008
6935.000000;2.292367
6934.000000;2.294338
6933.000000;2.295130
6932.000000;2.294690
6931.000000;2.293676
6930.000000;2.293137
6929.000000;2.293542
6928.000000;2.293925
6927.000000;2.292676
6926.000000;2.289676
6925.000000;2.286884
6924.000000;2.286064
6923.000000;2.286552
6922.000000;2.286218
6921.000000;2.284228
6920.000000;2.281735
6919.000000;2.280105
6918.000000;2.279763
6917.000000;2.280733
6916.000000;2.282910
6915.000000;2.285404
6914.000000;2.286800
6913.000000;2.286691
6912.000000;2.286107
6911.000000;2.285907
6910.000000;2.285677
6909.000000;2.284890
6908.000000;2.284160
6907.000000;2.284297
6906.000000;2.284883
6905.000000;2.284850
6904.000000;2.284152
6903.000000;2.283996
6902.000000;2.285170
6901.000000;2.286998
6900.000000;2.288221
6899.000000;2.288078
6898.000000;2.286340
6897.000000;2.283301
6896.000000;2.280114
6895.000000;2.278437
6894.000000;2.279216
6893.000000;2.281885
6892.000000;2.284723
6891.000000;2.285827
6890.000000;2.283951
6889.000000;2.279127
6888.000000;2.272913
6887.000000;2.267691
6886.000000;2.265208
6885.000000;2.265504
6884.000000;2.267107
6883.000000;2.268318
6882.000000;2.268619
6881.000000;2.268984
6880.000000;2.270579
6879.000000;2.273043
6878.000000;2.274524
6877.000000;2.273860
6876.000000;2.272193
6875.000000;2.271527
6874.000000;2.272088
6873.000000;2.272175
6872.000000;2.270657
6871.000000;2.268640
6870.000000;2.268096
6869.000000;2.269526
6868.000000;2.271635
6867.000000;2.272849
6866.000000;2.272567
6865.000000;2.271195
6864.000000;2.269644
6863.000000;2.268713
6862.000000;2.268405
6861.000000;2.267728
6860.000000;2.265618
6859.000000;2.262290
6858.000000;2.259335
6857.000000;2.258301
6856.000000;2.259341
6855.000000;2.261282
6854.000000;2.262760
6853.000000;2.263206
6852.000000;2.263019
6851.000000;2.263070
6850.000000;2.263752
6849.000000;2.264310
6848.000000;2.263462
6847.000000;2.261025
6846.000000;2.258487
6845.000000;2.257470
6844.000000;2.257847
6843.000000;2.257794
6842.000000;2.255804
6841.000000;2.252191
6840.000000;2.248382
6839.000000;2.245555
6838.000000;2.244306
6837.000000;2.244684
6836.000000;2.245875
6835.000000;2.246432
6834.000000;2.245642
6833.000000;2.244472
6832.000000;2.244365
6831.000000;2.245229
6830.000000;2.245482
6829.000000;2.244107
6828.000000;2.241757
6827.000000;2.239538
6826.000000;2.237647
6825.000000;2.235715
6824.000000;2.233743
6823.000000;2.232023
6822.000000;2.230640
6821.000000;2.229636
6820.000000;2.229278
6819.000000;2.229465
6818.000000;2.229142
6817.000000;2.227100
6816.000000;2.223455
6815.000000;2.219740
6814.000000;2.217411
6813.000000;2.216593
6812.000000;2.216289
6811.000000;2.215463
6810.000000;2.213933
6809.000000;2.212557
6808.000000;2.212510
6807.000000;2.213950
6806.000000;2.215441
6805.000000;2.215189
6804.000000;2.212844
6803.000000;2.209590
6802.000000;2.206587
6801.000000;2.204093
6800.000000;2.202072
6799.000000;2.200697
6798.000000;2.199702
6797.000000;2.197904
6796.000000;2.194296
6795.000000;2.189489
6794.000000;2.185344
6793.000000;2.183140
6792.000000;2.182552
6791.000000;2.182328
6790.000000;2.181499
6789.000000;2.179816
6788.000000;2.177459
6787.000000;2.174733
6786.000000;2.171984
6785.000000;2.169476
6784.000000;2.167272
6783.000000;2.165350
6782.000000;2.163770
6781.000000;2.162605
6780.000000;2.161719
6779.000000;2.160717
6778.000000;2.159157
6777.000000;2.156869
6776.000000;2.154144
6775.000000;2.151606
6774.000000;2.149744
6773.000000;2.148428
6772.000000;2.146962
6771.000000;2.144772
6770.000000;2.141993
6769.000000;2.139234
6768.000000;2.136849
6767.000000;2.134722
6766.000000;2.132769
6765.000000;2.131231
6764.000000;2.130230
6763.000000;2.129325
6762.000000;2.127870
6761.000000;2.125745
6760.000000;2.123453
6759.000000;2.121483
6758.000000;2.119763
6757.000000;2.117724
6756.000000;2.114843
6755.000000;2.111302
6754.000000;2.108206
6753.000000;2.106807
6752.000000;2.107097
6751.000000;2.107401
6750.000000;2.105949
6749.000000;2.102820
6748.000000;2.099755
6747.000000;2.098023
6746.000000;2.097140
6745.000000;2.095745
6744.000000;2.093060
6743.000000;2.089167
6742.000000;2.084587
6741.000000;2.080238
6740.000000;2.077305
6739.000000;2.076311
6738.000000;2.076378
6737.000000;2.075975
6736.000000;2.074440
6735.000000;2.072296
6734.000000;2.070146
6733.000000;2.067891
6732.000000;2.065175
6731.000000;2.062082
6730.000000;2.059142
6729.000000;2.056907
6728.000000;2.055634
6727.000000;2.055083
6726.000000;2.054465
6725.000000;2.052862
6724.000000;2.049924
6723.000000;2.046048
6722.000000;2.041871
6721.000000;2.037856
6720.000000;2.034395
6719.000000;2.031897
6718.000000;2.030465
6717.000000;2.029667
6716.000000;2.028887
6715.000000;2.027861
6714.000000;2.026809
6713.000000;2.026039
6712.000000;2.025485
6711.000000;2.024640
6710.000000;2.022916
6709.000000;2.020163
6708.000000;2.017037
6707.000000;2.014330
6706.000000;2.012289
6705.000000;2.010545
6704.000000;2.008689
6703.000000;2.006685
6702.000000;2.004579
6701.000000;2.002242
6700.000000;1.999639
6699.000000;1.997130
6698.000000;1.995087
6697.000000;1.993348
6696.000000;1.991372
6695.000000;1.988917
6694.000000;1.986324
6693.000000;1.984105
6692.000000;1.982515
6691.000000;1.981501
6690.000000;1.980740
6689.000000;1.979669
6688.000000;1.977843
6687.000000;1.975446
6686.000000;1.973225
6685.000000;1.971674
6684.000000;1.970361
6683.000000;1.968227
6682.000000;1.964643
6681.000000;1.960120
6680.000000;1.956015
6679.000000;1.953554
6678.000000;1.952974
6677.000000;1.953300
6676.000000;1.952972
6675.000000;1.950984
6674.000000;1.947650
6673.000000;1.944241
6672.000000;1.941841
6671.000000;1.940618
6670.000000;1.940021
6669.000000;1.939365
6668.000000;1.938141
6667.000000;1.936076
6666.000000;1.933274
6665.000000;1.930260
6664.000000;1.927618
6663.000000;1.925546
6662.000000;1.923933
6661.000000;1.922758
6660.000000;1.922081
6659.000000;1.921614
6658.000000;1.920634
6657.000000;1.918551
6656.000000;1.915431
6655.000000;1.911860
6654.000000;1.908501
6653.000000;1.905887
6652.000000;1.904232
6651.000000;1.903160
6650.000000;1.901848
6649.000000;1.899822
6648.000000;1.897542
6647.000000;1.895861
6646.000000;1.894945
6645.000000;1.894080
6644.000000;1.892525
6643.000000;1.890247
6642.000000;1.887747
6641.000000;1.885474
6640.000000;1.883553
6639.000000;1.881859
6638.000000;1.880189
6637.000000;1.878472
6636.000000;1.876886
6635.000000;1.875592
6634.000000;1.874324
6633.000000;1.872519
6632.000000;1.870010
6631.000000;1.867375
6630.000000;1.865357
6629.000000;1.864096
6628.000000;1.863100
6627.000000;1.861874
6626.000000;1.860319
6625.000000;1.858546
6624.000000;1.856581
6623.000000;1.854347
6622.000000;1.851852
6621.000000;1.849262
6620.000000;1.846827
6619.000000;1.844730
6618.000000;1.843007
6617.000000;1.841574
6616.000000;1.840281
6615.000000;1.838873
6614.000000;1.837056
6613.000000;1.834772
6612.000000;1.832396
6611.000000;1.830417
6610.000000;1.828873
6609.000000;1.827331
6608.000000;1.825492
6607.000000;1.823547
6606.000000;1.821793
6605.000000;1.820170
6604.000000;1.818454
6603.000000;1.816731
6602.000000;1.815300
6601.000000;1.814169
6600.000000;1.812988
6599.000000;1.811508
6598.000000;1.809813
6597.000000;1.808018
6596.000000;1.806066
6595.000000;1.803933
6594.000000;1.801788
6593.000000;1.799756
6592.000000;1.797753
6591.000000;1.795742
6590.000000;1.793990
6589.000000;1.792794
6588.000000;1.792018
6587.000000;1.791142
6586.000000;1.789781
6585.000000;1.787981
6584.000000;1.785989
6583.000000;1.783955
6582.000000;1.781955
6581.000000;1.780103
6580.000000;1.778466
6579.000000;1.776917
6578.000000;1.775244
6577.000000;1.773394
6576.000000;1.771538
6575.000000;1.769908
6574.000000;1.768671
6573.000000;1.767920
6572.000000;1.767608
6571.000000;1.767397
6570.000000;1.766728
6569.000000;1.765224
6568.000000;1.763017
6567.000000;1.760585
6566.000000;1.758318
6565.000000;1.756350
6564.000000;1.754721
6563.000000;1.753462
6562.000000;1.752446
6561.000000;1.751370
6560.000000;1.750022
6559.000000;1.748491
6558.000000;1.746993
6557.000000;1.745589
6556.000000;1.744207
6555.000000;1.742845
6554.000000;1.741606
6553.000000;1.740517
6552.000000;1.739473
6551.000000;1.738380
6550.000000;1.737239
6549.000000;1.736062
6548.000000;1.734771
6547.000000;1.733255
6546.000000;1.731479
6545.000000;1.729513
6544.000000;1.727455
6543.000000;1.725364
6542.000000;1.723268
6541.000000;1.721262
6540.000000;1.719556
6539.000000;1.718349
6538.000000;1.717591
6537.000000;1.716971
6536.000000;1.716170
6535.000000;1.715086
6534.000000;1.713765
6533.000000;1.712263
6532.000000;1.710679
6531.000000;1.709194
6530.000000;1.707905
6529.000000;1.706681
6528.000000;1.705353
6527.000000;1.703970
6526.000000;1.702705
6525.000000;1.701551
6524.000000;1.700340
6523.000000;1.699043
6522.000000;1.697807
6521.000000;1.696672
6520.000000;1.695496
6519.000000;1.694235
6518.000000;1.693049
6517.000000;1.692002
6516.000000;1.690886
6515.000000;1.689529
6514.000000;1.688061
6513.000000;1.686680
6512.000000;1.685309
6511.000000;1.683731
6510.000000;1.681963
6509.000000;1.680267
6508.000000;1.678793
6507.000000;1.677442
6506.000000;1.676085
6505.000000;1.674737
6504.000000;1.673477
6503.000000;1.672333
6502.000000;1.671310
6501.000000;1.670396
6500.000000;1.669494
6499.000000;1.668422
6498.000000;1.667051
6497.000000;1.665431
6496.000000;1.663780
6495.000000;1.662367
6494.000000;1.661371
6493.000000;1.660756
6492.000000;1.660294
6491.000000;1.659748
6490.000000;1.659014
6489.000000;1.658048
6488.000000;1.656773
6487.000000;1.655186
6486.000000;1.653513
6485.000000;1.652100
6484.000000;1.651086
6483.000000;1.650273
6482.000000;1.649330
6481.000000;1.648090
6480.000000;1.646690
6479.000000;1.645461
6478.000000;1.644629
6477.000000;1.644030
6476.000000;1.643197
6475.000000;1.641845
6474.000000;1.640211
6473.000000;1.638776
6472.000000;1.637718
6471.000000;1.636815
6470.000000;1.635832
6469.000000;1.634753
6468.000000;1.633607
6467.000000;1.632346
6466.000000;1.631026
6465.000000;1.629901
6464.000000;1.629146
6463.000000;1.628570
6462.000000;1.627793
6461.000000;1.626625
6460.000000;1.625180
6459.000000;1.623671
6458.000000;1.622246
6457.000000;1.620972
6456.000000;1.619853
6455.000000;1.618861
6454.000000;1.618009
6453.000000;1.617354
6452.000000;1.616852
6451.000000;1.616278
6450.000000;1.615428
6449.000000;1.614340
6448.000000;1.613234
6447.000000;1.612228
6446.000000;1.611253
6445.000000;1.610212
6444.000000;1.609100
6443.000000;1.607961
6442.000000;1.606831
6441.000000;1.605777
6440.000000;1.604880
6439.000000;1.604141
6438.000000;1.603441
6437.000000;1.602648
6436.000000;1.601722
6435.000000;1.600705
6434.000000;1.599667
6433.000000;1.598661
6432.000000;1.597712
6431.000000;1.596808
6430.000000;1.595916
6429.000000;1.594984
6428.000000;1.593912
6427.000000;1.592572
6426.000000;1.590971
6425.000000;1.589366
6424.000000;1.588115
6423.000000;1.587345
6422.000000;1.586832
6421.000000;1.586241
6420.000000;1.585451
6419.000000;1.584592
6418.000000;1.583809
6417.000000;1.583084
6416.000000;1.582303
6415.000000;1.581421
6414.000000;1.580531
6413.000000;1.579760
6412.000000;1.579143
6411.000000;1.578576
6410.000000;1.577916
6409.000000;1.577091
6408.000000;1.576134
6407.000000;1.575121
6406.000000;1.574109
6405.000000;1.573141
6404.000000;1.572260
6403.000000;1.571487
6402.000000;1.570763
6401.000000;1.569949
6400.000000;1.568930
6399.000000;1.567747
6398.000000;1.566598
6397.000000;1.565672
6396.000000;1.564977
6395.000000;1.564350
6394.000000;1.563650
6393.000000;1.562901
6392.000000;1.562214
6391.000000;1.561605
6390.000000;1.560932
6389.000000;1.560041
6388.000000;1.558932
6387.000000;1.557791
6386.000000;1.556856
6385.000000;1.556256
6384.000000;1.555925
6383.000000;1.555656
6382.000000;1.555255
6381.000000;1.554666
6380.000000;1.553968
6379.000000;1.553249
6378.000000;1.552515
6377.000000;1.551702
6376.000000;1.550774
6375.000000;1.549790
6374.000000;1.548849
6373.000000;1.547982
6372.000000;1.547125
6371.000000;1.546222
6370.000000;1.545353
6369.000000;1.544693
6368.000000;1.544329
6367.000000;1.544146
6366.000000;1.543894
6365.000000;1.543386
6364.000000;1.542603
6363.000000;1.541654
6362.000000;1.540662
6361.000000;1.539681
6360.000000;1.538727
6359.000000;1.537866
6358.000000;1.537214
6357.000000;1.536799
6356.000000;1.536449
6355.000000;1.535924
6354.000000;1.535184
6353.000000;1.534441
6352.000000;1.533879
6351.000000;1.533414
6350.000000;1.532846
6349.000000;1.532151
6348.000000;1.531479
6347.000000;1.530881
6346.000000;1.530216
6345.000000;1.529379
6344.000000;1.528465
6343.000000;1.527617
6342.000000;1.526844
6341.000000;1.526105
6340.000000;1.525478
6339.000000;1.525074
6338.000000;1.524780
6337.000000;1.524282
6336.000000;1.523410
6335.000000;1.522375
6334.000000;1.521559
6333.000000;1.521091
6332.000000;1.520720
6331.000000;1.520113
6330.000000;1.519222
6329.000000;1.518337
6328.000000;1.517780
6327.000000;1.517589
6326.000000;1.517478
6325.000000;1.517102
6324.000000;1.516329
6323.000000;1.515300
6322.000000;1.514274
6321.000000;1.513466
6320.000000;1.512936
6319.000000;1.512564
6318.000000;1.512100
6317.000000;1.511350
6316.000000;1.510361
6315.000000;1.509398
6314.000000;1.508721
6313.000000;1.508373
6312.000000;1.508200
6311.000000;1.508007
6310.000000;1.507682
6309.000000;1.507220
6308.000000;1.506708
6307.000000;1.506249
6306.000000;1.505839
6305.000000;1.505350
6304.000000;1.504683
6303.000000;1.503959
6302.000000;1.503419
6301.000000;1.503123
6300.000000;1.502800
6299.000000;1.502115
6298.000000;1.501032
6297.000000;1.499870
6296.000000;1.498996
6295.000000;1.498513
6294.000000;1.498238
6293.000000;1.497907
6292.000000;1.497394
6291.000000;1.496765
6290.000000;1.496182
6289.000000;1.495739
6288.000000;1.495400
6287.000000;1.495077
6286.000000;1.494744
6285.000000;1.494421
6284.000000;1.494077
6283.000000;1.493600
6282.000000;1.492912
6281.000000;1.492095
6280.000000;1.491344
6279.000000;1.490812
6278.000000;1.490489
6277.000000;1.490227
6276.000000;1.489860
6275.000000;1.489324
6274.000000;1.488677
6273.000000;1.488044
6272.000000;1.487498
6271.000000;1.487011
6270.000000;1.486498
6269.000000;1.485927
6268.000000;1.485369
6267.000000;1.484914
6266.000000;1.484555
6265.000000;1.484171
6264.000000;1.483646
6263.000000;1.482987
6262.000000;1.482311
6261.000000;1.481726
6260.000000;1.481257
6259.000000;1.480875
6258.000000;1.480541
6257.000000;1.480232
6256.000000;1.479949
6255.000000;1.479709
6254.000000;1.479492
6253.000000;1.479203
6252.000000;1.478757
6251.000000;1.478198
6250.000000;1.477665
6249.000000;1.477186
6248.000000;1.476603
6247.000000;1.475792
6246.000000;1.474878
6245.000000;1.474133
6244.000000;1.473683
6243.000000;1.473443
6242.000000;1.473305
6241.000000;1.473254
6240.000000;1.473241
6239.000000;1.473105
6238.000000;1.472718
6237.000000;1.472143
6236.000000;1.471553
6235.000000;1.471049
6234.000000;1.470621
6233.000000;1.470236
6232.000000;1.469876
6231.000000;1.469515
6230.000000;1.469129
6229.000000;1.468728
6228.000000;1.468317
6227.000000;1.467853
6226.000000;1.467309
6225.000000;1.466733
6224.000000;1.466179
6223.000000;1.465605
6222.000000;1.464962
6221.000000;1.464366
6220.000000;1.464050
6219.000000;1.464075
6218.000000;1.464182
6217.000000;1.464037
6216.000000;1.463591
6215.000000;1.463084
6214.000000;1.462735
6213.000000;1.462508
6212.000000;1.462215
6211.000000;1.461755
6210.000000;1.461194
6209.000000;1.460635
6208.000000;1.460108
6207.000000;1.459589
6206.000000;1.459087
6205.000000;1.458656
6204.000000;1.458331
6203.000000;1.458070
6202.000000;1.457773
6201.000000;1.457375
6200.000000;1.456909
6199.000000;1.456498
6198.000000;1.456250
6197.000000;1.456155
6196.000000;1.456082
6195.000000;1.455886
6194.000000;1.455528
6193.000000;1.455079
6192.000000;1.454631
6191.000000;1.454235
6190.000000;1.453889
6189.000000;1.453542
6188.000000;1.453099
6187.000000;1.452490
6186.000000;1.451783
6185.000000;1.451177
6184.000000;1.450832
6183.000000;1.450708
6182.000000;1.450600
6181.000000;1.450330
6180.000000;1.449866
6179.000000;1.449305
6178.000000;1.448780
6177.000000;1.448395
6176.000000;1.448160
6175.000000;1.447965
6174.000000;1.447664
6173.000000;1.447219
6172.000000;1.446747
6171.000000;1.446385
6170.000000;1.446153
6169.000000;1.445970
6168.000000;1.445774
6167.000000;1.445576
6166.000000;1.445398
6165.000000;1.445214
6164.000000;1.444985
6163.000000;1.444698
6162.000000;1.444366
6161.000000;1.443988
6160.000000;1.443557
6159.000000;1.443115
6158.000000;1.442763
6157.000000;1.442577
6156.000000;1.442506
6155.000000;1.442376
6154.000000;1.442021
6153.000000;1.441424
6152.000000;1.440737
6151.000000;1.440157
6150.000000;1.439787
6149.000000;1.439597
6148.000000;1.439482
6147.000000;1.439336
6146.000000;1.439116
6145.000000;1.438868
6144.000000;1.438698
6143.000000;1.438662
6142.000000;1.438678
6141.000000;1.438574
6140.000000;1.438258
6139.000000;1.437810
6138.000000;1.437398
6137.000000;1.437117
6136.000000;1.436942
6135.000000;1.436810
6134.000000;1.436695
6133.000000;1.436594
6132.000000;1.436482
6131.000000;1.436304
6130.000000;1.436010
6129.000000;1.435582
6128.000000;1.435063
6127.000000;1.434570
6126.000000;1.434234
6125.000000;1.434085
6124.000000;1.434010
6123.000000;1.433859
6122.000000;1.433584
6121.000000;1.433245
6120.000000;1.432906
6119.000000;1.432567
6118.000000;1.432201
6117.000000;1.431825
6116.000000;1.431477
6115.000000;1.431165
6114.000000;1.430870
6113.000000;1.430590
6112.000000;1.430363
6111.000000;1.430221
6110.000000;1.430134
6109.000000;1.430011
6108.000000;1.429779
6107.000000;1.429466
6106.000000;1.429173
6105.000000;1.428953
6104.000000;1.428759
6103.000000;1.428519
6102.000000;1.428252
6101.000000;1.428053
6100.000000;1.427971
6099.000000;1.427952
6098.000000;1.427904
6097.000000;1.427764
6096.000000;1.427493
6095.000000;1.427085
6094.000000;1.426622
6093.000000;1.426240
6092.000000;1.425984
6091.000000;1.425737
6090.000000;1.425359
6089.000000;1.424875
6088.000000;1.424437
6087.000000;1.424133
6086.000000;1.423909
6085.000000;1.423690
6084.000000;1.423480
6083.000000;1.423318
6082.000000;1.423208
6081.000000;1.423146
6080.000000;1.423147
6079.000000;1.423194
6078.000000;1.423198
6077.000000;1.423072
6076.000000;1.422819
6075.000000;1.422497
6074.000000;1.422135
6073.000000;1.421755
6072.000000;1.421431
6071.000000;1.421243
6070.000000;1.421167
6069.000000;1.421087
6068.000000;1.420938
6067.000000;1.420769
6066.000000;1.420619
6065.000000;1.420427
6064.000000;1.420119
6063.000000;1.419751
6062.000000;1.419474
6061.000000;1.419366
6060.000000;1.419339
6059.000000;1.419246
6058.000000;1.419035
6057.000000;1.418786
6056.000000;1.418609
6055.000000;1.418526
6054.000000;1.418474
6053.000000;1.418379
6052.000000;1.418224
6051.000000;1.418031
6050.000000;1.417824
6049.000000;1.417631
6048.000000;1.417495
6047.000000;1.417418
6046.000000;1.417304
6045.000000;1.417038
6044.000000;1.416646
6043.000000;1.416312
6042.000000;1.416171
6041.000000;1.416155
6040.000000;1.416082
6039.000000;1.415880
6038.000000;1.415633
6037.000000;1.415451
6036.000000;1.415350
6035.000000;1.415287
6034.000000;1.415226
6033.000000;1.415152
6032.000000;1.415062
6031.000000;1.414960
6030.000000;1.414845
6029.000000;1.414695
6028.000000;1.414498
6027.000000;1.414276
6026.000000;1.414067
6025.000000;1.413885
6024.000000;1.413747
6023.000000;1.413716
6022.000000;1.413840
6021.000000;1.414053
6020.000000;1.414202
6019.000000;1.414180
6018.000000;1.414002
6017.000000;1.413737
6016.000000;1.413450
6015.000000;1.413211
6014.000000;1.413077
6013.000000;1.413030
6012.000000;1.412987
6011.000000;1.412912
6010.000000;1.412863
6009.000000;1.412868
6008.000000;1.412852
6007.000000;1.412731
6006.000000;1.412538
6005.000000;1.412366
6004.000000;1.412246
6003.000000;1.412139
6002.000000;1.412016
6001.000000;1.411890
6000.000000;1.411765
5999.000000;1.411639
5998.000000;1.411532
5997.000000;1.411471
5996.000000;1.411433
5995.000000;1.411379
5994.000000;1.411303
5993.000000;1.411216
5992.000000;1.411091
5991.000000;1.410913
5990.000000;1.410734
5989.000000;1.410635
5988.000000;1.410622
5987.000000;1.410639
5986.000000;1.410666
5985.000000;1.410724
5984.000000;1.410786
5983.000000;1.410777
5982.000000;1.410681
5981.000000;1.410576
5980.000000;1.410511
5979.000000;1.410429
5978.000000;1.410268
5977.000000;1.410076
5976.000000;1.409959
5975.000000;1.409941
5974.000000;1.409945
5973.000000;1.409894
5972.000000;1.409795
5971.000000;1.409731
5970.000000;1.409795
5969.000000;1.410023
5968.000000;1.410351
5967.000000;1.410643
5966.000000;1.410769
5965.000000;1.410671
5964.000000;1.410385
5963.000000;1.410015
5962.000000;1.409712
5961.000000;1.409592
5960.000000;1.409646
5959.000000;1.409736
5958.000000;1.409746
5957.000000;1.409699
5956.000000;1.409703
5955.000000;1.409779
5954.000000;1.409818
5953.000000;1.409720
5952.000000;1.409545
5951.000000;1.409456
5950.000000;1.409541
5949.000000;1.409719
5948.000000;1.409838
5947.000000;1.409834
5946.000000;1.409758
5945.000000;1.409671
5944.000000;1.409578
5943.000000;1.409482
5942.000000;1.409439
5941.000000;1.409498
5940.000000;1.409611
5939.000000;1.409674
5938.000000;1.409655
5937.000000;1.409629
5936.000000;1.409679
5935.000000;1.409787
5934.000000;1.409858
5933.000000;1.409816
5932.000000;1.409667
5931.000000;1.409497
5930.000000;1.409419
5929.000000;1.409498
5928.000000;1.409689
5927.000000;1.409877
5926.000000;1.409968
5925.000000;1.409951
5924.000000;1.409880
5923.000000;1.409822
5922.000000;1.409837
5921.000000;1.409948
5920.000000;1.410108
5919.000000;1.410224
5918.000000;1.410248
5917.000000;1.410220
5916.000000;1.410215
5915.000000;1.410262
5914.000000;1.410334
5913.000000;1.410395
5912.000000;1.410426
5911.000000;1.410435
5910.000000;1.410454
5909.000000;1.410524
5908.000000;1.410650
5907.000000;1.410779
5906.000000;1.410854
5905.000000;1.410879
5904.000000;1.410897
5903.000000;1.410927
5902.000000;1.410956
5901.000000;1.410989
5900.000000;1.411083
5899.000000;1.411300
5898.000000;1.411657
5897.000000;1.412095
5896.000000;1.412504
5895.000000;1.412764
5894.000000;1.412803
5893.000000;1.412642
5892.000000;1.412406
5891.000000;1.412258
5890.000000;1.412308
5889.000000;1.412542
5888.000000;1.412848
5887.000000;1.413076
5886.000000;1.413112
5885.000000;1.412928
5884.000000;1.412598
5883.000000;1.412277
5882.000000;1.412124
5881.000000;1.412209
5880.000000;1.412481
5879.000000;1.412826
5878.000000;1.413139
5877.000000;1.413340
5876.000000;1.413379
5875.000000;1.413279
5874.000000;1.413172
5873.000000;1.413213
5872.000000;1.413451
5871.000000;1.413790
5870.000000;1.414093
5869.000000;1.414295
5868.000000;1.414414
5867.000000;1.414511
5866.000000;1.414641
5865.000000;1.414831
5864.000000;1.415062
5863.000000;1.415300
5862.000000;1.415540
5861.000000;1.415785
5860.000000;1.416000
5859.000000;1.416141
5858.000000;1.416242
5857.000000;1.416407
5856.000000;1.416674
5855.000000;1.416942
5854.000000;1.417104
5853.000000;1.417185
5852.000000;1.417289
5851.000000;1.417443
5850.000000;1.417582
5849.000000;1.417675
5848.000000;1.417779
5847.000000;1.417963
5846.000000;1.418229
5845.000000;1.418525
5844.000000;1.418785
5843.000000;1.418951
5842.000000;1.419021
5841.000000;1.419081
5840.000000;1.419248
5839.000000;1.419550
5838.000000;1.419916
5837.000000;1.420289
5836.000000;1.420678
5835.000000;1.421070
5834.000000;1.421381
5833.000000;1.421575
5832.000000;1.421755
5831.000000;1.422054
5830.000000;1.422455
5829.000000;1.422805
5828.000000;1.423016
5827.000000;1.423169
5826.000000;1.423401
5825.000000;1.423744
5824.000000;1.424116
5823.000000;1.424415
5822.000000;1.424611
5821.000000;1.424759
5820.000000;1.424954
5819.000000;1.425259
5818.000000;1.425657
5817.000000;1.426059
5816.000000;1.426381
5815.000000;1.426592
5814.000000;1.426721
5813.000000;1.426819
5812.000000;1.426929
5811.000000;1.427066
5810.000000;1.427218
5809.000000;1.427401
5808.000000;1.427682
5807.000000;1.428110
5806.000000;1.428638
5805.000000;1.429155
5804.000000;1.429610
5803.000000;1.430047
5802.000000;1.430487
5801.000000;1.430859
5800.000000;1.431087
5799.000000;1.431217
5798.000000;1.431387
5797.000000;1.431689
5796.000000;1.432138
5795.000000;1.432718
5794.000000;1.433407
5793.000000;1.434126
5792.000000;1.434750
5791.000000;1.435202
5790.000000;1.435496
5789.000000;1.435687
5788.000000;1.435818
5787.000000;1.435942
5786.000000;1.436148
5785.000000;1.436499
5784.000000;1.436964
5783.000000;1.437439
5782.000000;1.437852
5781.000000;1.438226
5780.000000;1.438631
5779.000000;1.439091
5778.000000;1.439545
5777.000000;1.439919
5776.000000;1.440234
5775.000000;1.440600
5774.000000;1.441098
5773.000000;1.441675
5772.000000;1.442198
5771.000000;1.442601
5770.000000;1.442941
5769.000000;1.443303
5768.000000;1.443695
5767.000000;1.444058
5766.000000;1.444357
5765.000000;1.444624
5764.000000;1.444942
5763.000000;1.445402
5762.000000;1.446042
5761.000000;1.446797
5760.000000;1.447508
5759.000000;1.448046
5758.000000;1.448440
5757.000000;1.448865
5756.000000;1.449485
5755.000000;1.450289
5754.000000;1.451110
5753.000000;1.451776
5752.000000;1.452256
5751.000000;1.452655
5750.000000;1.453107
5749.000000;1.453675
5748.000000;1.454320
5747.000000;1.454950
5746.000000;1.455506
5745.000000;1.456025
5744.000000;1.456613
5743.000000;1.457316
5742.000000;1.458036
5741.000000;1.458617
5740.000000;1.459031
5739.000000;1.459401
5738.000000;1.459843
5737.000000;1.460342
5736.000000;1.460826
5735.000000;1.461300
5734.000000;1.461826
5733.000000;1.462422
5732.000000;1.463068
5731.000000;1.463776
5730.000000;1.464558
5729.000000;1.465332
5728.000000;1.465960
5727.000000;1.466420
5726.000000;1.466849
5725.000000;1.467391
5724.000000;1.468048
5723.000000;1.468735
5722.000000;1.469416
5721.000000;1.470116
5720.000000;1.470849
5719.000000;1.471588
5718.000000;1.472309
5717.000000;1.473017
5716.000000;1.473716
5715.000000;1.474366
5714.000000;1.474909
5713.000000;1.475327
5712.000000;1.475706
5711.000000;1.476216
5710.000000;1.476991
5709.000000;1.478018
5708.000000;1.479142
5707.000000;1.480188
5706.000000;1.481071
5705.000000;1.481824
5704.000000;1.482550
5703.000000;1.483336
5702.000000;1.484154
5701.000000;1.484886
5700.000000;1.485419
5699.000000;1.485824
5698.000000;1.486310
5697.000000;1.487033
5696.000000;1.487975
5695.000000;1.488988
5694.000000;1.489928
5693.000000;1.490736
5692.000000;1.491460
5691.000000;1.492207
5690.000000;1.493025
5689.000000;1.493842
5688.000000;1.494553
5687.000000;1.495164
5686.000000;1.495779
5685.000000;1.496450
5684.000000;1.497139
5683.000000;1.497828
5682.000000;1.498575
5681.000000;1.499414
5680.000000;1.500294
5679.000000;1.501161
5678.000000;1.502025
5677.000000;1.502890
5676.000000;1.503706
5675.000000;1.504448
5674.000000;1.505185
5673.000000;1.505978
5672.000000;1.506782
5671.000000;1.507523
5670.000000;1.508230
5669.000000;1.508970
5668.000000;1.509700
5667.000000;1.510300
5666.000000;1.510761
5665.000000;1.511242
5664.000000;1.511896
5663.000000;1.512715
5662.000000;1.513569
5661.000000;1.514340
5660.000000;1.515001
5659.000000;1.515607
5658.000000;1.516253
5657.000000;1.517002
5656.000000;1.517832
5655.000000;1.518636
5654.000000;1.519319
5653.000000;1.519892
5652.000000;1.520481
5651.000000;1.521231
5650.000000;1.522160
5649.000000;1.523096
5648.000000;1.523816
5647.000000;1.524267
5646.000000;1.524635
5645.000000;1.525142
5644.000000;1.525822
5643.000000;1.526526
5642.000000;1.527109
5641.000000;1.527543
5640.000000;1.527900
5639.000000;1.528280
5638.000000;1.528777
5637.000000;1.529445
5636.000000;1.530269
5635.000000;1.531179
5634.000000;1.532086
5633.000000;1.532890
5632.000000;1.533495
5631.000000;1.533894
5630.000000;1.534206
5629.000000;1.534596
5628.000000;1.535131
5627.000000;1.535752
5626.000000;1.536364
5625.000000;1.536908
5624.000000;1.537372
5623.000000;1.537781
5622.000000;1.538191
5621.000000;1.538663
5620.000000;1.539204
5619.000000;1.539757
5618.000000;1.540256
5617.000000;1.540691
5616.000000;1.541110
5615.000000;1.541566
5614.000000;1.542054
5613.000000;1.542508
5612.000000;1.542873
5611.000000;1.543168
5610.000000;1.543460
5609.000000;1.543787
5608.000000;1.544129
5607.000000;1.544480
5606.000000;1.544875
5605.000000;1.545324
5604.000000;1.545765
5603.000000;1.546153
5602.000000;1.546535
5601.000000;1.546978
5600.000000;1.547455
5599.000000;1.547850
5598.000000;1.548078
5597.000000;1.548158
5596.000000;1.548197
5595.000000;1.548351
5594.000000;1.548730
5593.000000;1.549289
5592.000000;1.549824
5591.000000;1.550162
5590.000000;1.550338
5589.000000;1.550525
5588.000000;1.550806
5587.000000;1.551098
5586.000000;1.551280
5585.000000;1.551310
5584.000000;1.551201
5583.000000;1.550997
5582.000000;1.550795
5581.000000;1.550724
5580.000000;1.550866
5579.000000;1.551201
5578.000000;1.551639
5577.000000;1.552068
5576.000000;1.552382
5575.000000;1.552538
5574.000000;1.552612
5573.000000;1.552725
5572.000000;1.552912
5571.000000;1.553090
5570.000000;1.553182
5569.000000;1.553217
5568.000000;1.553270
5567.000000;1.553371
5566.000000;1.553500
5565.000000;1.553636
5564.000000;1.553757
5563.000000;1.553829
5562.000000;1.553824
5561.000000;1.553756
5560.000000;1.553682
5559.000000;1.553672
5558.000000;1.553761
5557.000000;1.553909
5556.000000;1.554005
5555.000000;1.553941
5554.000000;1.553699
5553.000000;1.553365
5552.000000;1.553097
5551.000000;1.553038
5550.000000;1.553209
5549.000000;1.553478
5548.000000;1.553679
5547.000000;1.553799
5546.000000;1.553958
5545.000000;1.554202
5544.000000;1.554380
5543.000000;1.554331
5542.000000;1.554095
5541.000000;1.553856
5540.000000;1.553741
5539.000000;1.553771
5538.000000;1.553921
5537.000000;1.554125
5536.000000;1.554269
5535.000000;1.554269
5534.000000;1.554166
5533.000000;1.554070
5532.000000;1.554036
5531.000000;1.554070
5530.000000;1.554181
5529.000000;1.554347
5528.000000;1.554454
5527.000000;1.554378
5526.000000;1.554139
5525.000000;1.553923
5524.000000;1.553887
5523.000000;1.554044
5522.000000;1.554290
5521.000000;1.554487
5520.000000;1.554553
5519.000000;1.554514
5518.000000;1.554470
5517.000000;1.554499
5516.000000;1.554576
5515.000000;1.554647
5514.000000;1.554706
5513.000000;1.554742
5512.000000;1.554702
5511.000000;1.554595
5510.000000;1.554535
5509.000000;1.554616
5508.000000;1.554816
5507.000000;1.555069
5506.000000;1.555363
5505.000000;1.555688
5504.000000;1.555950
5503.000000;1.556121
5502.000000;1.556321
5501.000000;1.556604
5500.000000;1.556805
5499.000000;1.556711
5498.000000;1.556334
5497.000000;1.555948
5496.000000;1.555776
5495.000000;1.555792
5494.000000;1.555806
5493.000000;1.555722
5492.000000;1.555665
5491.000000;1.555838
5490.000000;1.556335
5489.000000;1.557092
5488.000000;1.557930
5487.000000;1.558667
5486.000000;1.559191
5485.000000;1.559487
5484.000000;1.559608
5483.000000;1.559688
5482.000000;1.559879
5481.000000;1.560085
5480.000000;1.560034
5479.000000;1.559748
5478.000000;1.559640
5477.000000;1.559981
5476.000000;1.560474
5475.000000;1.560732
5474.000000;1.560854
5473.000000;1.561181
5472.000000;1.561810
5471.000000;1.562582
5470.000000;1.563302
5469.000000;1.563819
5468.000000;1.564077
5467.000000;1.564166
5466.000000;1.564280
5465.000000;1.564580
5464.000000;1.565084
5463.000000;1.565745
5462.000000;1.566510
5461.000000;1.567216
5460.000000;1.567720
5459.000000;1.568197
5458.000000;1.568957
5457.000000;1.569926
5456.000000;1.570690
5455.000000;1.571090
5454.000000;1.571405
5453.000000;1.571919
5452.000000;1.572543
5451.000000;1.573032
5450.000000;1.573369
5449.000000;1.573749
5448.000000;1.574379
5447.000000;1.575262
5446.000000;1.576158
5445.000000;1.576895
5444.000000;1.577633
5443.000000;1.578649
5442.000000;1.579963
5441.000000;1.581263
5440.000000;1.582255
5439.000000;1.583005
5438.000000;1.583845
5437.000000;1.584956
5436.000000;1.586142
5435.000000;1.587118
5434.000000;1.587857
5433.000000;1.588556
5432.000000;1.589478
5431.000000;1.590726
5430.000000;1.592003
5429.000000;1.593009
5428.000000;1.594003
5427.000000;1.595423
5426.000000;1.597273
5425.000000;1.599221
5424.000000;1.601009
5423.000000;1.602622
5422.000000;1.604198
5421.000000;1.605862
5420.000000;1.607544
5419.000000;1.609027
5418.000000;1.610298
5417.000000;1.611625
5416.000000;1.613209
5415.000000;1.614857
5414.000000;1.616298
5413.000000;1.617700
5412.000000;1.619454
5411.000000;1.621679
5410.000000;1.624190
5409.000000;1.626803
5408.000000;1.629473
5407.000000;1.632204
5406.000000;1.634986
5405.000000;1.637745
5404.000000;1.640424
5403.000000;1.643054
5402.000000;1.645597
5401.000000;1.648068
5400.000000;1.650604
5399.000000;1.653214
5398.000000;1.655846
5397.000000;1.658582
5396.000000;1.661559
5395.000000;1.664753
5394.000000;1.668041
5393.000000;1.671497
5392.000000;1.675183
5391.000000;1.678885
5390.000000;1.682451
5389.000000;1.686112
5388.000000;1.690178
5387.000000;1.694570
5386.000000;1.698909
5385.000000;1.702993
5384.000000;1.707058
5383.000000;1.711371
5382.000000;1.715834
5381.000000;1.720296
5380.000000;1.724866
5379.000000;1.729672
5378.000000;1.734591
5377.000000;1.739539
5376.000000;1.744788
5375.000000;1.750587
5374.000000;1.756726
5373.000000;1.762884
5372.000000;1.768971
5371.000000;1.775043
5370.000000;1.781150
5369.000000;1.787327
5368.000000;1.793624
5367.000000;1.800150
5366.000000;1.807074
5365.000000;1.814498
5364.000000;1.822357
5363.000000;1.830342
5362.000000;1.838119
5361.000000;1.845758
5360.000000;1.853627
5359.000000;1.861864
5358.000000;1.870279
5357.000000;1.878795
5356.000000;1.887619
5355.000000;1.896815
5354.000000;1.906137
5353.000000;1.915518
5352.000000;1.925376
5351.000000;1.936120
5350.000000;1.947559
5349.000000;1.959004
5348.000000;1.969919
5347.000000;1.980367
5346.000000;1.990870
5345.000000;2.002013
5344.000000;2.014146
5343.000000;2.027076
5342.000000;2.040215
5341.000000;2.053401
5340.000000;2.066819
5339.000000;2.080412
5338.000000;2.094075
5337.000000;2.107901
5336.000000;2.121998
5335.000000;2.136464
5334.000000;2.151458
5333.000000;2.166903
5332.000000;2.182419
5331.000000;2.197693
5330.000000;2.212828
5329.000000;2.228274
5328.000000;2.244267
5327.000000;2.260475
5326.000000;2.276418
5325.000000;2.292048
5324.000000;2.307774
5323.000000;2.324119
5322.000000;2.341369
5321.000000;2.359298
5320.000000;2.377051
5319.000000;2.393529
5318.000000;2.408195
5317.000000;2.421544
5316.000000;2.434647
5315.000000;2.448376
5314.000000;2.463032
5313.000000;2.478256
5312.000000;2.493139
5311.000000;2.506671
5310.000000;2.518301
5309.000000;2.528240
5308.000000;2.537321
5307.000000;2.546539
5306.000000;2.556389
5305.000000;2.566557
5304.000000;2.576506
5303.000000;2.586256
5302.000000;2.596291
5301.000000;2.606682
5300.000000;2.616517
5299.000000;2.624447
5298.000000;2.630049
5297.000000;2.634481
5296.000000;2.639425
5295.000000;2.645541
5294.000000;2.652070
5293.000000;2.657855
5292.000000;2.662630
5291.000000;2.666926
5290.000000;2.670870
5289.000000;2.673792
5288.000000;2.675219
5287.000000;2.675584
5286.000000;2.675449
5285.000000;2.674910
5284.000000;2.674400
5283.000000;2.675029
5282.000000;2.677246
5281.000000;2.679805
5280.000000;2.680999
5279.000000;2.680627
5278.000000;2.679952
5277.000000;2.680150
5276.000000;2.681703
5275.000000;2.684692
5274.000000;2.688590
5273.000000;2.691957
5272.000000;2.693375
5271.000000;2.692861
5270.000000;2.691529
5269.000000;2.690117
5268.000000;2.688608
5267.000000;2.686898
5266.000000;2.684817
5265.000000;2.682000
5264.000000;2.678916
5263.000000;2.677397
5262.000000;2.678783
5261.000000;2.681882
5260.000000;2.684229
5259.000000;2.685167
5258.000000;2.686043
5257.000000;2.687106
5256.000000;2.686179
5255.000000;2.681650
5254.000000;2.675572
5253.000000;2.672036
5252.000000;2.673018
5251.000000;2.676993
5250.000000;2.680718
5249.000000;2.682075
5248.000000;2.681853
5247.000000;2.682538
5246.000000;2.685240
5245.000000;2.688471
5244.000000;2.690157
5243.000000;2.690202
5242.000000;2.690285
5241.000000;2.691407
5240.000000;2.692752
5239.000000;2.693027
5238.000000;2.692035
5237.000000;2.690560
5236.000000;2.689506
5235.000000;2.689544
5234.000000;2.690753
5233.000000;2.692263
5232.000000;2.692910
5231.000000;2.692367
5230.000000;2.691111
5229.000000;2.689375
5228.000000;2.686971
5227.000000;2.684073
5226.000000;2.681525
5225.000000;2.680321
5224.000000;2.680866
5223.000000;2.682736
5222.000000;2.684958
5221.000000;2.686489
5220.000000;2.686756
5219.000000;2.685947
5218.000000;2.684637
5217.000000;2.683356
5216.000000;2.682929
5215.000000;2.684297
5214.000000;2.687132
5213.000000;2.689546
5212.000000;2.690074
5211.000000;2.689323
5210.000000;2.688678
5209.000000;2.688043
5208.000000;2.686266
5207.000000;2.683627
5206.000000;2.682238
5205.000000;2.683478
5204.000000;2.686416
5203.000000;2.689311
5202.000000;2.691408
5201.000000;2.692674
5200.000000;2.692886
5199.000000;2.691800
5198.000000;2.689672
5197.000000;2.687081
5196.000000;2.684599
5195.000000;2.682730
5194.000000;2.681790
5193.000000;2.681691
5192.000000;2.681852
5191.000000;2.681461
5190.000000;2.680007
5189.000000;2.677884
5188.000000;2.676656
5187.000000;2.678108
5186.000000;2.682278
5185.000000;2.686769
5184.000000;2.688885
5183.000000;2.688446
5182.000000;2.687492
5181.000000;2.687473
5180.000000;2.688031
5179.000000;2.688407
5178.000000;2.688609
5177.000000;2.688737
5176.000000;2.688270
5175.000000;2.686762
5174.000000;2.684609
5173.000000;2.682650
5172.000000;2.681441
5171.000000;2.681034
5170.000000;2.680933
5169.000000;2.680266
5168.000000;2.678760
5167.000000;2.677638
5166.000000;2.678668
5165.000000;2.681968
5164.000000;2.685408
5163.000000;2.686672
5162.000000;2.685523
5161.000000;2.683598
5160.000000;2.682535
5159.000000;2.682769
5158.000000;2.683621
5157.000000;2.684030
5156.000000;2.683524
5155.000000;2.682759
5154.000000;2.682693
5153.000000;2.683135
5152.000000;2.682747
5151.000000;2.680820
5150.000000;2.678601
5149.000000;2.678116
5148.000000;2.679986
5147.000000;2.683064
5146.000000;2.685788
5145.000000;2.687287
5144.000000;2.687485
5143.000000;2.686779
5142.000000;2.685694
5141.000000;2.684515
5140.000000;2.683243
5139.000000;2.682043
5138.000000;2.681489
5137.000000;2.682005
5136.000000;2.683228
5135.000000;2.684330
5134.000000;2.684933
5133.000000;2.685238
5132.000000;2.685185
5131.000000;2.684116
5130.000000;2.681827
5129.000000;2.679544
5128.000000;2.679064
5127.000000;2.680850
5126.000000;2.683415
5125.000000;2.685009
5124.000000;2.685522
5123.000000;2.686061
5122.000000;2.687058
5121.000000;2.687800
5120.000000;2.687862
5119.000000;2.687875
5118.000000;2.688268
5117.000000;2.688252
5116.000000;2.686882
5115.000000;2.684558
5114.000000;2.682584
5113.000000;2.681603
5112.000000;2.681277
5111.000000;2.681257
5110.000000;2.681780
5109.000000;2.683248
5108.000000;2.685489
5107.000000;2.687421
5106.000000;2.687515
5105.000000;2.685276
5104.000000;2.682556
5103.000000;2.682390
5102.000000;2.685820
5101.000000;2.690442
5100.000000;2.692848
5099.000000;2.692143
5098.000000;2.690039
5097.000000;2.688147
5096.000000;2.686653
5095.000000;2.685280
5094.000000;2.684042
5093.000000;2.682854
5092.000000;2.681693
5091.000000;2.681329
5090.000000;2.682704
5089.000000;2.685421
5088.000000;2.687910
5087.000000;2.689173
5086.000000;2.689323
5085.000000;2.688371
5084.000000;2.685785
5083.000000;2.681737
5082.000000;2.677765
5081.000000;2.675492
5080.000000;2.675361
5079.000000;2.676766
5078.000000;2.678523
5077.000000;2.679077
5076.000000;2.677459
5075.000000;2.674670
5074.000000;2.672973
5073.000000;2.673248
5072.000000;2.674300
5071.000000;2.675116
5070.000000;2.676242
5069.000000;2.677939
5068.000000;2.678471
5067.000000;2.676067
5066.000000;2.671917
5065.000000;2.669273
5064.000000;2.669779
5063.000000;2.672123
5062.000000;2.674134
5061.000000;2.674899
5060.000000;2.674606
5059.000000;2.673729
5058.000000;2.673030
5057.000000;2.673515
5056.000000;2.675513
5055.000000;2.678106
5054.000000;2.680120
5053.000000;2.681322
5052.000000;2.682124
5051.000000;2.682394
5050.000000;2.681319
5049.000000;2.678613
5048.000000;2.675288
5047.000000;2.672894
5046.000000;2.672223
5045.000000;2.672975
5044.000000;2.674404
5043.000000;2.675833
5042.000000;2.676529
5041.000000;2.675697
5040.000000;2.673149
5039.000000;2.669695
5038.000000;2.666440
5037.000000;2.663867
5036.000000;2.661939
5035.000000;2.660797
5034.000000;2.660720
5033.000000;2.661449
5032.000000;2.662271
5031.000000;2.662954
5030.000000;2.663888
5029.000000;2.665004
5028.000000;2.665393
5027.000000;2.664637
5026.000000;2.663887
5025.000000;2.664553
5024.000000;2.666169
5023.000000;2.666574
5022.000000;2.664491
5021.000000;2.661122
5020.000000;2.658657
5019.000000;2.657923
5018.000000;2.658124
5017.000000;2.658363
5016.000000;2.658571
5015.000000;2.658829
5014.000000;2.658585
5013.000000;2.657153
5012.000000;2.654645
5011.000000;2.651877
5010.000000;2.649452
5009.000000;2.647423
5008.000000;2.645946
5007.000000;2.645480
5006.000000;2.645696
5005.000000;2.644817
5004.000000;2.641210
5003.000000;2.635752
5002.000000;2.631701
5001.000000;2.631900
5000.000000;2.636390
4999.000000;2.642519
4998.000000;2.647145
4997.000000;2.648823
4996.000000;2.648190
4995.000000;2.646776
4994.000000;2.645538
4993.000000;2.644352
4992.000000;2.642755
4991.000000;2.640922
4990.000000;2.639560
4989.000000;2.638778
4988.000000;2.637701
4987.000000;2.635591
4986.000000;2.632951
4985.000000;2.631056
4984.000000;2.630504
4983.000000;2.630528
4982.000000;2.629815
4981.000000;2.627781
4980.000000;2.624911
4979.000000;2.622118
4978.000000;2.620067
4977.000000;2.618997
4976.000000;2.618817
4975.000000;2.619298
4974.000000;2.620230
4973.000000;2.621350
4972.000000;2.622152
4971.000000;2.621867
4970.000000;2.619921
4969.000000;2.616665
4968.000000;2.613553
4967.000000;2.612085
4966.000000;2.612203
4965.000000;2.611975
4964.000000;2.609437
4963.000000;2.604816
4962.000000;2.600491
4961.000000;2.598643
4960.000000;2.599311
4959.000000;2.600743
4958.000000;2.601275
4957.000000;2.600686
4956.000000;2.599732
4955.000000;2.598779
4954.000000;2.597195
4953.000000;2.594141
4952.000000;2.589871
4951.000000;2.585959
4950.000000;2.584056
4949.000000;2.584437
4948.000000;2.585802
4947.000000;2.586394
4946.000000;2.585315
4945.000000;2.582917
4944.000000;2.580187
4943.000000;2.577891
4942.000000;2.576052
4941.000000;2.574152
4940.000000;2.571945
4939.000000;2.569982
4938.000000;2.569080
4937.000000;2.569280
4936.000000;2.569617
4935.000000;2.569065
4934.000000;2.567445
4933.000000;2.565216
4932.000000;2.562711
4931.000000;2.559936
4930.000000;2.556977
4929.000000;2.554169
4928.000000;2.551723
4927.000000;2.549450
4926.000000;2.547028
4925.000000;2.544412
4924.000000;2.541794
4923.000000;2.539246
4922.000000;2.536580
4921.000000;2.533663
4920.000000;2.530692
4919.000000;2.528022
4918.000000;2.525785
4917.000000;2.523865
4916.000000;2.522290
4915.000000;2.521350
4914.000000;2.521062
4913.000000;2.520573
4912.000000;2.518513
4911.000000;2.514319
4910.000000;2.509111
4909.000000;2.504821
4908.000000;2.502343
4907.000000;2.500774
4906.000000;2.498724
4905.000000;2.496149
4904.000000;2.494301
4903.000000;2.493765
4902.000000;2.493277
4901.000000;2.491067
4900.000000;2.487080
4899.000000;2.483082
4898.000000;2.480516
4897.000000;2.478954
4896.000000;2.476914
4895.000000;2.473763
4894.000000;2.470385
4893.000000;2.468083
4892.000000;2.467132
4891.000000;2.466420
4890.000000;2.464418
4889.000000;2.460685
4888.000000;2.456496
4887.000000;2.453776
4886.000000;2.453274
4885.000000;2.453866
4884.000000;2.453766
4883.000000;2.452242
4882.000000;2.449859
4881.000000;2.447198
4880.000000;2.444024
4879.000000;2.439964
4878.000000;2.435563
4877.000000;2.432029
4876.000000;2.429905
4875.000000;2.428407
4874.000000;2.426323
4873.000000;2.423387
4872.000000;2.420391
4871.000000;2.417953
4870.000000;2.415683
4869.000000;2.412846
4868.000000;2.409479
4867.000000;2.406358
4866.000000;2.403920
4865.000000;2.401648
4864.000000;2.398678
4863.000000;2.394773
4862.000000;2.390594
4861.000000;2.387126
4860.000000;2.384922
4859.000000;2.383739
4858.000000;2.382806
4857.000000;2.381490
4856.000000;2.379680
4855.000000;2.377544
4854.000000;2.375174
4853.000000;2.372654
4852.000000;2.370209
4851.000000;2.367911
4850.000000;2.365407
4849.000000;2.362392
4848.000000;2.359300
4847.000000;2.356943
4846.000000;2.355408
4845.000000;2.353851
4844.000000;2.351558
4843.000000;2.348728
4842.000000;2.345838
4841.000000;2.342767
4840.000000;2.339118
4839.000000;2.335125
4838.000000;2.331501
4837.000000;2.328388
4836.000000;2.325155
4835.000000;2.321482
4834.000000;2.318091
4833.000000;2.315874
4832.000000;2.314532
4831.000000;2.312683
4830.000000;2.309518
4829.000000;2.305890
4828.000000;2.303305
4827.000000;2.302067
4826.000000;2.300913
4825.000000;2.298580
4824.000000;2.295254
4823.000000;2.292125
4822.000000;2.289878
4821.000000;2.288156
4820.000000;2.286305
4819.000000;2.283970
4818.000000;2.280887
4817.000000;2.276759
4816.000000;2.271830
4815.000000;2.267236
4814.000000;2.264239
4813.000000;2.263075
4812.000000;2.262825
4811.000000;2.262296
4810.000000;2.260878
4809.000000;2.258590
4808.000000;2.255685
4807.000000;2.252440
4806.000000;2.249130
4805.000000;2.245993
4804.000000;2.243102
4803.000000;2.240353
4802.000000;2.237630
4801.000000;2.234969
4800.000000;2.232522
4799.000000;2.230323
4798.000000;2.228110
4797.000000;2.225466
4796.000000;2.222166
4795.000000;2.218374
4794.000000;2.214484
4793.000000;2.210814
4792.000000;2.207485
4791.000000;2.204550
4790.000000;2.202138
4789.000000;2.200337
4788.000000;2.198933
4787.000000;2.197429
4786.000000;2.195452
4785.000000;2.193035
4784.000000;2.190317
4783.000000;2.187143
4782.000000;2.183378
4781.000000;2.179533
4780.000000;2.176501
4779.000000;2.174429
4778.000000;2.172350
4777.000000;2.169375
4776.000000;2.165881
4775.000000;2.162993
4774.000000;2.161147
4773.000000;2.159706
4772.000000;2.157812
4771.000000;2.155045
4770.000000;2.151342
4769.000000;2.146974
4768.000000;2.142736
4767.000000;2.139539
4766.000000;2.137513
4765.000000;2.135853
4764.000000;2.133789
4763.000000;2.131360
4762.000000;2.129061
4761.000000;2.127119
4760.000000;2.125462
4759.000000;2.124033
4758.000000;2.122736
4757.000000;2.121237
4756.000000;2.119142
4755.000000;2.116367
4754.000000;2.113181
4753.000000;2.110015
4752.000000;2.107235
4751.000000;2.104870
4750.000000;2.102481
4749.000000;2.099586
4748.000000;2.096348
4747.000000;2.093575
4746.000000;2.091825
4745.000000;2.090734
4744.000000;2.089421
4743.000000;2.087337
4742.000000;2.084529
4741.000000;2.081376
4740.000000;2.078329
4739.000000;2.075678
4738.000000;2.073257
4737.000000;2.070578
4736.000000;2.067548
4735.000000;2.064839
4734.000000;2.063200
4733.000000;2.062534
4732.000000;2.061933
4731.000000;2.060562
4730.000000;2.058273
4729.000000;2.055466
4728.000000;2.052672
4727.000000;2.050232
4726.000000;2.048098
4725.000000;2.045909
4724.000000;2.043421
4723.000000;2.040763
4722.000000;2.038081
4721.000000;2.035177
4720.000000;2.031888
4719.000000;2.028674
4718.000000;2.026340
4717.000000;2.025084
4716.000000;2.024198
4715.000000;2.022873
4714.000000;2.020982
4713.000000;2.018913
4712.000000;2.016922
4711.000000;2.014907
4710.000000;2.012675
4709.000000;2.010156
4708.000000;2.007435
4707.000000;2.004765
4706.000000;2.002523
4705.000000;2.000948
4704.000000;1.999890
4703.000000;1.998919
4702.000000;1.997733
4701.000000;1.996402
4700.000000;1.995138
4699.000000;1.993858
4698.000000;1.992111
4697.000000;1.989564
4696.000000;1.986510
4695.000000;1.983740
4694.000000;1.981818
4693.000000;1.980567
4692.000000;1.979322
4691.000000;1.977635
4690.000000;1.975602
4689.000000;1.973566
4688.000000;1.971687
4687.000000;1.969869
4686.000000;1.967964
4685.000000;1.965917
4684.000000;1.963751
4683.000000;1.961524
4682.000000;1.959349
4681.000000;1.957402
4680.000000;1.955812
4679.000000;1.954505
4678.000000;1.953226
4677.000000;1.951799
4676.000000;1.950319
4675.000000;1.949006
4674.000000;1.947897
4673.000000;1.946789
4672.000000;1.945458
4671.000000;1.943838
4670.000000;1.942014
4669.000000;1.940160
4668.000000;1.938448
4667.000000;1.936837
4666.000000;1.934942
4665.000000;1.932386
4664.000000;1.929391
4663.000000;1.926780
4662.000000;1.925208
4661.000000;1.924537
4660.000000;1.924128
4659.000000;1.923605
4658.000000;1.923051
4657.000000;1.922508
4656.000000;1.921636
4655.000000;1.920071
4654.000000;1.917944
4653.000000;1.915837
4652.000000;1.914208
4651.000000;1.912993
4650.000000;1.911797
4649.000000;1.910362
4648.000000;1.908763
4647.000000;1.907182
4646.000000;1.905679
4645.000000;1.904258
4644.000000;1.903008
4643.000000;1.901966
4642.000000;1.900914
4641.000000;1.899524
4640.000000;1.897729
4639.000000;1.895805
4638.000000;1.894063
4637.000000;1.892616
4636.000000;1.891426
4635.000000;1.890363
4634.000000;1.889187
4633.000000;1.887737
4632.000000;1.886240
4631.000000;1.885194
4630.000000;1.884761
4629.000000;1.884488
4628.000000;1.883807
4627.000000;1.882649
4626.000000;1.881337
4625.000000;1.880043
4624.000000;1.878657
4623.000000;1.877136
4622.000000;1.875707
4621.000000;1.874639
4620.000000;1.873984
4619.000000;1.873555
4618.000000;1.873031
4617.000000;1.872142
4616.000000;1.870898
4615.000000;1.869664
4614.000000;1.868831
4613.000000;1.868371
4612.000000;1.867791
4611.000000;1.866564
4610.000000;1.864583
4609.000000;1.862260
4608.000000;1.860230
4607.000000;1.858886
4606.000000;1.858077
4605.000000;1.857285
4604.000000;1.856175
4603.000000;1.854914
4602.000000;1.853877
4601.000000;1.853158
4600.000000;1.852491
4599.000000;1.851558
4598.000000;1.850247
4597.000000;1.848679
4596.000000;1.847154
4595.000000;1.846050
4594.000000;1.845571
4593.000000;1.845584
4592.000000;1.845787
4591.000000;1.845938
4590.000000;1.845827
4589.000000;1.845171
4588.000000;1.843872
4587.000000;1.842302
4586.000000;1.841024
4585.000000;1.840167
4584.000000;1.839352
4583.000000;1.838324
4582.000000;1.837367
4581.000000;1.836878
4580.000000;1.836752
4579.000000;1.836463
4578.000000;1.835680
4577.000000;1.834568
4576.000000;1.833511
4575.000000;1.832730
4574.000000;1.832216
4573.000000;1.831845
4572.000000;1.831443
4571.000000;1.830831
4570.000000;1.829910
4569.000000;1.828730
4568.000000;1.827420
4567.000000;1.826078
4566.000000;1.824780
4565.000000;1.823698
4564.000000;1.823084
4563.000000;1.822987
4562.000000;1.823020
4561.000000;1.822589
4560.000000;1.821446
4559.000000;1.819914
4558.000000;1.818489
4557.000000;1.817391
4556.000000;1.816595
4555.000000;1.816093
4554.000000;1.815878
4553.000000;1.815775
4552.000000;1.815559
4551.000000;1.815236
4550.000000;1.814927
4549.000000;1.814503
4548.000000;1.813660
4547.000000;1.812435
4546.000000;1.811338
4545.000000;1.810768
4544.000000;1.810538
4543.000000;1.810185
4542.000000;1.809555
4541.000000;1.808826
4540.000000;1.808110
4539.000000;1.807369
4538.000000;1.806664
4537.000000;1.806179
4536.000000;1.805931
4535.000000;1.805708
4534.000000;1.805349
4533.000000;1.804872
4532.000000;1.804251
4531.000000;1.803350
4530.000000;1.802231
4529.000000;1.801324
4528.000000;1.801030
4527.000000;1.801229
4526.000000;1.801384
4525.000000;1.801090
4524.000000;1.800436
4523.000000;1.799837
4522.000000;1.799669
4521.000000;1.799999
4520.000000;1.800523
4519.000000;1.800747
4518.000000;1.800415
4517.000000;1.799770
4516.000000;1.799259
4515.000000;1.798963
4514.000000;1.798548
4513.000000;1.797836
4512.000000;1.797179
4511.000000;1.797078
4510.000000;1.797586
4509.000000;1.798290
4508.000000;1.798760
4507.000000;1.798814
4506.000000;1.798453
4505.000000;1.797859
4504.000000;1.797457
4503.000000;1.797619
4502.000000;1.798128
4501.000000;1.798219
4500.000000;1.797393
4499.000000;1.796058
4498.000000;1.795104
4497.000000;1.794958
4496.000000;1.795303
4495.000000;1.795667
4494.000000;1.795938
4493.000000;1.796216
4492.000000;1.796425
4491.000000;1.796338
4490.000000;1.795899
4489.000000;1.795327
4488.000000;1.794895
4487.000000;1.794744
4486.000000;1.794899
4485.000000;1.795316
4484.000000;1.795863
4483.000000;1.796348
4482.000000;1.796698
4481.000000;1.797055
4480.000000;1.797590
4479.000000;1.798231
4478.000000;1.798673
4477.000000;1.798706
4476.000000;1.798468
4475.000000;1.798318
4474.000000;1.798493
4473.000000;1.798929
4472.000000;1.799385
4471.000000;1.799689
4470.000000;1.799891
4469.000000;1.800198
4468.000000;1.800765
4467.000000;1.801565
4466.000000;1.802484
4465.000000;1.803466
4464.000000;1.804446
4463.000000;1.805183
4462.000000;1.805383
4461.000000;1.805081
4460.000000;1.804709
4459.000000;1.804599
4458.000000;1.804555
4457.000000;1.804160
4456.000000;1.803450
4455.000000;1.803015
4454.000000;1.803384
4453.000000;1.804507
4452.000000;1.805862
4451.000000;1.806902
4450.000000;1.807321
4449.000000;1.807158
4448.000000;1.806850
4447.000000;1.807079
4446.000000;1.808287
4445.000000;1.810242
4444.000000;1.812148
4443.000000;1.813279
4442.000000;1.813541
4441.000000;1.813456
4440.000000;1.813631
4439.000000;1.814243
4438.000000;1.815002
4437.000000;1.815583
4436.000000;1.816016
4435.000000;1.816606
4434.000000;1.817556
4433.000000;1.818757
4432.000000;1.819904
4431.000000;1.820700
4430.000000;1.821044
4429.000000;1.821208
4428.000000;1.821780
4427.000000;1.823188
4426.000000;1.825179
4425.000000;1.826952
4424.000000;1.827920
4423.000000;1.828245
4422.000000;1.828547
4421.000000;1.829205
4420.000000;1.830092
4419.000000;1.830856
4418.000000;1.831343
4417.000000;1.831780
4416.000000;1.832597
4415.000000;1.833917
4414.000000;1.835247
4413.000000;1.835924
4412.000000;1.835995
4411.000000;1.836346
4410.000000;1.837709
4409.000000;1.839780
4408.000000;1.841582
4407.000000;1.842539
4406.000000;1.842865
4405.000000;1.843021
4404.000000;1.843275
4403.000000;1.843819
4402.000000;1.844846
4401.000000;1.846259
4400.000000;1.847616
4399.000000;1.848604
4398.000000;1.849358
4397.000000;1.850158
4396.000000;1.851018
4395.000000;1.851814
4394.000000;1.852638
4393.000000;1.853724
4392.000000;1.855045
4391.000000;1.856265
4390.000000;1.857116
4389.000000;1.857656
4388.000000;1.858144
4387.000000;1.858835
4386.000000;1.859852
4385.000000;1.861045
4384.000000;1.861949
4383.000000;1.862162
4382.000000;1.861947
4381.000000;1.862206
4380.000000;1.863621
4379.000000;1.865903
4378.000000;1.868101
4377.000000;1.869605
4376.000000;1.870597
4375.000000;1.871490
4374.000000;1.872234
4373.000000;1.872379
4372.000000;1.871661
4371.000000;1.870320
4370.000000;1.868907
4369.000000;1.867901
4368.000000;1.867405
4367.000000;1.867153
4366.000000;1.866958
4365.000000;1.867213
4364.000000;1.868670
4363.000000;1.871503
4362.000000;1.874766
4361.000000;1.877164
4360.000000;1.878347
4359.000000;1.879099
4358.000000;1.880276
4357.000000;1.881988
4356.000000;1.883853
4355.000000;1.885561
4354.000000;1.886907
4353.000000;1.887635
4352.000000;1.887648
4351.000000;1.887203
4350.000000;1.886636
4349.000000;1.886038
4348.000000;1.885334
4347.000000;1.884657
4346.000000;1.884442
4345.000000;1.885122
4344.000000;1.886781
4343.000000;1.888986
4342.000000;1.890850
4341.000000;1.891611
4340.000000;1.891513
4339.000000;1.891935
4338.000000;1.894147
4337.000000;1.897832
4336.000000;1.901070
4335.000000;1.901970
4334.000000;1.900262
4333.000000;1.897265
4332.000000;1.894621
4331.000000;1.893311
4330.000000;1.893542
4329.000000;1.895074
4328.000000;1.897398
4327.000000;1.899779
4326.000000;1.901456
4325.000000;1.902039
4324.000000;1.901741
4323.000000;1.901153
4322.000000;1.900786
4321.000000;1.900853
4320.000000;1.901425
4319.000000;1.902515
4318.000000;1.903904
4317.000000;1.905190
4316.000000;1.906136
4315.000000;1.906709
4314.000000;1.906747
4313.000000;1.906014
4312.000000;1.904896
4311.000000;1.904544
4310.000000;1.905715
4309.000000;1.907635
4308.000000;1.908655
4307.000000;1.908127
4306.000000;1.907062
4305.000000;1.906801
4304.000000;1.907557
4303.000000;1.908439
4302.000000;1.908542
4301.000000;1.907766
4300.000000;1.906794
4299.000000;1.906635
4298.000000;1.907943
4297.000000;1.910359
4296.000000;1.912657
4295.000000;1.913752
4294.000000;1.913321
4293.000000;1.911581
4292.000000;1.909171
4291.000000;1.907375
4290.000000;1.907451
4289.000000;1.909057
4288.000000;1.910100
4287.000000;1.909127
4286.000000;1.907276
4285.000000;1.906781
4284.000000;1.907787
4283.000000;1.907742
4282.000000;1.904361
4281.000000;1.898434
4280.000000;1.892872
4279.000000;1.889748
4278.000000;1.889154
4277.000000;1.889966
4276.000000;1.890739
4275.000000;1.890412
4274.000000;1.888859
4273.000000;1.886793
4272.000000;1.884974
4271.000000;1.883670
4270.000000;1.882861
4269.000000;1.882409
4268.000000;1.881687
4267.000000;1.879668
4266.000000;1.876138
4265.000000;1.872402
4264.000000;1.869921
4263.000000;1.868559
4262.000000;1.867221
4261.000000;1.866011
4260.000000;1.866431
4259.000000;1.869018
4258.000000;1.871553
4257.000000;1.870245
4256.000000;1.863027
4255.000000;1.851721
4254.000000;1.840602
4253.000000;1.833415
4252.000000;1.831476
4251.000000;1.832886
4250.000000;1.833594
4249.000000;1.830997
4248.000000;1.826266
4247.000000;1.822595
4246.000000;1.821496
4245.000000;1.821719
4244.000000;1.821322
4243.000000;1.819375
4242.000000;1.815528
4241.000000;1.809173
4240.000000;1.800182
4239.000000;1.790129
4238.000000;1.781296
4237.000000;1.774190
4236.000000;1.766854
4235.000000;1.757187
4234.000000;1.745842
4233.000000;1.735839
4232.000000;1.729209
4231.000000;1.724942
4230.000000;1.720268
4229.000000;1.713441
4228.000000;1.704754
4227.000000;1.695332
4226.000000;1.686304
4225.000000;1.678541
4224.000000;1.671367
4223.000000;1.662005
4222.000000;1.648042
4221.000000;1.630217
4220.000000;1.610971
4219.000000;1.590665
4218.000000;1.567679
4217.000000;1.542687
4216.000000;1.520102
4215.000000;1.503857
4214.000000;1.493106
4213.000000;1.482819
4212.000000;1.467478
4211.000000;1.443939
4210.000000;1.413084
4209.000000;1.379386
4208.000000;1.346783
4207.000000;1.314350
4206.000000;1.277376
4205.000000;1.233472
4204.000000;1.185403
4203.000000;1.135782
4202.000000;1.081800
4201.000000;1.020431
4200.000000;0.958721
4199.000000;0.913451
4198.000000;0.897122
4197.000000;0.910237
4196.000000;0.948614
4195.000000;1.005069
4194.000000;1.069289
4193.000000;1.132739
4192.000000;1.193435
4191.000000;1.255542
4190.000000;1.321585
4189.000000;1.385650
4188.000000;1.437106
4187.000000;1.472737
4186.000000;1.500498
4185.000000;1.529427
4184.000000;1.561052
4183.000000;1.591603
4182.000000;1.619831
4181.000000;1.648806
4180.000000;1.679630
4179.000000;1.707993
4178.000000;1.730252
4177.000000;1.750387
4176.000000;1.776040
4175.000000;1.808752
4174.000000;1.841651
4173.000000;1.868688
4172.000000;1.892263
4171.000000;1.917221
4170.000000;1.941720
4169.000000;1.959217
4168.000000;1.969522
4167.000000;1.980955
4166.000000;1.998619
4165.000000;2.017014
4164.000000;2.027313
4163.000000;2.028239
4162.000000;2.025657
4161.000000;2.024783
4160.000000;2.027313
4159.000000;2.034824
4158.000000;2.049883
4157.000000;2.071906
4156.000000;2.095745
4155.000000;2.116614
4154.000000;2.133419
4153.000000;2.146592
4152.000000;2.158179
4151.000000;2.172831
4150.000000;2.194876
4149.000000;2.224996
4148.000000;2.258219
4147.000000;2.284756
4146.000000;2.295242
4145.000000;2.289588
4144.000000;2.279321
4143.000000;2.277770
4142.000000;2.290745
4141.000000;2.313560
4140.000000;2.333818
4139.000000;2.341348
4138.000000;2.337655
4137.000000;2.331906
4136.000000;2.330433
4135.000000;2.334614
4134.000000;2.344475
4133.000000;2.359491
4132.000000;2.376758
4131.000000;2.391487
4130.000000;2.401902
4129.000000;2.411486
4128.000000;2.423971
4127.000000;2.439471
4126.000000;2.455817
4125.000000;2.470799
4124.000000;2.480196
4123.000000;2.478460
4122.000000;2.468379
4121.000000;2.463245
4120.000000;2.474595
4119.000000;2.501054
4118.000000;2.528558
4117.000000;2.542622
4116.000000;2.542264
4115.000000;2.537386
4114.000000;2.535751
4113.000000;2.537626
4112.000000;2.537930
4111.000000;2.531108
4110.000000;2.519618
4109.000000;2.516570
4108.000000;2.533840
4107.000000;2.568613
4106.000000;2.600620
4105.000000;2.608558
4104.000000;2.594886
4103.000000;2.581226
4102.000000;2.583323
4101.000000;2.601651
4100.000000;2.628130
4099.000000;2.652971
4098.000000;2.668504
4097.000000;2.672663
4096.000000;2.667245
4095.000000;2.655700
4094.000000;2.646149
4093.000000;2.650342
4092.000000;2.674417
4091.000000;2.708809
4090.000000;2.727294
4089.000000;2.709058
4088.000000;2.667068
4087.000000;2.631259
4086.000000;2.617314
4085.000000;2.622969
4084.000000;2.636990
4083.000000;2.650825
4082.000000;2.665119
4081.000000;2.682716
4080.000000;2.703223
4079.000000;2.724752
4078.000000;2.742854
4077.000000;2.752956
4076.000000;2.755382
4075.000000;2.752548
4074.000000;2.749309
4073.000000;2.755856
4072.000000;2.778721
4071.000000;2.811070
4070.000000;2.837372
4069.000000;2.844163
4068.000000;2.827436
4067.000000;2.797254
4066.000000;2.770942
4065.000000;2.763856
4064.000000;2.781491
4063.000000;2.811246
4062.000000;2.828222
4061.000000;2.822670
4060.000000;2.808902
4059.000000;2.803183
4058.000000;2.814428
4057.000000;2.845600
4056.000000;2.885899
4055.000000;2.904910
4054.000000;2.883907
4053.000000;2.851205
4052.000000;2.848824
4051.000000;2.889842
4050.000000;2.949748
4049.000000;2.988132
4048.000000;2.992142
4047.000000;2.984884
4046.000000;2.981007
4045.000000;2.969175
4044.000000;2.945384
4043.000000;2.927652
4042.000000;2.930349
4041.000000;2.949853
4040.000000;2.973734
4039.000000;2.986157
4038.000000;2.974544
4037.000000;2.947448
4036.000000;2.931930
4035.000000;2.950258
4034.000000;3.003102
4033.000000;3.066811
4032.000000;3.105010
4031.000000;3.085785
4030.000000;3.021072
4029.000000;2.961651
4028.000000;2.940420
4027.000000;2.964276
4026.000000;3.018291
4025.000000;3.064856
4024.000000;3.068920
4023.000000;3.034912
4022.000000;2.991907
4021.000000;2.968782
4020.000000;2.984950
4019.000000;3.042106
4018.000000;3.115940
4017.000000;3.159204
4016.000000;3.148145
4015.000000;3.112545
4014.000000;3.083833
4013.000000;3.064444
4012.000000;3.047570
4011.000000;3.036364
4010.000000;3.039290
4009.000000;3.062818
4008.000000;3.110597
4007.000000;3.181318
4006.000000;3.259788
4005.000000;3.313874
4004.000000;3.294923
4003.000000;3.188485
4002.000000;3.065084
4001.000000;2.970137
4000.000000;2.907504
3999.000000;2.885531
3998.000000;2.916295
3997.000000;2.993701
3996.000000;3.086452
3995.000000;3.153359
3994.000000;3.154922
3993.000000;3.108182
3992.000000;3.090473
3991.000000;3.134677
3990.000000;3.205669
3989.000000;3.225675
3988.000000;3.168712
3987.000000;3.106939
3986.000000;3.097861
3985.000000;3.146790
3984.000000;3.227266
3983.000000;3.296339
3982.000000;3.331152
3981.000000;3.313901
3980.000000;3.261121
3979.000000;3.231612
3978.000000;3.233408
3977.000000;3.244631
3976.000000;3.246355
3975.000000;3.228410
3974.000000;3.196226
3973.000000;3.167806
3972.000000;3.165783
3971.000000;3.206292
3970.000000;3.290431
3969.000000;3.390654
3968.000000;3.409813
3967.000000;3.325555
3966.000000;3.258375
3965.000000;3.233763
3964.000000;3.194768
3963.000000;3.149404
3962.000000;3.136623
3961.000000;3.154832
3960.000000;3.194362
3959.000000;3.251300
3958.000000;3.310149
3957.000000;3.335737
3956.000000;3.304949
3955.000000;3.250297
3954.000000;3.214063
3953.000000;3.196328
3952.000000;3.183140
3951.000000;3.200867
3950.000000;3.283025
3949.000000;3.420632
3948.000000;3.582679
3947.000000;3.717713
3946.000000;3.694215
3945.000000;3.543836
3944.000000;3.414499
3943.000000;3.337054
3942.000000;3.309062
3941.000000;3.354081
3940.000000;3.513260
3939.000000;3.647263
3938.000000;3.625230
3937.000000;3.631854
3936.000000;3.661545
3935.000000;3.629913
3934.000000;3.564168
3933.000000;3.507106
3932.000000;3.482994
3931.000000;3.500546
3930.000000;3.541234
3929.000000;3.566900
3928.000000;3.580965
3927.000000;3.651189
3926.000000;3.784339
3925.000000;3.888396
3924.000000;3.866538
3923.000000;3.782609
3922.000000;3.780047
3921.000000;3.875462
3920.000000;4.274924
3919.000000;4.385125
3918.000000;3.861834
3917.000000;3.717018
3916.000000;3.660948
3915.000000;3.693595
3914.000000;3.885631
3913.000000;4.254622
3912.000000;4.095298
3911.000000;3.861405
3910.000000;3.822381
3909.000000;3.847359
3908.000000;3.802976
3907.000000;3.667503
3906.000000;3.611130
3905.000000;3.629372
3904.000000;3.639619
3903.000000;3.631508
3902.000000;3.670359
3901.000000;3.766183
3900.000000;3.819013
3899.000000;3.799537
3898.000000;3.747721
3897.000000;3.663840
3896.000000;3.571238
3895.000000;3.511516
3894.000000;3.540082
3893.000000;3.655481
3892.000000;3.776719
3891.000000;3.836127
3890.000000;3.832947
3889.000000;3.926345
3888.000000;4.400192
3887.000000;4.431712
3886.000000;4.245590
3885.000000;4.246956
3884.000000;4.068778
3883.000000;3.773858
3882.000000;3.587827
3881.000000;3.620825
3880.000000;3.786719
3879.000000;4.087680
3878.000000;4.427222
3877.000000;4.137439
3876.000000;4.201490
3875.000000;4.482135
3874.000000;4.445195
3873.000000;4.226613
3872.000000;4.204293
3871.000000;4.378662
3870.000000;4.417746
3869.000000;4.239299
3868.000000;4.012236
3867.000000;3.880512
3866.000000;3.873039
3865.000000;3.923829
3864.000000;4.021031
3863.000000;4.112338
3862.000000;4.093208
3861.000000;4.116019
3860.000000;4.261186
3859.000000;4.477425
3858.000000;4.677005
3857.000000;4.735993
3856.000000;4.714496
3855.000000;4.811427
3854.000000;4.844410
3853.000000;4.582849
3852.000000;4.254947
3851.000000;4.030663
3850.000000;3.939859
3849.000000;3.952930
3848.000000;4.122501
3847.000000;4.513167
3846.000000;4.758485
3845.000000;4.494022
3844.000000;4.295906
3843.000000;4.284275
3842.000000;4.381739
3841.000000;4.542355
3840.000000;4.844672
3839.000000;5.115539
3838.000000;4.884926
3837.000000;4.643006
3836.000000;4.364312
3835.000000;4.067505
3834.000000;3.873392
3833.000000;3.821535
3832.000000;3.902824
3831.000000;4.237163
3830.000000;4.321471
3829.000000;3.951980
3828.000000;3.948224
3827.000000;4.116245
3826.000000;4.268177
3825.000000;4.696875
3824.000000;4.253056
3823.000000;4.086379
3822.000000;4.290507
3821.000000;4.449549
3820.000000;4.362069
3819.000000;4.177913
3818.000000;4.022225
3817.000000;3.921611
3816.000000;3.878805
3815.000000;3.844865
3814.000000;3.863194
3813.000000;4.051696
3812.000000;4.242709
3811.000000;4.118592
3810.000000;4.023886
3809.000000;4.194329
3808.000000;4.740737
3807.000000;5.002634
3806.000000;4.730975
3805.000000;4.632363
3804.000000;4.498329
3803.000000;4.508589
3802.000000;4.472273
3801.000000;4.220190
3800.000000;3.938800
3799.000000;3.811798
3798.000000;3.883283
3797.000000;3.931867
3796.000000;3.872599
3795.000000;3.806855
3794.000000;3.675838
3793.000000;3.590334
3792.000000;3.633926
3791.000000;3.768012
3790.000000;3.927541
3789.000000;4.039586
3788.000000;4.388383
3787.000000;4.572824
3786.000000;4.043720
3785.000000;3.993448
3784.000000;4.123248
3783.000000;4.218280
3782.000000;4.346820
3781.000000;4.353747
3780.000000;4.052818
3779.000000;3.897077
3778.000000;3.867438
3777.000000;3.895277
3776.000000;3.934252
3775.000000;3.861087
3774.000000;3.755954
3773.000000;3.736704
3772.000000;3.820729
3771.000000;3.973879
3770.000000;4.135886
3769.000000;4.252209
3768.000000;4.582879
3767.000000;4.390547
3766.000000;3.952652
3765.000000;3.814490
3764.000000;3.782283
3763.000000;4.000038
3762.000000;4.447768
3761.000000;4.125633
3760.000000;4.019493
3759.000000;4.061001
3758.000000;4.166207
3757.000000;4.439290
3756.000000;4.638258
3755.000000;4.634894
3754.000000;4.676808
3753.000000;4.878600
3752.000000;5.059190
3751.000000;5.061009
3750.000000;5.075390
3749.000000;5.013363
3748.000000;5.161073
3747.000000;4.841283
3746.000000;4.445850
3745.000000;4.480372
3744.000000;4.611552
3743.000000;4.501794
3742.000000;4.384903
3741.000000;4.327968
3740.000000;4.385726
3739.000000;4.432215
3738.000000;4.646794
3737.000000;5.251684
3736.000000;4.552379
3735.000000;4.224924
3734.000000;4.124794
3733.000000;4.161574
3732.000000;4.500380
3731.000000;4.921654
3730.000000;4.103697
3729.000000;3.958284
3728.000000;4.003703
3727.000000;3.943334
3726.000000;3.788212
3725.000000;3.671777
3724.000000;3.702140
3723.000000;3.870917
3722.000000;4.194637
3721.000000;4.592131
3720.000000;4.295162
3719.000000;4.016014
3718.000000;3.962839
3717.000000;4.029524
3716.000000;4.171533
3715.000000;4.325526
3714.000000;4.296485
3713.000000;4.252368
3712.000000;4.189085
3711.000000;4.020984
3710.000000;3.805508
3709.000000;4.007642
3708.000000;4.662320
3707.000000;3.788900
3706.000000;3.623162
3705.000000;3.615802
3704.000000;3.677822
3703.000000;3.821017
3702.000000;4.016816
3701.000000;4.222238
3700.000000;4.062640
3699.000000;3.950545
3698.000000;4.036386
3697.000000;4.650043
3696.000000;4.407671
3695.000000;4.210221
3694.000000;4.542180
3693.000000;4.446836
3692.000000;4.236234
3691.000000;4.165322
3690.000000;4.215496
3689.000000;4.407506
3688.000000;4.552418
3687.000000;4.369763
3686.000000;4.441649
3685.000000;4.136423
3684.000000;3.750488
3683.000000;3.633081
3682.000000;3.720804
3681.000000;3.960151
3680.000000;4.308521
3679.000000;4.667935
3678.000000;4.381155
3677.000000;4.383621
3676.000000;4.738614
3675.000000;4.947164
3674.000000;4.942326
3673.000000;4.991290
3672.000000;4.485967
3671.000000;4.138262
3670.000000;4.006852
3669.000000;3.918053
3668.000000;3.878985
3667.000000;3.903888
3666.000000;4.012850
3665.000000;4.223403
3664.000000;4.369444
3663.000000;4.224328
3662.000000;4.017603
3661.000000;3.873333
3660.000000;3.783368
3659.000000;3.788451
3658.000000;3.832979
3657.000000;3.846137
3656.000000;3.858988
3655.000000;3.878119
3654.000000;3.971157
3653.000000;4.224776
3652.000000;4.575721
3651.000000;4.822925
3650.000000;5.036693
3649.000000;4.617249
3648.000000;4.219058
3647.000000;4.024736
3646.000000;3.862296
3645.000000;3.712569
3644.000000;3.617574
3643.000000;3.559380
3642.000000;3.527211
3641.000000;3.547356
3640.000000;3.662874
3639.000000;3.837016
3638.000000;4.198485
3637.000000;4.570310
3636.000000;4.389175
3635.000000;4.816310
3634.000000;4.511139
3633.000000;4.045139
3632.000000;3.831679
3631.000000;3.969532
3630.000000;4.334185
3629.000000;4.129700
3628.000000;3.958154
3627.000000;4.000495
3626.000000;4.241408
3625.000000;4.078242
3624.000000;4.037948
3623.000000;4.014752
3622.000000;3.807564
3621.000000;3.822311
3620.000000;4.102162
3619.000000;4.671258
3618.000000;4.322540
3617.000000;3.875114
3616.000000;3.622321
3615.000000;3.482497
3614.000000;3.475743
3613.000000;3.570181
3612.000000;3.833628
3611.000000;4.171771
3610.000000;3.943364
3609.000000;3.906254
3608.000000;4.105824
3607.000000;3.993025
3606.000000;3.770679
3605.000000;3.714431
3604.000000;3.813572
3603.000000;3.915320
3602.000000;3.845972
3601.000000;3.729624
3600.000000;3.609480
3599.000000;3.482189
3598.000000;3.383996
3597.000000;3.344863
3596.000000;3.387839
3595.000000;3.502721
3594.000000;3.670825
3593.000000;3.794565
3592.000000;3.782526
3591.000000;3.803212
3590.000000;3.611562
3589.000000;3.426010
3588.000000;3.422445
3587.000000;3.492471
3586.000000;3.583716
3585.000000;3.668516
3584.000000;3.752842
3583.000000;3.793481
3582.000000;3.764329
3581.000000;3.737072
3580.000000;3.624490
3579.000000;3.484826
3578.000000;3.426762
3577.000000;3.415846
3576.000000;3.421113
3575.000000;3.464812
3574.000000;3.628459
3573.000000;3.868151
3572.000000;3.710394
3571.000000;3.508087
3570.000000;3.455440
3569.000000;3.505809
3568.000000;3.621133
3567.000000;3.736102
3566.000000;3.805528
3565.000000;3.862119
3564.000000;4.335545
3563.000000;4.295082
3562.000000;3.774274
3561.000000;3.634287
3560.000000;3.650612
3559.000000;3.850281
3558.000000;3.728275
3557.000000;3.483401
3556.000000;3.402118
3555.000000;3.432158
3554.000000;3.552397
3553.000000;3.709354
3552.000000;3.759127
3551.000000;3.870441
3550.000000;4.161891
3549.000000;3.712359
3548.000000;3.462795
3547.000000;3.437616
3546.000000;3.472441
3545.000000;3.451855
3544.000000;3.377659
3543.000000;3.383179
3542.000000;3.491870
3541.000000;3.759814
3540.000000;3.865204
3539.000000;3.639718
3538.000000;3.556948
3537.000000;3.506943
3536.000000;3.443798
3535.000000;3.429530
3534.000000;3.473045
3533.000000;3.532980
3532.000000;3.552324
3531.000000;3.574082
3530.000000;3.666791
3529.000000;3.775713
3528.000000;3.683029
3527.000000;3.517535
3526.000000;3.477158
3525.000000;3.610859
3524.000000;3.707484
3523.000000;3.638048
3522.000000;3.684289
3521.000000;3.938751
3520.000000;4.084929
3519.000000;3.833767
3518.000000;3.762233
3517.000000;3.697663
3516.000000;3.606960
3515.000000;3.675418
3514.000000;3.669394
3513.000000;3.546948
3512.000000;3.540728
3511.000000;3.680171
3510.000000;4.081277
3509.000000;4.477615
3508.000000;4.134920
3507.000000;3.855886
3506.000000;3.624885
3505.000000;3.502093
3504.000000;3.450742
3503.000000;3.442487
3502.000000;3.468546
3501.000000;3.474895
3500.000000;3.411284
3499.000000;3.348407
3498.000000;3.344489
3497.000000;3.370556
3496.000000;3.383289
3495.000000;3.385691
3494.000000;3.444255
3493.000000;3.547954
3492.000000;3.519584
3491.000000;3.446445
3490.000000;3.471287
3489.000000;3.505754
3488.000000;3.509276
3487.000000;3.630695
3486.000000;4.019841
3485.000000;4.008348
3484.000000;3.644970
3483.000000;3.547538
3482.000000;3.570990
3481.000000;3.641283
3480.000000;3.685233
3479.000000;3.685878
3478.000000;3.701631
3477.000000;3.725018
3476.000000;3.667510
3475.000000;3.470804
3474.000000;3.303755
3473.000000;3.254346
3472.000000;3.335185
3471.000000;3.560342
3470.000000;3.934574
3469.000000;4.113558
3468.000000;3.859137
3467.000000;3.705427
3466.000000;3.685688
3465.000000;3.669078
3464.000000;3.631024
3463.000000;3.562802
3462.000000;3.426963
3461.000000;3.369283
3460.000000;3.449014
3459.000000;3.700811
3458.000000;4.238344
3457.000000;4.092194
3456.000000;3.760194
3455.000000;3.621256
3454.000000;3.542972
3453.000000;3.544532
3452.000000;3.479446
3451.000000;3.417053
3450.000000;3.469428
3449.000000;3.623100
3448.000000;3.772408
3447.000000;3.856953
3446.000000;4.173583
3445.000000;4.037264
3444.000000;3.657816
3443.000000;3.551669
3442.000000;3.562612
3441.000000;3.596654
3440.000000;3.573642
3439.000000;3.504625
3438.000000;3.394880
3437.000000;3.281427
3436.000000;3.222885
3435.000000;3.228867
3434.000000;3.293925
3433.000000;3.407362
3432.000000;3.573047
3431.000000;3.581457
3430.000000;3.411489
3429.000000;3.354393
3428.000000;3.421064
3427.000000;3.688083
3426.000000;3.753599
3425.000000;3.499493
3424.000000;3.377037
3423.000000;3.468042
3422.000000;4.000988
3421.000000;3.684908
3420.000000;3.399689
3419.000000;3.433523
3418.000000;3.613264
3417.000000;3.998959
3416.000000;4.154291
3415.000000;4.268182
3414.000000;3.991894
3413.000000;3.632464
3412.000000;3.541679
3411.000000;3.723388
3410.000000;3.928809
3409.000000;3.670262
3408.000000;3.486423
3407.000000;3.335886
3406.000000;3.243244
3405.000000;3.269223
3404.000000;3.413320
3403.000000;3.679355
3402.000000;3.852817
3401.000000;3.797873
3400.000000;3.670963
3399.000000;3.553800
3398.000000;3.493748
3397.000000;3.553486
3396.000000;3.794010
3395.000000;3.754352
3394.000000;3.510754
3393.000000;3.477646
3392.000000;3.576147
3391.000000;3.810237
3390.000000;4.400021
3389.000000;4.001020
3388.000000;3.631429
3387.000000;3.522276
3386.000000;3.687806
3385.000000;4.182235
3384.000000;3.735408
3383.000000;3.448084
3382.000000;3.348981
3381.000000;3.317678
3380.000000;3.332762
3379.000000;3.356188
3378.000000;3.396254
3377.000000;3.434947
3376.000000;3.452239
3375.000000;3.453413
3374.000000;3.476604
3373.000000;3.555704
3372.000000;3.621716
3371.000000;3.560508
3370.000000;3.409681
3369.000000;3.342071
3368.000000;3.390897
3367.000000;3.674594
3366.000000;4.331471
3365.000000;3.771819
3364.000000;3.630983
3363.000000;3.626326
3362.000000;3.486467
3361.000000;3.422395
3360.000000;3.411276
3359.000000;3.413800
3358.000000;3.410881
3357.000000;3.420204
3356.000000;3.429073
3355.000000;3.428652
3354.000000;3.427039
3353.000000;3.431835
3352.000000;3.440138
3351.000000;3.473926
3350.000000;3.626297
3349.000000;3.850444
3348.000000;3.758029
3347.000000;3.630366
3346.000000;3.609942
3345.000000;3.621963
3344.000000;3.652682
3343.000000;3.589855
3342.000000;3.506664
3341.000000;3.520568
3340.000000;3.621748
3339.000000;3.725520
3338.000000;3.703411
3337.000000;3.630738
3336.000000;3.637046
3335.000000;3.737172
3334.000000;3.923121
3333.000000;4.078872
3332.000000;3.900965
3331.000000;3.602528
3330.000000;3.405908
3329.000000;3.346033
3328.000000;3.430791
3327.000000;3.616729
3326.000000;3.742906
3325.000000;3.886698
3324.000000;4.007657
3323.000000;3.797549
3322.000000;3.529873
3321.000000;3.308933
3320.000000;3.185261
3319.000000;3.153053
3318.000000;3.196367
3317.000000;3.301794
3316.000000;3.419839
3315.000000;3.540702
3314.000000;3.860255
3313.000000;4.192845
3312.000000;3.941127
3311.000000;3.814107
3310.000000;3.519529
3309.000000;3.294716
3308.000000;3.210484
3307.000000;3.230596
3306.000000;3.343479
3305.000000;3.509287
3304.000000;3.706136
3303.000000;3.957274
3302.000000;3.953421
3301.000000;3.668106
3300.000000;3.506618
3299.000000;3.428581
3298.000000;3.398723
3297.000000;3.425634
3296.000000;3.526331
3295.000000;3.709962
3294.000000;3.687211
3293.000000;3.468945
3292.000000;3.359735
3291.000000;3.355295
3290.000000;3.395944
3289.000000;3.393104
3288.000000;3.291685
3287.000000;3.168565
3286.000000;3.121174
3285.000000;3.174518
3284.000000;3.298141
3283.000000;3.429858
3282.000000;3.601649
3281.000000;3.870162
3280.000000;3.789301
3279.000000;3.577696
3278.000000;3.492439
3277.000000;3.480695
3276.000000;3.464111
3275.000000;3.535794
3274.000000;3.881037
3273.000000;3.621974
3272.000000;3.332128
3271.000000;3.358848
3270.000000;3.561666
3269.000000;4.210243
3268.000000;4.285036
3267.000000;3.800060
3266.000000;3.751118
3265.000000;3.598209
3264.000000;3.397386
3263.000000;3.286563
3262.000000;3.305725
3261.000000;3.404160
3260.000000;3.531454
3259.000000;3.728909
3258.000000;3.673341
3257.000000;3.486108
3256.000000;3.569147
3255.000000;3.701758
3254.000000;3.454729
3253.000000;3.336571
3252.000000;3.351851
3251.000000;3.420694
3250.000000;3.512755
3249.000000;3.660299
3248.000000;3.774085
3247.000000;3.627153
3246.000000;3.583610
3245.000000;3.618185
3244.000000;3.483918
3243.000000;3.306629
3242.000000;3.251168
3241.000000;3.291625
3240.000000;3.465499
3239.000000;4.105056
3238.000000;3.773763
3237.000000;3.425526
3236.000000;3.481126
3235.000000;3.814763
3234.000000;3.793766
3233.000000;3.484996
3232.000000;3.419751
3231.000000;3.464327
3230.000000;3.608209
3229.000000;4.005433
3228.000000;4.317663
3227.000000;3.997074
3226.000000;3.999145
3225.000000;4.002511
3224.000000;3.662861
3223.000000;3.394792
3222.000000;3.278824
3221.000000;3.271382
3220.000000;3.319962
3219.000000;3.362258
3218.000000;3.412393
3217.000000;3.763656
3216.000000;4.078610
3215.000000;3.512252
3214.000000;3.319987
3213.000000;3.305078
3212.000000;3.407908
3211.000000;3.623097
3210.000000;3.914663
3209.000000;3.932785
3208.000000;4.054958
3207.000000;3.915960
3206.000000;3.488264
3205.000000;3.340647
3204.000000;3.368735
3203.000000;3.627499
3202.000000;4.092012
3201.000000;3.599074
3200.000000;3.477851
3199.000000;3.565695
3198.000000;3.599541
3197.000000;3.560690
3196.000000;3.659545
3195.000000;3.979131
3194.000000;3.846942
3193.000000;3.552793
3192.000000;3.491012
3191.000000;3.530945
3190.000000;3.551308
3189.000000;3.482723
3188.000000;3.429555
3187.000000;3.410146
3186.000000;3.428806
3185.000000;3.474142
3184.000000;3.436560
3183.000000;3.418064
3182.000000;3.580709
3181.000000;3.840933
3180.000000;3.726431
3179.000000;3.618491
3178.000000;3.766909
3177.000000;4.168415
3176.000000;3.702933
3175.000000;3.537717
3174.000000;3.528456
3173.000000;3.415547
3172.000000;3.346473
3171.000000;3.493876
3170.000000;3.859110
3169.000000;3.507232
3168.000000;3.252696
3167.000000;3.198615
3166.000000;3.383867
3165.000000;3.755936
3164.000000;3.477029
3163.000000;3.319839
3162.000000;3.359225
3161.000000;3.472070
3160.000000;3.466792
3159.000000;3.299641
3158.000000;3.203059
3157.000000;3.196586
3156.000000;3.265460
3155.000000;3.441506
3154.000000;3.712219
3153.000000;3.629841
3152.000000;3.568233
3151.000000;3.765234
3150.000000;3.758716
3149.000000;3.646332
3148.000000;3.642151
3147.000000;3.575109
3146.000000;3.578567
3145.000000;3.596922
3144.000000;3.473152
3143.000000;3.449338
3142.000000;3.440444
3141.000000;3.252329
3140.000000;3.092188
3139.000000;3.022481
3138.000000;3.017006
3137.000000;3.074520
3136.000000;3.221217
3135.000000;3.513672
3134.000000;4.205320
3133.000000;4.675098
3132.000000;4.047010
3131.000000;3.635681
3130.000000;3.349892
3129.000000;3.252806
3128.000000;3.320281
3127.000000;3.720779
3126.000000;3.962319
3125.000000;3.609561
3124.000000;3.488641
3123.000000;3.402947
3122.000000;3.383430
3121.000000;3.540672
3120.000000;3.972178
3119.000000;3.875205
3118.000000;3.748988
3117.000000;3.754537
3116.000000;3.758379
3115.000000;3.850658
3114.000000;3.895374
3113.000000;3.678653
3112.000000;3.487431
3111.000000;3.484439
3110.000000;3.698813
3109.000000;4.224532
3108.000000;3.977340
3107.000000;3.486447
3106.000000;3.256515
3105.000000;3.164013
3104.000000;3.179555
3103.000000;3.291066
3102.000000;3.676481
3101.000000;3.674984
3100.000000;3.389443
3099.000000;3.362472
3098.000000;3.334165
3097.000000;3.253986
3096.000000;3.227846
3095.000000;3.277553
3094.000000;3.430063
3093.000000;3.793333
3092.000000;4.213093
3091.000000;3.948061
3090.000000;3.756670
3089.000000;3.769099
3088.000000;4.113162
3087.000000;3.757410
3086.000000;3.502020
3085.000000;3.613183
3084.000000;3.810969
3083.000000;3.590301
3082.000000;3.472153
3081.000000;3.483540
3080.000000;3.470732
3079.000000;3.488528
3078.000000;3.567333
3077.000000;3.489093
3076.000000;3.343936
3075.000000;3.284159
3074.000000;3.298723
3073.000000;3.323021
3072.000000;3.283459
3071.000000;3.229787
3070.000000;3.226044
3069.000000;3.284310
3068.000000;3.376538
3067.000000;3.460321
3066.000000;3.572008
3065.000000;3.832750
3064.000000;3.887933
3063.000000;3.619258
3062.000000;3.576089
3061.000000;3.648880
3060.000000;3.644112
3059.000000;3.472008
3058.000000;3.361885
3057.000000;3.354901
3056.000000;3.520379
3055.000000;3.894253
3054.000000;3.613521
3053.000000;3.384035
3052.000000;3.443147
3051.000000;3.630939
3050.000000;3.863985
3049.000000;3.998391
3048.000000;3.925292
3047.000000;3.658584
3046.000000;3.511877
3045.000000;3.513969
3044.000000;3.477437
3043.000000;3.357303
3042.000000;3.257105
3041.000000;3.190798
3040.000000;3.158354
3039.000000;3.161931
3038.000000;3.195321
3037.000000;3.268368
3036.000000;3.398866
3035.000000;3.576287
3034.000000;3.749053
3033.000000;3.938518
3032.000000;4.329502
3031.000000;4.040689
3030.000000;3.667702
3029.000000;3.551512
3028.000000;3.562228
3027.000000;3.878928
3026.000000;3.728841
3025.000000;3.362210
3024.000000;3.289077
3023.000000;3.380397
3022.000000;3.632625
3021.000000;3.770229
3020.000000;3.864637
3019.000000;3.930648
3018.000000;3.637255
3017.000000;3.428421
3016.000000;3.324897
3015.000000;3.334573
3014.000000;3.451936
3013.000000;3.576669
3012.000000;3.785299
3011.000000;3.826332
3010.000000;3.521790
3009.000000;3.509311
3008.000000;3.586127
3007.000000;3.445194
3006.000000;3.358905
3005.000000;3.428834
3004.000000;3.541895
3003.000000;3.504094
3002.000000;3.377361
3001.000000;3.262095
3000.000000;3.165803
2999.000000;3.116095
2998.000000;3.154086
2997.000000;3.336912
2996.000000;3.629717
2995.000000;3.780572
2994.000000;3.640799
2993.000000;3.351275
2992.000000;3.199937
2991.000000;3.175536
2990.000000;3.222138
2989.000000;3.296951
2988.000000;3.361861
2987.000000;3.488405
2986.000000;3.908226
2985.000000;3.800780
2984.000000;3.496703
2983.000000;3.459366
2982.000000;3.596376
2981.000000;3.902506
2980.000000;3.884217
2979.000000;3.696533
2978.000000;3.758644
2977.000000;3.868052
2976.000000;3.695841
2975.000000;3.576073
2974.000000;3.831032
2973.000000;4.142666
2972.000000;3.654584
2971.000000;3.458277
2970.000000;3.366699
2969.000000;3.333011
2968.000000;3.389214
2967.000000;3.399248
2966.000000;3.296688
2965.000000;3.293668
2964.000000;3.435391
2963.000000;3.999006
2962.000000;3.734328
2961.000000;3.418811
2960.000000;3.344470
2959.000000;3.370203
2958.000000;3.501893
2957.000000;3.873112
2956.000000;3.924407
2955.000000;3.516586
2954.000000;3.352061
2953.000000;3.270319
2952.000000;3.297988
2951.000000;3.433910
2950.000000;3.595482
2949.000000;3.841065
2948.000000;4.228689
2947.000000;3.843447
2946.000000;3.672299
2945.000000;3.645315
2944.000000;4.043404
2943.000000;3.967321
2942.000000;3.453243
2941.000000;3.322216
2940.000000;3.369706
2939.000000;3.570862
2938.000000;3.784387
2937.000000;3.911013
2936.000000;3.917836
2935.000000;3.600518
2934.000000;3.377657
2933.000000;3.347499
2932.000000;3.616085
2931.000000;3.870814
2930.000000;3.374937
2929.000000;3.308272
2928.000000;3.414036
2927.000000;3.739821
2926.000000;3.850971
2925.000000;3.559789
2924.000000;3.421043
2923.000000;3.299168
2922.000000;3.226730
2921.000000;3.195031
2920.000000;3.200645
2919.000000;3.191117
2918.000000;3.165949
2917.000000;3.209446
2916.000000;3.335730
2915.000000;3.422949
2914.000000;3.395217
2913.000000;3.327340
2912.000000;3.295559
2911.000000;3.353810
2910.000000;3.505543
2909.000000;3.672221
2908.000000;3.580236
2907.000000;3.355295
2906.000000;3.215877
2905.000000;3.182320
2904.000000;3.252140
2903.000000;3.397605
2902.000000;3.507872
2901.000000;3.805960
2900.000000;4.363510
2899.000000;3.507845
2898.000000;3.419164
2897.000000;3.415237
2896.000000;3.463596
2895.000000;3.582179
2894.000000;3.611437
2893.000000;3.300560
2892.000000;3.096919
2891.000000;3.018641
2890.000000;3.015187
2889.000000;3.104387
2888.000000;3.287934
2887.000000;3.935336
2886.000000;3.814162
2885.000000;3.604882
2884.000000;3.784575
2883.000000;3.672403
2882.000000;3.723029
2881.000000;4.318377
2880.000000;3.546723
2879.000000;3.291543
2878.000000;3.232368
2877.000000;3.310479
2876.000000;3.452670
2875.000000;3.570612
2874.000000;3.731447
2873.000000;4.123445
2872.000000;4.188840
2871.000000;3.723662
2870.000000;3.733606
2869.000000;3.664380
2868.000000;3.396066
2867.000000;3.241141
2866.000000;3.217957
2865.000000;3.311627
2864.000000;3.559195
2863.000000;3.784468
2862.000000;3.736985
2861.000000;3.834188
2860.000000;4.437216
2859.000000;3.902029
2858.000000;3.583520
2857.000000;3.453618
2856.000000;3.358949
2855.000000;3.324011
2854.000000;3.385543
2853.000000;3.604175
2852.000000;3.955987
2851.000000;3.759902
2850.000000;3.668308
2849.000000;3.670127
2848.000000;3.722827
2847.000000;3.738373
2846.000000;3.619204
2845.000000;3.547002
2844.000000;3.612892
2843.000000;3.837180
2842.000000;4.176251
2841.000000;4.044805
2840.000000;3.774658
2839.000000;3.746671
2838.000000;3.722987
2837.000000;3.580742
2836.000000;3.509044
2835.000000;3.470833
2834.000000;3.402785
2833.000000;3.344917
2832.000000;3.329603
2831.000000;3.395473
2830.000000;3.538309
2829.000000;3.633212
2828.000000;3.594931
2827.000000;3.427108
2826.000000;3.272520
2825.000000;3.217246
2824.000000;3.263544
2823.000000;3.399503
2822.000000;3.555638
2821.000000;3.555243
2820.000000;3.522655
2819.000000;3.553971
2818.000000;3.504177
2817.000000;3.384265
2816.000000;3.317343
2815.000000;3.300564
2814.000000;3.337549
2813.000000;3.450985
2812.000000;3.686916
2811.000000;3.735330
2810.000000;3.504122
2809.000000;3.310212
2808.000000;3.175404
2807.000000;3.143840
2806.000000;3.224287
2805.000000;3.461363
2804.000000;3.589071
2803.000000;3.496484
2802.000000;3.565660
2801.000000;3.919923
2800.000000;4.010015
2799.000000;3.586576
2798.000000;3.457516
2797.000000;3.483591
2796.000000;3.557609
2795.000000;3.528747
2794.000000;3.389860
2793.000000;3.266198
2792.000000;3.226598
2791.000000;3.263423
2790.000000;3.323512
2789.000000;3.386976
2788.000000;3.466757
2787.000000;3.607068
2786.000000;3.835724
2785.000000;3.765430
2784.000000;3.550723
2783.000000;3.500550
2782.000000;3.618503
2781.000000;4.220276
2780.000000;3.712275
2779.000000;3.424893
2778.000000;3.455787
2777.000000;3.821355
2776.000000;4.026338
2775.000000;3.706731
2774.000000;3.560363
2773.000000;3.421584
2772.000000;3.371793
2771.000000;3.401576
2770.000000;3.449606
2769.000000;3.476610
2768.000000;3.509303
2767.000000;3.501535
2766.000000;3.402459
2765.000000;3.314626
2764.000000;3.302342
2763.000000;3.388682
2762.000000;3.545635
2761.000000;3.561209
2760.000000;3.413934
2759.000000;3.333991
2758.000000;3.391859
2757.000000;3.645179
2756.000000;4.188317
2755.000000;4.541960
2754.000000;3.903452
2753.000000;3.664518
2752.000000;3.688507
2751.000000;4.033242
2750.000000;3.701321
2749.000000;3.434304
2748.000000;3.404418
2747.000000;3.537663
2746.000000;3.931838
2745.000000;4.161391
2744.000000;3.844058
2743.000000;3.818991
2742.000000;3.963971
2741.000000;3.919951
2740.000000;3.551703
2739.000000;3.357108
2738.000000;3.315040
2737.000000;3.430448
2736.000000;3.637716
2735.000000;3.623889
2734.000000;3.500149
2733.000000;3.406331
2732.000000;3.332878
2731.000000;3.349250
2730.000000;3.528264
2729.000000;3.966167
2728.000000;3.768704
2727.000000;3.546410
2726.000000;3.542852
2725.000000;3.544755
2724.000000;3.514873
2723.000000;3.508130
2722.000000;3.491109
2721.000000;3.324714
2720.000000;3.196072
2719.000000;3.169076
2718.000000;3.230605
2717.000000;3.371735
2716.000000;3.537165
2715.000000;3.654731
2714.000000;3.571807
2713.000000;3.285574
2712.000000;3.138281
2711.000000;3.149097
2710.000000;3.318522
2709.000000;3.463235
2708.000000;3.379066
2707.000000;3.335857
2706.000000;3.341181
2705.000000;3.413028
2704.000000;3.563459
2703.000000;3.715222
2702.000000;3.789071
2701.000000;3.786420
2700.000000;4.186633
2699.000000;4.143933
2698.000000;3.648912
2697.000000;3.482764
2696.000000;3.437031
2695.000000;3.471904
2694.000000;3.557528
2693.000000;3.532156
2692.000000;3.402909
2691.000000;3.336905
2690.000000;3.322631
2689.000000;3.307779
2688.000000;3.296737
2687.000000;3.319469
2686.000000;3.373302
2685.000000;3.440789
2684.000000;3.533298
2683.000000;3.756580
2682.000000;3.973471
2681.000000;3.745938
2680.000000;3.652968
2679.000000;3.587507
2678.000000;3.507699
2677.000000;3.519546
2676.000000;3.647050
2675.000000;3.788830
2674.000000;3.814156
2673.000000;3.845828
2672.000000;4.043580
2671.000000;4.638643
2670.000000;4.194374
2669.000000;4.048568
2668.000000;3.751276
2667.000000;3.483796
2666.000000;3.395106
2665.000000;3.439392
2664.000000;3.557220
2663.000000;3.581981
2662.000000;3.548581
2661.000000;3.618469
2660.000000;3.842663
2659.000000;3.937834
2658.000000;3.824931
2657.000000;3.932200
2656.000000;3.975608
2655.000000;3.708672
2654.000000;3.492807
2653.000000;3.400078
2652.000000;3.438323
2651.000000;3.536292
2650.000000;3.596557
2649.000000;3.577070
2648.000000;3.433280
2647.000000;3.320070
2646.000000;3.317000
2645.000000;3.387391
2644.000000;3.459634
2643.000000;3.477687
2642.000000;3.489392
2641.000000;3.579951
2640.000000;3.806679
2639.000000;4.213201
2638.000000;4.979860
2637.000000;4.378727
2636.000000;4.168603
2635.000000;4.190835
2634.000000;4.132675
2633.000000;3.949837
2632.000000;3.934651
2631.000000;3.727574
2630.000000;3.498958
2629.000000;3.414106
2628.000000;3.449208
2627.000000;3.487632
2626.000000;3.465432
2625.000000;3.570821
2624.000000;3.764534
2623.000000;3.805580
2622.000000;4.184205
2621.000000;3.918183
2620.000000;3.536859
2619.000000;3.443860
2618.000000;3.390382
2617.000000;3.383961
2616.000000;3.488646
2615.000000;4.095270
2614.000000;3.917976
2613.000000;3.697870
2612.000000;3.696379
2611.000000;3.555594
2610.000000;3.428858
2609.000000;3.370297
2608.000000;3.382648
2607.000000;3.456506
2606.000000;3.529802
2605.000000;3.533693
2604.000000;3.526905
2603.000000;3.484693
2602.000000;3.378434
2601.000000;3.307293
2600.000000;3.314844
2599.000000;3.415179
2598.000000;3.875226
2597.000000;4.347986
2596.000000;3.835742
2595.000000;4.186691
2594.000000;4.354777
2593.000000;3.921368
2592.000000;3.849109
2591.000000;4.096916
2590.000000;3.859257
2589.000000;3.553565
2588.000000;3.463154
2587.000000;3.509040
2586.000000;3.806923
2585.000000;3.983511
2584.000000;3.629084
2583.000000;3.585581
2582.000000;3.682667
2581.000000;3.713887
2580.000000;3.914169
2579.000000;4.252825
2578.000000;3.712026
2577.000000;3.687345
2576.000000;4.028973
2575.000000;4.186192
2574.000000;3.959030
2573.000000;3.908112
2572.000000;3.804929
2571.000000;3.942198
2570.000000;3.763691
2569.000000;3.442885
2568.000000;3.322712
2567.000000;3.330471
2566.000000;3.457372
2565.000000;3.800672
2564.000000;3.779574
2563.000000;3.504200
2562.000000;3.466833
2561.000000;3.588425
2560.000000;3.777210
2559.000000;3.814649
2558.000000;3.943248
2557.000000;4.402597
2556.000000;3.721916
2555.000000;3.482212
2554.000000;3.434016
2553.000000;3.480249
2552.000000;3.632427
2551.000000;3.780632
2550.000000;3.641767
2549.000000;3.518719
2548.000000;3.500873
2547.000000;3.511140
2546.000000;3.512041
2545.000000;3.449076
2544.000000;3.295833
2543.000000;3.152147
2542.000000;3.059502
2541.000000;3.016065
2540.000000;3.019441
2539.000000;3.062752
2538.000000;3.135766
2537.000000;3.221808
2536.000000;3.289366
2535.000000;3.287279
2534.000000;3.253756
2533.000000;3.289184
2532.000000;3.451061
2531.000000;3.583505
2530.000000;3.503341
2529.000000;3.503458
2528.000000;3.613739
2527.000000;3.708468
2526.000000;3.693385
2525.000000;3.648082
2524.000000;3.654320
2523.000000;3.698897
2522.000000;3.775412
2521.000000;3.676521
2520.000000;3.472510
2519.000000;3.420272
2518.000000;3.525158
2517.000000;3.715766
2516.000000;3.818926
2515.000000;3.825722
2514.000000;3.941966
2513.000000;4.394572
2512.000000;3.966017
2511.000000;3.659761
2510.000000;3.690699
2509.000000;3.846758
2508.000000;3.861143
2507.000000;3.807238
2506.000000;4.005917
2505.000000;4.212434
2504.000000;3.646918
2503.000000;3.400296
2502.000000;3.329984
2501.000000;3.333743
2500.000000;3.327796
2499.000000;3.273554
2498.000000;3.249119
2497.000000;3.315899
2496.000000;3.499295
2495.000000;3.702923
2494.000000;3.652143
2493.000000;3.467406
2492.000000;3.345065
2491.000000;3.336072
2490.000000;3.431946
2489.000000;3.506470
2488.000000;3.426643
2487.000000;3.377962
2486.000000;3.468490
2485.000000;3.567413
2484.000000;3.564623
2483.000000;3.539214
2482.000000;3.531088
2481.000000;3.621782
2480.000000;3.714925
2479.000000;3.663685
2478.000000;3.706118
2477.000000;4.032451
2476.000000;4.257048
2475.000000;4.019452
2474.000000;4.291115
2473.000000;4.069386
2472.000000;3.636629
2471.000000;3.517243
2470.000000;3.571572
2469.000000;3.675270
2468.000000;3.639739
2467.000000;3.766718
2466.000000;3.904826
2465.000000;3.583257
2464.000000;3.399927
2463.000000;3.333358
2462.000000;3.351890
2461.000000;3.472456
2460.000000;3.784701
2459.000000;4.267264
2458.000000;4.060085
2457.000000;3.863539
2456.000000;3.795240
2455.000000;3.881270
2454.000000;4.145815
2453.000000;3.838133
2452.000000;3.662779
2451.000000;3.640730
2450.000000;3.793574
2449.000000;4.459447
2448.000000;3.704169
2447.000000;3.451421
2446.000000;3.476721
2445.000000;3.701337
2444.000000;4.068536
2443.000000;3.986322
2442.000000;3.776768
2441.000000;3.613867
2440.000000;3.517113
2439.000000;3.468582
2438.000000;3.496435
2437.000000;3.535174
2436.000000;3.366123
2435.000000;3.170971
2434.000000;3.092187
2433.000000;3.137712
2432.000000;3.311679
2431.000000;3.606434
2430.000000;4.066654
2429.000000;3.946192
2428.000000;3.616023
2427.000000;3.523071
2426.000000;3.535021
2425.000000;3.556760
2424.000000;3.579087
2423.000000;3.689787
2422.000000;3.891084
2421.000000;3.843699
2420.000000;3.657457
2419.000000;3.573395
2418.000000;3.566136
2417.000000;3.562080
2416.000000;3.483769
2415.000000;3.410431
2414.000000;3.411675
2413.000000;3.452045
2412.000000;3.488529
2411.000000;3.556632
2410.000000;3.828346
2409.000000;4.031259
2408.000000;3.773372
2407.000000;3.623723
2406.000000;3.595092
2405.000000;4.002348
2404.000000;4.006014
2403.000000;3.513976
2402.000000;3.399767
2401.000000;3.446352
2400.000000;3.568999
2399.000000;3.551719
2398.000000;3.462816
2397.000000;3.489945
2396.000000;3.636180
2395.000000;3.802282
2394.000000;3.798229
2393.000000;3.705439
2392.000000;3.675907
2391.000000;3.701568
2390.000000;3.692256
2389.000000;3.664574
2388.000000;3.782106
2387.000000;4.034337
2386.000000;4.031855
2385.000000;3.929801
2384.000000;3.799894
2383.000000;3.623154
2382.000000;3.506518
2381.000000;3.455547
2380.000000;3.469171
2379.000000;3.534913
2378.000000;3.634618
2377.000000;3.742994
2376.000000;3.804417
2375.000000;3.852634
2374.000000;3.719952
2373.000000;3.501882
2372.000000;3.481872
2371.000000;3.549322
2370.000000;3.423982
2369.000000;3.326015
2368.000000;3.356702
2367.000000;3.445735
2366.000000;3.515863
2365.000000;3.548243
2364.000000;3.577416
2363.000000;3.616899
2362.000000;3.618048
2361.000000;3.472819
2360.000000;3.266046
2359.000000;3.147757
2358.000000;3.157031
2357.000000;3.268586
2356.000000;3.373030
2355.000000;3.350048
2354.000000;3.304647
2353.000000;3.277767
2352.000000;3.317193
2351.000000;3.230371
2350.000000;3.170886
2349.000000;3.476340
2348.000000;3.312455
2347.000000;3.003507
2346.000000;2.951231
2345.000000;3.098117
2344.000000;3.400434
2343.000000;3.471064
2342.000000;3.523573
2341.000000;3.524433
2340.000000;3.550002
2339.000000;3.808688
2338.000000;3.696040
2337.000000;3.441251
2336.000000;3.338911
2335.000000;3.289488
2334.000000;3.252940
2333.000000;3.221105
2332.000000;3.233425
2331.000000;3.324102
2330.000000;3.539677
2329.000000;3.702863
2328.000000;3.534730
2327.000000;3.421621
2326.000000;3.427432
2325.000000;3.478779
2324.000000;3.537078
2323.000000;3.564919
2322.000000;3.756947
2321.000000;4.202454
2320.000000;4.194402
2319.000000;4.098558
2318.000000;3.749300
2317.000000;3.567874
2316.000000;3.739814
2315.000000;4.311430
2314.000000;4.071616
2313.000000;3.909039
2312.000000;3.953638
2311.000000;3.818437
2310.000000;3.781485
2309.000000;4.097522
2308.000000;4.410915
2307.000000;3.927257
2306.000000;3.805069
2305.000000;3.693427
2304.000000;3.646139
2303.000000;3.701476
2302.000000;3.795553
2301.000000;3.906895
2300.000000;3.819314
2299.000000;3.696830
2298.000000;3.668370
2297.000000;3.666295
2296.000000;3.688576
2295.000000;3.816069
2294.000000;4.059544
2293.000000;4.041616
2292.000000;3.778215
2291.000000;3.613479
2290.000000;3.573198
2289.000000;3.643850
2288.000000;3.850022
2287.000000;3.921623
2286.000000;3.607530
2285.000000;3.425419
2284.000000;3.383850
2283.000000;3.421948
2282.000000;3.494581
2281.000000;3.556320
2280.000000;3.584381
2279.000000;3.534800
2278.000000;3.464666
2277.000000;3.424630
2276.000000;3.410712
2275.000000;3.417568
2274.000000;3.479002
2273.000000;3.585982
2272.000000;3.724920
2271.000000;3.805392
2270.000000;3.815119
2269.000000;3.707593
2268.000000;3.724270
2267.000000;4.316769
2266.000000;4.036500
2265.000000;3.669774
2264.000000;3.665378
2263.000000;3.656545
2262.000000;3.589732
2261.000000;3.527172
2260.000000;3.635421
2259.000000;3.970309
2258.000000;3.813707
2257.000000;3.529355
2256.000000;3.564961
2255.000000;3.816689
2254.000000;3.676461
2253.000000;3.448062
2252.000000;3.411499
2251.000000;3.467370
2250.000000;3.520976
2249.000000;3.479610
2248.000000;3.435347
2247.000000;3.460638
2246.000000;3.571339
2245.000000;3.760356
2244.000000;3.747926
2243.000000;3.668426
2242.000000;3.716234
2241.000000;3.947220
2240.000000;4.619746
2239.000000;4.194650
2238.000000;4.235259
2237.000000;4.249737
2236.000000;3.773870
2235.000000;3.619003
2234.000000;3.736120
2233.000000;4.289987
2232.000000;3.905718
2231.000000;3.553901
2230.000000;3.469066
2229.000000;3.510680
2228.000000;3.747935
2227.000000;3.882907
2226.000000;3.703228
2225.000000;3.669498
2224.000000;3.953745
2223.000000;4.173730
2222.000000;3.752442
2221.000000;3.593907
2220.000000;3.625158
2219.000000;3.661082
2218.000000;3.492750
2217.000000;3.333026
2216.000000;3.326839
2215.000000;3.455098
2214.000000;3.734329
2213.000000;4.149881
2212.000000;4.037660
2211.000000;3.692714
2210.000000;3.509105
2209.000000;3.471347
2208.000000;3.564562
2207.000000;3.916256
2206.000000;4.260859
2205.000000;3.723667
2204.000000;3.523066
2203.000000;3.477951
2202.000000;3.547199
2201.000000;3.768216
2200.000000;4.248794
2199.000000;4.374377
2198.000000;3.777896
2197.000000;3.606076
2196.000000;3.596259
2195.000000;3.737703
2194.000000;4.267681
2193.000000;4.148770
2192.000000;3.687177
2191.000000;3.537886
2190.000000;3.512125
2189.000000;3.604725
2188.000000;3.890367
2187.000000;4.123824
2186.000000;4.136776
2185.000000;4.410285
2184.000000;3.945536
2183.000000;3.677780
2182.000000;3.713976
2181.000000;3.717552
2180.000000;3.581661
2179.000000;3.521354
2178.000000;3.667822
2177.000000;3.990315
2176.000000;3.881695
2175.000000;3.683424
2174.000000;3.695808
2173.000000;3.863722
2172.000000;4.195708
2171.000000;4.430578
2170.000000;4.466332
2169.000000;4.490599
2168.000000;4.579840
2167.000000;4.555055
2166.000000;4.060090
2165.000000;3.776816
2164.000000;3.674360
2163.000000;3.577583
2162.000000;3.461975
2161.000000;3.413211
2160.000000;3.466087
2159.000000;3.605788
2158.000000;3.759503
2157.000000;3.860874
2156.000000;3.854738
2155.000000;3.681677
2154.000000;3.532290
2153.000000;3.566563
2152.000000;3.814037
2151.000000;4.106985
2150.000000;4.328402
2149.000000;3.945124
2148.000000;3.587685
2147.000000;3.522969
2146.000000;3.588322
2145.000000;3.647828
2144.000000;3.657276
2143.000000;3.682422
2142.000000;3.701348
2141.000000;3.581059
2140.000000;3.445101
2139.000000;3.403462
2138.000000;3.482168
2137.000000;3.629303
2136.000000;3.742677
2135.000000;3.633746
2134.000000;3.519675
2133.000000;3.488771
2132.000000;3.669753
2131.000000;4.381765
2130.000000;3.782067
2129.000000;3.511219
2128.000000;3.547551
2127.000000;3.663772
2126.000000;3.850748
2125.000000;3.910387
2124.000000;3.892219
2123.000000;3.841007
2122.000000;3.799653
2121.000000;3.733238
2120.000000;3.687126
2119.000000;3.721845
2118.000000;3.953742
2117.000000;4.415500
2116.000000;4.287139
2115.000000;4.441534
2114.000000;4.827540
2113.000000;4.216603
2112.000000;3.984286
2111.000000;3.905864
2110.000000;4.109883
2109.000000;4.326926
2108.000000;3.945360
2107.000000;3.762968
2106.000000;3.723306
2105.000000;3.738509
2104.000000;3.803274
2103.000000;3.792167
2102.000000;3.838913
2101.000000;4.035578
2100.000000;4.025482
2099.000000;3.869513
2098.000000;4.025774
2097.000000;4.655377
2096.000000;4.168415
2095.000000;3.944610
2094.000000;3.845830
2093.000000;3.740604
2092.000000;3.734310
2091.000000;3.785694
2090.000000;4.125413
2089.000000;4.302273
2088.000000;3.911946
2087.000000;3.839995
2086.000000;3.796104
2085.000000;3.700793
2084.000000;3.645796
2083.000000;3.689564
2082.000000;3.789423
2081.000000;3.805236
2080.000000;3.788481
2079.000000;3.767483
2078.000000;3.874077
2077.000000;3.903070
2076.000000;3.631399
2075.000000;3.516499
2074.000000;3.649475
2073.000000;3.755670
2072.000000;3.601684
2071.000000;3.586783
2070.000000;3.697903
2069.000000;3.740267
2068.000000;3.678279
2067.000000;3.592344
2066.000000;3.568941
2065.000000;3.602379
2064.000000;3.650943
2063.000000;3.709878
2062.000000;3.863406
2061.000000;4.253194
2060.000000;4.547591
2059.000000;4.272013
2058.000000;4.085104
2057.000000;3.840420
2056.000000;3.695241
2055.000000;3.729898
2054.000000;3.835374
2053.000000;3.849260
2052.000000;3.875367
2051.000000;3.952337
2050.000000;3.935883
2049.000000;3.845650
2048.000000;3.748296
2047.000000;3.679616
2046.000000;3.684514
2045.000000;3.807344
2044.000000;3.930902
2043.000000;3.801387
2042.000000;3.980174
2041.000000;4.588368
2040.000000;4.164414
2039.000000;4.145598
2038.000000;3.975568
2037.000000;3.745879
2036.000000;3.679290
2035.000000;3.755653
2034.000000;3.924540
2033.000000;4.011729
2032.000000;3.948407
2031.000000;3.766148
2030.000000;3.665005
2029.000000;3.619341
2028.000000;3.631582
2027.000000;3.692381
2026.000000;3.651926
2025.000000;3.538921
2024.000000;3.514237
2023.000000;3.621281
2022.000000;3.978737
2021.000000;4.204201
2020.000000;3.699650
2019.000000;3.501265
2018.000000;3.497741
2017.000000;3.655674
2016.000000;4.087772
2015.000000;4.227404
2014.000000;3.865040
2013.000000;3.751116
2012.000000;3.752107
2011.000000;3.791149
2010.000000;3.796677
2009.000000;3.770833
2008.000000;3.706575
2007.000000;3.593479
2006.000000;3.544324
2005.000000;3.605952
2004.000000;3.779356
2003.000000;3.773028
2002.000000;3.549798
2001.000000;3.429137
2000.000000;3.426597
1999.000000;3.508641
1998.000000;3.677102
1997.000000;3.841858
1996.000000;3.747566
1995.000000;3.588998
1994.000000;3.555078
1993.000000;3.624045
1992.000000;3.842062
1991.000000;4.173765
1990.000000;3.981830
1989.000000;3.846190
1988.000000;4.015147
1987.000000;4.171839
1986.000000;4.124221
1985.000000;4.372350
1984.000000;4.085254
1983.000000;3.755889
1982.000000;3.715117
1981.000000;3.788313
1980.000000;4.136512
1979.000000;4.463517
1978.000000;3.967381
1977.000000;3.791443
1976.000000;3.745988
1975.000000;3.721883
1974.000000;3.736567
1973.000000;3.777508
1972.000000;3.867341
1971.000000;3.938104
1970.000000;4.145008
1969.000000;4.705124
1968.000000;4.371876
1967.000000;4.346900
1966.000000;4.210656
1965.000000;3.886034
1964.000000;3.759600
1963.000000;3.747096
1962.000000;3.852476
1961.000000;4.080432
1960.000000;4.281275
1959.000000;4.178775
1958.000000;4.069337
1957.000000;4.013455
1956.000000;4.000325
1955.000000;4.089414
1954.000000;4.347277
1953.000000;4.556293
1952.000000;4.223539
1951.000000;3.945713
1950.000000;3.913811
1949.000000;4.080879
1948.000000;3.903860
1947.000000;3.660745
1946.000000;3.659547
1945.000000;3.894531
1944.000000;4.153043
1943.000000;4.160461
1942.000000;4.207267
1941.000000;4.096858
1940.000000;3.987629
1939.000000;3.935704
1938.000000;3.855755
1937.000000;3.837557
1936.000000;3.907336
1935.000000;3.970376
1934.000000;4.045221
1933.000000;4.182301
1932.000000;4.334017
1931.000000;4.613684
1930.000000;4.624254
1929.000000;4.225815
1928.000000;4.045049
1927.000000;4.395672
1926.000000;4.715098
1925.000000;4.316488
1924.000000;4.589707
1923.000000;4.214623
1922.000000;4.015701
1921.000000;4.206886
1920.000000;4.424537
1919.000000;4.040455
1918.000000;3.787088
1917.000000;3.727800
1916.000000;3.702159
1915.000000;3.702627
1914.000000;3.725748
1913.000000;3.803691
1912.000000;3.925787
1911.000000;4.184166
1910.000000;4.901160
1909.000000;4.389916
1908.000000;4.106447
1907.000000;4.033339
1906.000000;3.984301
1905.000000;3.966342
1904.000000;3.955537
1903.000000;4.107003
1902.000000;4.271167
1901.000000;3.963835
1900.000000;3.807385
1899.000000;3.863123
1898.000000;4.111418
1897.000000;4.418950
1896.000000;4.418489
1895.000000;4.388609
1894.000000;4.336865
1893.000000;4.624362
1892.000000;4.191003
1891.000000;3.755720
1890.000000;3.611938
1889.000000;3.589922
1888.000000;3.666062
1887.000000;3.828135
1886.000000;4.094844
1885.000000;4.238782
1884.000000;3.955933
1883.000000;3.814273
1882.000000;3.927965
1881.000000;4.072369
1880.000000;3.853354
1879.000000;3.766738
1878.000000;3.826355
1877.000000;3.804288
1876.000000;3.734269
1875.000000;3.740974
1874.000000;3.707047
1873.000000;3.620597
1872.000000;3.622876
1871.000000;3.827398
1870.000000;4.028008
1869.000000;3.832695
1868.000000;3.700897
1867.000000;3.677242
1866.000000;3.712001
1865.000000;3.837015
1864.000000;4.303944
1863.000000;4.089354
1862.000000;3.703045
1861.000000;3.631287
1860.000000;3.707845
1859.000000;3.857626
1858.000000;3.907160
1857.000000;3.817826
1856.000000;3.718110
1855.000000;3.690766
1854.000000;3.751664
1853.000000;3.794221
1852.000000;3.743137
1851.000000;3.726056
1850.000000;3.967649
1849.000000;4.349492
1848.000000;3.958943
1847.000000;3.808624
1846.000000;3.861553
1845.000000;4.286051
1844.000000;4.465639
1843.000000;3.947800
1842.000000;3.825512
1841.000000;3.826702
1840.000000;3.961264
1839.000000;4.189929
1838.000000;4.339767
1837.000000;4.067110
1836.000000;3.823820
1835.000000;3.756140
1834.000000;3.815100
1833.000000;4.005900
1832.000000;4.302396
1831.000000;4.386704
1830.000000;4.257262
1829.000000;4.223033
1828.000000;4.189566
1827.000000;4.075750
1826.000000;4.005675
1825.000000;3.972344
1824.000000;3.912291
1823.000000;3.890942
1822.000000;3.975269
1821.000000;4.063727
1820.000000;4.011835
1819.000000;4.178308
1818.000000;4.242682
1817.000000;3.832313
1816.000000;3.644269
1815.000000;3.596148
1814.000000;3.626823
1813.000000;3.688892
1812.000000;3.718407
1811.000000;3.715353
1810.000000;3.730230
1809.000000;3.814873
1808.000000;3.968388
1807.000000;4.147602
1806.000000;4.186903
1805.000000;3.944177
1804.000000;3.759782
1803.000000;3.687160
1802.000000;3.654150
1801.000000;3.630871
1800.000000;3.640492
1799.000000;3.729593
1798.000000;3.908244
1797.000000;4.017649
1796.000000;3.877055
1795.000000;3.717671
1794.000000;3.689795
1793.000000;3.728754
1792.000000;3.782837
1791.000000;3.845772
1790.000000;3.813117
1789.000000;3.754457
1788.000000;3.754531
1787.000000;3.777000
1786.000000;3.872150
1785.000000;4.450746
1784.000000;4.059855
1783.000000;3.688587
1782.000000;3.664231
1781.000000;3.783326
1780.000000;3.921089
1779.000000;4.014890
1778.000000;4.200408
1777.000000;4.055639
1776.000000;3.809361
1775.000000;3.721705
1774.000000;3.714226
1773.000000;3.693571
1772.000000;3.643037
1771.000000;3.628058
1770.000000;3.644501
1769.000000;3.660122
1768.000000;3.697143
1767.000000;3.846703
1766.000000;4.108617
1765.000000;4.388282
1764.000000;4.740556
1763.000000;4.481069
1762.000000;4.710007
1761.000000;4.635013
1760.000000;4.063552
1759.000000;3.911374
1758.000000;3.837193
1757.000000;3.845663
1756.000000;3.938807
1755.000000;4.051261
1754.000000;4.119228
1753.000000;4.071598
1752.000000;4.000118
1751.000000;4.136335
1750.000000;4.670568
1749.000000;4.798268
1748.000000;4.385132
1747.000000;3.924124
1746.000000;3.785539
1745.000000;3.936209
1744.000000;4.229453
1743.000000;3.973966
1742.000000;3.822463
1741.000000;4.003013
1740.000000;4.440867
1739.000000;4.143797
1738.000000;4.072417
1737.000000;4.059582
1736.000000;4.013615
1735.000000;4.322657
1734.000000;4.607180
1733.000000;4.150700
1732.000000;3.908964
1731.000000;3.788777
1730.000000;3.809744
1729.000000;3.918873
1728.000000;3.965534
1727.000000;4.016332
1726.000000;4.122526
1725.000000;4.211036
1724.000000;4.380972
1723.000000;4.291999
1722.000000;4.231893
1721.000000;4.351021
1720.000000;4.049523
1719.000000;3.866047
1718.000000;3.855168
1717.000000;3.862437
1716.000000;3.869208
1715.000000;3.939599
1714.000000;4.159054
1713.000000;4.464948
1712.000000;4.887380
1711.000000;4.647991
1710.000000;4.119520
1709.000000;3.962766
1708.000000;4.136331
1707.000000;4.491789
1706.000000;4.153516
1705.000000;3.928352
1704.000000;3.786554
1703.000000;3.557475
1702.000000;3.509185
1701.000000;4.162390
1700.000000;4.239386
1699.000000;4.256817
1698.000000;4.377583
1697.000000;4.677626
1696.000000;4.204387
1695.000000;3.894206
1694.000000;3.773475
1693.000000;3.774688
1692.000000;3.950124
1691.000000;4.299524
1690.000000;4.554152
1689.000000;4.568007
1688.000000;4.500507
1687.000000;4.237246
1686.000000;4.042668
1685.000000;4.025791
1684.000000;4.033254
1683.000000;3.983776
1682.000000;3.991824
1681.000000;3.935089
1680.000000;3.846041
1679.000000;3.839324
1678.000000;3.887098
1677.000000;3.984954
1676.000000;4.223181
1675.000000;3.982222
1674.000000;3.833950
1673.000000;3.836971
1672.000000;3.877570
1671.000000;3.979798
1670.000000;4.192353
1669.000000;4.287788
1668.000000;4.279532
1667.000000;4.465862
1666.000000;4.530935
1665.000000;4.324365
1664.000000;4.211059
1663.000000;4.060287
1662.000000;3.952010
1661.000000;3.883400
1660.000000;3.814752
1659.000000;3.772363
1658.000000;3.809350
1657.000000;3.923487
1656.000000;4.000223
1655.000000;3.991937
1654.000000;4.066429
1653.000000;4.274609
1652.000000;4.353332
1651.000000;4.161919
1650.000000;3.911686
1649.000000;3.782723
1648.000000;3.815353
1647.000000;3.993663
1646.000000;4.348727
1645.000000;4.318817
1644.000000;4.201084
1643.000000;4.331593
1642.000000;4.261039
1641.000000;4.100021
1640.000000;4.208239
1639.000000;4.537675
1638.000000;4.235445
1637.000000;3.989217
1636.000000;3.932410
1635.000000;4.036961
1634.000000;4.201008
1633.000000;4.577194
1632.000000;4.699400
1631.000000;4.335146
1630.000000;4.488322
1629.000000;3.992642
1628.000000;3.726433
1627.000000;3.736713
1626.000000;3.897504
1625.000000;4.195640
1624.000000;4.232058
1623.000000;4.145119
1622.000000;4.258419
1621.000000;4.234878
1620.000000;4.143174
1619.000000;4.229466
1618.000000;4.782085
1617.000000;4.670048
1616.000000;4.229103
1615.000000;3.953450
1614.000000;3.782184
1613.000000;3.784012
1612.000000;4.026556
1611.000000;4.136933
1610.000000;3.923267
1609.000000;4.124017
1608.000000;4.469340
1607.000000;3.863699
1606.000000;3.728475
1605.000000;3.771013
1604.000000;3.997354
1603.000000;4.156714
1602.000000;3.999460
1601.000000;3.919957
1600.000000;3.941620
1599.000000;4.172804
1598.000000;4.458538
1597.000000;4.174494
1596.000000;4.162534
1595.000000;4.348763
1594.000000;4.038422
1593.000000;3.852931
1592.000000;3.842816
1591.000000;3.905587
1590.000000;3.904529
1589.000000;3.847368
1588.000000;3.893882
1587.000000;4.112279
1586.000000;4.285351
1585.000000;4.217664
1584.000000;4.336952
1583.000000;4.725340
1582.000000;4.659719
1581.000000;4.330913
1580.000000;4.293938
1579.000000;4.122969
1578.000000;3.971745
1577.000000;3.944155
1576.000000;3.979540
1575.000000;4.004817
1574.000000;4.018961
1573.000000;4.116868
1572.000000;4.449079
1571.000000;4.513678
1570.000000;4.503406
1569.000000;5.017674
1568.000000;4.962845
1567.000000;4.575324
1566.000000;4.073185
1565.000000;3.952143
1564.000000;4.107495
1563.000000;4.126135
1562.000000;4.052681
1561.000000;4.063465
1560.000000;4.123496
1559.000000;4.338552
1558.000000;4.812968
1557.000000;4.435578
1556.000000;4.156329
1555.000000;4.011537
1554.000000;4.029269
1553.000000;4.102398
1552.000000;4.049907
1551.000000;3.968015
1550.000000;4.005825
1549.000000;4.158076
1548.000000;4.340753
1547.000000;4.413618
1546.000000;4.316151
1545.000000;4.231884
1544.000000;4.209232
1543.000000;4.455948
1542.000000;4.349584
1541.000000;4.131575
1540.000000;4.095546
1539.000000;4.152960
1538.000000;4.187112
1537.000000;4.194892
1536.000000;4.238696
1535.000000;3.875253
1534.000000;3.707653
1533.000000;3.745231
1532.000000;3.790930
1531.000000;3.832722
1530.000000;3.941268
1529.000000;4.217315
1528.000000;4.684014
1527.000000;4.293411
1526.000000;4.143548
1525.000000;4.077215
1524.000000;4.067370
1523.000000;4.090933
1522.000000;4.122959
1521.000000;4.139893
1520.000000;4.001653
1519.000000;3.841975
1518.000000;3.838529
1517.000000;4.000462
1516.000000;4.331821
1515.000000;4.490184
1514.000000;4.070420
1513.000000;3.770420
1512.000000;3.704096
1511.000000;3.841276
1510.000000;4.216327
1509.000000;4.359255
1508.000000;4.132541
1507.000000;4.011278
1506.000000;4.119017
1505.000000;4.583640
1504.000000;4.515850
1503.000000;4.267272
1502.000000;4.355767
1501.000000;4.101117
1500.000000;3.843037
1499.000000;3.779882
1498.000000;3.787523
1497.000000;3.803837
1496.000000;3.810713
1495.000000;3.813139
1494.000000;3.817940
1493.000000;3.853725
1492.000000;3.912014
1491.000000;3.942736
1490.000000;3.964898
1489.000000;4.322489
1488.000000;4.179932
1487.000000;3.825335
1486.000000;3.753748
1485.000000;3.802333
1484.000000;3.843709
1483.000000;3.833188
1482.000000;3.872687
1481.000000;3.958330
1480.000000;3.967512
1479.000000;3.853127
1478.000000;3.706457
1477.000000;3.638123
1476.000000;3.665550
1475.000000;3.732883
1474.000000;3.828326
1473.000000;4.022804
1472.000000;4.168647
1471.000000;3.937750
1470.000000;3.814932
1469.000000;3.846681
1468.000000;4.022816
1467.000000;4.156112
1466.000000;4.349417
1465.000000;4.569890
1464.000000;4.093059
1463.000000;3.778349
1462.000000;3.618212
1461.000000;3.586920
1460.000000;3.665361
1459.000000;3.780653
1458.000000;3.834828
1457.000000;3.875150
1456.000000;3.994018
1455.000000;4.209671
1454.000000;4.492295
1453.000000;4.107470
1452.000000;3.940122
1451.000000;3.944336
1450.000000;4.062767
1449.000000;4.260081
1448.000000;4.542284
1447.000000;4.430244
1446.000000;4.171021
1445.000000;4.167483
1444.000000;4.306943
1443.000000;4.668766
1442.000000;4.639257
1441.000000;4.228759
1440.000000;4.133477
1439.000000;4.041946
1438.000000;3.740780
1437.000000;3.572445
1436.000000;3.560622
1435.000000;3.556405
1434.000000;3.541889
1433.000000;3.553645
1432.000000;3.621314
1431.000000;3.751873
1430.000000;3.874838
1429.000000;3.822973
1428.000000;3.740138
1427.000000;3.735802
1426.000000;3.826079
1425.000000;4.014194
1424.000000;4.214517
1423.000000;4.339297
1422.000000;4.324847
1421.000000;4.153783
1420.000000;4.106112
1419.000000;4.102201
1418.000000;4.017084
1417.000000;3.943452
1416.000000;3.933614
1415.000000;4.132184
1414.000000;4.404440
1413.000000;3.998680
1412.000000;3.794878
1411.000000;3.763390
1410.000000;3.768515
1409.000000;3.748060
1408.000000;3.716161
1407.000000;3.730692
1406.000000;3.830146
1405.000000;4.206535
1404.000000;4.410797
1403.000000;4.054774
1402.000000;3.980528
1401.000000;3.855572
1400.000000;3.660887
1399.000000;3.600002
1398.000000;3.675982
1397.000000;3.925104
1396.000000;4.518341
1395.000000;4.153382
1394.000000;4.057351
1393.000000;3.983686
1392.000000;3.922794
1391.000000;3.889774
1390.000000;3.885789
1389.000000;3.914976
1388.000000;3.974669
1387.000000;4.003975
1386.000000;3.950696
1385.000000;3.855590
1384.000000;3.834160
1383.000000;3.968331
1382.000000;4.409326
1381.000000;4.949474
1380.000000;4.486539
1379.000000;4.199278
1378.000000;4.064625
1377.000000;3.950425
1376.000000;3.829130
1375.000000;3.767598
1374.000000;3.803199
1373.000000;4.003235
1372.000000;4.090289
1371.000000;3.853395
1370.000000;3.820372
1369.000000;3.996569
1368.000000;4.330199
1367.000000;4.273598
1366.000000;4.138229
1365.000000;4.066566
1364.000000;4.054000
1363.000000;4.009832
1362.000000;3.910263
1361.000000;3.886495
1360.000000;3.956155
1359.000000;4.306306
1358.000000;4.441326
1357.000000;4.054371
1356.000000;3.969413
1355.000000;4.018950
1354.000000;4.166953
1353.000000;4.043748
1352.000000;3.792937
1351.000000;3.664900
1350.000000;3.650804
1349.000000;3.705523
1348.000000;3.776148
1347.000000;3.850875
1346.000000;3.872706
1345.000000;3.844284
1344.000000;4.032760
1343.000000;4.289542
1342.000000;3.855765
1341.000000;3.750942
1340.000000;3.774248
1339.000000;3.974178
1338.000000;4.284790
1337.000000;3.962096
1336.000000;4.031952
1335.000000;4.193545
1334.000000;3.758788
1333.000000;3.635003
1332.000000;3.737930
1331.000000;4.045268
1330.000000;4.393280
1329.000000;4.299108
1328.000000;3.884486
1327.000000;3.597297
1326.000000;3.471312
1325.000000;3.463107
1324.000000;3.561762
1323.000000;3.782066
1322.000000;4.102173
1321.000000;4.122587
1320.000000;4.158699
1319.000000;4.410720
1318.000000;4.312342
1317.000000;4.588661
1316.000000;4.376677
1315.000000;4.010064
1314.000000;3.886435
1313.000000;3.794407
1312.000000;3.750001
1311.000000;3.779442
1310.000000;3.808043
1309.000000;3.811032
1308.000000;3.830970
1307.000000;3.831852
1306.000000;3.835301
1305.000000;3.885799
1304.000000;4.026639
1303.000000;4.291825
1302.000000;4.255189
1301.000000;4.246645
1300.000000;4.063334
1299.000000;3.800995
1298.000000;3.706901
1297.000000;3.669116
1296.000000;3.620501
1295.000000;3.601341
1294.000000;3.669691
1293.000000;3.848225
1292.000000;4.126501
1291.000000;4.285105
1290.000000;4.301751
1289.000000;4.693993
1288.000000;4.468103
1287.000000;4.051003
1286.000000;3.927228
1285.000000;3.972212
1284.000000;4.230941
1283.000000;4.309881
1282.000000;4.005421
1281.000000;3.902663
1280.000000;3.870129
1279.000000;3.823927
1278.000000;3.950159
1277.000000;4.280440
1276.000000;3.899142
1275.000000;3.634664
1274.000000;3.550648
1273.000000;3.554995
1272.000000;3.681532
1271.000000;3.912612
1270.000000;3.782636
1269.000000;3.684591
1268.000000;3.818667
1267.000000;4.555247
1266.000000;3.866520
1265.000000;3.597692
1264.000000;3.574928
1263.000000;3.774863
1262.000000;4.431998
1261.000000;4.031328
1260.000000;3.814492
1259.000000;3.868584
1258.000000;3.893368
1257.000000;3.614151
1256.000000;3.514887
1255.000000;3.589457
1254.000000;4.032087
1253.000000;4.412893
1252.000000;3.732690
1251.000000;3.573568
1250.000000;3.598441
1249.000000;3.805782
1248.000000;3.773621
1247.000000;3.720193
1246.000000;3.909848
1245.000000;4.405731
1244.000000;4.442209
1243.000000;4.001860
1242.000000;3.913128
1241.000000;3.866712
1240.000000;3.670545
1239.000000;3.602058
1238.000000;3.696938
1237.000000;3.995398
1236.000000;4.749675
1235.000000;3.961923
1234.000000;3.851014
1233.000000;3.837904
1232.000000;3.681500
1231.000000;3.498572
1230.000000;3.437667
1229.000000;3.522329
1228.000000;3.892313
1227.000000;4.272122
1226.000000;3.917880
1225.000000;3.836869
1224.000000;3.704821
1223.000000;3.590678
1222.000000;3.549389
1221.000000;3.634463
1220.000000;3.857669
1219.000000;4.027912
1218.000000;4.201190
1217.000000;4.062742
1216.000000;3.785873
1215.000000;3.654269
1214.000000;3.616619
1213.000000;3.649680
1212.000000;3.690365
1211.000000;3.692705
1210.000000;3.695303
1209.000000;3.701619
1208.000000;3.667069
1207.000000;3.615458
1206.000000;3.633037
1205.000000;3.747977
1204.000000;3.858520
1203.000000;3.785650
1202.000000;3.693928
1201.000000;3.634468
1200.000000;3.582146
