Criado como novo conjunto de dados;"1909daniel.spp","-4245643.0 Secs"
cm-1;Abs
10000.000000;1.755190
9999.000000;1.751978
9998.000000;1.748789
9997.000000;1.745625
9996.000000;1.742480
9995.000000;1.739364
9994.000000;1.736260
9993.000000;1.733196
9992.000000;1.730099
9991.000000;1.728617
9990.000000;1.728289
9989.000000;1.727672
9988.000000;1.726140
9987.000000;1.724317
9986.000000;1.723393
9985.000000;1.724081
9984.000000;1.725777
9983.000000;1.726820
9982.000000;1.726197
9981.000000;1.724493
9980.000000;1.722608
9979.000000;1.720573
9978.000000;1.718358
9977.000000;1.716856
9976.000000;1.716980
9975.000000;1.718171
9974.000000;1.718762
9973.000000;1.717738
9972.000000;1.715426
9971.000000;1.712829
9970.000000;1.711240
9969.000000;1.711993
9968.000000;1.715271
9967.000000;1.719099
9966.000000;1.720663
9965.000000;1.719038
9964.000000;1.715822
9963.000000;1.713119
9962.000000;1.711839
9961.000000;1.711763
9960.000000;1.712075
9959.000000;1.711603
9958.000000;1.709576
9957.000000;1.706513
9956.000000;1.703770
9955.000000;1.702215
9954.000000;1.701918
9953.000000;1.702786
9952.000000;1.704551
9951.000000;1.706241
9950.000000;1.706608
9949.000000;1.705193
9948.000000;1.702340
9947.000000;1.698508
9946.000000;1.694565
9945.000000;1.692237
9944.000000;1.692713
9943.000000;1.694749
9942.000000;1.695592
9941.000000;1.694241
9940.000000;1.692493
9939.000000;1.692418
9938.000000;1.694308
9937.000000;1.697402
9936.000000;1.700846
9935.000000;1.703028
9934.000000;1.701704
9933.000000;1.696603
9932.000000;1.690788
9931.000000;1.687696
9930.000000;1.687509
9929.000000;1.687659
9928.000000;1.686495
9927.000000;1.685068
9926.000000;1.685065
9925.000000;1.686235
9924.000000;1.686470
9923.000000;1.684194
9922.000000;1.680391
9921.000000;1.678046
9920.000000;1.679389
9919.000000;1.683557
9918.000000;1.687177
9917.000000;1.687669
9916.000000;1.685467
9915.000000;1.682423
9914.000000;1.679203
9913.000000;1.675441
9912.000000;1.671606
9911.000000;1.669248
9910.000000;1.669246
9909.000000;1.670690
9908.000000;1.672014
9907.000000;1.672602
9906.000000;1.672676
9905.000000;1.672239
9904.000000;1.670973
9903.000000;1.669052
9902.000000;1.667310
9901.000000;1.666259
9900.000000;1.665415
9899.000000;1.664134
9898.000000;1.662904
9897.000000;1.663021
9896.000000;1.664695
9895.000000;1.666155
9894.000000;1.665426
9893.000000;1.662779
9892.000000;1.660492
9891.000000;1.660186
9890.000000;1.661267
9889.000000;1.662055
9888.000000;1.661637
9887.000000;1.660308
9886.000000;1.658871
9885.000000;1.658065
9884.000000;1.658260
9883.000000;1.659087
9882.000000;1.659484
9881.000000;1.658602
9880.000000;1.656700
9879.000000;1.654718
9878.000000;1.653187
9877.000000;1.651933
9876.000000;1.650555
9875.000000;1.648949
9874.000000;1.647492
9873.000000;1.646798
9872.000000;1.647174
9871.000000;1.648290
9870.000000;1.649451
9869.000000;1.650028
9868.000000;1.649457
9867.000000;1.647272
9866.000000;1.643740
9865.000000;1.640223
9864.000000;1.638200
9863.000000;1.637890
9862.000000;1.638273
9861.000000;1.638340
9860.000000;1.637783
9859.000000;1.636736
9858.000000;1.635690
9857.000000;1.635486
9856.000000;1.636362
9855.000000;1.636955
9854.000000;1.635479
9853.000000;1.632217
9852.000000;1.629553
9851.000000;1.629085
9850.000000;1.629988
9849.000000;1.630795
9848.000000;1.631490
9847.000000;1.632646
9846.000000;1.633398
9845.000000;1.632075
9844.000000;1.628802
9843.000000;1.625883
9842.000000;1.625308
9841.000000;1.626948
9840.000000;1.629342
9839.000000;1.631324
9838.000000;1.632403
9837.000000;1.632186
9836.000000;1.630304
9835.000000;1.626991
9834.000000;1.623371
9833.000000;1.620826
9832.000000;1.619882
9831.000000;1.619817
9830.000000;1.619604
9829.000000;1.619128
9828.000000;1.618990
9827.000000;1.619171
9826.000000;1.618730
9825.000000;1.617161
9824.000000;1.615166
9823.000000;1.613489
9822.000000;1.611779
9821.000000;1.609503
9820.000000;1.607403
9819.000000;1.606892
9818.000000;1.608148
9817.000000;1.609734
9816.000000;1.610304
9815.000000;1.609929
9814.000000;1.609381
9813.000000;1.608852
9812.000000;1.607962
9811.000000;1.606716
9810.000000;1.605812
9809.000000;1.605782
9808.000000;1.605976
9807.000000;1.604740
9806.000000;1.601147
9805.000000;1.596678
9804.000000;1.594463
9803.000000;1.596416
9802.000000;1.601249
9801.000000;1.605460
9800.000000;1.606307
9799.000000;1.603780
9798.000000;1.599952
9797.000000;1.597063
9796.000000;1.596127
9795.000000;1.596614
9794.000000;1.596994
9793.000000;1.595952
9792.000000;1.593494
9791.000000;1.590674
9790.000000;1.588303
9789.000000;1.586397
9788.000000;1.584907
9787.000000;1.584308
9786.000000;1.584955
9785.000000;1.586194
9784.000000;1.586745
9783.000000;1.586149
9782.000000;1.585352
9781.000000;1.585434
9780.000000;1.586096
9779.000000;1.585847
9778.000000;1.583643
9777.000000;1.579880
9776.000000;1.575699
9775.000000;1.571965
9774.000000;1.569288
9773.000000;1.568452
9772.000000;1.569977
9771.000000;1.573183
9770.000000;1.576194
9769.000000;1.577275
9768.000000;1.576174
9767.000000;1.574164
9766.000000;1.572995
9765.000000;1.573682
9764.000000;1.575760
9763.000000;1.577424
9762.000000;1.576814
9761.000000;1.573629
9760.000000;1.569464
9759.000000;1.566447
9758.000000;1.565632
9757.000000;1.566508
9756.000000;1.567700
9755.000000;1.568250
9754.000000;1.568411
9753.000000;1.569091
9752.000000;1.570398
9751.000000;1.571095
9750.000000;1.569946
9749.000000;1.567413
9748.000000;1.565285
9747.000000;1.564578
9746.000000;1.564549
9745.000000;1.564030
9744.000000;1.562969
9743.000000;1.562166
9742.000000;1.562007
9741.000000;1.562065
9740.000000;1.561781
9739.000000;1.561101
9738.000000;1.560336
9737.000000;1.559643
9736.000000;1.558720
9735.000000;1.557112
9734.000000;1.554891
9733.000000;1.552839
9732.000000;1.551663
9731.000000;1.551169
9730.000000;1.550603
9729.000000;1.549659
9728.000000;1.548626
9727.000000;1.547621
9726.000000;1.546448
9725.000000;1.545414
9724.000000;1.545404
9723.000000;1.546630
9722.000000;1.547901
9721.000000;1.547758
9720.000000;1.545974
9719.000000;1.543461
9718.000000;1.541115
9717.000000;1.539345
9716.000000;1.538347
9715.000000;1.538073
9714.000000;1.537881
9713.000000;1.536810
9712.000000;1.534516
9711.000000;1.531757
9710.000000;1.529795
9709.000000;1.529357
9708.000000;1.530077
9707.000000;1.530861
9706.000000;1.530940
9705.000000;1.530661
9704.000000;1.531064
9703.000000;1.532559
9702.000000;1.534162
9701.000000;1.534280
9700.000000;1.532260
9699.000000;1.529092
9698.000000;1.526577
9697.000000;1.525805
9696.000000;1.526294
9695.000000;1.526580
9694.000000;1.525810
9693.000000;1.524620
9692.000000;1.524134
9691.000000;1.524343
9690.000000;1.524107
9689.000000;1.522799
9688.000000;1.521283
9687.000000;1.520877
9686.000000;1.521763
9685.000000;1.522770
9684.000000;1.522438
9683.000000;1.520138
9682.000000;1.516502
9681.000000;1.513107
9680.000000;1.511468
9679.000000;1.511818
9678.000000;1.512939
9677.000000;1.513412
9676.000000;1.512864
9675.000000;1.511804
9674.000000;1.510644
9673.000000;1.509428
9672.000000;1.508296
9671.000000;1.507569
9670.000000;1.507272
9669.000000;1.506992
9668.000000;1.506393
9667.000000;1.505681
9666.000000;1.505340
9665.000000;1.505410
9664.000000;1.505201
9663.000000;1.503979
9662.000000;1.501953
9661.000000;1.500253
9660.000000;1.499727
9659.000000;1.499974
9658.000000;1.499871
9657.000000;1.498886
9656.000000;1.497423
9655.000000;1.496062
9654.000000;1.495055
9653.000000;1.494617
9652.000000;1.494998
9651.000000;1.495883
9650.000000;1.496245
9649.000000;1.495417
9648.000000;1.494033
9647.000000;1.493368
9646.000000;1.493854
9645.000000;1.494675
9644.000000;1.494706
9643.000000;1.493513
9642.000000;1.491426
9641.000000;1.489017
9640.000000;1.486800
9639.000000;1.485338
9638.000000;1.485215
9637.000000;1.486523
9636.000000;1.488358
9635.000000;1.489202
9634.000000;1.488215
9633.000000;1.486062
9632.000000;1.484121
9631.000000;1.482917
9630.000000;1.481827
9629.000000;1.480253
9628.000000;1.478509
9627.000000;1.477442
9626.000000;1.477613
9625.000000;1.478940
9624.000000;1.480665
9623.000000;1.481487
9622.000000;1.480331
9621.000000;1.477423
9620.000000;1.474226
9619.000000;1.471984
9618.000000;1.470748
9617.000000;1.470065
9616.000000;1.470147
9615.000000;1.471708
9614.000000;1.474701
9613.000000;1.477764
9612.000000;1.479175
9611.000000;1.478281
9610.000000;1.475902
9609.000000;1.473491
9608.000000;1.472018
9607.000000;1.471538
9606.000000;1.471592
9605.000000;1.471764
9604.000000;1.471749
9603.000000;1.471114
9602.000000;1.469458
9601.000000;1.466917
9600.000000;1.464247
9599.000000;1.462236
9598.000000;1.461101
9597.000000;1.460499
9596.000000;1.459974
9595.000000;1.459417
9594.000000;1.459135
9593.000000;1.459400
9592.000000;1.459892
9591.000000;1.459843
9590.000000;1.458864
9589.000000;1.457292
9588.000000;1.455534
9587.000000;1.453565
9586.000000;1.451426
9585.000000;1.449761
9584.000000;1.449219
9583.000000;1.449570
9582.000000;1.450035
9581.000000;1.450293
9580.000000;1.450541
9579.000000;1.450761
9578.000000;1.450792
9577.000000;1.450961
9576.000000;1.451646
9575.000000;1.452166
9574.000000;1.451142
9573.000000;1.448302
9572.000000;1.444992
9571.000000;1.442587
9570.000000;1.441291
9569.000000;1.440732
9568.000000;1.440754
9567.000000;1.441106
9566.000000;1.441238
9565.000000;1.441070
9564.000000;1.441285
9563.000000;1.442190
9562.000000;1.442978
9561.000000;1.442806
9560.000000;1.441991
9559.000000;1.441306
9558.000000;1.440685
9557.000000;1.439571
9556.000000;1.438094
9555.000000;1.436933
9554.000000;1.436179
9553.000000;1.435283
9552.000000;1.434106
9551.000000;1.433230
9550.000000;1.433056
9549.000000;1.433173
9548.000000;1.432812
9547.000000;1.431588
9546.000000;1.429733
9545.000000;1.427890
9544.000000;1.426655
9543.000000;1.426077
9542.000000;1.425665
9541.000000;1.425058
9540.000000;1.424537
9539.000000;1.424586
9538.000000;1.425201
9537.000000;1.425937
9536.000000;1.426380
9535.000000;1.426283
9534.000000;1.425508
9533.000000;1.424226
9532.000000;1.422920
9531.000000;1.421825
9530.000000;1.420595
9529.000000;1.418878
9528.000000;1.416980
9527.000000;1.415615
9526.000000;1.415197
9525.000000;1.415629
9524.000000;1.416461
9523.000000;1.416959
9522.000000;1.416431
9521.000000;1.414967
9520.000000;1.413486
9519.000000;1.412569
9518.000000;1.411714
9517.000000;1.410320
9516.000000;1.408938
9515.000000;1.408674
9514.000000;1.409587
9513.000000;1.410540
9512.000000;1.410629
9511.000000;1.409956
9510.000000;1.408827
9509.000000;1.406989
9508.000000;1.404175
9507.000000;1.401018
9506.000000;1.398898
9505.000000;1.398852
9504.000000;1.400658
9503.000000;1.402904
9502.000000;1.404069
9501.000000;1.403785
9500.000000;1.402887
9499.000000;1.402168
9498.000000;1.401594
9497.000000;1.401020
9496.000000;1.400952
9495.000000;1.401806
9494.000000;1.402777
9493.000000;1.402401
9492.000000;1.400265
9491.000000;1.397422
9490.000000;1.395094
9489.000000;1.393717
9488.000000;1.393237
9487.000000;1.393454
9486.000000;1.393793
9485.000000;1.393469
9484.000000;1.392343
9483.000000;1.391137
9482.000000;1.390500
9481.000000;1.390289
9480.000000;1.390026
9479.000000;1.389592
9478.000000;1.389143
9477.000000;1.388789
9476.000000;1.388721
9475.000000;1.389216
9474.000000;1.390112
9473.000000;1.390659
9472.000000;1.390340
9471.000000;1.389568
9470.000000;1.389080
9469.000000;1.388896
9468.000000;1.388366
9467.000000;1.387158
9466.000000;1.385670
9465.000000;1.384379
9464.000000;1.383233
9463.000000;1.381927
9462.000000;1.380504
9461.000000;1.379389
9460.000000;1.378828
9459.000000;1.378544
9458.000000;1.378052
9457.000000;1.377241
9456.000000;1.376480
9455.000000;1.376103
9454.000000;1.375995
9453.000000;1.375795
9452.000000;1.375286
9451.000000;1.374338
9450.000000;1.372689
9449.000000;1.370232
9448.000000;1.367589
9447.000000;1.365975
9446.000000;1.366190
9445.000000;1.367827
9444.000000;1.369546
9443.000000;1.370178
9442.000000;1.369571
9441.000000;1.368507
9440.000000;1.367878
9439.000000;1.367919
9438.000000;1.368205
9437.000000;1.368308
9436.000000;1.368255
9435.000000;1.368275
9434.000000;1.368360
9433.000000;1.368355
9432.000000;1.368240
9431.000000;1.367925
9430.000000;1.366945
9429.000000;1.364966
9428.000000;1.362624
9427.000000;1.361265
9426.000000;1.361540
9425.000000;1.362563
9424.000000;1.362779
9423.000000;1.361425
9422.000000;1.358971
9421.000000;1.356511
9420.000000;1.355021
9419.000000;1.354839
9418.000000;1.355335
9417.000000;1.355238
9416.000000;1.353830
9415.000000;1.351798
9414.000000;1.350520
9413.000000;1.350632
9412.000000;1.351669
9411.000000;1.352930
9410.000000;1.354155
9409.000000;1.355290
9408.000000;1.356155
9407.000000;1.356601
9406.000000;1.356638
9405.000000;1.356200
9404.000000;1.355166
9403.000000;1.353787
9402.000000;1.352643
9401.000000;1.351878
9400.000000;1.350892
9399.000000;1.349230
9398.000000;1.347389
9397.000000;1.346205
9396.000000;1.345742
9395.000000;1.345438
9394.000000;1.345125
9393.000000;1.345143
9392.000000;1.345397
9391.000000;1.345124
9390.000000;1.343910
9389.000000;1.342334
9388.000000;1.341236
9387.000000;1.340856
9386.000000;1.341027
9385.000000;1.341638
9384.000000;1.342422
9383.000000;1.342759
9382.000000;1.342273
9381.000000;1.341357
9380.000000;1.340548
9379.000000;1.339576
9378.000000;1.337712
9377.000000;1.335041
9376.000000;1.332715
9375.000000;1.331800
9374.000000;1.332246
9373.000000;1.333067
9372.000000;1.333238
9371.000000;1.332493
9370.000000;1.331521
9369.000000;1.331264
9368.000000;1.331754
9367.000000;1.331842
9366.000000;1.330444
9365.000000;1.327901
9364.000000;1.325557
9363.000000;1.324223
9362.000000;1.323724
9361.000000;1.323798
9360.000000;1.324514
9359.000000;1.325581
9358.000000;1.326043
9357.000000;1.325210
9356.000000;1.323465
9355.000000;1.321783
9354.000000;1.320919
9353.000000;1.321350
9352.000000;1.323318
9351.000000;1.326264
9350.000000;1.328637
9349.000000;1.329019
9348.000000;1.327341
9347.000000;1.324565
9346.000000;1.321488
9345.000000;1.318461
9344.000000;1.315974
9343.000000;1.314734
9342.000000;1.314995
9341.000000;1.316240
9340.000000;1.317615
9339.000000;1.318434
9338.000000;1.318358
9337.000000;1.317537
9336.000000;1.316640
9335.000000;1.316402
9334.000000;1.316918
9333.000000;1.317513
9332.000000;1.317418
9331.000000;1.316470
9330.000000;1.315140
9329.000000;1.314065
9328.000000;1.313608
9327.000000;1.313683
9326.000000;1.313837
9325.000000;1.313530
9324.000000;1.312459
9323.000000;1.310713
9322.000000;1.308716
9321.000000;1.307036
9320.000000;1.306112
9319.000000;1.306050
9318.000000;1.306659
9317.000000;1.307639
9316.000000;1.308653
9315.000000;1.309314
9314.000000;1.309350
9313.000000;1.308865
9312.000000;1.308339
9311.000000;1.308192
9310.000000;1.308354
9309.000000;1.308318
9308.000000;1.307508
9307.000000;1.305667
9306.000000;1.303175
9305.000000;1.301061
9304.000000;1.300357
9303.000000;1.301188
9302.000000;1.302609
9301.000000;1.303486
9300.000000;1.303443
9299.000000;1.302881
9298.000000;1.302347
9297.000000;1.302081
9296.000000;1.301923
9295.000000;1.301376
9294.000000;1.299891
9293.000000;1.297418
9292.000000;1.294660
9291.000000;1.292547
9290.000000;1.291475
9289.000000;1.291164
9288.000000;1.291092
9287.000000;1.290961
9286.000000;1.290908
9285.000000;1.291350
9284.000000;1.292427
9283.000000;1.293571
9282.000000;1.293873
9281.000000;1.293089
9280.000000;1.292017
9279.000000;1.291672
9278.000000;1.292278
9277.000000;1.293226
9276.000000;1.293699
9275.000000;1.293131
9274.000000;1.291447
9273.000000;1.289306
9272.000000;1.287785
9271.000000;1.287357
9270.000000;1.287393
9269.000000;1.287088
9268.000000;1.286603
9267.000000;1.286709
9266.000000;1.287478
9265.000000;1.288075
9264.000000;1.287843
9263.000000;1.286896
9262.000000;1.285531
9261.000000;1.283811
9260.000000;1.282019
9259.000000;1.280851
9258.000000;1.280640
9257.000000;1.280794
9256.000000;1.280544
9255.000000;1.279970
9254.000000;1.279831
9253.000000;1.280560
9252.000000;1.281828
9251.000000;1.282982
9250.000000;1.283507
9249.000000;1.283162
9248.000000;1.282052
9247.000000;1.280681
9246.000000;1.279663
9245.000000;1.279262
9244.000000;1.279269
9243.000000;1.279210
9242.000000;1.278581
9241.000000;1.277192
9240.000000;1.275594
9239.000000;1.274953
9238.000000;1.275972
9237.000000;1.277839
9236.000000;1.278707
9235.000000;1.277469
9234.000000;1.274726
9233.000000;1.271871
9232.000000;1.269669
9231.000000;1.268074
9230.000000;1.267025
9229.000000;1.266815
9228.000000;1.267588
9227.000000;1.268917
9226.000000;1.270110
9225.000000;1.270804
9224.000000;1.271023
9223.000000;1.270818
9222.000000;1.270115
9221.000000;1.268953
9220.000000;1.267696
9219.000000;1.266863
9218.000000;1.266713
9217.000000;1.267071
9216.000000;1.267563
9215.000000;1.267929
9214.000000;1.268013
9213.000000;1.267562
9212.000000;1.266376
9211.000000;1.264811
9210.000000;1.263832
9209.000000;1.264164
9208.000000;1.265353
9207.000000;1.265994
9206.000000;1.265139
9205.000000;1.263312
9204.000000;1.261977
9203.000000;1.262130
9202.000000;1.263471
9201.000000;1.264769
9200.000000;1.264968
9199.000000;1.263997
9198.000000;1.262615
9197.000000;1.261501
9196.000000;1.260679
9195.000000;1.259944
9194.000000;1.259569
9193.000000;1.260069
9192.000000;1.261247
9191.000000;1.262043
9190.000000;1.261655
9189.000000;1.260412
9188.000000;1.259112
9187.000000;1.257997
9186.000000;1.256935
9185.000000;1.256209
9184.000000;1.256266
9183.000000;1.256789
9182.000000;1.256901
9181.000000;1.256472
9180.000000;1.256409
9179.000000;1.257192
9178.000000;1.257857
9177.000000;1.257108
9176.000000;1.255003
9175.000000;1.252767
9174.000000;1.251233
9173.000000;1.250303
9172.000000;1.249836
9171.000000;1.250096
9170.000000;1.250975
9169.000000;1.251552
9168.000000;1.251095
9167.000000;1.250149
9166.000000;1.249984
9165.000000;1.251009
9164.000000;1.252226
9163.000000;1.252391
9162.000000;1.251345
9161.000000;1.249936
9160.000000;1.248905
9159.000000;1.248221
9158.000000;1.247483
9157.000000;1.246663
9156.000000;1.246208
9155.000000;1.246494
9154.000000;1.247375
9153.000000;1.248342
9152.000000;1.248977
9151.000000;1.249124
9150.000000;1.248697
9149.000000;1.247574
9148.000000;1.245819
9147.000000;1.243877
9146.000000;1.242332
9145.000000;1.241449
9144.000000;1.241097
9143.000000;1.241067
9142.000000;1.241252
9141.000000;1.241471
9140.000000;1.241441
9139.000000;1.241168
9138.000000;1.241145
9137.000000;1.241780
9136.000000;1.242706
9135.000000;1.242985
9134.000000;1.242105
9133.000000;1.240499
9132.000000;1.239026
9131.000000;1.238242
9130.000000;1.238218
9129.000000;1.238660
9128.000000;1.238936
9127.000000;1.238308
9126.000000;1.236678
9125.000000;1.234963
9124.000000;1.234300
9123.000000;1.234804
9122.000000;1.235443
9121.000000;1.235254
9120.000000;1.234381
9119.000000;1.233674
9118.000000;1.233541
9117.000000;1.233543
9116.000000;1.233102
9115.000000;1.232277
9114.000000;1.231653
9113.000000;1.231651
9112.000000;1.232117
9111.000000;1.232530
9110.000000;1.232444
9109.000000;1.231752
9108.000000;1.230724
9107.000000;1.229917
9106.000000;1.229844
9105.000000;1.230470
9104.000000;1.231086
9103.000000;1.230941
9102.000000;1.230050
9101.000000;1.229187
9100.000000;1.229012
9099.000000;1.229428
9098.000000;1.229856
9097.000000;1.229929
9096.000000;1.229729
9095.000000;1.229505
9094.000000;1.229385
9093.000000;1.229349
9092.000000;1.229336
9091.000000;1.229302
9090.000000;1.229198
9089.000000;1.228891
9088.000000;1.228235
9087.000000;1.227354
9086.000000;1.226738
9085.000000;1.226741
9084.000000;1.226986
9083.000000;1.226647
9082.000000;1.225505
9081.000000;1.224378
9080.000000;1.224163
9079.000000;1.224716
9078.000000;1.225023
9077.000000;1.224406
9076.000000;1.223200
9075.000000;1.222221
9074.000000;1.221883
9073.000000;1.221963
9072.000000;1.222034
9071.000000;1.221926
9070.000000;1.221734
9069.000000;1.221469
9068.000000;1.220882
9067.000000;1.219790
9066.000000;1.218513
9065.000000;1.217699
9064.000000;1.217654
9063.000000;1.218095
9062.000000;1.218662
9061.000000;1.219334
9060.000000;1.220114
9059.000000;1.220629
9058.000000;1.220458
9057.000000;1.219698
9056.000000;1.218809
9055.000000;1.217988
9054.000000;1.217120
9053.000000;1.216298
9052.000000;1.215942
9051.000000;1.216260
9050.000000;1.216849
9049.000000;1.217052
9048.000000;1.216601
9047.000000;1.215804
9046.000000;1.215165
9045.000000;1.214960
9044.000000;1.215106
9043.000000;1.215344
9042.000000;1.215470
9041.000000;1.215392
9040.000000;1.215100
9039.000000;1.214730
9038.000000;1.214557
9037.000000;1.214667
9036.000000;1.214635
9035.000000;1.213852
9034.000000;1.212335
9033.000000;1.210844
9032.000000;1.209993
9031.000000;1.209554
9030.000000;1.208921
9029.000000;1.207989
9028.000000;1.207221
9027.000000;1.207047
9026.000000;1.207501
9025.000000;1.208308
9024.000000;1.209092
9023.000000;1.209622
9022.000000;1.210075
9021.000000;1.210806
9020.000000;1.211627
9019.000000;1.211634
9018.000000;1.210233
9017.000000;1.208097
9016.000000;1.206601
9015.000000;1.206407
9014.000000;1.207028
9013.000000;1.207644
9012.000000;1.207838
9011.000000;1.207620
9010.000000;1.207204
9009.000000;1.206813
9008.000000;1.206366
9007.000000;1.205456
9006.000000;1.204022
9005.000000;1.202865
9004.000000;1.202869
9003.000000;1.203796
9002.000000;1.204505
9001.000000;1.204450
9000.000000;1.204285
8999.000000;1.204732
8998.000000;1.205534
8997.000000;1.205925
8996.000000;1.205650
8995.000000;1.205037
8994.000000;1.204444
8993.000000;1.204058
8992.000000;1.203935
8991.000000;1.203861
8990.000000;1.203401
8989.000000;1.202440
8988.000000;1.201455
8987.000000;1.200987
8986.000000;1.201080
8985.000000;1.201471
8984.000000;1.202027
8983.000000;1.202648
8982.000000;1.203012
8981.000000;1.202891
8980.000000;1.202597
8979.000000;1.202705
8978.000000;1.203320
8977.000000;1.203920
8976.000000;1.203930
8975.000000;1.203259
8974.000000;1.202287
8973.000000;1.201508
8972.000000;1.201104
8971.000000;1.200776
8970.000000;1.200127
8969.000000;1.199282
8968.000000;1.198835
8967.000000;1.198992
8966.000000;1.199092
8965.000000;1.198421
8964.000000;1.197271
8963.000000;1.196712
8962.000000;1.197320
8961.000000;1.198543
8960.000000;1.199346
8959.000000;1.199189
8958.000000;1.198285
8957.000000;1.197273
8956.000000;1.196823
8955.000000;1.197264
8954.000000;1.198262
8953.000000;1.198940
8952.000000;1.198605
8951.000000;1.197432
8950.000000;1.196340
8949.000000;1.196166
8948.000000;1.196970
8947.000000;1.198046
8946.000000;1.198555
8945.000000;1.198172
8944.000000;1.197253
8943.000000;1.196400
8942.000000;1.195902
8941.000000;1.195556
8940.000000;1.195038
8939.000000;1.194366
8938.000000;1.193941
8937.000000;1.194165
8936.000000;1.195064
8935.000000;1.196252
8934.000000;1.197193
8933.000000;1.197479
8932.000000;1.196950
8931.000000;1.195711
8930.000000;1.194091
8929.000000;1.192515
8928.000000;1.191341
8927.000000;1.190763
8926.000000;1.190734
8925.000000;1.190896
8924.000000;1.190709
8923.000000;1.189948
8922.000000;1.189111
8921.000000;1.189045
8920.000000;1.190000
8919.000000;1.191274
8918.000000;1.191942
8917.000000;1.191785
8916.000000;1.191258
8915.000000;1.190762
8914.000000;1.190325
8913.000000;1.189947
8912.000000;1.189834
8911.000000;1.190130
8910.000000;1.190625
8909.000000;1.190926
8908.000000;1.190835
8907.000000;1.190470
8906.000000;1.190073
8905.000000;1.189743
8904.000000;1.189376
8903.000000;1.188902
8902.000000;1.188573
8901.000000;1.188771
8900.000000;1.189388
8899.000000;1.189616
8898.000000;1.188718
8897.000000;1.186879
8896.000000;1.185040
8895.000000;1.183971
8894.000000;1.183812
8893.000000;1.184401
8892.000000;1.185566
8891.000000;1.186950
8890.000000;1.187997
8889.000000;1.188379
8888.000000;1.188241
8887.000000;1.187841
8886.000000;1.187202
8885.000000;1.186327
8884.000000;1.185535
8883.000000;1.185222
8882.000000;1.185386
8881.000000;1.185668
8880.000000;1.185830
8879.000000;1.185935
8878.000000;1.186092
8877.000000;1.186237
8876.000000;1.186241
8875.000000;1.186031
8874.000000;1.185547
8873.000000;1.184722
8872.000000;1.183631
8871.000000;1.182618
8870.000000;1.182200
8869.000000;1.182743
8868.000000;1.184147
8867.000000;1.185765
8866.000000;1.186711
8865.000000;1.186446
8864.000000;1.185200
8863.000000;1.183802
8862.000000;1.182997
8861.000000;1.182891
8860.000000;1.183041
8859.000000;1.183034
8858.000000;1.182912
8857.000000;1.183001
8856.000000;1.183454
8855.000000;1.184101
8854.000000;1.184663
8853.000000;1.184923
8852.000000;1.184740
8851.000000;1.184147
8850.000000;1.183525
8849.000000;1.183420
8848.000000;1.184049
8847.000000;1.185108
8846.000000;1.186175
8845.000000;1.187089
8844.000000;1.187759
8843.000000;1.187842
8842.000000;1.186978
8841.000000;1.185342
8840.000000;1.183673
8839.000000;1.182718
8838.000000;1.182727
8837.000000;1.183389
8836.000000;1.184035
8835.000000;1.184021
8834.000000;1.183173
8833.000000;1.181929
8832.000000;1.180942
8831.000000;1.180559
8830.000000;1.180773
8829.000000;1.181500
8828.000000;1.182566
8827.000000;1.183509
8826.000000;1.183781
8825.000000;1.183272
8824.000000;1.182436
8823.000000;1.181848
8822.000000;1.181794
8821.000000;1.182230
8820.000000;1.182852
8819.000000;1.183150
8818.000000;1.182738
8817.000000;1.181789
8816.000000;1.180930
8815.000000;1.180583
8814.000000;1.180558
8813.000000;1.180431
8812.000000;1.180101
8811.000000;1.179848
8810.000000;1.179963
8809.000000;1.180466
8808.000000;1.181062
8807.000000;1.181318
8806.000000;1.181067
8805.000000;1.180714
8804.000000;1.180909
8803.000000;1.181818
8802.000000;1.182921
8801.000000;1.183673
8800.000000;1.184124
8799.000000;1.184625
8798.000000;1.185173
8797.000000;1.185468
8796.000000;1.185552
8795.000000;1.185901
8794.000000;1.186720
8793.000000;1.187424
8792.000000;1.187162
8791.000000;1.185809
8790.000000;1.184207
8789.000000;1.183380
8788.000000;1.183609
8787.000000;1.184297
8786.000000;1.184633
8785.000000;1.184308
8784.000000;1.183628
8783.000000;1.183070
8782.000000;1.182849
8781.000000;1.182830
8780.000000;1.182737
8779.000000;1.182426
8778.000000;1.182020
8777.000000;1.181858
8776.000000;1.182231
8775.000000;1.183093
8774.000000;1.183996
8773.000000;1.184393
8772.000000;1.184111
8771.000000;1.183560
8770.000000;1.183409
8769.000000;1.183968
8768.000000;1.184894
8767.000000;1.185569
8766.000000;1.185685
8765.000000;1.185442
8764.000000;1.185258
8763.000000;1.185438
8762.000000;1.186077
8761.000000;1.187029
8760.000000;1.187892
8759.000000;1.188254
8758.000000;1.188105
8757.000000;1.187868
8756.000000;1.187962
8755.000000;1.188478
8754.000000;1.189281
8753.000000;1.190167
8752.000000;1.190799
8751.000000;1.190789
8750.000000;1.190134
8749.000000;1.189431
8748.000000;1.189330
8747.000000;1.189787
8746.000000;1.190068
8745.000000;1.189536
8744.000000;1.188309
8743.000000;1.187165
8742.000000;1.186935
8741.000000;1.187882
8740.000000;1.189442
8739.000000;1.190562
8738.000000;1.190535
8737.000000;1.189598
8736.000000;1.188673
8735.000000;1.188529
8734.000000;1.189209
8733.000000;1.190122
8732.000000;1.190552
8731.000000;1.190244
8730.000000;1.189659
8729.000000;1.189526
8728.000000;1.190031
8727.000000;1.190595
8726.000000;1.190608
8725.000000;1.190160
8724.000000;1.189769
8723.000000;1.189627
8722.000000;1.189521
8721.000000;1.189418
8720.000000;1.189612
8719.000000;1.190180
8718.000000;1.190706
8717.000000;1.190743
8716.000000;1.190316
8715.000000;1.189794
8714.000000;1.189481
8713.000000;1.189530
8712.000000;1.190071
8711.000000;1.191142
8710.000000;1.192444
8709.000000;1.193333
8708.000000;1.193248
8707.000000;1.192228
8706.000000;1.190987
8705.000000;1.190357
8704.000000;1.190619
8703.000000;1.191433
8702.000000;1.192344
8701.000000;1.193120
8700.000000;1.193575
8699.000000;1.193444
8698.000000;1.192735
8697.000000;1.191965
8696.000000;1.191717
8695.000000;1.192073
8694.000000;1.192757
8693.000000;1.193633
8692.000000;1.194679
8691.000000;1.195603
8690.000000;1.195954
8689.000000;1.195663
8688.000000;1.195096
8687.000000;1.194569
8686.000000;1.194111
8685.000000;1.193713
8684.000000;1.193478
8683.000000;1.193442
8682.000000;1.193553
8681.000000;1.193877
8680.000000;1.194516
8679.000000;1.195257
8678.000000;1.195634
8677.000000;1.195472
8676.000000;1.195070
8675.000000;1.194756
8674.000000;1.194536
8673.000000;1.194314
8672.000000;1.194130
8671.000000;1.194041
8670.000000;1.194008
8669.000000;1.194077
8668.000000;1.194437
8667.000000;1.195141
8666.000000;1.195934
8665.000000;1.196488
8664.000000;1.196670
8663.000000;1.196518
8662.000000;1.196162
8661.000000;1.195834
8660.000000;1.195714
8659.000000;1.195683
8658.000000;1.195429
8657.000000;1.194917
8656.000000;1.194522
8655.000000;1.194588
8654.000000;1.195071
8653.000000;1.195640
8652.000000;1.195853
8651.000000;1.195249
8650.000000;1.193738
8649.000000;1.192061
8648.000000;1.191396
8647.000000;1.192146
8646.000000;1.193387
8645.000000;1.193883
8644.000000;1.193416
8643.000000;1.192745
8642.000000;1.192493
8641.000000;1.192621
8640.000000;1.192882
8639.000000;1.193242
8638.000000;1.193701
8637.000000;1.194079
8636.000000;1.194192
8635.000000;1.194039
8634.000000;1.193685
8633.000000;1.193128
8632.000000;1.192399
8631.000000;1.191645
8630.000000;1.191032
8629.000000;1.190683
8628.000000;1.190766
8627.000000;1.191444
8626.000000;1.192571
8625.000000;1.193539
8624.000000;1.193645
8623.000000;1.192698
8622.000000;1.191195
8621.000000;1.189904
8620.000000;1.189339
8619.000000;1.189589
8618.000000;1.190464
8617.000000;1.191609
8616.000000;1.192519
8615.000000;1.192714
8614.000000;1.192128
8613.000000;1.191249
8612.000000;1.190706
8611.000000;1.190690
8610.000000;1.190903
8609.000000;1.191080
8608.000000;1.191336
8607.000000;1.191910
8606.000000;1.192702
8605.000000;1.193254
8604.000000;1.193194
8603.000000;1.192564
8602.000000;1.191681
8601.000000;1.190815
8600.000000;1.190100
8599.000000;1.189635
8598.000000;1.189513
8597.000000;1.189703
8596.000000;1.190008
8595.000000;1.190282
8594.000000;1.190591
8593.000000;1.191011
8592.000000;1.191348
8591.000000;1.191248
8590.000000;1.190611
8589.000000;1.189730
8588.000000;1.188996
8587.000000;1.188656
8586.000000;1.188837
8585.000000;1.189538
8584.000000;1.190440
8583.000000;1.190998
8582.000000;1.190971
8581.000000;1.190680
8580.000000;1.190535
8579.000000;1.190519
8578.000000;1.190380
8577.000000;1.190099
8576.000000;1.189880
8575.000000;1.189795
8574.000000;1.189759
8573.000000;1.189715
8572.000000;1.189552
8571.000000;1.189032
8570.000000;1.188160
8569.000000;1.187479
8568.000000;1.187539
8567.000000;1.188148
8566.000000;1.188591
8565.000000;1.188507
8564.000000;1.188097
8563.000000;1.187483
8562.000000;1.186528
8561.000000;1.185442
8560.000000;1.184909
8559.000000;1.185248
8558.000000;1.185886
8557.000000;1.186057
8556.000000;1.185719
8555.000000;1.185397
8554.000000;1.185354
8553.000000;1.185332
8552.000000;1.184987
8551.000000;1.184279
8550.000000;1.183527
8549.000000;1.183271
8548.000000;1.183904
8547.000000;1.185212
8546.000000;1.186419
8545.000000;1.186913
8544.000000;1.186789
8543.000000;1.186485
8542.000000;1.186132
8541.000000;1.185559
8540.000000;1.184744
8539.000000;1.183932
8538.000000;1.183391
8537.000000;1.183303
8536.000000;1.183726
8535.000000;1.184376
8534.000000;1.184641
8533.000000;1.184197
8532.000000;1.183535
8531.000000;1.183439
8530.000000;1.183968
8529.000000;1.184356
8528.000000;1.183990
8527.000000;1.183085
8526.000000;1.182216
8525.000000;1.181581
8524.000000;1.181031
8523.000000;1.180554
8522.000000;1.180388
8521.000000;1.180693
8520.000000;1.181358
8519.000000;1.182104
8518.000000;1.182621
8517.000000;1.182649
8516.000000;1.182177
8515.000000;1.181590
8514.000000;1.181416
8513.000000;1.181780
8512.000000;1.182241
8511.000000;1.182286
8510.000000;1.181893
8509.000000;1.181418
8508.000000;1.181047
8507.000000;1.180686
8506.000000;1.180415
8505.000000;1.180628
8504.000000;1.181420
8503.000000;1.182132
8502.000000;1.181963
8501.000000;1.180991
8500.000000;1.180140
8499.000000;1.180066
8498.000000;1.180451
8497.000000;1.180523
8496.000000;1.179930
8495.000000;1.178915
8494.000000;1.177967
8493.000000;1.177587
8492.000000;1.178069
8491.000000;1.179112
8490.000000;1.179834
8489.000000;1.179584
8488.000000;1.178736
8487.000000;1.178288
8486.000000;1.178695
8485.000000;1.179400
8484.000000;1.179553
8483.000000;1.178895
8482.000000;1.177808
8481.000000;1.176824
8480.000000;1.176285
8479.000000;1.176300
8478.000000;1.176759
8477.000000;1.177419
8476.000000;1.178131
8475.000000;1.178969
8474.000000;1.179994
8473.000000;1.180957
8472.000000;1.181405
8471.000000;1.181164
8470.000000;1.180557
8469.000000;1.180032
8468.000000;1.179664
8467.000000;1.179169
8466.000000;1.178405
8465.000000;1.177668
8464.000000;1.177347
8463.000000;1.177435
8462.000000;1.177575
8461.000000;1.177623
8460.000000;1.177903
8459.000000;1.178804
8458.000000;1.180235
8457.000000;1.181586
8456.000000;1.182181
8455.000000;1.181702
8454.000000;1.180320
8453.000000;1.178588
8452.000000;1.177155
8451.000000;1.176415
8450.000000;1.176330
8449.000000;1.176572
8448.000000;1.176808
8447.000000;1.176855
8446.000000;1.176688
8445.000000;1.176406
8444.000000;1.176093
8443.000000;1.175670
8442.000000;1.175016
8441.000000;1.174306
8440.000000;1.174023
8439.000000;1.174447
8438.000000;1.175277
8437.000000;1.175995
8436.000000;1.176506
8435.000000;1.177090
8434.000000;1.177774
8433.000000;1.178117
8432.000000;1.177741
8431.000000;1.176775
8430.000000;1.175619
8429.000000;1.174543
8428.000000;1.173701
8427.000000;1.173266
8426.000000;1.173249
8425.000000;1.173319
8424.000000;1.173144
8423.000000;1.172856
8422.000000;1.172871
8421.000000;1.173250
8420.000000;1.173537
8419.000000;1.173331
8418.000000;1.172769
8417.000000;1.172335
8416.000000;1.172363
8415.000000;1.172842
8414.000000;1.173534
8413.000000;1.174115
8412.000000;1.174319
8411.000000;1.174133
8410.000000;1.173854
8409.000000;1.173817
8408.000000;1.174069
8407.000000;1.174368
8406.000000;1.174467
8405.000000;1.174320
8404.000000;1.174101
8403.000000;1.174104
8402.000000;1.174544
8401.000000;1.175295
8400.000000;1.175869
8399.000000;1.175837
8398.000000;1.175255
8397.000000;1.174559
8396.000000;1.174071
8395.000000;1.173782
8394.000000;1.173610
8393.000000;1.173577
8392.000000;1.173605
8391.000000;1.173386
8390.000000;1.172723
8389.000000;1.171875
8388.000000;1.171315
8387.000000;1.171195
8386.000000;1.171264
8385.000000;1.171307
8384.000000;1.171418
8383.000000;1.171789
8382.000000;1.172404
8381.000000;1.173082
8380.000000;1.173669
8379.000000;1.174057
8378.000000;1.174107
8377.000000;1.173726
8376.000000;1.173037
8375.000000;1.172323
8374.000000;1.171762
8373.000000;1.171303
8372.000000;1.170818
8371.000000;1.170328
8370.000000;1.169999
8369.000000;1.169934
8368.000000;1.170033
8367.000000;1.170050
8366.000000;1.169800
8365.000000;1.169320
8364.000000;1.168856
8363.000000;1.168678
8362.000000;1.168840
8361.000000;1.169132
8360.000000;1.169316
8359.000000;1.169402
8358.000000;1.169613
8357.000000;1.170035
8356.000000;1.170397
8355.000000;1.170322
8354.000000;1.169778
8353.000000;1.169183
8352.000000;1.169021
8351.000000;1.169410
8350.000000;1.170070
8349.000000;1.170627
8348.000000;1.170884
8347.000000;1.170861
8346.000000;1.170665
8345.000000;1.170378
8344.000000;1.170017
8343.000000;1.169565
8342.000000;1.169045
8341.000000;1.168590
8340.000000;1.168417
8339.000000;1.168651
8338.000000;1.169145
8337.000000;1.169535
8336.000000;1.169563
8335.000000;1.169311
8334.000000;1.169040
8333.000000;1.168847
8332.000000;1.168626
8331.000000;1.168337
8330.000000;1.168121
8329.000000;1.168041
8328.000000;1.167871
8327.000000;1.167324
8326.000000;1.166450
8325.000000;1.165661
8324.000000;1.165389
8323.000000;1.165776
8322.000000;1.166610
8321.000000;1.167446
8320.000000;1.167866
8319.000000;1.167781
8318.000000;1.167477
8317.000000;1.167284
8316.000000;1.167253
8315.000000;1.167264
8314.000000;1.167336
8313.000000;1.167628
8312.000000;1.168137
8311.000000;1.168580
8310.000000;1.168598
8309.000000;1.167991
8308.000000;1.166803
8307.000000;1.165368
8306.000000;1.164204
8305.000000;1.163688
8304.000000;1.163795
8303.000000;1.164246
8302.000000;1.164815
8301.000000;1.165308
8300.000000;1.165421
8299.000000;1.164949
8298.000000;1.164122
8297.000000;1.163448
8296.000000;1.163174
8295.000000;1.163205
8294.000000;1.163496
8293.000000;1.164157
8292.000000;1.165075
8291.000000;1.165838
8290.000000;1.166202
8289.000000;1.166282
8288.000000;1.166152
8287.000000;1.165656
8286.000000;1.164871
8285.000000;1.164344
8284.000000;1.164481
8283.000000;1.164947
8282.000000;1.165066
8281.000000;1.164643
8280.000000;1.164008
8279.000000;1.163412
8278.000000;1.162803
8277.000000;1.162132
8276.000000;1.161489
8275.000000;1.160938
8274.000000;1.160500
8273.000000;1.160299
8272.000000;1.160437
8271.000000;1.160732
8270.000000;1.160890
8269.000000;1.160940
8268.000000;1.161212
8267.000000;1.161801
8266.000000;1.162337
8265.000000;1.162393
8264.000000;1.161947
8263.000000;1.161343
8262.000000;1.160942
8261.000000;1.160890
8260.000000;1.161102
8259.000000;1.161376
8258.000000;1.161570
8257.000000;1.161671
8256.000000;1.161688
8255.000000;1.161607
8254.000000;1.161537
8253.000000;1.161698
8252.000000;1.162071
8251.000000;1.162235
8250.000000;1.161862
8249.000000;1.161242
8248.000000;1.160964
8247.000000;1.161122
8246.000000;1.161205
8245.000000;1.160810
8244.000000;1.160113
8243.000000;1.159538
8242.000000;1.159300
8241.000000;1.159440
8240.000000;1.159962
8239.000000;1.160703
8238.000000;1.161255
8237.000000;1.161294
8236.000000;1.160917
8235.000000;1.160500
8234.000000;1.160305
8233.000000;1.160314
8232.000000;1.160323
8231.000000;1.160083
8230.000000;1.159497
8229.000000;1.158791
8228.000000;1.158382
8227.000000;1.158464
8226.000000;1.158809
8225.000000;1.159050
8224.000000;1.159039
8223.000000;1.158849
8222.000000;1.158591
8221.000000;1.158359
8220.000000;1.158240
8219.000000;1.158230
8218.000000;1.158236
8217.000000;1.158257
8216.000000;1.158441
8215.000000;1.158809
8214.000000;1.159052
8213.000000;1.158792
8212.000000;1.158007
8211.000000;1.157050
8210.000000;1.156264
8209.000000;1.155759
8208.000000;1.155554
8207.000000;1.155725
8206.000000;1.156313
8205.000000;1.157182
8204.000000;1.158086
8203.000000;1.158857
8202.000000;1.159494
8201.000000;1.160074
8200.000000;1.160569
8199.000000;1.160772
8198.000000;1.160438
8197.000000;1.159555
8196.000000;1.158460
8195.000000;1.157624
8194.000000;1.157272
8193.000000;1.157209
8192.000000;1.157040
8191.000000;1.156588
8190.000000;1.156077
8189.000000;1.155871
8188.000000;1.156047
8187.000000;1.156282
8186.000000;1.156200
8185.000000;1.155762
8184.000000;1.155249
8183.000000;1.154945
8182.000000;1.154934
8181.000000;1.155129
8180.000000;1.155362
8179.000000;1.155462
8178.000000;1.155396
8177.000000;1.155323
8176.000000;1.155375
8175.000000;1.155415
8174.000000;1.155186
8173.000000;1.154736
8172.000000;1.154476
8171.000000;1.154702
8170.000000;1.155229
8169.000000;1.155631
8168.000000;1.155685
8167.000000;1.155452
8166.000000;1.155068
8165.000000;1.154678
8164.000000;1.154475
8163.000000;1.154568
8162.000000;1.154793
8161.000000;1.154885
8160.000000;1.154839
8159.000000;1.154943
8158.000000;1.155387
8157.000000;1.155996
8156.000000;1.156406
8155.000000;1.156382
8154.000000;1.155904
8153.000000;1.155123
8152.000000;1.154326
8151.000000;1.153836
8150.000000;1.153734
8149.000000;1.153775
8148.000000;1.153701
8147.000000;1.153560
8146.000000;1.153545
8145.000000;1.153579
8144.000000;1.153348
8143.000000;1.152796
8142.000000;1.152348
8141.000000;1.152427
8140.000000;1.152876
8139.000000;1.153079
8138.000000;1.152665
8137.000000;1.151915
8136.000000;1.151446
8135.000000;1.151601
8134.000000;1.152218
8133.000000;1.152847
8132.000000;1.153112
8131.000000;1.152920
8130.000000;1.152459
8129.000000;1.152005
8128.000000;1.151686
8127.000000;1.151365
8126.000000;1.150800
8125.000000;1.149954
8124.000000;1.149125
8123.000000;1.148742
8122.000000;1.148998
8121.000000;1.149695
8120.000000;1.150451
8119.000000;1.151044
8118.000000;1.151477
8117.000000;1.151781
8116.000000;1.151918
8115.000000;1.151907
8114.000000;1.151875
8113.000000;1.151863
8112.000000;1.151721
8111.000000;1.151360
8110.000000;1.150984
8109.000000;1.150870
8108.000000;1.150956
8107.000000;1.150887
8106.000000;1.150519
8105.000000;1.150134
8104.000000;1.150082
8103.000000;1.150383
8102.000000;1.150795
8101.000000;1.151125
8100.000000;1.151325
8099.000000;1.151388
8098.000000;1.151319
8097.000000;1.151155
8096.000000;1.150915
8095.000000;1.150563
8094.000000;1.150094
8093.000000;1.149577
8092.000000;1.149064
8091.000000;1.148533
8090.000000;1.148006
8089.000000;1.147630
8088.000000;1.147562
8087.000000;1.147805
8086.000000;1.148259
8085.000000;1.148840
8084.000000;1.149470
8083.000000;1.150010
8082.000000;1.150294
8081.000000;1.150216
8080.000000;1.149778
8079.000000;1.149158
8078.000000;1.148732
8077.000000;1.148837
8076.000000;1.149370
8075.000000;1.149788
8074.000000;1.149677
8073.000000;1.149212
8072.000000;1.148851
8071.000000;1.148747
8070.000000;1.148705
8069.000000;1.148622
8068.000000;1.148646
8067.000000;1.148853
8066.000000;1.149044
8065.000000;1.148982
8064.000000;1.148675
8063.000000;1.148285
8062.000000;1.147900
8061.000000;1.147526
8060.000000;1.147196
8059.000000;1.146978
8058.000000;1.146909
8057.000000;1.146988
8056.000000;1.147186
8055.000000;1.147441
8054.000000;1.147679
8053.000000;1.147837
8052.000000;1.147797
8051.000000;1.147345
8050.000000;1.146390
8049.000000;1.145264
8048.000000;1.144634
8047.000000;1.144916
8046.000000;1.145815
8045.000000;1.146592
8044.000000;1.146780
8043.000000;1.146551
8042.000000;1.146387
8041.000000;1.146508
8040.000000;1.146707
8039.000000;1.146670
8038.000000;1.146351
8037.000000;1.145986
8036.000000;1.145807
8035.000000;1.145808
8034.000000;1.145806
8033.000000;1.145665
8032.000000;1.145417
8031.000000;1.145222
8030.000000;1.145272
8029.000000;1.145695
8028.000000;1.146441
8027.000000;1.147201
8026.000000;1.147503
8025.000000;1.147019
8024.000000;1.145825
8023.000000;1.144425
8022.000000;1.143478
8021.000000;1.143403
8020.000000;1.144093
8019.000000;1.144971
8018.000000;1.145410
8017.000000;1.145204
8016.000000;1.144688
8015.000000;1.144367
8014.000000;1.144446
8013.000000;1.144725
8012.000000;1.144941
8011.000000;1.145068
8010.000000;1.145198
8009.000000;1.145222
8008.000000;1.144912
8007.000000;1.144373
8006.000000;1.144185
8005.000000;1.144799
8004.000000;1.145881
8003.000000;1.146511
8002.000000;1.146123
8001.000000;1.145051
8000.000000;1.144083
7999.000000;1.143685
7998.000000;1.143768
7997.000000;1.143983
7996.000000;1.144039
7995.000000;1.143838
7994.000000;1.143499
7993.000000;1.143281
7992.000000;1.143354
7991.000000;1.143658
7990.000000;1.144018
7989.000000;1.144333
7988.000000;1.144586
7987.000000;1.144762
7986.000000;1.144836
7985.000000;1.144803
7984.000000;1.144649
7983.000000;1.144366
7982.000000;1.144053
7981.000000;1.143864
7980.000000;1.143788
7979.000000;1.143616
7978.000000;1.143242
7977.000000;1.142872
7976.000000;1.142747
7975.000000;1.142795
7974.000000;1.142774
7973.000000;1.142678
7972.000000;1.142756
7971.000000;1.143123
7970.000000;1.143560
7969.000000;1.143764
7968.000000;1.143634
7967.000000;1.143304
7966.000000;1.143017
7965.000000;1.143009
7964.000000;1.143356
7963.000000;1.143874
7962.000000;1.144232
7961.000000;1.144216
7960.000000;1.143833
7959.000000;1.143226
7958.000000;1.142571
7957.000000;1.142019
7956.000000;1.141609
7955.000000;1.141294
7954.000000;1.141110
7953.000000;1.141239
7952.000000;1.141710
7951.000000;1.142158
7950.000000;1.142165
7949.000000;1.141809
7948.000000;1.141608
7947.000000;1.141866
7946.000000;1.142377
7945.000000;1.142832
7944.000000;1.143236
7943.000000;1.143712
7942.000000;1.144155
7941.000000;1.144327
7940.000000;1.144179
7939.000000;1.143836
7938.000000;1.143377
7937.000000;1.142846
7936.000000;1.142403
7935.000000;1.142229
7934.000000;1.142304
7933.000000;1.142442
7932.000000;1.142551
7931.000000;1.142668
7930.000000;1.142765
7929.000000;1.142731
7928.000000;1.142574
7927.000000;1.142441
7926.000000;1.142350
7925.000000;1.142096
7924.000000;1.141588
7923.000000;1.141125
7922.000000;1.141129
7921.000000;1.141628
7920.000000;1.142199
7919.000000;1.142459
7918.000000;1.142455
7917.000000;1.142491
7916.000000;1.142685
7915.000000;1.142865
7914.000000;1.142855
7913.000000;1.142698
7912.000000;1.142517
7911.000000;1.142299
7910.000000;1.141945
7909.000000;1.141511
7908.000000;1.141249
7907.000000;1.141377
7906.000000;1.141881
7905.000000;1.142566
7904.000000;1.143212
7903.000000;1.143623
7902.000000;1.143606
7901.000000;1.143087
7900.000000;1.142257
7899.000000;1.141486
7898.000000;1.141022
7897.000000;1.140849
7896.000000;1.140878
7895.000000;1.141150
7894.000000;1.141700
7893.000000;1.142284
7892.000000;1.142466
7891.000000;1.142084
7890.000000;1.141480
7889.000000;1.141131
7888.000000;1.141154
7887.000000;1.141313
7886.000000;1.141423
7885.000000;1.141523
7884.000000;1.141631
7883.000000;1.141571
7882.000000;1.141217
7881.000000;1.140768
7880.000000;1.140592
7879.000000;1.140824
7878.000000;1.141267
7877.000000;1.141679
7876.000000;1.142000
7875.000000;1.142264
7874.000000;1.142447
7873.000000;1.142531
7872.000000;1.142609
7871.000000;1.142756
7870.000000;1.142815
7869.000000;1.142485
7868.000000;1.141721
7867.000000;1.140917
7866.000000;1.140530
7865.000000;1.140582
7864.000000;1.140681
7863.000000;1.140552
7862.000000;1.140365
7861.000000;1.140458
7860.000000;1.140896
7859.000000;1.141445
7858.000000;1.141895
7857.000000;1.142208
7856.000000;1.142379
7855.000000;1.142362
7854.000000;1.142226
7853.000000;1.142221
7852.000000;1.142553
7851.000000;1.143083
7850.000000;1.143365
7849.000000;1.143028
7848.000000;1.142160
7847.000000;1.141288
7846.000000;1.140938
7845.000000;1.141183
7844.000000;1.141641
7843.000000;1.141906
7842.000000;1.141894
7841.000000;1.141733
7840.000000;1.141517
7839.000000;1.141308
7838.000000;1.141252
7837.000000;1.141420
7836.000000;1.141624
7835.000000;1.141640
7834.000000;1.141596
7833.000000;1.141832
7832.000000;1.142340
7831.000000;1.142646
7830.000000;1.142395
7829.000000;1.141820
7828.000000;1.141444
7827.000000;1.141503
7826.000000;1.141858
7825.000000;1.142309
7824.000000;1.142761
7823.000000;1.143137
7822.000000;1.143352
7821.000000;1.143393
7820.000000;1.143312
7819.000000;1.143162
7818.000000;1.142997
7817.000000;1.142879
7816.000000;1.142798
7815.000000;1.142651
7814.000000;1.142373
7813.000000;1.142025
7812.000000;1.141716
7811.000000;1.141532
7810.000000;1.141599
7809.000000;1.142023
7808.000000;1.142650
7807.000000;1.143051
7806.000000;1.142929
7805.000000;1.142444
7804.000000;1.142000
7803.000000;1.141803
7802.000000;1.141807
7801.000000;1.141952
7800.000000;1.142227
7799.000000;1.142543
7798.000000;1.142731
7797.000000;1.142708
7796.000000;1.142534
7795.000000;1.142331
7794.000000;1.142234
7793.000000;1.142325
7792.000000;1.142508
7791.000000;1.142557
7790.000000;1.142431
7789.000000;1.142404
7788.000000;1.142706
7787.000000;1.143164
7786.000000;1.143467
7785.000000;1.143628
7784.000000;1.143871
7783.000000;1.144136
7782.000000;1.144068
7781.000000;1.143582
7780.000000;1.143067
7779.000000;1.142907
7778.000000;1.143055
7777.000000;1.143232
7776.000000;1.143324
7775.000000;1.143397
7774.000000;1.143493
7773.000000;1.143605
7772.000000;1.143757
7771.000000;1.143932
7770.000000;1.144001
7769.000000;1.143833
7768.000000;1.143477
7767.000000;1.143150
7766.000000;1.143100
7765.000000;1.143459
7764.000000;1.144100
7763.000000;1.144624
7762.000000;1.144683
7761.000000;1.144405
7760.000000;1.144320
7759.000000;1.144727
7758.000000;1.145296
7757.000000;1.145478
7756.000000;1.145202
7755.000000;1.144923
7754.000000;1.145028
7753.000000;1.145430
7752.000000;1.145786
7751.000000;1.145920
7750.000000;1.145904
7749.000000;1.145846
7748.000000;1.145743
7747.000000;1.145541
7746.000000;1.145272
7745.000000;1.145075
7744.000000;1.145099
7743.000000;1.145377
7742.000000;1.145806
7741.000000;1.146208
7740.000000;1.146442
7739.000000;1.146474
7738.000000;1.146386
7737.000000;1.146302
7736.000000;1.146279
7735.000000;1.146293
7734.000000;1.146332
7733.000000;1.146452
7732.000000;1.146710
7731.000000;1.147073
7730.000000;1.147436
7729.000000;1.147697
7728.000000;1.147750
7727.000000;1.147507
7726.000000;1.146999
7725.000000;1.146442
7724.000000;1.146074
7723.000000;1.145945
7722.000000;1.145968
7721.000000;1.146142
7720.000000;1.146561
7719.000000;1.147178
7718.000000;1.147727
7717.000000;1.147979
7716.000000;1.147978
7715.000000;1.147937
7714.000000;1.147982
7713.000000;1.148080
7712.000000;1.148149
7711.000000;1.148120
7710.000000;1.147977
7709.000000;1.147827
7708.000000;1.147901
7707.000000;1.148334
7706.000000;1.148940
7705.000000;1.149311
7704.000000;1.149220
7703.000000;1.148879
7702.000000;1.148717
7701.000000;1.148938
7700.000000;1.149336
7699.000000;1.149563
7698.000000;1.149508
7697.000000;1.149389
7696.000000;1.149468
7695.000000;1.149769
7694.000000;1.150085
7693.000000;1.150225
7692.000000;1.150176
7691.000000;1.150037
7690.000000;1.149870
7689.000000;1.149655
7688.000000;1.149383
7687.000000;1.149149
7686.000000;1.149137
7685.000000;1.149478
7684.000000;1.150091
7683.000000;1.150680
7682.000000;1.150957
7681.000000;1.150884
7680.000000;1.150674
7679.000000;1.150567
7678.000000;1.150618
7677.000000;1.150705
7676.000000;1.150714
7675.000000;1.150694
7674.000000;1.150829
7673.000000;1.151260
7672.000000;1.151920
7671.000000;1.152572
7670.000000;1.152988
7669.000000;1.153083
7668.000000;1.152897
7667.000000;1.152533
7666.000000;1.152145
7665.000000;1.151903
7664.000000;1.151900
7663.000000;1.152103
7662.000000;1.152417
7661.000000;1.152760
7660.000000;1.153066
7659.000000;1.153292
7658.000000;1.153464
7657.000000;1.153667
7656.000000;1.153910
7655.000000;1.154082
7654.000000;1.154108
7653.000000;1.154097
7652.000000;1.154217
7651.000000;1.154466
7650.000000;1.154668
7649.000000;1.154689
7648.000000;1.154564
7647.000000;1.154454
7646.000000;1.154543
7645.000000;1.154955
7644.000000;1.155647
7643.000000;1.156383
7642.000000;1.156899
7641.000000;1.157118
7640.000000;1.157148
7639.000000;1.157104
7638.000000;1.157032
7637.000000;1.156996
7636.000000;1.157103
7635.000000;1.157410
7634.000000;1.157857
7633.000000;1.158315
7632.000000;1.158622
7631.000000;1.158639
7630.000000;1.158384
7629.000000;1.158119
7628.000000;1.158153
7627.000000;1.158533
7626.000000;1.159010
7625.000000;1.159331
7624.000000;1.159438
7623.000000;1.159366
7622.000000;1.159147
7621.000000;1.158908
7620.000000;1.158882
7619.000000;1.159179
7618.000000;1.159601
7617.000000;1.159861
7616.000000;1.159931
7615.000000;1.160056
7614.000000;1.160424
7613.000000;1.160943
7612.000000;1.161352
7611.000000;1.161464
7610.000000;1.161291
7609.000000;1.161019
7608.000000;1.160899
7607.000000;1.161097
7606.000000;1.161589
7605.000000;1.162185
7604.000000;1.162676
7603.000000;1.162984
7602.000000;1.163191
7601.000000;1.163449
7600.000000;1.163827
7599.000000;1.164246
7598.000000;1.164567
7597.000000;1.164749
7596.000000;1.164873
7595.000000;1.165011
7594.000000;1.165134
7593.000000;1.165199
7592.000000;1.165273
7591.000000;1.165485
7590.000000;1.165848
7589.000000;1.166197
7588.000000;1.166349
7587.000000;1.166311
7586.000000;1.166275
7585.000000;1.166410
7584.000000;1.166681
7583.000000;1.166911
7582.000000;1.167012
7581.000000;1.167085
7580.000000;1.167280
7579.000000;1.167634
7578.000000;1.168094
7577.000000;1.168642
7576.000000;1.169267
7575.000000;1.169845
7574.000000;1.170176
7573.000000;1.170215
7572.000000;1.170162
7571.000000;1.170257
7570.000000;1.170525
7569.000000;1.170790
7568.000000;1.170903
7567.000000;1.170886
7566.000000;1.170893
7565.000000;1.171089
7564.000000;1.171544
7563.000000;1.172174
7562.000000;1.172764
7561.000000;1.173122
7560.000000;1.173236
7559.000000;1.173252
7558.000000;1.173321
7557.000000;1.173514
7556.000000;1.173874
7555.000000;1.174457
7554.000000;1.175246
7553.000000;1.176059
7552.000000;1.176629
7551.000000;1.176812
7550.000000;1.176692
7549.000000;1.176502
7548.000000;1.176464
7547.000000;1.176686
7546.000000;1.177154
7545.000000;1.177751
7544.000000;1.178317
7543.000000;1.178733
7542.000000;1.178977
7541.000000;1.179121
7540.000000;1.179280
7539.000000;1.179548
7538.000000;1.179925
7537.000000;1.180293
7536.000000;1.180537
7535.000000;1.180704
7534.000000;1.180967
7533.000000;1.181391
7532.000000;1.181797
7531.000000;1.181963
7530.000000;1.181919
7529.000000;1.181911
7528.000000;1.182108
7527.000000;1.182464
7526.000000;1.182874
7525.000000;1.183336
7524.000000;1.183872
7523.000000;1.184390
7522.000000;1.184741
7521.000000;1.184913
7520.000000;1.185074
7519.000000;1.185423
7518.000000;1.186011
7517.000000;1.186696
7516.000000;1.187244
7515.000000;1.187503
7514.000000;1.187502
7513.000000;1.187395
7512.000000;1.187342
7511.000000;1.187475
7510.000000;1.187914
7509.000000;1.188666
7508.000000;1.189496
7507.000000;1.190051
7506.000000;1.190216
7505.000000;1.190271
7504.000000;1.190605
7503.000000;1.191303
7502.000000;1.192095
7501.000000;1.192680
7500.000000;1.193038
7499.000000;1.193379
7498.000000;1.193841
7497.000000;1.194262
7496.000000;1.194317
7495.000000;1.193904
7494.000000;1.193341
7493.000000;1.193096
7492.000000;1.193355
7491.000000;1.193876
7490.000000;1.194363
7489.000000;1.194787
7488.000000;1.195320
7487.000000;1.196081
7486.000000;1.196984
7485.000000;1.197831
7484.000000;1.198474
7483.000000;1.198939
7482.000000;1.199383
7481.000000;1.199899
7480.000000;1.200376
7479.000000;1.200637
7478.000000;1.200688
7477.000000;1.200709
7476.000000;1.200827
7475.000000;1.201038
7474.000000;1.201357
7473.000000;1.201839
7472.000000;1.202405
7471.000000;1.202866
7470.000000;1.203207
7469.000000;1.203629
7468.000000;1.204213
7467.000000;1.204747
7466.000000;1.205065
7465.000000;1.205329
7464.000000;1.205768
7463.000000;1.206301
7462.000000;1.206692
7461.000000;1.206966
7460.000000;1.207360
7459.000000;1.207906
7458.000000;1.208340
7457.000000;1.208474
7456.000000;1.208424
7455.000000;1.208416
7454.000000;1.208561
7453.000000;1.208856
7452.000000;1.209261
7451.000000;1.209712
7450.000000;1.210173
7449.000000;1.210690
7448.000000;1.211280
7447.000000;1.211808
7446.000000;1.212123
7445.000000;1.212301
7444.000000;1.212581
7443.000000;1.213049
7442.000000;1.213533
7441.000000;1.213851
7440.000000;1.214020
7439.000000;1.214181
7438.000000;1.214439
7437.000000;1.214818
7436.000000;1.215260
7435.000000;1.215650
7434.000000;1.215923
7433.000000;1.216168
7432.000000;1.216512
7431.000000;1.216919
7430.000000;1.217236
7429.000000;1.217455
7428.000000;1.217785
7427.000000;1.218432
7426.000000;1.219390
7425.000000;1.220423
7424.000000;1.221195
7423.000000;1.221464
7422.000000;1.221324
7421.000000;1.221187
7420.000000;1.221411
7419.000000;1.221929
7418.000000;1.222390
7417.000000;1.222617
7416.000000;1.222748
7415.000000;1.222949
7414.000000;1.223217
7413.000000;1.223514
7412.000000;1.223922
7411.000000;1.224520
7410.000000;1.225212
7409.000000;1.225778
7408.000000;1.226049
7407.000000;1.226022
7406.000000;1.225881
7405.000000;1.225913
7404.000000;1.226280
7403.000000;1.226862
7402.000000;1.227375
7401.000000;1.227662
7400.000000;1.227812
7399.000000;1.227997
7398.000000;1.228272
7397.000000;1.228582
7396.000000;1.228850
7395.000000;1.229002
7394.000000;1.229098
7393.000000;1.229385
7392.000000;1.230052
7391.000000;1.230941
7390.000000;1.231698
7389.000000;1.232200
7388.000000;1.232610
7387.000000;1.233026
7386.000000;1.233304
7385.000000;1.233260
7384.000000;1.232821
7383.000000;1.232045
7382.000000;1.231253
7381.000000;1.231020
7380.000000;1.231659
7379.000000;1.232712
7378.000000;1.233366
7377.000000;1.233399
7376.000000;1.233376
7375.000000;1.233934
7374.000000;1.235123
7373.000000;1.236431
7372.000000;1.237235
7371.000000;1.237200
7370.000000;1.236517
7369.000000;1.235918
7368.000000;1.236142
7367.000000;1.237183
7366.000000;1.238352
7365.000000;1.239209
7364.000000;1.239911
7363.000000;1.240595
7362.000000;1.241104
7361.000000;1.241390
7360.000000;1.241628
7359.000000;1.241765
7358.000000;1.241488
7357.000000;1.240835
7356.000000;1.240418
7355.000000;1.240845
7354.000000;1.242062
7353.000000;1.243492
7352.000000;1.244604
7351.000000;1.245091
7350.000000;1.244862
7349.000000;1.244221
7348.000000;1.243799
7347.000000;1.243915
7346.000000;1.244226
7345.000000;1.244233
7344.000000;1.243799
7343.000000;1.242906
7342.000000;1.241478
7341.000000;1.239952
7340.000000;1.239568
7339.000000;1.241317
7338.000000;1.244619
7337.000000;1.247879
7336.000000;1.250164
7335.000000;1.251642
7334.000000;1.252794
7333.000000;1.253757
7332.000000;1.254271
7331.000000;1.254011
7330.000000;1.252918
7329.000000;1.251411
7328.000000;1.250343
7327.000000;1.250461
7326.000000;1.251659
7325.000000;1.253137
7324.000000;1.254472
7323.000000;1.255907
7322.000000;1.257573
7321.000000;1.259069
7320.000000;1.259997
7319.000000;1.260468
7318.000000;1.260794
7317.000000;1.261092
7316.000000;1.261440
7315.000000;1.261971
7314.000000;1.262605
7313.000000;1.262964
7312.000000;1.262830
7311.000000;1.262530
7310.000000;1.262543
7309.000000;1.262873
7308.000000;1.263285
7307.000000;1.263951
7306.000000;1.265308
7305.000000;1.267238
7304.000000;1.268968
7303.000000;1.270068
7302.000000;1.270832
7301.000000;1.271694
7300.000000;1.272804
7299.000000;1.274112
7298.000000;1.275453
7297.000000;1.276446
7296.000000;1.276770
7295.000000;1.276647
7294.000000;1.276859
7293.000000;1.278040
7292.000000;1.279862
7291.000000;1.281391
7290.000000;1.282184
7289.000000;1.282568
7288.000000;1.283083
7287.000000;1.284020
7286.000000;1.285400
7285.000000;1.287092
7284.000000;1.288846
7283.000000;1.290451
7282.000000;1.291860
7281.000000;1.293142
7280.000000;1.294396
7279.000000;1.295676
7278.000000;1.296954
7277.000000;1.298086
7276.000000;1.298868
7275.000000;1.299315
7274.000000;1.299853
7273.000000;1.300979
7272.000000;1.302720
7271.000000;1.304589
7270.000000;1.306108
7269.000000;1.307263
7268.000000;1.308432
7267.000000;1.309930
7266.000000;1.311676
7265.000000;1.313288
7264.000000;1.314501
7263.000000;1.315462
7262.000000;1.316591
7261.000000;1.318173
7260.000000;1.320167
7259.000000;1.322397
7258.000000;1.324683
7257.000000;1.326739
7256.000000;1.328213
7255.000000;1.329010
7254.000000;1.329553
7253.000000;1.330586
7252.000000;1.332661
7251.000000;1.335654
7250.000000;1.338855
7249.000000;1.341601
7248.000000;1.343639
7247.000000;1.344997
7246.000000;1.345735
7245.000000;1.345902
7244.000000;1.345795
7243.000000;1.346248
7242.000000;1.348280
7241.000000;1.352047
7240.000000;1.356512
7239.000000;1.360576
7238.000000;1.363996
7237.000000;1.366949
7236.000000;1.369252
7235.000000;1.370381
7234.000000;1.370259
7233.000000;1.369888
7232.000000;1.371029
7231.000000;1.374724
7230.000000;1.380153
7229.000000;1.385474
7228.000000;1.389434
7227.000000;1.392083
7226.000000;1.394478
7225.000000;1.397651
7224.000000;1.401575
7223.000000;1.405342
7222.000000;1.408314
7221.000000;1.410752
7220.000000;1.413356
7219.000000;1.416538
7218.000000;1.420187
7217.000000;1.423997
7216.000000;1.427878
7215.000000;1.432012
7214.000000;1.436536
7213.000000;1.441236
7212.000000;1.445677
7211.000000;1.449597
7210.000000;1.453091
7209.000000;1.456363
7208.000000;1.459419
7207.000000;1.462151
7206.000000;1.464734
7205.000000;1.467658
7204.000000;1.471315
7203.000000;1.475669
7202.000000;1.480417
7201.000000;1.485321
7200.000000;1.490277
7199.000000;1.495194
7198.000000;1.499918
7197.000000;1.504323
7196.000000;1.508474
7195.000000;1.512655
7194.000000;1.517124
7193.000000;1.521745
7192.000000;1.526062
7191.000000;1.529854
7190.000000;1.533550
7189.000000;1.537919
7188.000000;1.543349
7187.000000;1.549520
7186.000000;1.555635
7185.000000;1.560970
7184.000000;1.565318
7183.000000;1.569094
7182.000000;1.573089
7181.000000;1.578009
7180.000000;1.583928
7179.000000;1.590237
7178.000000;1.596239
7177.000000;1.601645
7176.000000;1.606554
7175.000000;1.611317
7174.000000;1.616330
7173.000000;1.621670
7172.000000;1.626991
7171.000000;1.631829
7170.000000;1.636097
7169.000000;1.640224
7168.000000;1.644853
7167.000000;1.650373
7166.000000;1.656567
7165.000000;1.662828
7164.000000;1.668773
7163.000000;1.674582
7162.000000;1.680737
7161.000000;1.687491
7160.000000;1.694493
7159.000000;1.700891
7158.000000;1.706048
7157.000000;1.710245
7156.000000;1.714538
7155.000000;1.719939
7154.000000;1.726642
7153.000000;1.733929
7152.000000;1.740927
7151.000000;1.747309
7150.000000;1.753195
7149.000000;1.758709
7148.000000;1.763864
7147.000000;1.768715
7146.000000;1.773463
7145.000000;1.778443
7144.000000;1.783856
7143.000000;1.789516
7142.000000;1.794917
7141.000000;1.799658
7140.000000;1.803770
7139.000000;1.807716
7138.000000;1.812114
7137.000000;1.817479
7136.000000;1.824056
7135.000000;1.831617
7134.000000;1.839418
7133.000000;1.846619
7132.000000;1.852894
7131.000000;1.858472
7130.000000;1.863515
7129.000000;1.867864
7128.000000;1.871570
7127.000000;1.875338
7126.000000;1.880101
7125.000000;1.886117
7124.000000;1.892683
7123.000000;1.898829
7122.000000;1.904126
7121.000000;1.908774
7120.000000;1.913029
7119.000000;1.916857
7118.000000;1.920260
7117.000000;1.923688
7116.000000;1.927788
7115.000000;1.932776
7114.000000;1.938295
7113.000000;1.943853
7112.000000;1.949227
7111.000000;1.954409
7110.000000;1.959219
7109.000000;1.963222
7108.000000;1.966271
7107.000000;1.969012
7106.000000;1.972587
7105.000000;1.977700
7104.000000;1.984098
7103.000000;1.990767
7102.000000;1.996525
7101.000000;2.000685
7100.000000;2.003429
7099.000000;2.005661
7098.000000;2.008301
7097.000000;2.011519
7096.000000;2.014769
7095.000000;2.017707
7094.000000;2.020712
7093.000000;2.024189
7092.000000;2.027803
7091.000000;2.031015
7090.000000;2.034166
7089.000000;2.038259
7088.000000;2.043484
7087.000000;2.048633
7086.000000;2.052407
7085.000000;2.054890
7084.000000;2.057162
7083.000000;2.059823
7082.000000;2.062627
7081.000000;2.065317
7080.000000;2.068070
7079.000000;2.071125
7078.000000;2.074431
7077.000000;2.077765
7076.000000;2.080986
7075.000000;2.084016
7074.000000;2.086834
7073.000000;2.089558
7072.000000;2.092196
7071.000000;2.094537
7070.000000;2.096592
7069.000000;2.098847
7068.000000;2.101634
7067.000000;2.104440
7066.000000;2.106515
7065.000000;2.108256
7064.000000;2.111100
7063.000000;2.115714
7062.000000;2.120959
7061.000000;2.124999
7060.000000;2.127087
7059.000000;2.127922
7058.000000;2.128653
7057.000000;2.129916
7056.000000;2.131489
7055.000000;2.132590
7054.000000;2.132686
7053.000000;2.132296
7052.000000;2.132936
7051.000000;2.136020
7050.000000;2.141705
7049.000000;2.148600
7048.000000;2.154493
7047.000000;2.157697
7046.000000;2.158037
7045.000000;2.156604
7044.000000;2.154711
7043.000000;2.153338
7042.000000;2.153355
7041.000000;2.155500
7040.000000;2.159515
7039.000000;2.163601
7038.000000;2.165655
7037.000000;2.165316
7036.000000;2.164206
7035.000000;2.164049
7034.000000;2.165142
7033.000000;2.166675
7032.000000;2.167882
7031.000000;2.168536
7030.000000;2.168850
7029.000000;2.169416
7028.000000;2.171000
7027.000000;2.173908
7026.000000;2.177548
7025.000000;2.180833
7024.000000;2.183056
7023.000000;2.184292
7022.000000;2.185028
7021.000000;2.185545
7020.000000;2.185583
7019.000000;2.184508
7018.000000;2.181999
7017.000000;2.178713
7016.000000;2.176190
7015.000000;2.175840
7014.000000;2.177852
7013.000000;2.180992
7012.000000;2.183582
7011.000000;2.184826
7010.000000;2.185196
7009.000000;2.185483
7008.000000;2.185771
7007.000000;2.185761
7006.000000;2.185907
7005.000000;2.187428
7004.000000;2.190871
7003.000000;2.195124
7002.000000;2.198244
7001.000000;2.199159
7000.000000;2.198316
6999.000000;2.196838
6998.000000;2.195525
6997.000000;2.194525
6996.000000;2.193590
6995.000000;2.192783
6994.000000;2.192994
6993.000000;2.195165
6992.000000;2.198770
6991.000000;2.201670
6990.000000;2.202127
6989.000000;2.200555
6988.000000;2.198605
6987.000000;2.197186
6986.000000;2.196403
6985.000000;2.196871
6984.000000;2.199607
6983.000000;2.204233
6982.000000;2.208436
6981.000000;2.209992
6980.000000;2.208728
6979.000000;2.206098
6978.000000;2.203587
6977.000000;2.202137
6976.000000;2.202376
6975.000000;2.204365
6974.000000;2.207209
6973.000000;2.209531
6972.000000;2.210362
6971.000000;2.209430
6970.000000;2.207038
6969.000000;2.204102
6968.000000;2.201997
6967.000000;2.201874
6966.000000;2.203892
6965.000000;2.207029
6964.000000;2.209632
6963.000000;2.210425
6962.000000;2.209470
6961.000000;2.208166
6960.000000;2.207884
6959.000000;2.208610
6958.000000;2.209193
6957.000000;2.208878
6956.000000;2.208073
6955.000000;2.207419
6954.000000;2.206831
6953.000000;2.205904
6952.000000;2.204740
6951.000000;2.203860
6950.000000;2.203570
6949.000000;2.203809
6948.000000;2.204334
6947.000000;2.204750
6946.000000;2.204715
6945.000000;2.204523
6944.000000;2.205149
6943.000000;2.207004
6942.000000;2.208848
6941.000000;2.208852
6940.000000;2.206877
6939.000000;2.204785
6938.000000;2.204126
6937.000000;2.204245
6936.000000;2.203283
6935.000000;2.200710
6934.000000;2.198069
6933.000000;2.197219
6932.000000;2.198592
6931.000000;2.201287
6930.000000;2.204185
6929.000000;2.206373
6928.000000;2.206936
6927.000000;2.205291
6926.000000;2.202096
6925.000000;2.199215
6924.000000;2.198324
6923.000000;2.199570
6922.000000;2.201636
6921.000000;2.202936
6920.000000;2.202734
6919.000000;2.201422
6918.000000;2.199937
6917.000000;2.198825
6916.000000;2.197674
6915.000000;2.195625
6914.000000;2.192659
6913.000000;2.190050
6912.000000;2.189184
6911.000000;2.190141
6910.000000;2.191772
6909.000000;2.193036
6908.000000;2.193797
6907.000000;2.194253
6906.000000;2.194120
6905.000000;2.192829
6904.000000;2.190491
6903.000000;2.188426
6902.000000;2.188459
6901.000000;2.191373
6900.000000;2.195915
6899.000000;2.199607
6898.000000;2.200925
6897.000000;2.200421
6896.000000;2.199336
6895.000000;2.197842
6894.000000;2.195420
6893.000000;2.192483
6892.000000;2.190417
6891.000000;2.189851
6890.000000;2.189789
6889.000000;2.188893
6888.000000;2.187158
6887.000000;2.185911
6886.000000;2.186474
6885.000000;2.188922
6884.000000;2.191724
6883.000000;2.192559
6882.000000;2.190206
6881.000000;2.185979
6880.000000;2.182746
6879.000000;2.182231
6878.000000;2.183605
6877.000000;2.184815
6876.000000;2.184723
6875.000000;2.183523
6874.000000;2.181780
6873.000000;2.179958
6872.000000;2.178542
6871.000000;2.177741
6870.000000;2.177072
6869.000000;2.175969
6868.000000;2.174770
6867.000000;2.174340
6866.000000;2.174629
6865.000000;2.174454
6864.000000;2.173149
6863.000000;2.171803
6862.000000;2.172096
6861.000000;2.174172
6860.000000;2.176178
6859.000000;2.176017
6858.000000;2.173420
6857.000000;2.170237
6856.000000;2.168766
6855.000000;2.169771
6854.000000;2.171904
6853.000000;2.172987
6852.000000;2.172013
6851.000000;2.169841
6850.000000;2.167978
6849.000000;2.167124
6848.000000;2.167058
6847.000000;2.167331
6846.000000;2.167531
6845.000000;2.167133
6844.000000;2.165699
6843.000000;2.163310
6842.000000;2.160505
6841.000000;2.157846
6840.000000;2.155820
6839.000000;2.154935
6838.000000;2.155340
6837.000000;2.156227
6836.000000;2.156144
6835.000000;2.154337
6834.000000;2.151554
6833.000000;2.149218
6832.000000;2.148083
6831.000000;2.147897
6830.000000;2.147951
6829.000000;2.147603
6828.000000;2.146553
6827.000000;2.145064
6826.000000;2.143783
6825.000000;2.143037
6824.000000;2.142343
6823.000000;2.140887
6822.000000;2.138422
6821.000000;2.135465
6820.000000;2.132906
6819.000000;2.131632
6818.000000;2.132019
6817.000000;2.133384
6816.000000;2.134140
6815.000000;2.133016
6814.000000;2.130172
6813.000000;2.126793
6812.000000;2.123789
6811.000000;2.121341
6810.000000;2.119346
6809.000000;2.117679
6808.000000;2.116030
6807.000000;2.114038
6806.000000;2.111730
6805.000000;2.109464
6804.000000;2.107368
6803.000000;2.105220
6802.000000;2.102921
6801.000000;2.100713
6800.000000;2.098895
6799.000000;2.097610
6798.000000;2.096819
6797.000000;2.096129
6796.000000;2.094763
6795.000000;2.092220
6794.000000;2.088960
6793.000000;2.085936
6792.000000;2.083459
6791.000000;2.081065
6790.000000;2.078499
6789.000000;2.076202
6788.000000;2.074607
6787.000000;2.073505
6786.000000;2.072425
6785.000000;2.071226
6784.000000;2.069982
6783.000000;2.068624
6782.000000;2.067038
6781.000000;2.065275
6780.000000;2.063412
6779.000000;2.061388
6778.000000;2.059147
6777.000000;2.056705
6776.000000;2.054012
6775.000000;2.051065
6774.000000;2.048216
6773.000000;2.045947
6772.000000;2.044194
6771.000000;2.042324
6770.000000;2.039968
6769.000000;2.037478
6768.000000;2.035291
6767.000000;2.033304
6766.000000;2.031213
6765.000000;2.029072
6764.000000;2.027136
6763.000000;2.025396
6762.000000;2.023584
6761.000000;2.021410
6760.000000;2.018599
6759.000000;2.015044
6758.000000;2.011220
6757.000000;2.008130
6756.000000;2.006494
6755.000000;2.006156
6754.000000;2.006391
6753.000000;2.006478
6752.000000;2.005782
6751.000000;2.003820
6750.000000;2.000725
6749.000000;1.997345
6748.000000;1.994419
6747.000000;1.991888
6746.000000;1.989350
6745.000000;1.986811
6744.000000;1.984466
6743.000000;1.982094
6742.000000;1.979364
6741.000000;1.976589
6740.000000;1.974477
6739.000000;1.973115
6738.000000;1.971817
6737.000000;1.970070
6736.000000;1.968049
6735.000000;1.965998
6734.000000;1.963673
6733.000000;1.960809
6732.000000;1.957741
6731.000000;1.955130
6730.000000;1.953222
6729.000000;1.951648
6728.000000;1.949862
6727.000000;1.947552
6726.000000;1.944682
6725.000000;1.941408
6724.000000;1.938088
6723.000000;1.935198
6722.000000;1.933069
6721.000000;1.931587
6720.000000;1.930199
6719.000000;1.928356
6718.000000;1.926002
6717.000000;1.923564
6716.000000;1.921477
6715.000000;1.919805
6714.000000;1.918337
6713.000000;1.916843
6712.000000;1.915162
6711.000000;1.913143
6710.000000;1.910758
6709.000000;1.908168
6708.000000;1.905636
6707.000000;1.903385
6706.000000;1.901409
6705.000000;1.899504
6704.000000;1.897409
6703.000000;1.894979
6702.000000;1.892286
6701.000000;1.889507
6700.000000;1.886696
6699.000000;1.883821
6698.000000;1.880991
6697.000000;1.878473
6696.000000;1.876436
6695.000000;1.874909
6694.000000;1.873807
6693.000000;1.872836
6692.000000;1.871375
6691.000000;1.868902
6690.000000;1.865687
6689.000000;1.862747
6688.000000;1.860854
6687.000000;1.859768
6686.000000;1.858608
6685.000000;1.856752
6684.000000;1.854204
6683.000000;1.851313
6682.000000;1.848477
6681.000000;1.846015
6680.000000;1.844005
6679.000000;1.842210
6678.000000;1.840332
6677.000000;1.838346
6676.000000;1.836501
6675.000000;1.835022
6674.000000;1.833848
6673.000000;1.832571
6672.000000;1.830618
6671.000000;1.827702
6670.000000;1.824212
6669.000000;1.820967
6668.000000;1.818480
6667.000000;1.816592
6666.000000;1.814904
6665.000000;1.813263
6664.000000;1.811643
6663.000000;1.809850
6662.000000;1.807680
6661.000000;1.805276
6660.000000;1.803036
6659.000000;1.801219
6658.000000;1.799804
6657.000000;1.798589
6656.000000;1.797209
6655.000000;1.795210
6654.000000;1.792461
6653.000000;1.789446
6652.000000;1.786875
6651.000000;1.784987
6650.000000;1.783424
6649.000000;1.781740
6648.000000;1.779842
6647.000000;1.777930
6646.000000;1.776195
6645.000000;1.774610
6644.000000;1.772911
6643.000000;1.770808
6642.000000;1.768349
6641.000000;1.765970
6640.000000;1.764037
6639.000000;1.762404
6638.000000;1.760600
6637.000000;1.758364
6636.000000;1.755813
6635.000000;1.753172
6634.000000;1.750596
6633.000000;1.748255
6632.000000;1.746330
6631.000000;1.744807
6630.000000;1.743439
6629.000000;1.741954
6628.000000;1.740233
6627.000000;1.738303
6626.000000;1.736296
6625.000000;1.734448
6624.000000;1.732942
6623.000000;1.731697
6622.000000;1.730434
6621.000000;1.728985
6620.000000;1.727435
6619.000000;1.725884
6618.000000;1.724200
6617.000000;1.722105
6616.000000;1.719502
6615.000000;1.716621
6614.000000;1.713869
6613.000000;1.711570
6612.000000;1.709812
6611.000000;1.708480
6610.000000;1.707355
6609.000000;1.706168
6608.000000;1.704688
6607.000000;1.702890
6606.000000;1.700991
6605.000000;1.699177
6604.000000;1.697314
6603.000000;1.695135
6602.000000;1.692694
6601.000000;1.690425
6600.000000;1.688636
6599.000000;1.687156
6598.000000;1.685622
6597.000000;1.683959
6596.000000;1.682406
6595.000000;1.681187
6594.000000;1.680278
6593.000000;1.679391
6592.000000;1.678075
6591.000000;1.676006
6590.000000;1.673363
6589.000000;1.670803
6588.000000;1.668894
6587.000000;1.667610
6586.000000;1.666504
6585.000000;1.665207
6584.000000;1.663605
6583.000000;1.661709
6582.000000;1.659626
6581.000000;1.657605
6580.000000;1.655856
6579.000000;1.654305
6578.000000;1.652731
6577.000000;1.651102
6576.000000;1.649587
6575.000000;1.648276
6574.000000;1.647074
6573.000000;1.645853
6572.000000;1.644517
6571.000000;1.642955
6570.000000;1.641148
6569.000000;1.639326
6568.000000;1.637771
6567.000000;1.636461
6566.000000;1.635119
6565.000000;1.633677
6564.000000;1.632396
6563.000000;1.631440
6562.000000;1.630522
6561.000000;1.629175
6560.000000;1.627255
6559.000000;1.625029
6558.000000;1.622853
6557.000000;1.620896
6556.000000;1.619132
6555.000000;1.617454
6554.000000;1.615771
6553.000000;1.614059
6552.000000;1.612319
6551.000000;1.610539
6550.000000;1.608748
6549.000000;1.607083
6548.000000;1.605691
6547.000000;1.604514
6546.000000;1.603272
6545.000000;1.601754
6544.000000;1.600056
6543.000000;1.598481
6542.000000;1.597226
6541.000000;1.596207
6540.000000;1.595175
6539.000000;1.593919
6538.000000;1.592392
6537.000000;1.590704
6536.000000;1.589016
6535.000000;1.587432
6534.000000;1.585956
6533.000000;1.584532
6532.000000;1.583115
6531.000000;1.581702
6530.000000;1.580302
6529.000000;1.578903
6528.000000;1.577511
6527.000000;1.576229
6526.000000;1.575197
6525.000000;1.574378
6524.000000;1.573470
6523.000000;1.572180
6522.000000;1.570569
6521.000000;1.569007
6520.000000;1.567739
6519.000000;1.566630
6518.000000;1.565390
6517.000000;1.563900
6516.000000;1.562246
6515.000000;1.560554
6514.000000;1.558927
6513.000000;1.557443
6512.000000;1.556074
6511.000000;1.554666
6510.000000;1.553131
6509.000000;1.551603
6508.000000;1.550290
6507.000000;1.549196
6506.000000;1.548137
6505.000000;1.547000
6504.000000;1.545853
6503.000000;1.544782
6502.000000;1.543760
6501.000000;1.542713
6500.000000;1.541622
6499.000000;1.540513
6498.000000;1.539381
6497.000000;1.538166
6496.000000;1.536805
6495.000000;1.535316
6494.000000;1.533858
6493.000000;1.532638
6492.000000;1.531708
6491.000000;1.530878
6490.000000;1.529887
6489.000000;1.528636
6488.000000;1.527193
6487.000000;1.525668
6486.000000;1.524162
6485.000000;1.522797
6484.000000;1.521637
6483.000000;1.520583
6482.000000;1.519458
6481.000000;1.518245
6480.000000;1.517122
6479.000000;1.516236
6478.000000;1.515496
6477.000000;1.514661
6476.000000;1.513606
6475.000000;1.512434
6474.000000;1.511321
6473.000000;1.510286
6472.000000;1.509156
6471.000000;1.507792
6470.000000;1.506288
6469.000000;1.504888
6468.000000;1.503720
6467.000000;1.502706
6466.000000;1.501731
6465.000000;1.500770
6464.000000;1.499805
6463.000000;1.498745
6462.000000;1.497556
6461.000000;1.496364
6460.000000;1.495317
6459.000000;1.494372
6458.000000;1.493359
6457.000000;1.492210
6456.000000;1.491022
6455.000000;1.489893
6454.000000;1.488814
6453.000000;1.487742
6452.000000;1.486690
6451.000000;1.485708
6450.000000;1.484834
6449.000000;1.484045
6448.000000;1.483243
6447.000000;1.482283
6446.000000;1.481106
6445.000000;1.479818
6444.000000;1.478612
6443.000000;1.477605
6442.000000;1.476777
6441.000000;1.476015
6440.000000;1.475191
6439.000000;1.474225
6438.000000;1.473146
6437.000000;1.472064
6436.000000;1.471035
6435.000000;1.469991
6434.000000;1.468848
6433.000000;1.467636
6432.000000;1.466459
6431.000000;1.465391
6430.000000;1.464457
6429.000000;1.463640
6428.000000;1.462819
6427.000000;1.461772
6426.000000;1.460396
6425.000000;1.458909
6424.000000;1.457712
6423.000000;1.457014
6422.000000;1.456665
6421.000000;1.456335
6420.000000;1.455797
6419.000000;1.455053
6418.000000;1.454267
6417.000000;1.453578
6416.000000;1.452942
6415.000000;1.452154
6414.000000;1.451081
6413.000000;1.449819
6412.000000;1.448583
6411.000000;1.447482
6410.000000;1.446495
6409.000000;1.445586
6408.000000;1.444717
6407.000000;1.443784
6406.000000;1.442694
6405.000000;1.441519
6404.000000;1.440447
6403.000000;1.439571
6402.000000;1.438814
6401.000000;1.438073
6400.000000;1.437316
6399.000000;1.436530
6398.000000;1.435686
6397.000000;1.434795
6396.000000;1.433924
6395.000000;1.433130
6394.000000;1.432422
6393.000000;1.431786
6392.000000;1.431173
6391.000000;1.430463
6390.000000;1.429571
6389.000000;1.428581
6388.000000;1.427698
6387.000000;1.427006
6386.000000;1.426402
6385.000000;1.425765
6384.000000;1.425096
6383.000000;1.424448
6382.000000;1.423832
6381.000000;1.423251
6380.000000;1.422715
6379.000000;1.422149
6378.000000;1.421394
6377.000000;1.420375
6376.000000;1.419213
6375.000000;1.418087
6374.000000;1.417075
6373.000000;1.416178
6372.000000;1.415421
6371.000000;1.414821
6370.000000;1.414292
6369.000000;1.413701
6368.000000;1.413003
6367.000000;1.412242
6366.000000;1.411458
6365.000000;1.410653
6364.000000;1.409838
6363.000000;1.409056
6362.000000;1.408341
6361.000000;1.407701
6360.000000;1.407116
6359.000000;1.406507
6358.000000;1.405759
6357.000000;1.404864
6356.000000;1.403984
6355.000000;1.403290
6354.000000;1.402744
6353.000000;1.402148
6352.000000;1.401379
6351.000000;1.400502
6350.000000;1.399634
6349.000000;1.398822
6348.000000;1.398107
6347.000000;1.397573
6346.000000;1.397232
6345.000000;1.396905
6344.000000;1.396338
6343.000000;1.395459
6342.000000;1.394446
6341.000000;1.393533
6340.000000;1.392808
6339.000000;1.392191
6338.000000;1.391552
6337.000000;1.390837
6336.000000;1.390121
6335.000000;1.389544
6334.000000;1.389171
6333.000000;1.388891
6332.000000;1.388499
6331.000000;1.387915
6330.000000;1.387271
6329.000000;1.386753
6328.000000;1.386370
6327.000000;1.385944
6326.000000;1.385315
6325.000000;1.384495
6324.000000;1.383609
6323.000000;1.382739
6322.000000;1.381886
6321.000000;1.381056
6320.000000;1.380306
6319.000000;1.379686
6318.000000;1.379155
6317.000000;1.378616
6316.000000;1.378016
6315.000000;1.377387
6314.000000;1.376756
6313.000000;1.376070
6312.000000;1.375253
6311.000000;1.374340
6310.000000;1.373485
6309.000000;1.372828
6308.000000;1.372360
6307.000000;1.371957
6306.000000;1.371511
6305.000000;1.371007
6304.000000;1.370490
6303.000000;1.370012
6302.000000;1.369602
6301.000000;1.369234
6300.000000;1.368825
6299.000000;1.368297
6298.000000;1.367660
6297.000000;1.367003
6296.000000;1.366401
6295.000000;1.365863
6294.000000;1.365364
6293.000000;1.364898
6292.000000;1.364444
6291.000000;1.363927
6290.000000;1.363264
6289.000000;1.362499
6288.000000;1.361832
6287.000000;1.361463
6286.000000;1.361380
6285.000000;1.361346
6284.000000;1.361103
6283.000000;1.360575
6282.000000;1.359852
6281.000000;1.359045
6280.000000;1.358235
6279.000000;1.357518
6278.000000;1.356982
6277.000000;1.356584
6276.000000;1.356141
6275.000000;1.355517
6274.000000;1.354769
6273.000000;1.354052
6272.000000;1.353445
6271.000000;1.352923
6270.000000;1.352461
6269.000000;1.352065
6268.000000;1.351719
6267.000000;1.351409
6266.000000;1.351162
6265.000000;1.350983
6264.000000;1.350748
6263.000000;1.350282
6262.000000;1.349563
6261.000000;1.348784
6260.000000;1.348161
6259.000000;1.347730
6258.000000;1.347374
6257.000000;1.346978
6256.000000;1.346513
6255.000000;1.346002
6254.000000;1.345469
6253.000000;1.344923
6252.000000;1.344368
6251.000000;1.343841
6250.000000;1.343404
6249.000000;1.343060
6248.000000;1.342698
6247.000000;1.342195
6246.000000;1.341579
6245.000000;1.341018
6244.000000;1.340623
6243.000000;1.340341
6242.000000;1.340048
6241.000000;1.339677
6240.000000;1.339220
6239.000000;1.338689
6238.000000;1.338152
6237.000000;1.337727
6236.000000;1.337473
6235.000000;1.337293
6234.000000;1.337026
6233.000000;1.336610
6232.000000;1.336102
6231.000000;1.335583
6230.000000;1.335107
6229.000000;1.334710
6228.000000;1.334390
6227.000000;1.334058
6226.000000;1.333600
6225.000000;1.333011
6224.000000;1.332422
6223.000000;1.331964
6222.000000;1.331641
6221.000000;1.331357
6220.000000;1.331037
6219.000000;1.330664
6218.000000;1.330224
6217.000000;1.329684
6216.000000;1.329063
6215.000000;1.328475
6214.000000;1.328043
6213.000000;1.327762
6212.000000;1.327519
6211.000000;1.327240
6210.000000;1.326971
6209.000000;1.326754
6208.000000;1.326526
6207.000000;1.326193
6206.000000;1.325779
6205.000000;1.325394
6204.000000;1.325073
6203.000000;1.324733
6202.000000;1.324299
6201.000000;1.323802
6200.000000;1.323299
6199.000000;1.322794
6198.000000;1.322273
6197.000000;1.321771
6196.000000;1.321335
6195.000000;1.320943
6194.000000;1.320535
6193.000000;1.320114
6192.000000;1.319759
6191.000000;1.319521
6190.000000;1.319335
6189.000000;1.319064
6188.000000;1.318649
6187.000000;1.318183
6186.000000;1.317805
6185.000000;1.317528
6184.000000;1.317212
6183.000000;1.316758
6182.000000;1.316264
6181.000000;1.315915
6180.000000;1.315753
6179.000000;1.315630
6178.000000;1.315402
6177.000000;1.315074
6176.000000;1.314733
6175.000000;1.314417
6174.000000;1.314114
6173.000000;1.313825
6172.000000;1.313563
6171.000000;1.313312
6170.000000;1.313032
6169.000000;1.312706
6168.000000;1.312361
6167.000000;1.312048
6166.000000;1.311800
6165.000000;1.311613
6164.000000;1.311451
6163.000000;1.311276
6162.000000;1.311060
6161.000000;1.310768
6160.000000;1.310353
6159.000000;1.309822
6158.000000;1.309270
6157.000000;1.308801
6156.000000;1.308438
6155.000000;1.308154
6154.000000;1.307942
6153.000000;1.307782
6152.000000;1.307555
6151.000000;1.307129
6150.000000;1.306552
6149.000000;1.306038
6148.000000;1.305733
6147.000000;1.305570
6146.000000;1.305397
6145.000000;1.305155
6144.000000;1.304884
6143.000000;1.304618
6142.000000;1.304379
6141.000000;1.304181
6140.000000;1.303981
6139.000000;1.303670
6138.000000;1.303199
6137.000000;1.302683
6136.000000;1.302306
6135.000000;1.302139
6134.000000;1.302101
6133.000000;1.302061
6132.000000;1.301921
6131.000000;1.301643
6130.000000;1.301255
6129.000000;1.300856
6128.000000;1.300527
6127.000000;1.300254
6126.000000;1.299971
6125.000000;1.299651
6124.000000;1.299321
6123.000000;1.298998
6122.000000;1.298685
6121.000000;1.298397
6120.000000;1.298151
6119.000000;1.297926
6118.000000;1.297682
6117.000000;1.297420
6116.000000;1.297158
6115.000000;1.296873
6114.000000;1.296523
6113.000000;1.296136
6112.000000;1.295826
6111.000000;1.295665
6110.000000;1.295604
6109.000000;1.295521
6108.000000;1.295350
6107.000000;1.295116
6106.000000;1.294883
6105.000000;1.294690
6104.000000;1.294530
6103.000000;1.294382
6102.000000;1.294227
6101.000000;1.294058
6100.000000;1.293881
6099.000000;1.293700
6098.000000;1.293508
6097.000000;1.293278
6096.000000;1.292991
6095.000000;1.292674
6094.000000;1.292391
6093.000000;1.292180
6092.000000;1.292010
6091.000000;1.291815
6090.000000;1.291554
6089.000000;1.291231
6088.000000;1.290864
6087.000000;1.290495
6086.000000;1.290202
6085.000000;1.290055
6084.000000;1.290035
6083.000000;1.290031
6082.000000;1.289945
6081.000000;1.289771
6080.000000;1.289564
6079.000000;1.289364
6078.000000;1.289171
6077.000000;1.288963
6076.000000;1.288725
6075.000000;1.288465
6074.000000;1.288215
6073.000000;1.287982
6072.000000;1.287701
6071.000000;1.287265
6070.000000;1.286658
6069.000000;1.286020
6068.000000;1.285561
6067.000000;1.285392
6066.000000;1.285448
6065.000000;1.285570
6064.000000;1.285639
6063.000000;1.285644
6062.000000;1.285629
6061.000000;1.285592
6060.000000;1.285472
6059.000000;1.285237
6058.000000;1.284945
6057.000000;1.284694
6056.000000;1.284526
6055.000000;1.284421
6054.000000;1.284362
6053.000000;1.284351
6052.000000;1.284356
6051.000000;1.284301
6050.000000;1.284114
6049.000000;1.283790
6048.000000;1.283384
6047.000000;1.283000
6046.000000;1.282745
6045.000000;1.282661
6044.000000;1.282669
6043.000000;1.282630
6042.000000;1.282480
6041.000000;1.282269
6040.000000;1.282079
6039.000000;1.281935
6038.000000;1.281813
6037.000000;1.281676
6036.000000;1.281494
6035.000000;1.281261
6034.000000;1.281030
6033.000000;1.280888
6032.000000;1.280874
6031.000000;1.280926
6030.000000;1.280928
6029.000000;1.280794
6028.000000;1.280523
6027.000000;1.280208
6026.000000;1.279977
6025.000000;1.279873
6024.000000;1.279815
6023.000000;1.279699
6022.000000;1.279532
6021.000000;1.279404
6020.000000;1.279363
6019.000000;1.279363
6018.000000;1.279361
6017.000000;1.279350
6016.000000;1.279302
6015.000000;1.279145
6014.000000;1.278873
6013.000000;1.278604
6012.000000;1.278470
6011.000000;1.278485
6010.000000;1.278560
6009.000000;1.278603
6008.000000;1.278560
6007.000000;1.278396
6006.000000;1.278101
6005.000000;1.277717
6004.000000;1.277334
6003.000000;1.277048
6002.000000;1.276924
6001.000000;1.276957
6000.000000;1.277045
5999.000000;1.277031
5998.000000;1.276820
5997.000000;1.276449
5996.000000;1.276056
5995.000000;1.275794
5994.000000;1.275764
5993.000000;1.275960
5992.000000;1.276246
5991.000000;1.276439
5990.000000;1.276464
5989.000000;1.276393
5988.000000;1.276341
5987.000000;1.276345
5986.000000;1.276374
5985.000000;1.276401
5984.000000;1.276414
5983.000000;1.276397
5982.000000;1.276355
5981.000000;1.276318
5980.000000;1.276294
5979.000000;1.276231
5978.000000;1.276077
5977.000000;1.275862
5976.000000;1.275673
5975.000000;1.275568
5974.000000;1.275539
5973.000000;1.275559
5972.000000;1.275598
5971.000000;1.275626
5970.000000;1.275622
5969.000000;1.275612
5968.000000;1.275655
5967.000000;1.275766
5966.000000;1.275890
5965.000000;1.275946
5964.000000;1.275900
5963.000000;1.275771
5962.000000;1.275599
5961.000000;1.275401
5960.000000;1.275183
5959.000000;1.274965
5958.000000;1.274790
5957.000000;1.274701
5956.000000;1.274706
5955.000000;1.274788
5954.000000;1.274922
5953.000000;1.275087
5952.000000;1.275251
5951.000000;1.275376
5950.000000;1.275437
5949.000000;1.275427
5948.000000;1.275355
5947.000000;1.275245
5946.000000;1.275147
5945.000000;1.275106
5944.000000;1.275139
5943.000000;1.275223
5942.000000;1.275307
5941.000000;1.275331
5940.000000;1.275263
5939.000000;1.275142
5938.000000;1.275071
5937.000000;1.275123
5936.000000;1.275265
5935.000000;1.275398
5934.000000;1.275448
5933.000000;1.275403
5932.000000;1.275292
5931.000000;1.275174
5930.000000;1.275123
5929.000000;1.275170
5928.000000;1.275264
5927.000000;1.275339
5926.000000;1.275388
5925.000000;1.275432
5924.000000;1.275439
5923.000000;1.275367
5922.000000;1.275286
5921.000000;1.275354
5920.000000;1.275638
5919.000000;1.276017
5918.000000;1.276304
5917.000000;1.276420
5916.000000;1.276419
5915.000000;1.276395
5914.000000;1.276401
5913.000000;1.276442
5912.000000;1.276500
5911.000000;1.276567
5910.000000;1.276660
5909.000000;1.276783
5908.000000;1.276903
5907.000000;1.276980
5906.000000;1.277012
5905.000000;1.277015
5904.000000;1.276969
5903.000000;1.276852
5902.000000;1.276718
5901.000000;1.276674
5900.000000;1.276765
5899.000000;1.276931
5898.000000;1.277083
5897.000000;1.277177
5896.000000;1.277207
5895.000000;1.277198
5894.000000;1.277238
5893.000000;1.277427
5892.000000;1.277750
5891.000000;1.278042
5890.000000;1.278136
5889.000000;1.278037
5888.000000;1.277897
5887.000000;1.277854
5886.000000;1.277923
5885.000000;1.278034
5884.000000;1.278138
5883.000000;1.278253
5882.000000;1.278418
5881.000000;1.278608
5880.000000;1.278736
5879.000000;1.278750
5878.000000;1.278714
5877.000000;1.278741
5876.000000;1.278865
5875.000000;1.279028
5874.000000;1.279178
5873.000000;1.279316
5872.000000;1.279464
5871.000000;1.279636
5870.000000;1.279853
5869.000000;1.280130
5868.000000;1.280443
5867.000000;1.280751
5866.000000;1.281039
5865.000000;1.281288
5864.000000;1.281425
5863.000000;1.281400
5862.000000;1.281297
5861.000000;1.281296
5860.000000;1.281476
5859.000000;1.281752
5858.000000;1.282026
5857.000000;1.282292
5856.000000;1.282563
5855.000000;1.282789
5854.000000;1.282918
5853.000000;1.282984
5852.000000;1.283046
5851.000000;1.283106
5850.000000;1.283155
5849.000000;1.283246
5848.000000;1.283446
5847.000000;1.283740
5846.000000;1.284050
5845.000000;1.284331
5844.000000;1.284579
5843.000000;1.284790
5842.000000;1.284952
5841.000000;1.285089
5840.000000;1.285249
5839.000000;1.285454
5838.000000;1.285697
5837.000000;1.285970
5836.000000;1.286251
5835.000000;1.286503
5834.000000;1.286703
5833.000000;1.286883
5832.000000;1.287097
5831.000000;1.287360
5830.000000;1.287650
5829.000000;1.287944
5828.000000;1.288252
5827.000000;1.288603
5826.000000;1.289032
5825.000000;1.289528
5824.000000;1.289998
5823.000000;1.290328
5822.000000;1.290501
5821.000000;1.290622
5820.000000;1.290798
5819.000000;1.291032
5818.000000;1.291267
5817.000000;1.291498
5816.000000;1.291764
5815.000000;1.292071
5814.000000;1.292383
5813.000000;1.292683
5812.000000;1.292980
5811.000000;1.293267
5810.000000;1.293507
5809.000000;1.293698
5808.000000;1.293910
5807.000000;1.294241
5806.000000;1.294728
5805.000000;1.295321
5804.000000;1.295932
5803.000000;1.296513
5802.000000;1.297070
5801.000000;1.297607
5800.000000;1.298063
5799.000000;1.298365
5798.000000;1.298520
5797.000000;1.298625
5796.000000;1.298783
5795.000000;1.299035
5794.000000;1.299371
5793.000000;1.299767
5792.000000;1.300196
5791.000000;1.300649
5790.000000;1.301155
5789.000000;1.301739
5788.000000;1.302329
5787.000000;1.302780
5786.000000;1.303031
5785.000000;1.303193
5784.000000;1.303437
5783.000000;1.303809
5782.000000;1.304231
5781.000000;1.304633
5780.000000;1.305032
5779.000000;1.305465
5778.000000;1.305916
5777.000000;1.306352
5776.000000;1.306789
5775.000000;1.307283
5774.000000;1.307866
5773.000000;1.308501
5772.000000;1.309127
5771.000000;1.309702
5770.000000;1.310208
5769.000000;1.310624
5768.000000;1.310930
5767.000000;1.311166
5766.000000;1.311456
5765.000000;1.311925
5764.000000;1.312588
5763.000000;1.313331
5762.000000;1.314001
5761.000000;1.314511
5760.000000;1.314880
5759.000000;1.315209
5758.000000;1.315616
5757.000000;1.316158
5756.000000;1.316800
5755.000000;1.317466
5754.000000;1.318112
5753.000000;1.318730
5752.000000;1.319304
5751.000000;1.319810
5750.000000;1.320251
5749.000000;1.320669
5748.000000;1.321109
5747.000000;1.321603
5746.000000;1.322178
5745.000000;1.322835
5744.000000;1.323529
5743.000000;1.324204
5742.000000;1.324847
5741.000000;1.325472
5740.000000;1.326062
5739.000000;1.326572
5738.000000;1.327009
5737.000000;1.327456
5736.000000;1.327991
5735.000000;1.328610
5734.000000;1.329255
5733.000000;1.329873
5732.000000;1.330450
5731.000000;1.330994
5730.000000;1.331518
5729.000000;1.332038
5728.000000;1.332602
5727.000000;1.333289
5726.000000;1.334137
5725.000000;1.335047
5724.000000;1.335824
5723.000000;1.336365
5722.000000;1.336786
5721.000000;1.337304
5720.000000;1.338016
5719.000000;1.338844
5718.000000;1.339678
5717.000000;1.340461
5716.000000;1.341177
5715.000000;1.341822
5714.000000;1.342452
5713.000000;1.343148
5712.000000;1.343918
5711.000000;1.344677
5710.000000;1.345341
5709.000000;1.345921
5708.000000;1.346496
5707.000000;1.347157
5706.000000;1.347967
5705.000000;1.348913
5704.000000;1.349875
5703.000000;1.350707
5702.000000;1.351404
5701.000000;1.352112
5700.000000;1.352963
5699.000000;1.353924
5698.000000;1.354875
5697.000000;1.355778
5696.000000;1.356702
5695.000000;1.357702
5694.000000;1.358712
5693.000000;1.359547
5692.000000;1.360121
5691.000000;1.360509
5690.000000;1.360910
5689.000000;1.361489
5688.000000;1.362266
5687.000000;1.363159
5686.000000;1.364084
5685.000000;1.364966
5684.000000;1.365715
5683.000000;1.366286
5682.000000;1.366762
5681.000000;1.367309
5680.000000;1.368022
5679.000000;1.368855
5678.000000;1.369702
5677.000000;1.370510
5676.000000;1.371299
5675.000000;1.372125
5674.000000;1.373020
5673.000000;1.373931
5672.000000;1.374744
5671.000000;1.375415
5670.000000;1.376059
5669.000000;1.376826
5668.000000;1.377728
5667.000000;1.378648
5666.000000;1.379518
5665.000000;1.380357
5664.000000;1.381130
5663.000000;1.381708
5662.000000;1.382049
5661.000000;1.382316
5660.000000;1.382733
5659.000000;1.383375
5658.000000;1.384169
5657.000000;1.385012
5656.000000;1.385833
5655.000000;1.386590
5654.000000;1.387302
5653.000000;1.388074
5652.000000;1.388991
5651.000000;1.390016
5650.000000;1.391020
5649.000000;1.391919
5648.000000;1.392709
5647.000000;1.393418
5646.000000;1.394060
5645.000000;1.394675
5644.000000;1.395337
5643.000000;1.396095
5642.000000;1.396898
5641.000000;1.397614
5640.000000;1.398153
5639.000000;1.398580
5638.000000;1.399061
5637.000000;1.399671
5636.000000;1.400308
5635.000000;1.400826
5634.000000;1.401226
5633.000000;1.401656
5632.000000;1.402220
5631.000000;1.402874
5630.000000;1.403517
5629.000000;1.404111
5628.000000;1.404668
5627.000000;1.405193
5626.000000;1.405676
5625.000000;1.406114
5624.000000;1.406508
5623.000000;1.406879
5622.000000;1.407287
5621.000000;1.407809
5620.000000;1.408474
5619.000000;1.409231
5618.000000;1.409996
5617.000000;1.410687
5616.000000;1.411234
5615.000000;1.411608
5614.000000;1.411859
5613.000000;1.412082
5612.000000;1.412334
5611.000000;1.412607
5610.000000;1.412888
5609.000000;1.413202
5608.000000;1.413570
5607.000000;1.413979
5606.000000;1.414396
5605.000000;1.414788
5604.000000;1.415126
5603.000000;1.415421
5602.000000;1.415746
5601.000000;1.416157
5600.000000;1.416590
5599.000000;1.416904
5598.000000;1.417057
5597.000000;1.417162
5596.000000;1.417350
5595.000000;1.417632
5594.000000;1.417918
5593.000000;1.418126
5592.000000;1.418247
5591.000000;1.418355
5590.000000;1.418565
5589.000000;1.418940
5588.000000;1.419407
5587.000000;1.419815
5586.000000;1.420096
5585.000000;1.420324
5584.000000;1.420587
5583.000000;1.420870
5582.000000;1.421093
5581.000000;1.421223
5580.000000;1.421316
5579.000000;1.421464
5578.000000;1.421698
5577.000000;1.421949
5576.000000;1.422097
5575.000000;1.422113
5574.000000;1.422112
5573.000000;1.422226
5572.000000;1.422440
5571.000000;1.422634
5570.000000;1.422745
5569.000000;1.422801
5568.000000;1.422823
5567.000000;1.422798
5566.000000;1.422763
5565.000000;1.422817
5564.000000;1.422992
5563.000000;1.423201
5562.000000;1.423340
5561.000000;1.423381
5560.000000;1.423333
5559.000000;1.423208
5558.000000;1.423059
5557.000000;1.422981
5556.000000;1.423033
5555.000000;1.423204
5554.000000;1.423459
5553.000000;1.423743
5552.000000;1.423948
5551.000000;1.423990
5550.000000;1.423934
5549.000000;1.423926
5548.000000;1.423996
5547.000000;1.424035
5546.000000;1.424002
5545.000000;1.424022
5544.000000;1.424209
5543.000000;1.424497
5542.000000;1.424721
5541.000000;1.424770
5540.000000;1.424646
5539.000000;1.424433
5538.000000;1.424267
5537.000000;1.424237
5536.000000;1.424299
5535.000000;1.424333
5534.000000;1.424302
5533.000000;1.424283
5532.000000;1.424324
5531.000000;1.424381
5530.000000;1.424413
5529.000000;1.424432
5528.000000;1.424454
5527.000000;1.424448
5526.000000;1.424391
5525.000000;1.424316
5524.000000;1.424253
5523.000000;1.424218
5522.000000;1.424263
5521.000000;1.424448
5520.000000;1.424748
5519.000000;1.425064
5518.000000;1.425308
5517.000000;1.425444
5516.000000;1.425441
5515.000000;1.425301
5514.000000;1.425134
5513.000000;1.425075
5512.000000;1.425128
5511.000000;1.425182
5510.000000;1.425190
5509.000000;1.425209
5508.000000;1.425294
5507.000000;1.425450
5506.000000;1.425686
5505.000000;1.426016
5504.000000;1.426355
5503.000000;1.426577
5502.000000;1.426680
5501.000000;1.426733
5500.000000;1.426745
5499.000000;1.426709
5498.000000;1.426694
5497.000000;1.426783
5496.000000;1.426924
5495.000000;1.426986
5494.000000;1.426962
5493.000000;1.426978
5492.000000;1.427097
5491.000000;1.427243
5490.000000;1.427403
5489.000000;1.427680
5488.000000;1.428081
5487.000000;1.428459
5486.000000;1.428745
5485.000000;1.429050
5484.000000;1.429422
5483.000000;1.429698
5482.000000;1.429814
5481.000000;1.429939
5480.000000;1.430185
5479.000000;1.430463
5478.000000;1.430655
5477.000000;1.430821
5476.000000;1.431076
5475.000000;1.431422
5474.000000;1.431783
5473.000000;1.432159
5472.000000;1.432663
5471.000000;1.433339
5470.000000;1.434041
5469.000000;1.434551
5468.000000;1.434792
5467.000000;1.434930
5466.000000;1.435210
5465.000000;1.435693
5464.000000;1.436204
5463.000000;1.436594
5462.000000;1.437003
5461.000000;1.437628
5460.000000;1.438353
5459.000000;1.438962
5458.000000;1.439523
5457.000000;1.440228
5456.000000;1.441056
5455.000000;1.441848
5454.000000;1.442535
5453.000000;1.443151
5452.000000;1.443750
5451.000000;1.444386
5450.000000;1.445081
5449.000000;1.445694
5448.000000;1.446082
5447.000000;1.446465
5446.000000;1.447196
5445.000000;1.448229
5444.000000;1.449177
5443.000000;1.449870
5442.000000;1.450609
5441.000000;1.451694
5440.000000;1.452933
5439.000000;1.453909
5438.000000;1.454596
5437.000000;1.455366
5436.000000;1.456486
5435.000000;1.457945
5434.000000;1.459490
5433.000000;1.460727
5432.000000;1.461562
5431.000000;1.462389
5430.000000;1.463544
5429.000000;1.464967
5428.000000;1.466424
5427.000000;1.467753
5426.000000;1.468985
5425.000000;1.470328
5424.000000;1.471909
5423.000000;1.473635
5422.000000;1.475312
5421.000000;1.476892
5420.000000;1.478530
5419.000000;1.480338
5418.000000;1.482235
5417.000000;1.484052
5416.000000;1.485741
5415.000000;1.487423
5414.000000;1.489195
5413.000000;1.490969
5412.000000;1.492583
5411.000000;1.494163
5410.000000;1.496096
5409.000000;1.498485
5408.000000;1.501011
5407.000000;1.503442
5406.000000;1.505940
5405.000000;1.508704
5404.000000;1.511632
5403.000000;1.514591
5402.000000;1.517548
5401.000000;1.520475
5400.000000;1.523404
5399.000000;1.526346
5398.000000;1.529247
5397.000000;1.532057
5396.000000;1.534784
5395.000000;1.537614
5394.000000;1.540801
5393.000000;1.544385
5392.000000;1.548090
5391.000000;1.551650
5390.000000;1.555188
5389.000000;1.558986
5388.000000;1.563032
5387.000000;1.567128
5386.000000;1.571289
5385.000000;1.575626
5384.000000;1.580062
5383.000000;1.584526
5382.000000;1.589074
5381.000000;1.593734
5380.000000;1.598485
5379.000000;1.603357
5378.000000;1.608481
5377.000000;1.613956
5376.000000;1.619632
5375.000000;1.625238
5374.000000;1.630823
5373.000000;1.636827
5372.000000;1.643482
5371.000000;1.650494
5370.000000;1.657534
5369.000000;1.664617
5368.000000;1.671819
5367.000000;1.678998
5366.000000;1.686082
5365.000000;1.693247
5364.000000;1.700698
5363.000000;1.708467
5362.000000;1.716483
5361.000000;1.724811
5360.000000;1.733557
5359.000000;1.742566
5358.000000;1.751550
5357.000000;1.760430
5356.000000;1.769382
5355.000000;1.778655
5354.000000;1.788495
5353.000000;1.798974
5352.000000;1.809791
5351.000000;1.820620
5350.000000;1.831564
5349.000000;1.842888
5348.000000;1.854537
5347.000000;1.866219
5346.000000;1.877949
5345.000000;1.890250
5344.000000;1.903477
5343.000000;1.917176
5342.000000;1.930695
5341.000000;1.944231
5340.000000;1.958339
5339.000000;1.973041
5338.000000;1.988093
5337.000000;2.003327
5336.000000;2.018544
5335.000000;2.033695
5334.000000;2.049178
5333.000000;2.065443
5332.000000;2.082392
5331.000000;2.099441
5330.000000;2.116160
5329.000000;2.132793
5328.000000;2.149926
5327.000000;2.167661
5326.000000;2.185494
5325.000000;2.203032
5324.000000;2.220444
5323.000000;2.238230
5322.000000;2.256814
5321.000000;2.276227
5320.000000;2.296007
5319.000000;2.315606
5318.000000;2.334926
5317.000000;2.354162
5316.000000;2.373200
5315.000000;2.391665
5314.000000;2.409645
5313.000000;2.427504
5312.000000;2.444921
5311.000000;2.460986
5310.000000;2.475320
5309.000000;2.488492
5308.000000;2.501499
5307.000000;2.515325
5306.000000;2.530323
5305.000000;2.545308
5304.000000;2.558078
5303.000000;2.567970
5302.000000;2.577075
5301.000000;2.587565
5300.000000;2.598732
5299.000000;2.608333
5298.000000;2.616138
5297.000000;2.624029
5296.000000;2.632702
5295.000000;2.640658
5294.000000;2.646783
5293.000000;2.651668
5292.000000;2.655929
5291.000000;2.659142
5290.000000;2.661213
5289.000000;2.663241
5288.000000;2.666158
5287.000000;2.669919
5286.000000;2.674194
5285.000000;2.678609
5284.000000;2.682542
5283.000000;2.685643
5282.000000;2.688100
5281.000000;2.689442
5280.000000;2.688133
5279.000000;2.684092
5278.000000;2.680488
5277.000000;2.680755
5276.000000;2.684379
5275.000000;2.687586
5274.000000;2.688104
5273.000000;2.687048
5272.000000;2.685777
5271.000000;2.684047
5270.000000;2.682089
5269.000000;2.681808
5268.000000;2.684587
5267.000000;2.689427
5266.000000;2.694191
5265.000000;2.697535
5264.000000;2.698948
5263.000000;2.698347
5262.000000;2.696641
5261.000000;2.695210
5260.000000;2.693877
5259.000000;2.691043
5258.000000;2.686655
5257.000000;2.683314
5256.000000;2.683309
5255.000000;2.685767
5254.000000;2.687750
5253.000000;2.687497
5252.000000;2.685428
5251.000000;2.682680
5250.000000;2.680010
5249.000000;2.677878
5248.000000;2.676707
5247.000000;2.676612
5246.000000;2.677417
5245.000000;2.679137
5244.000000;2.681954
5243.000000;2.685734
5242.000000;2.689919
5241.000000;2.693697
5240.000000;2.696055
5239.000000;2.696217
5238.000000;2.694469
5237.000000;2.692110
5236.000000;2.690337
5235.000000;2.689458
5234.000000;2.688879
5233.000000;2.687634
5232.000000;2.685439
5231.000000;2.683473
5230.000000;2.683510
5229.000000;2.685841
5228.000000;2.688676
5227.000000;2.689958
5226.000000;2.689301
5225.000000;2.687697
5224.000000;2.685973
5223.000000;2.684630
5222.000000;2.684588
5221.000000;2.686585
5220.000000;2.690024
5219.000000;2.693414
5218.000000;2.695712
5217.000000;2.696378
5216.000000;2.694929
5215.000000;2.691902
5214.000000;2.689466
5213.000000;2.689508
5212.000000;2.691335
5211.000000;2.692524
5210.000000;2.691960
5209.000000;2.690580
5208.000000;2.689125
5207.000000;2.687150
5206.000000;2.684720
5205.000000;2.683110
5204.000000;2.683002
5203.000000;2.683530
5202.000000;2.683715
5201.000000;2.683620
5200.000000;2.683560
5199.000000;2.683328
5198.000000;2.682916
5197.000000;2.682962
5196.000000;2.683662
5195.000000;2.684168
5194.000000;2.683880
5193.000000;2.683502
5192.000000;2.683889
5191.000000;2.684579
5190.000000;2.684443
5189.000000;2.683317
5188.000000;2.682203
5187.000000;2.682065
5186.000000;2.682871
5185.000000;2.683445
5184.000000;2.682237
5183.000000;2.678962
5182.000000;2.675520
5181.000000;2.674402
5180.000000;2.676139
5179.000000;2.679131
5178.000000;2.682003
5177.000000;2.684871
5176.000000;2.687748
5175.000000;2.689414
5174.000000;2.689253
5173.000000;2.688732
5172.000000;2.689406
5171.000000;2.690520
5170.000000;2.690135
5169.000000;2.687971
5168.000000;2.685488
5167.000000;2.683644
5166.000000;2.682248
5165.000000;2.681238
5164.000000;2.681013
5163.000000;2.681419
5162.000000;2.681681
5161.000000;2.681578
5160.000000;2.681704
5159.000000;2.682358
5158.000000;2.683052
5157.000000;2.683512
5156.000000;2.684223
5155.000000;2.685512
5154.000000;2.686899
5153.000000;2.687761
5152.000000;2.687872
5151.000000;2.686891
5150.000000;2.684163
5149.000000;2.679867
5148.000000;2.675918
5147.000000;2.674815
5146.000000;2.677391
5145.000000;2.681747
5144.000000;2.684724
5143.000000;2.684742
5142.000000;2.682893
5141.000000;2.681033
5140.000000;2.679543
5139.000000;2.677601
5138.000000;2.675042
5137.000000;2.673010
5136.000000;2.672697
5135.000000;2.674211
5134.000000;2.676748
5133.000000;2.679155
5132.000000;2.680189
5131.000000;2.679182
5130.000000;2.677074
5129.000000;2.675886
5128.000000;2.676559
5127.000000;2.678228
5126.000000;2.679849
5125.000000;2.681404
5124.000000;2.682858
5123.000000;2.683098
5122.000000;2.681300
5121.000000;2.678804
5120.000000;2.678160
5119.000000;2.680349
5118.000000;2.683774
5117.000000;2.685927
5116.000000;2.685526
5115.000000;2.683101
5114.000000;2.680237
5113.000000;2.678453
5112.000000;2.678327
5111.000000;2.679382
5110.000000;2.680824
5109.000000;2.682146
5108.000000;2.682898
5107.000000;2.682632
5106.000000;2.681584
5105.000000;2.680620
5104.000000;2.680015
5103.000000;2.678999
5102.000000;2.677179
5101.000000;2.675698
5100.000000;2.675986
5099.000000;2.677902
5098.000000;2.680005
5097.000000;2.681199
5096.000000;2.681162
5095.000000;2.679748
5094.000000;2.677309
5093.000000;2.675320
5092.000000;2.675279
5091.000000;2.676910
5090.000000;2.678594
5089.000000;2.679627
5088.000000;2.680890
5087.000000;2.682956
5086.000000;2.684654
5085.000000;2.684227
5084.000000;2.681274
5083.000000;2.677026
5082.000000;2.673319
5081.000000;2.671459
5080.000000;2.671282
5079.000000;2.671190
5078.000000;2.669892
5077.000000;2.668178
5076.000000;2.668045
5075.000000;2.670025
5074.000000;2.672468
5073.000000;2.673739
5072.000000;2.673923
5071.000000;2.673772
5070.000000;2.673222
5069.000000;2.671975
5068.000000;2.670558
5067.000000;2.669665
5066.000000;2.669166
5065.000000;2.668879
5064.000000;2.669610
5063.000000;2.672055
5062.000000;2.675006
5061.000000;2.676042
5060.000000;2.674217
5059.000000;2.671029
5058.000000;2.668594
5057.000000;2.667906
5056.000000;2.668841
5055.000000;2.670709
5054.000000;2.672507
5053.000000;2.673390
5052.000000;2.673208
5051.000000;2.672271
5050.000000;2.670683
5049.000000;2.668442
5048.000000;2.666121
5047.000000;2.664702
5046.000000;2.664499
5045.000000;2.664869
5044.000000;2.665322
5043.000000;2.666214
5042.000000;2.667903
5041.000000;2.669806
5040.000000;2.670825
5039.000000;2.670352
5038.000000;2.668582
5037.000000;2.666364
5036.000000;2.665091
5035.000000;2.665992
5034.000000;2.668669
5033.000000;2.670636
5032.000000;2.669249
5031.000000;2.664361
5030.000000;2.658537
5029.000000;2.654781
5028.000000;2.654462
5027.000000;2.656857
5026.000000;2.659804
5025.000000;2.660958
5024.000000;2.659341
5023.000000;2.656056
5022.000000;2.653079
5021.000000;2.651334
5020.000000;2.650295
5019.000000;2.649370
5018.000000;2.649033
5017.000000;2.650215
5016.000000;2.652980
5015.000000;2.656206
5014.000000;2.658428
5013.000000;2.658731
5012.000000;2.656970
5011.000000;2.653571
5010.000000;2.649486
5009.000000;2.646206
5008.000000;2.645179
5007.000000;2.646795
5006.000000;2.649963
5005.000000;2.652835
5004.000000;2.653898
5003.000000;2.652350
5002.000000;2.648029
5001.000000;2.641753
5000.000000;2.635566
4999.000000;2.631712
4998.000000;2.630830
4997.000000;2.631524
4996.000000;2.632211
4995.000000;2.632822
4994.000000;2.633884
4993.000000;2.634650
4992.000000;2.633583
4991.000000;2.630590
4990.000000;2.627302
4989.000000;2.624920
4988.000000;2.623153
4987.000000;2.621532
4986.000000;2.620431
4985.000000;2.620069
4984.000000;2.619673
4983.000000;2.618663
4982.000000;2.617865
4981.000000;2.618368
4980.000000;2.619695
4979.000000;2.620219
4978.000000;2.619211
4977.000000;2.617495
4976.000000;2.615999
4975.000000;2.614533
4974.000000;2.612260
4973.000000;2.608764
4972.000000;2.604478
4971.000000;2.600588
4970.000000;2.598382
4969.000000;2.598055
4968.000000;2.598215
4967.000000;2.597265
4966.000000;2.595374
4965.000000;2.594105
4964.000000;2.593911
4963.000000;2.593186
4962.000000;2.590331
4961.000000;2.585933
4960.000000;2.582050
4959.000000;2.579786
4958.000000;2.578398
4957.000000;2.576662
4956.000000;2.574367
4955.000000;2.572216
4954.000000;2.570772
4953.000000;2.569946
4952.000000;2.569377
4951.000000;2.568921
4950.000000;2.568532
4949.000000;2.567772
4948.000000;2.565878
4947.000000;2.562492
4946.000000;2.558137
4945.000000;2.553777
4944.000000;2.550069
4943.000000;2.547153
4942.000000;2.544884
4941.000000;2.543021
4940.000000;2.541335
4939.000000;2.539758
4938.000000;2.538275
4937.000000;2.536619
4936.000000;2.534358
4935.000000;2.531544
4934.000000;2.529051
4933.000000;2.527722
4932.000000;2.527209
4931.000000;2.526196
4930.000000;2.523800
4929.000000;2.520404
4928.000000;2.516998
4927.000000;2.514064
4926.000000;2.511399
4925.000000;2.508744
4924.000000;2.506313
4923.000000;2.504652
4922.000000;2.503807
4921.000000;2.502778
4920.000000;2.500165
4919.000000;2.495694
4918.000000;2.490821
4917.000000;2.487368
4916.000000;2.485689
4915.000000;2.484562
4914.000000;2.482718
4913.000000;2.479934
4912.000000;2.476696
4911.000000;2.473541
4910.000000;2.470974
4909.000000;2.469334
4908.000000;2.468245
4907.000000;2.466615
4906.000000;2.463694
4905.000000;2.459830
4904.000000;2.455785
4903.000000;2.451807
4902.000000;2.447920
4901.000000;2.444771
4900.000000;2.443381
4899.000000;2.443837
4898.000000;2.444723
4897.000000;2.444298
4896.000000;2.442104
4895.000000;2.438983
4894.000000;2.435638
4893.000000;2.431799
4892.000000;2.427083
4891.000000;2.422250
4890.000000;2.418788
4889.000000;2.417161
4888.000000;2.416004
4887.000000;2.413496
4886.000000;2.409305
4885.000000;2.404727
4884.000000;2.401127
4883.000000;2.398828
4882.000000;2.397314
4881.000000;2.395785
4880.000000;2.393443
4879.000000;2.389977
4878.000000;2.386109
4877.000000;2.383097
4876.000000;2.381305
4875.000000;2.379601
4874.000000;2.376544
4873.000000;2.371916
4872.000000;2.366672
4871.000000;2.361767
4870.000000;2.357585
4869.000000;2.354211
4868.000000;2.351595
4867.000000;2.349390
4866.000000;2.347062
4865.000000;2.344315
4864.000000;2.341170
4863.000000;2.337685
4862.000000;2.334002
4861.000000;2.330663
4860.000000;2.328398
4859.000000;2.327333
4858.000000;2.326631
4857.000000;2.325162
4856.000000;2.322485
4855.000000;2.319010
4854.000000;2.315364
4853.000000;2.311866
4852.000000;2.308550
4851.000000;2.305397
4850.000000;2.302413
4849.000000;2.299569
4848.000000;2.296720
4847.000000;2.293629
4846.000000;2.290117
4845.000000;2.286299
4844.000000;2.282621
4843.000000;2.279505
4842.000000;2.276866
4841.000000;2.274068
4840.000000;2.270513
4839.000000;2.266303
4838.000000;2.262218
4837.000000;2.258996
4836.000000;2.256739
4835.000000;2.255010
4834.000000;2.253324
4833.000000;2.251362
4832.000000;2.248886
4831.000000;2.245818
4830.000000;2.242439
4829.000000;2.239214
4828.000000;2.236225
4827.000000;2.233001
4826.000000;2.229159
4825.000000;2.225057
4824.000000;2.221515
4823.000000;2.218914
4822.000000;2.216804
4821.000000;2.214411
4820.000000;2.211326
4819.000000;2.207710
4818.000000;2.204078
4817.000000;2.200977
4816.000000;2.198614
4815.000000;2.196574
4814.000000;2.194019
4813.000000;2.190447
4812.000000;2.186268
4811.000000;2.182434
4810.000000;2.179488
4809.000000;2.177141
4808.000000;2.174811
4807.000000;2.172375
4806.000000;2.170188
4805.000000;2.168397
4804.000000;2.166477
4803.000000;2.163641
4802.000000;2.159633
4801.000000;2.155065
4800.000000;2.150871
4799.000000;2.147480
4798.000000;2.144574
4797.000000;2.141611
4796.000000;2.138471
4795.000000;2.135525
4794.000000;2.133110
4793.000000;2.131047
4792.000000;2.128781
4791.000000;2.125920
4790.000000;2.122540
4789.000000;2.119002
4788.000000;2.115605
4787.000000;2.112433
4786.000000;2.109364
4785.000000;2.106195
4784.000000;2.102843
4783.000000;2.099544
4782.000000;2.096707
4781.000000;2.094482
4780.000000;2.092514
4779.000000;2.090259
4778.000000;2.087498
4777.000000;2.084424
4776.000000;2.081293
4775.000000;2.078204
4774.000000;2.075228
4773.000000;2.072486
4772.000000;2.070002
4771.000000;2.067603
4770.000000;2.065054
4769.000000;2.062193
4768.000000;2.058865
4767.000000;2.054979
4766.000000;2.050806
4765.000000;2.047043
4764.000000;2.044288
4763.000000;2.042452
4762.000000;2.040834
4761.000000;2.038778
4760.000000;2.036168
4759.000000;2.033348
4758.000000;2.030789
4757.000000;2.028782
4756.000000;2.027196
4755.000000;2.025462
4754.000000;2.023028
4753.000000;2.019927
4752.000000;2.016730
4751.000000;2.013853
4750.000000;2.011150
4749.000000;2.008331
4748.000000;2.005549
4747.000000;2.003252
4746.000000;2.001522
4745.000000;1.999835
4744.000000;1.997535
4743.000000;1.994394
4742.000000;1.990644
4741.000000;1.986665
4740.000000;1.982786
4739.000000;1.979318
4738.000000;1.976567
4737.000000;1.974667
4736.000000;1.973366
4735.000000;1.972026
4734.000000;1.970006
4733.000000;1.967171
4732.000000;1.964006
4731.000000;1.961150
4730.000000;1.958854
4729.000000;1.956897
4728.000000;1.954932
4727.000000;1.952767
4726.000000;1.950394
4725.000000;1.947921
4724.000000;1.945537
4723.000000;1.943403
4722.000000;1.941512
4721.000000;1.939724
4720.000000;1.937921
4719.000000;1.936001
4718.000000;1.933745
4717.000000;1.930954
4716.000000;1.927829
4715.000000;1.925017
4714.000000;1.923000
4713.000000;1.921522
4712.000000;1.919813
4711.000000;1.917375
4710.000000;1.914425
4709.000000;1.911571
4708.000000;1.909239
4707.000000;1.907459
4706.000000;1.906013
4705.000000;1.904613
4704.000000;1.902974
4703.000000;1.900876
4702.000000;1.898280
4701.000000;1.895401
4700.000000;1.892622
4699.000000;1.890275
4698.000000;1.888422
4697.000000;1.886854
4696.000000;1.885313
4695.000000;1.883725
4694.000000;1.882193
4693.000000;1.880793
4692.000000;1.879411
4691.000000;1.877806
4690.000000;1.875817
4689.000000;1.873542
4688.000000;1.871306
4687.000000;1.869415
4686.000000;1.867902
4685.000000;1.866529
4684.000000;1.865025
4683.000000;1.863281
4682.000000;1.861319
4681.000000;1.859193
4680.000000;1.856993
4679.000000;1.854862
4678.000000;1.852919
4677.000000;1.851171
4676.000000;1.849576
4675.000000;1.848093
4674.000000;1.846578
4673.000000;1.844726
4672.000000;1.842309
4671.000000;1.839532
4670.000000;1.836990
4669.000000;1.835195
4668.000000;1.834169
4667.000000;1.833455
4666.000000;1.832487
4665.000000;1.830992
4664.000000;1.829176
4663.000000;1.827536
4662.000000;1.826358
4661.000000;1.825369
4660.000000;1.823993
4659.000000;1.821999
4658.000000;1.819801
4657.000000;1.818015
4656.000000;1.816818
4655.000000;1.815840
4654.000000;1.814611
4653.000000;1.813005
4652.000000;1.811248
4651.000000;1.809611
4650.000000;1.808161
4649.000000;1.806783
4648.000000;1.805360
4647.000000;1.803864
4646.000000;1.802298
4645.000000;1.800636
4644.000000;1.798923
4643.000000;1.797341
4642.000000;1.796045
4641.000000;1.794957
4640.000000;1.793847
4639.000000;1.792632
4638.000000;1.791428
4637.000000;1.790280
4636.000000;1.789019
4635.000000;1.787538
4634.000000;1.786023
4633.000000;1.784740
4632.000000;1.783652
4631.000000;1.782442
4630.000000;1.780933
4629.000000;1.779344
4628.000000;1.778088
4627.000000;1.777358
4626.000000;1.776926
4625.000000;1.776282
4624.000000;1.775031
4623.000000;1.773272
4622.000000;1.771583
4621.000000;1.770509
4620.000000;1.770029
4619.000000;1.769563
4618.000000;1.768558
4617.000000;1.766977
4616.000000;1.765217
4615.000000;1.763657
4614.000000;1.762393
4613.000000;1.761308
4612.000000;1.760247
4611.000000;1.759115
4610.000000;1.757903
4609.000000;1.756674
4608.000000;1.755472
4607.000000;1.754251
4606.000000;1.752963
4605.000000;1.751720
4604.000000;1.750791
4603.000000;1.750304
4602.000000;1.749976
4601.000000;1.749273
4600.000000;1.747942
4599.000000;1.746317
4598.000000;1.745013
4597.000000;1.744312
4596.000000;1.743916
4595.000000;1.743312
4594.000000;1.742315
4593.000000;1.741197
4592.000000;1.740312
4591.000000;1.739704
4590.000000;1.739137
4589.000000;1.738439
4588.000000;1.737707
4587.000000;1.737126
4586.000000;1.736671
4585.000000;1.736083
4584.000000;1.735107
4583.000000;1.733693
4582.000000;1.732010
4581.000000;1.730366
4580.000000;1.729098
4579.000000;1.728346
4578.000000;1.727878
4577.000000;1.727293
4576.000000;1.726480
4575.000000;1.725719
4574.000000;1.725227
4573.000000;1.724789
4572.000000;1.724045
4571.000000;1.722982
4570.000000;1.721886
4569.000000;1.720912
4568.000000;1.720007
4567.000000;1.719243
4566.000000;1.718868
4565.000000;1.718903
4564.000000;1.718969
4563.000000;1.718673
4562.000000;1.717977
4561.000000;1.717016
4560.000000;1.715792
4559.000000;1.714296
4558.000000;1.712777
4557.000000;1.711637
4556.000000;1.711060
4555.000000;1.710877
4554.000000;1.710769
4553.000000;1.710503
4552.000000;1.710050
4551.000000;1.709587
4550.000000;1.709298
4549.000000;1.709068
4548.000000;1.708501
4547.000000;1.707387
4546.000000;1.706032
4545.000000;1.704947
4544.000000;1.704295
4543.000000;1.703875
4542.000000;1.703536
4541.000000;1.703325
4540.000000;1.703205
4539.000000;1.702949
4538.000000;1.702425
4537.000000;1.701798
4536.000000;1.701309
4535.000000;1.700973
4534.000000;1.700621
4533.000000;1.700162
4532.000000;1.699677
4531.000000;1.699282
4530.000000;1.698955
4529.000000;1.698531
4528.000000;1.697914
4527.000000;1.697268
4526.000000;1.696922
4525.000000;1.696972
4524.000000;1.697072
4523.000000;1.696769
4522.000000;1.696031
4521.000000;1.695290
4520.000000;1.694963
4519.000000;1.695073
4518.000000;1.695325
4517.000000;1.695416
4516.000000;1.695238
4515.000000;1.694931
4514.000000;1.694750
4513.000000;1.694796
4512.000000;1.694862
4511.000000;1.694668
4510.000000;1.694222
4509.000000;1.693791
4508.000000;1.693521
4507.000000;1.693294
4506.000000;1.693004
4505.000000;1.692738
4504.000000;1.692567
4503.000000;1.692357
4502.000000;1.691982
4501.000000;1.691625
4500.000000;1.691659
4499.000000;1.692228
4498.000000;1.693056
4497.000000;1.693657
4496.000000;1.693689
4495.000000;1.693200
4494.000000;1.692617
4493.000000;1.692434
4492.000000;1.692766
4491.000000;1.693214
4490.000000;1.693244
4489.000000;1.692731
4488.000000;1.692079
4487.000000;1.691815
4486.000000;1.692127
4485.000000;1.692787
4484.000000;1.693434
4483.000000;1.693909
4482.000000;1.694326
4481.000000;1.694826
4480.000000;1.695346
4479.000000;1.695703
4478.000000;1.695881
4477.000000;1.696090
4476.000000;1.696478
4475.000000;1.696874
4474.000000;1.696970
4473.000000;1.696702
4472.000000;1.696325
4471.000000;1.696120
4470.000000;1.696157
4469.000000;1.696402
4468.000000;1.696909
4467.000000;1.697767
4466.000000;1.698887
4465.000000;1.699998
4464.000000;1.700883
4463.000000;1.701536
4462.000000;1.702048
4461.000000;1.702442
4460.000000;1.702722
4459.000000;1.702966
4458.000000;1.703201
4457.000000;1.703270
4456.000000;1.703057
4455.000000;1.702828
4454.000000;1.703067
4453.000000;1.703871
4452.000000;1.704769
4451.000000;1.705332
4450.000000;1.705729
4449.000000;1.706408
4448.000000;1.707386
4447.000000;1.708225
4446.000000;1.708691
4445.000000;1.709092
4444.000000;1.709853
4443.000000;1.711001
4442.000000;1.712193
4441.000000;1.713096
4440.000000;1.713622
4439.000000;1.713928
4438.000000;1.714284
4437.000000;1.714875
4436.000000;1.715677
4435.000000;1.716551
4434.000000;1.717444
4433.000000;1.718377
4432.000000;1.719282
4431.000000;1.720058
4430.000000;1.720807
4429.000000;1.721808
4428.000000;1.723122
4427.000000;1.724367
4426.000000;1.725026
4425.000000;1.724950
4424.000000;1.724502
4423.000000;1.724330
4422.000000;1.724987
4421.000000;1.726609
4420.000000;1.728787
4419.000000;1.730848
4418.000000;1.732344
4417.000000;1.733285
4416.000000;1.733916
4415.000000;1.734410
4414.000000;1.734854
4413.000000;1.735396
4412.000000;1.736220
4411.000000;1.737374
4410.000000;1.738709
4409.000000;1.740006
4408.000000;1.741183
4407.000000;1.742378
4406.000000;1.743791
4405.000000;1.745371
4404.000000;1.746731
4403.000000;1.747483
4402.000000;1.747666
4401.000000;1.747732
4400.000000;1.748173
4399.000000;1.749242
4398.000000;1.750903
4397.000000;1.752792
4396.000000;1.754255
4395.000000;1.754759
4394.000000;1.754421
4393.000000;1.753946
4392.000000;1.753968
4391.000000;1.754582
4390.000000;1.755522
4389.000000;1.756563
4388.000000;1.757641
4387.000000;1.758807
4386.000000;1.760223
4385.000000;1.762029
4384.000000;1.764033
4383.000000;1.765623
4382.000000;1.766236
4381.000000;1.765922
4380.000000;1.765309
4379.000000;1.765057
4378.000000;1.765445
4377.000000;1.766397
4376.000000;1.767692
4375.000000;1.769062
4374.000000;1.770247
4373.000000;1.771155
4372.000000;1.771995
4371.000000;1.773118
4370.000000;1.774604
4369.000000;1.776078
4368.000000;1.777088
4367.000000;1.777606
4366.000000;1.777969
4365.000000;1.778425
4364.000000;1.779083
4363.000000;1.780226
4362.000000;1.782158
4361.000000;1.784559
4360.000000;1.786479
4359.000000;1.787355
4358.000000;1.787637
4357.000000;1.788032
4356.000000;1.788496
4355.000000;1.788540
4354.000000;1.788263
4353.000000;1.788500
4352.000000;1.789855
4351.000000;1.792064
4350.000000;1.794391
4349.000000;1.796298
4348.000000;1.797698
4347.000000;1.798839
4346.000000;1.799911
4345.000000;1.800635
4344.000000;1.800541
4343.000000;1.799920
4342.000000;1.799931
4341.000000;1.801206
4340.000000;1.802855
4339.000000;1.803685
4338.000000;1.803992
4337.000000;1.805000
4336.000000;1.806731
4335.000000;1.807770
4334.000000;1.807486
4333.000000;1.807128
4332.000000;1.808081
4331.000000;1.810196
4330.000000;1.812549
4329.000000;1.814820
4328.000000;1.816835
4327.000000;1.817615
4326.000000;1.816299
4325.000000;1.813718
4324.000000;1.811996
4323.000000;1.812705
4322.000000;1.816000
4321.000000;1.821063
4320.000000;1.826440
4319.000000;1.830114
4318.000000;1.830535
4317.000000;1.828169
4316.000000;1.825440
4315.000000;1.824745
4314.000000;1.826651
4313.000000;1.829848
4312.000000;1.832492
4311.000000;1.833589
4310.000000;1.833349
4309.000000;1.832395
4308.000000;1.830855
4307.000000;1.828633
4306.000000;1.826607
4305.000000;1.826627
4304.000000;1.829644
4303.000000;1.834123
4302.000000;1.837037
4301.000000;1.836779
4300.000000;1.834665
4299.000000;1.833257
4298.000000;1.833794
4297.000000;1.835521
4296.000000;1.837043
4295.000000;1.837779
4294.000000;1.838070
4293.000000;1.838264
4292.000000;1.838138
4291.000000;1.837314
4290.000000;1.835771
4289.000000;1.833660
4288.000000;1.831012
4287.000000;1.828200
4286.000000;1.826486
4285.000000;1.827180
4284.000000;1.829896
4283.000000;1.832061
4282.000000;1.830817
4281.000000;1.825844
4280.000000;1.820197
4279.000000;1.818031
4278.000000;1.821131
4277.000000;1.827046
4276.000000;1.830773
4275.000000;1.829224
4274.000000;1.823992
4273.000000;1.818958
4272.000000;1.816091
4271.000000;1.814686
4270.000000;1.813810
4269.000000;1.813533
4268.000000;1.813656
4267.000000;1.813137
4266.000000;1.811527
4265.000000;1.809586
4264.000000;1.807694
4263.000000;1.804816
4262.000000;1.800095
4261.000000;1.794754
4260.000000;1.791415
4259.000000;1.791859
4258.000000;1.795672
4257.000000;1.800175
4256.000000;1.801494
4255.000000;1.797201
4254.000000;1.788899
4253.000000;1.781252
4252.000000;1.777907
4251.000000;1.779075
4250.000000;1.782914
4249.000000;1.787390
4248.000000;1.790013
4247.000000;1.787962
4246.000000;1.780692
4245.000000;1.771350
4244.000000;1.763660
4243.000000;1.758049
4242.000000;1.752332
4241.000000;1.744802
4240.000000;1.735750
4239.000000;1.726584
4238.000000;1.718340
4237.000000;1.711403
4236.000000;1.706343
4235.000000;1.704000
4234.000000;1.704079
4233.000000;1.703570
4232.000000;1.697242
4231.000000;1.681946
4230.000000;1.661147
4229.000000;1.642630
4228.000000;1.630974
4227.000000;1.623931
4226.000000;1.616616
4225.000000;1.607703
4224.000000;1.599356
4223.000000;1.592118
4222.000000;1.583045
4221.000000;1.570182
4220.000000;1.556507
4219.000000;1.546338
4218.000000;1.539237
4217.000000;1.530148
4216.000000;1.514950
4215.000000;1.493716
4214.000000;1.468770
4213.000000;1.441485
4212.000000;1.411450
4211.000000;1.378298
4210.000000;1.344218
4209.000000;1.313450
4208.000000;1.287901
4207.000000;1.264061
4206.000000;1.235400
4205.000000;1.197903
4204.000000;1.152846
4203.000000;1.103072
4202.000000;1.046864
4201.000000;0.980353
4200.000000;0.909465
4199.000000;0.854941
4198.000000;0.837442
4197.000000;0.860081
4196.000000;0.910673
4195.000000;0.973379
4194.000000;1.038514
4193.000000;1.103667
4192.000000;1.168489
4191.000000;1.233146
4190.000000;1.299390
4189.000000;1.366693
4188.000000;1.427002
4187.000000;1.469424
4186.000000;1.492965
4185.000000;1.509276
4184.000000;1.531356
4183.000000;1.563697
4182.000000;1.602262
4181.000000;1.638583
4180.000000;1.664900
4179.000000;1.681217
4178.000000;1.695957
4177.000000;1.716681
4176.000000;1.742729
4175.000000;1.769243
4174.000000;1.796520
4173.000000;1.829210
4172.000000;1.864875
4171.000000;1.892103
4170.000000;1.905912
4169.000000;1.916065
4168.000000;1.933495
4167.000000;1.957473
4166.000000;1.979904
4165.000000;1.997597
4164.000000;2.013741
4163.000000;2.029344
4162.000000;2.041934
4161.000000;2.051318
4160.000000;2.060197
4159.000000;2.071240
4158.000000;2.085753
4157.000000;2.103277
4156.000000;2.121967
4155.000000;2.139848
4154.000000;2.156373
4153.000000;2.172413
4152.000000;2.187254
4151.000000;2.196985
4150.000000;2.201667
4149.000000;2.210270
4148.000000;2.230242
4147.000000;2.255602
4146.000000;2.272493
4145.000000;2.280284
4144.000000;2.290947
4143.000000;2.308377
4142.000000;2.326225
4141.000000;2.335865
4140.000000;2.331902
4139.000000;2.318231
4138.000000;2.306816
4137.000000;2.308879
4136.000000;2.325995
4135.000000;2.347466
4134.000000;2.358885
4133.000000;2.357798
4132.000000;2.357118
4131.000000;2.371210
4130.000000;2.402575
4129.000000;2.438358
4128.000000;2.459461
4127.000000;2.458742
4126.000000;2.444944
4125.000000;2.430082
4124.000000;2.422302
4123.000000;2.426456
4122.000000;2.445176
4121.000000;2.478160
4120.000000;2.518376
4119.000000;2.547812
4118.000000;2.550959
4117.000000;2.535861
4116.000000;2.520996
4115.000000;2.514127
4114.000000;2.512154
4113.000000;2.511966
4112.000000;2.517495
4111.000000;2.534155
4110.000000;2.559872
4109.000000;2.585347
4108.000000;2.602933
4107.000000;2.614700
4106.000000;2.626578
4105.000000;2.637362
4104.000000;2.643132
4103.000000;2.648598
4102.000000;2.662507
4101.000000;2.682180
4100.000000;2.691660
4099.000000;2.678699
4098.000000;2.649431
4097.000000;2.621536
4096.000000;2.608059
4095.000000;2.612779
4094.000000;2.633660
4093.000000;2.663173
4092.000000;2.686656
4091.000000;2.692675
4090.000000;2.691515
4089.000000;2.701567
4088.000000;2.723484
4087.000000;2.744051
4086.000000;2.755792
4085.000000;2.761918
4084.000000;2.767027
4083.000000;2.773707
4082.000000;2.784837
4081.000000;2.802099
4080.000000;2.821217
4079.000000;2.828105
4078.000000;2.805724
4077.000000;2.760831
4076.000000;2.724231
4075.000000;2.718153
4074.000000;2.742967
4073.000000;2.777271
4072.000000;2.788159
4071.000000;2.765646
4070.000000;2.739549
4069.000000;2.739931
4068.000000;2.762928
4067.000000;2.776547
4066.000000;2.758700
4065.000000;2.724498
4064.000000;2.707246
4063.000000;2.730396
4062.000000;2.797079
4061.000000;2.881542
4060.000000;2.927953
4059.000000;2.914294
4058.000000;2.883687
4057.000000;2.871459
4056.000000;2.877528
4055.000000;2.882377
4054.000000;2.877608
4053.000000;2.877434
4052.000000;2.886860
4051.000000;2.892788
4050.000000;2.892187
4049.000000;2.892252
4048.000000;2.900094
4047.000000;2.916170
4046.000000;2.938688
4045.000000;2.978292
4044.000000;3.038471
4043.000000;3.093205
4042.000000;3.104535
4041.000000;3.058741
4040.000000;2.982345
4039.000000;2.909037
4038.000000;2.860379
4037.000000;2.849068
4036.000000;2.873988
4035.000000;2.913887
4034.000000;2.938031
4033.000000;2.938035
4032.000000;2.930726
4031.000000;2.927587
4030.000000;2.934933
4029.000000;2.965988
4028.000000;3.027322
4027.000000;3.101093
4026.000000;3.129607
4025.000000;3.071469
4024.000000;2.982086
4023.000000;2.915546
4022.000000;2.885692
4021.000000;2.895622
4020.000000;2.941413
4019.000000;3.008549
4018.000000;3.068955
4017.000000;3.093296
4016.000000;3.080142
4015.000000;3.053649
4014.000000;3.034192
4013.000000;3.027264
4012.000000;3.029916
4011.000000;3.041661
4010.000000;3.068659
4009.000000;3.099366
4008.000000;3.091302
4007.000000;3.040857
4006.000000;2.994339
4005.000000;2.982652
4004.000000;3.000108
4003.000000;3.017363
4002.000000;3.025355
4001.000000;3.026902
4000.000000;3.014643
3999.000000;2.991943
3998.000000;2.963609
3997.000000;2.937359
3996.000000;2.920476
3995.000000;2.910231
3994.000000;2.907051
3993.000000;2.916397
3992.000000;2.938687
3991.000000;2.970045
3990.000000;3.012547
3989.000000;3.075792
3988.000000;3.170594
3987.000000;3.295951
3986.000000;3.407948
3985.000000;3.439184
3984.000000;3.393635
3983.000000;3.318381
3982.000000;3.243681
3981.000000;3.196697
3980.000000;3.176883
3979.000000;3.159605
3978.000000;3.138605
3977.000000;3.127541
3976.000000;3.141863
3975.000000;3.185867
3974.000000;3.254466
3973.000000;3.350745
3972.000000;3.479729
3971.000000;3.675913
3970.000000;3.863906
3969.000000;3.682977
3968.000000;3.416867
3967.000000;3.235476
3966.000000;3.148046
3965.000000;3.155495
3964.000000;3.215450
3963.000000;3.238986
3962.000000;3.194419
3961.000000;3.160051
3960.000000;3.182005
3959.000000;3.238812
3958.000000;3.271992
3957.000000;3.262699
3956.000000;3.251711
3955.000000;3.257970
3954.000000;3.266360
3953.000000;3.258962
3952.000000;3.229485
3951.000000;3.188013
3950.000000;3.152144
3949.000000;3.133778
3948.000000;3.140522
3947.000000;3.168703
3946.000000;3.202962
3945.000000;3.242509
3944.000000;3.312099
3943.000000;3.430268
3942.000000;3.532912
3941.000000;3.546424
3940.000000;3.480267
3939.000000;3.368420
3938.000000;3.286898
3937.000000;3.261981
3936.000000;3.285515
3935.000000;3.351526
3934.000000;3.455431
3933.000000;3.572900
3932.000000;3.635310
3931.000000;3.600057
3930.000000;3.556545
3929.000000;3.568127
3928.000000;3.622138
3927.000000;3.670950
3926.000000;3.668376
3925.000000;3.615020
3924.000000;3.583190
3923.000000;3.612551
3922.000000;3.830749
3921.000000;4.334652
3920.000000;3.986325
3919.000000;3.808923
3918.000000;3.935975
3917.000000;4.055812
3916.000000;3.857718
3915.000000;3.646248
3914.000000;3.530334
3913.000000;3.488736
3912.000000;3.553383
3911.000000;3.712661
3910.000000;3.730829
3909.000000;3.642093
3908.000000;3.693850
3907.000000;4.061538
3906.000000;3.914625
3905.000000;3.591796
3904.000000;3.515943
3903.000000;3.529241
3902.000000;3.582540
3901.000000;3.664566
3900.000000;3.779516
3899.000000;3.919012
3898.000000;4.035359
3897.000000;4.106451
3896.000000;4.120817
3895.000000;4.003774
3894.000000;3.800607
3893.000000;3.623653
3892.000000;3.544112
3891.000000;3.601927
3890.000000;3.754545
3889.000000;3.883791
3888.000000;4.027935
3887.000000;3.966642
3886.000000;3.712868
3885.000000;3.597603
3884.000000;3.623228
3883.000000;3.761097
3882.000000;4.064538
3881.000000;3.882966
3880.000000;3.589444
3879.000000;3.533590
3878.000000;3.601585
3877.000000;3.669719
3876.000000;3.631917
3875.000000;3.558244
3874.000000;3.564556
3873.000000;3.650246
3872.000000;3.678754
3871.000000;3.625169
3870.000000;3.580480
3869.000000;3.563285
3868.000000;3.553026
3867.000000;3.556309
3866.000000;3.587935
3865.000000;3.766775
3864.000000;4.019229
3863.000000;3.810192
3862.000000;3.674724
3861.000000;3.651505
3860.000000;3.654316
3859.000000;3.744369
3858.000000;3.758765
3857.000000;3.594578
3856.000000;3.443732
3855.000000;3.402296
3854.000000;3.441761
3853.000000;3.670438
3852.000000;4.470443
3851.000000;4.023173
3850.000000;3.838433
3849.000000;3.794132
3848.000000;3.726847
3847.000000;3.710132
3846.000000;3.765749
3845.000000;3.797299
3844.000000;3.719993
3843.000000;3.663852
3842.000000;3.708979
3841.000000;3.875223
3840.000000;4.201654
3839.000000;4.738148
3838.000000;4.195069
3837.000000;3.646220
3836.000000;3.443033
3835.000000;3.484817
3834.000000;3.545792
3833.000000;3.527253
3832.000000;3.611342
3831.000000;3.854509
3830.000000;4.294920
3829.000000;4.000308
3828.000000;3.661237
3827.000000;3.496230
3826.000000;3.491084
3825.000000;3.651113
3824.000000;3.575477
3823.000000;3.467937
3822.000000;3.614906
3821.000000;3.928063
3820.000000;3.891549
3819.000000;3.709676
3818.000000;3.632147
3817.000000;3.614731
3816.000000;3.559858
3815.000000;3.429790
3814.000000;3.362413
3813.000000;3.450373
3812.000000;3.719322
3811.000000;3.841423
3810.000000;3.652969
3809.000000;3.622571
3808.000000;3.709553
3807.000000;3.756343
3806.000000;3.612695
3805.000000;3.422146
3804.000000;3.302467
3803.000000;3.242501
3802.000000;3.198331
3801.000000;3.130788
3800.000000;3.092355
3799.000000;3.165162
3798.000000;3.381765
3797.000000;3.510197
3796.000000;3.411771
3795.000000;3.387386
3794.000000;3.478439
3793.000000;3.632414
3792.000000;3.949714
3791.000000;4.527501
3790.000000;4.015398
3789.000000;3.915203
3788.000000;3.944360
3787.000000;3.855993
3786.000000;3.884827
3785.000000;3.936571
3784.000000;3.796793
3783.000000;3.765391
3782.000000;3.685637
3781.000000;3.389235
3780.000000;3.240046
3779.000000;3.267447
3778.000000;3.525040
3777.000000;3.937012
3776.000000;3.684127
3775.000000;3.484106
3774.000000;3.453720
3773.000000;3.496229
3772.000000;3.681244
3771.000000;3.913656
3770.000000;3.780858
3769.000000;3.731060
3768.000000;4.054313
3767.000000;4.406407
3766.000000;3.890722
3765.000000;3.748477
3764.000000;3.802687
3763.000000;3.889308
3762.000000;3.805744
3761.000000;3.604612
3760.000000;3.512323
3759.000000;3.614216
3758.000000;3.614668
3757.000000;3.390798
3756.000000;3.281924
3755.000000;3.272390
3754.000000;3.328180
3753.000000;3.445329
3752.000000;3.797825
3751.000000;3.754464
3750.000000;3.319152
3749.000000;3.209530
3748.000000;3.322624
3747.000000;3.628813
3746.000000;3.796494
3745.000000;3.526878
3744.000000;3.366321
3743.000000;3.464818
3742.000000;3.760802
3741.000000;4.114260
3740.000000;4.937018
3739.000000;4.270333
3738.000000;3.880589
3737.000000;3.579388
3736.000000;3.535235
3735.000000;3.932030
3734.000000;3.770587
3733.000000;3.485624
3732.000000;3.501410
3731.000000;3.780191
3730.000000;3.987942
3729.000000;3.624226
3728.000000;3.437267
3727.000000;3.352918
3726.000000;3.343678
3725.000000;3.415248
3724.000000;3.512386
3723.000000;3.607166
3722.000000;3.656879
3721.000000;3.700385
3720.000000;3.717726
3719.000000;3.826764
3718.000000;4.140546
3717.000000;4.044535
3716.000000;3.906662
3715.000000;4.113187
3714.000000;4.677877
3713.000000;4.351286
3712.000000;3.953375
3711.000000;3.795087
3710.000000;3.681932
3709.000000;3.629908
3708.000000;3.709544
3707.000000;3.824583
3706.000000;3.812147
3705.000000;3.749383
3704.000000;3.643147
3703.000000;3.543644
3702.000000;3.485695
3701.000000;3.456915
3700.000000;3.415346
3699.000000;3.353585
3698.000000;3.313121
3697.000000;3.337752
3696.000000;3.488448
3695.000000;3.571764
3694.000000;3.410005
3693.000000;3.306989
3692.000000;3.301028
3691.000000;3.364320
3690.000000;3.484449
3689.000000;3.637222
3688.000000;3.758272
3687.000000;3.771546
3686.000000;3.792822
3685.000000;3.823589
3684.000000;3.914986
3683.000000;4.081336
3682.000000;3.862534
3681.000000;3.605896
3680.000000;3.458600
3679.000000;3.360283
3678.000000;3.306202
3677.000000;3.335679
3676.000000;3.499403
3675.000000;3.631198
3674.000000;3.551441
3673.000000;3.556505
3672.000000;3.617027
3671.000000;3.661879
3670.000000;4.162381
3669.000000;4.050554
3668.000000;3.598419
3667.000000;3.634750
3666.000000;3.737827
3665.000000;3.741837
3664.000000;3.578140
3663.000000;3.422354
3662.000000;3.344663
3661.000000;3.402982
3660.000000;3.616727
3659.000000;3.569750
3658.000000;3.397629
3657.000000;3.393145
3656.000000;3.498667
3655.000000;3.556405
3654.000000;3.489196
3653.000000;3.396908
3652.000000;3.297387
3651.000000;3.242142
3650.000000;3.311428
3649.000000;3.571382
3648.000000;3.686242
3647.000000;3.517243
3646.000000;3.535656
3645.000000;3.668920
3644.000000;3.916602
3643.000000;4.022285
3642.000000;3.697471
3641.000000;3.649237
3640.000000;3.692958
3639.000000;3.544169
3638.000000;3.502784
3637.000000;3.745863
3636.000000;4.013116
3635.000000;3.748308
3634.000000;3.700427
3633.000000;3.924911
3632.000000;3.964344
3631.000000;3.666275
3630.000000;3.584040
3629.000000;3.611945
3628.000000;3.574629
3627.000000;3.609024
3626.000000;3.709552
3625.000000;3.791975
3624.000000;4.020563
3623.000000;4.236490
3622.000000;3.727773
3621.000000;3.560406
3620.000000;3.995067
3619.000000;4.153039
3618.000000;3.599746
3617.000000;3.561935
3616.000000;3.640564
3615.000000;3.848614
3614.000000;3.943246
3613.000000;3.961095
3612.000000;4.381717
3611.000000;3.991453
3610.000000;3.826152
3609.000000;3.822043
3608.000000;3.785875
3607.000000;3.987988
3606.000000;4.073436
3605.000000;3.765026
3604.000000;3.780256
3603.000000;4.214993
3602.000000;4.062061
3601.000000;3.980745
3600.000000;4.245288
3599.000000;3.851257
3598.000000;3.566400
3597.000000;3.483431
3596.000000;3.536930
3595.000000;3.672173
3594.000000;3.787283
3593.000000;3.827131
3592.000000;3.828119
3591.000000;3.773909
3590.000000;3.771616
3589.000000;3.806717
3588.000000;3.944704
3587.000000;4.316264
3586.000000;3.896071
3585.000000;3.601189
3584.000000;3.531001
3583.000000;3.563408
3582.000000;3.725370
3581.000000;3.839174
3580.000000;3.640038
3579.000000;3.476010
3578.000000;3.434036
3577.000000;3.576677
3576.000000;3.767269
3575.000000;3.594926
3574.000000;3.562249
3573.000000;3.686170
3572.000000;3.854258
3571.000000;3.810766
3570.000000;3.497349
3569.000000;3.349997
3568.000000;3.345004
3567.000000;3.429187
3566.000000;3.490775
3565.000000;3.480942
3564.000000;3.501678
3563.000000;3.710180
3562.000000;4.159621
3561.000000;3.753404
3560.000000;3.585652
3559.000000;3.772569
3558.000000;3.864958
3557.000000;3.814451
3556.000000;3.703960
3555.000000;3.603741
3554.000000;3.627759
3553.000000;3.743914
3552.000000;3.974728
3551.000000;3.974481
3550.000000;3.677267
3549.000000;3.522034
3548.000000;3.553177
3547.000000;3.633082
3546.000000;3.454485
3545.000000;3.335997
3544.000000;3.394832
3543.000000;3.690942
3542.000000;4.113972
3541.000000;3.757706
3540.000000;3.562065
3539.000000;3.490079
3538.000000;3.458640
3537.000000;3.437635
3536.000000;3.433733
3535.000000;3.498640
3534.000000;3.766985
3533.000000;4.034475
3532.000000;3.757954
3531.000000;3.589892
3530.000000;3.649478
3529.000000;4.169306
3528.000000;3.911443
3527.000000;3.543552
3526.000000;3.547391
3525.000000;3.646822
3524.000000;3.645734
3523.000000;3.680973
3522.000000;3.838188
3521.000000;3.772962
3520.000000;3.712233
3519.000000;3.937586
3518.000000;4.041361
3517.000000;3.627561
3516.000000;3.396073
3515.000000;3.314967
3514.000000;3.356030
3513.000000;3.509147
3512.000000;3.760036
3511.000000;3.905535
3510.000000;3.813544
3509.000000;3.864167
3508.000000;3.959203
3507.000000;3.886072
3506.000000;3.801702
3505.000000;3.725060
3504.000000;3.561193
3503.000000;3.461142
3502.000000;3.474549
3501.000000;3.569191
3500.000000;3.800310
3499.000000;3.760293
3498.000000;3.515227
3497.000000;3.495455
3496.000000;3.621153
3495.000000;3.866956
3494.000000;3.908875
3493.000000;3.591571
3492.000000;3.464567
3491.000000;3.490742
3490.000000;3.572655
3489.000000;3.631699
3488.000000;3.595086
3487.000000;3.531232
3486.000000;3.496525
3485.000000;3.582638
3484.000000;3.878154
3483.000000;3.701612
3482.000000;3.405485
3481.000000;3.352103
3480.000000;3.429650
3479.000000;3.614580
3478.000000;3.769470
3477.000000;3.758071
3476.000000;3.753704
3475.000000;3.733625
3474.000000;3.569242
3473.000000;3.399864
3472.000000;3.334603
3471.000000;3.355141
3470.000000;3.447191
3469.000000;3.496222
3468.000000;3.415763
3467.000000;3.380128
3466.000000;3.430278
3465.000000;3.524346
3464.000000;3.540723
3463.000000;3.879817
3462.000000;4.198602
3461.000000;3.451880
3460.000000;3.294671
3459.000000;3.280812
3458.000000;3.271437
3457.000000;3.268975
3456.000000;3.313628
3455.000000;3.467677
3454.000000;3.695706
3453.000000;3.848181
3452.000000;3.719706
3451.000000;3.558073
3450.000000;3.521620
3449.000000;3.562818
3448.000000;3.585818
3447.000000;3.559914
3446.000000;3.779357
3445.000000;4.258583
3444.000000;3.599064
3443.000000;3.335998
3442.000000;3.234781
3441.000000;3.205645
3440.000000;3.273183
3439.000000;3.359609
3438.000000;3.459816
3437.000000;3.671799
3436.000000;3.782616
3435.000000;3.595276
3434.000000;3.507564
3433.000000;3.485285
3432.000000;3.442319
3431.000000;3.387613
3430.000000;3.407814
3429.000000;3.444933
3428.000000;3.406814
3427.000000;3.349810
3426.000000;3.302337
3425.000000;3.298943
3424.000000;3.325888
3423.000000;3.364424
3422.000000;3.443165
3421.000000;3.610641
3420.000000;3.906751
3419.000000;4.004455
3418.000000;4.026583
3417.000000;4.302107
3416.000000;4.010759
3415.000000;3.607820
3414.000000;3.378721
3413.000000;3.291622
3412.000000;3.323706
3411.000000;3.396991
3410.000000;3.429117
3409.000000;3.454235
3408.000000;3.740060
3407.000000;4.028321
3406.000000;3.607652
3405.000000;3.454498
3404.000000;3.397031
3403.000000;3.400856
3402.000000;3.408716
3401.000000;3.339061
3400.000000;3.325640
3399.000000;3.385205
3398.000000;3.656151
3397.000000;4.059837
3396.000000;3.620793
3395.000000;3.482331
3394.000000;3.651731
3393.000000;3.774875
3392.000000;3.568178
3391.000000;3.446539
3390.000000;3.484501
3389.000000;3.630548
3388.000000;3.842398
3387.000000;3.809852
3386.000000;3.644361
3385.000000;3.572824
3384.000000;3.542860
3383.000000;3.458824
3382.000000;3.399159
3381.000000;3.436806
3380.000000;3.466341
3379.000000;3.473590
3378.000000;3.500015
3377.000000;3.534776
3376.000000;3.525238
3375.000000;3.355338
3374.000000;3.228106
3373.000000;3.257858
3372.000000;3.593635
3371.000000;3.789175
3370.000000;3.571506
3369.000000;3.813581
3368.000000;3.641218
3367.000000;3.393431
3366.000000;3.524596
3365.000000;3.784335
3364.000000;3.627458
3363.000000;3.626094
3362.000000;3.753098
3361.000000;3.645246
3360.000000;3.656285
3359.000000;3.878930
3358.000000;3.916304
3357.000000;3.750054
3356.000000;3.777069
3355.000000;3.849290
3354.000000;4.274423
3353.000000;4.286975
3352.000000;3.663563
3351.000000;3.497230
3350.000000;3.507538
3349.000000;3.726037
3348.000000;3.551157
3347.000000;3.244521
3346.000000;3.166484
3345.000000;3.260714
3344.000000;3.530886
3343.000000;3.929902
3342.000000;4.093537
3341.000000;4.083029
3340.000000;4.610922
3339.000000;3.999116
3338.000000;3.602355
3337.000000;3.448858
3336.000000;3.342287
3335.000000;3.364263
3334.000000;3.472102
3333.000000;3.354462
3332.000000;3.195700
3331.000000;3.151132
3330.000000;3.173350
3329.000000;3.238612
3328.000000;3.299785
3327.000000;3.324193
3326.000000;3.349820
3325.000000;3.384159
3324.000000;3.391394
3323.000000;3.362530
3322.000000;3.336430
3321.000000;3.350792
3320.000000;3.418802
3319.000000;3.630414
3318.000000;3.688278
3317.000000;3.390466
3316.000000;3.266489
3315.000000;3.317814
3314.000000;3.427916
3313.000000;3.405752
3312.000000;3.263428
3311.000000;3.187219
3310.000000;3.225805
3309.000000;3.371922
3308.000000;3.557456
3307.000000;3.682725
3306.000000;3.574009
3305.000000;3.307473
3304.000000;3.170542
3303.000000;3.189898
3302.000000;3.367027
3301.000000;3.625956
3300.000000;3.833040
3299.000000;4.306939
3298.000000;4.329120
3297.000000;4.067373
3296.000000;4.118417
3295.000000;4.060289
3294.000000;3.971271
3293.000000;3.660127
3292.000000;3.453461
3291.000000;3.463579
3290.000000;3.574229
3289.000000;3.516056
3288.000000;3.302485
3287.000000;3.182225
3286.000000;3.215613
3285.000000;3.399074
3284.000000;3.710922
3283.000000;3.980510
3282.000000;3.974194
3281.000000;3.915406
3280.000000;3.903187
3279.000000;3.831813
3278.000000;3.858810
3277.000000;4.063151
3276.000000;3.664658
3275.000000;3.307216
3274.000000;3.162665
3273.000000;3.133274
3272.000000;3.200196
3271.000000;3.331440
3270.000000;3.318464
3269.000000;3.201725
3268.000000;3.194621
3267.000000;3.301196
3266.000000;3.469519
3265.000000;3.680875
3264.000000;3.843618
3263.000000;3.678439
3262.000000;3.527816
3261.000000;3.522871
3260.000000;3.643885
3259.000000;3.711083
3258.000000;3.555701
3257.000000;3.530029
3256.000000;3.618560
3255.000000;3.544944
3254.000000;3.397062
3253.000000;3.300831
3252.000000;3.338069
3251.000000;3.401603
3250.000000;3.273850
3249.000000;3.163917
3248.000000;3.114966
3247.000000;3.099086
3246.000000;3.111318
3245.000000;3.138112
3244.000000;3.175973
3243.000000;3.250972
3242.000000;3.350143
3241.000000;3.390663
3240.000000;3.380841
3239.000000;3.488458
3238.000000;4.142256
3237.000000;3.868395
3236.000000;3.454496
3235.000000;3.409004
3234.000000;3.476047
3233.000000;3.745798
3232.000000;4.348098
3231.000000;4.222531
3230.000000;3.624900
3229.000000;3.248835
3228.000000;3.048697
3227.000000;2.977347
3226.000000;3.009519
3225.000000;3.111103
3224.000000;3.171974
3223.000000;3.134700
3222.000000;3.098640
3221.000000;3.112674
3220.000000;3.168774
3219.000000;3.251375
3218.000000;3.365158
3217.000000;3.536590
3216.000000;3.825284
3215.000000;3.927869
3214.000000;3.703521
3213.000000;3.585118
3212.000000;3.510417
3211.000000;3.485506
3210.000000;3.502958
3209.000000;3.444261
3208.000000;3.380484
3207.000000;3.423668
3206.000000;3.648753
3205.000000;3.803006
3204.000000;3.548476
3203.000000;3.445097
3202.000000;3.587040
3201.000000;3.796663
3200.000000;3.535189
3199.000000;3.423159
3198.000000;3.491425
3197.000000;3.574272
3196.000000;3.623832
3195.000000;3.561345
3194.000000;3.361820
3193.000000;3.310335
3192.000000;3.473142
3191.000000;3.733422
3190.000000;3.972034
3189.000000;3.983210
3188.000000;3.704383
3187.000000;3.584384
3186.000000;3.661550
3185.000000;4.078515
3184.000000;3.685949
3183.000000;3.297058
3182.000000;3.138185
3181.000000;3.081080
3180.000000;3.131175
3179.000000;3.284555
3178.000000;3.413452
3177.000000;3.274314
3176.000000;3.151371
3175.000000;3.147265
3174.000000;3.220058
3173.000000;3.333588
3172.000000;3.510837
3171.000000;3.831270
3170.000000;4.060732
3169.000000;3.798629
3168.000000;3.468696
3167.000000;3.305356
3166.000000;3.248776
3165.000000;3.203619
3164.000000;3.178010
3163.000000;3.165860
3162.000000;3.173571
3161.000000;3.262980
3160.000000;3.535033
3159.000000;4.033877
3158.000000;3.761197
3157.000000;3.542816
3156.000000;3.652568
3155.000000;4.203460
3154.000000;3.975542
3153.000000;3.772188
3152.000000;3.882261
3151.000000;3.912581
3150.000000;3.902775
3149.000000;4.117978
3148.000000;4.370645
3147.000000;3.859584
3146.000000;3.610112
3145.000000;3.471780
3144.000000;3.440382
3143.000000;3.567731
3142.000000;3.738514
3141.000000;3.627351
3140.000000;3.422500
3139.000000;3.274604
3138.000000;3.215156
3137.000000;3.228600
3136.000000;3.296126
3135.000000;3.353925
3134.000000;3.274161
3133.000000;3.158300
3132.000000;3.132140
3131.000000;3.148933
3130.000000;3.105078
3129.000000;3.066496
3128.000000;3.139492
3127.000000;3.342009
3126.000000;3.414822
3125.000000;3.284957
3124.000000;3.198184
3123.000000;3.209441
3122.000000;3.318992
3121.000000;3.368139
3120.000000;3.299609
3119.000000;3.252043
3118.000000;3.228527
3117.000000;3.217042
3116.000000;3.203850
3115.000000;3.203615
3114.000000;3.254561
3113.000000;3.463264
3112.000000;3.929072
3111.000000;3.649462
3110.000000;3.424957
3109.000000;3.417785
3108.000000;3.271792
3107.000000;3.152813
3106.000000;3.178362
3105.000000;3.305048
3104.000000;3.426123
3103.000000;3.464808
3102.000000;3.471173
3101.000000;3.493770
3100.000000;3.598115
3099.000000;3.736634
3098.000000;3.577336
3097.000000;3.381976
3096.000000;3.325933
3095.000000;3.360221
3094.000000;3.449329
3093.000000;3.577257
3092.000000;3.426819
3091.000000;3.223894
3090.000000;3.166752
3089.000000;3.231413
3088.000000;3.392704
3087.000000;3.604173
3086.000000;3.944492
3085.000000;4.210520
3084.000000;3.805994
3083.000000;3.669147
3082.000000;3.701578
3081.000000;3.821630
3080.000000;3.746349
3079.000000;3.451416
3078.000000;3.231294
3077.000000;3.175960
3076.000000;3.255176
3075.000000;3.220444
3074.000000;3.151530
3073.000000;3.226572
3072.000000;3.437960
3071.000000;3.551537
3070.000000;3.445354
3069.000000;3.469606
3068.000000;3.666285
3067.000000;3.602501
3066.000000;3.351208
3065.000000;3.184220
3064.000000;3.091310
3063.000000;3.065594
3062.000000;3.118444
3061.000000;3.274259
3060.000000;3.673344
3059.000000;4.055999
3058.000000;3.620889
3057.000000;3.590662
3056.000000;3.597700
3055.000000;3.445412
3054.000000;3.309430
3053.000000;3.318830
3052.000000;3.408823
3051.000000;3.841013
3050.000000;3.855242
3049.000000;3.372689
3048.000000;3.222696
3047.000000;3.213823
3046.000000;3.369827
3045.000000;3.703356
3044.000000;3.557466
3043.000000;3.426728
3042.000000;3.453107
3041.000000;3.492979
3040.000000;3.433710
3039.000000;3.407081
3038.000000;3.621991
3037.000000;3.846399
3036.000000;3.427370
3035.000000;3.636866
3034.000000;4.316600
3033.000000;3.332457
3032.000000;3.265039
3031.000000;3.400470
3030.000000;3.667404
3029.000000;3.590268
3028.000000;3.573547
3027.000000;3.655426
3026.000000;3.713846
3025.000000;3.670209
3024.000000;3.336097
3023.000000;3.171168
3022.000000;3.159356
3021.000000;3.161813
3020.000000;3.195615
3019.000000;3.375910
3018.000000;3.615046
3017.000000;3.331839
3016.000000;3.148509
3015.000000;3.133526
3014.000000;3.229332
3013.000000;3.315725
3012.000000;3.239025
3011.000000;3.159148
3010.000000;3.131323
3009.000000;3.164247
3008.000000;3.311136
3007.000000;3.428602
3006.000000;3.324150
3005.000000;3.289639
3004.000000;3.309762
3003.000000;3.371168
3002.000000;3.582740
3001.000000;3.820595
3000.000000;3.712331
2999.000000;4.157211
2998.000000;3.791757
2997.000000;3.335599
2996.000000;3.250090
2995.000000;3.300292
2994.000000;3.492800
2993.000000;3.619143
2992.000000;3.551245
2991.000000;3.522250
2990.000000;3.587676
2989.000000;3.699236
2988.000000;3.550065
2987.000000;3.408569
2986.000000;3.456636
2985.000000;3.566708
2984.000000;3.373138
2983.000000;3.270974
2982.000000;3.337453
2981.000000;3.532055
2980.000000;3.727981
2979.000000;3.810426
2978.000000;3.816181
2977.000000;3.699613
2976.000000;3.530693
2975.000000;3.375633
2974.000000;3.242499
2973.000000;3.133587
2972.000000;3.057997
2971.000000;3.034663
2970.000000;3.086924
2969.000000;3.228668
2968.000000;3.365984
2967.000000;3.307674
2966.000000;3.166505
2965.000000;3.073669
2964.000000;3.056602
2963.000000;3.104868
2962.000000;3.185776
2961.000000;3.250827
2960.000000;3.265861
2959.000000;3.277928
2958.000000;3.405831
2957.000000;3.837558
2956.000000;3.510645
2955.000000;3.223100
2954.000000;3.191420
2953.000000;3.335536
2952.000000;3.785452
2951.000000;4.111188
2950.000000;3.549092
2949.000000;3.436354
2948.000000;3.421274
2947.000000;3.617159
2946.000000;3.775411
2945.000000;3.489036
2944.000000;3.312174
2943.000000;3.284430
2942.000000;3.395718
2941.000000;3.696065
2940.000000;4.407681
2939.000000;4.022526
2938.000000;3.565505
2937.000000;3.425967
2936.000000;3.499186
2935.000000;3.827762
2934.000000;4.425119
2933.000000;4.023062
2932.000000;4.144872
2931.000000;4.351977
2930.000000;4.074566
2929.000000;4.106835
2928.000000;4.581251
2927.000000;3.819321
2926.000000;3.509936
2925.000000;3.462851
2924.000000;3.642584
2923.000000;3.853874
2922.000000;3.797259
2921.000000;3.683222
2920.000000;3.472336
2919.000000;3.285025
2918.000000;3.191475
2917.000000;3.205351
2916.000000;3.435410
2915.000000;3.685864
2914.000000;3.392720
2913.000000;3.268692
2912.000000;3.316929
2911.000000;3.464192
2910.000000;3.726012
2909.000000;3.675108
2908.000000;3.585623
2907.000000;3.672051
2906.000000;3.532358
2905.000000;3.418644
2904.000000;3.525245
2903.000000;3.939896
2902.000000;3.703456
2901.000000;3.465393
2900.000000;3.420517
2899.000000;3.451166
2898.000000;3.389327
2897.000000;3.220960
2896.000000;3.107263
2895.000000;3.090684
2894.000000;3.160076
2893.000000;3.243729
2892.000000;3.299061
2891.000000;3.420800
2890.000000;3.574784
2889.000000;3.427078
2888.000000;3.287297
2887.000000;3.293336
2886.000000;3.388800
2885.000000;3.565316
2884.000000;3.623659
2883.000000;3.481223
2882.000000;3.462249
2881.000000;3.655252
2880.000000;4.341956
2879.000000;3.663890
2878.000000;3.375756
2877.000000;3.216361
2876.000000;3.174000
2875.000000;3.229132
2874.000000;3.344813
2873.000000;3.642202
2872.000000;3.992820
2871.000000;3.474871
2870.000000;3.479397
2869.000000;3.612475
2868.000000;3.372667
2867.000000;3.210641
2866.000000;3.304203
2865.000000;3.641818
2864.000000;3.660169
2863.000000;3.465061
2862.000000;3.352489
2861.000000;3.192196
2860.000000;3.093786
2859.000000;3.077967
2858.000000;3.160190
2857.000000;3.288324
2856.000000;3.360609
2855.000000;3.465803
2854.000000;3.789800
2853.000000;3.964382
2852.000000;3.655175
2851.000000;3.518832
2850.000000;3.365788
2849.000000;3.270779
2848.000000;3.252672
2847.000000;3.278456
2846.000000;3.335642
2845.000000;3.379738
2844.000000;3.342943
2843.000000;3.322311
2842.000000;3.371248
2841.000000;3.443410
2840.000000;3.433261
2839.000000;3.310607
2838.000000;3.224644
2837.000000;3.243409
2836.000000;3.299117
2835.000000;3.241678
2834.000000;3.184317
2833.000000;3.257756
2832.000000;3.499778
2831.000000;3.655476
2830.000000;3.600051
2829.000000;3.509880
2828.000000;3.339134
2827.000000;3.212527
2826.000000;3.192017
2825.000000;3.303070
2824.000000;3.536513
2823.000000;3.611572
2822.000000;3.576882
2821.000000;3.600432
2820.000000;3.553324
2819.000000;3.443096
2818.000000;3.314091
2817.000000;3.196091
2816.000000;3.126039
2815.000000;3.107517
2814.000000;3.129579
2813.000000;3.187084
2812.000000;3.258675
2811.000000;3.277052
2810.000000;3.220457
2809.000000;3.170728
2808.000000;3.231003
2807.000000;3.430884
2806.000000;4.008856
2805.000000;4.082052
2804.000000;3.629388
2803.000000;3.504308
2802.000000;3.450944
2801.000000;3.358146
2800.000000;3.310191
2799.000000;3.308357
2798.000000;3.305012
2797.000000;3.332652
2796.000000;3.409933
2795.000000;3.562082
2794.000000;3.714179
2793.000000;3.619683
2792.000000;3.520754
2791.000000;3.414261
2790.000000;3.266832
2789.000000;3.158405
2788.000000;3.125375
2787.000000;3.191370
2786.000000;3.383930
2785.000000;3.686930
2784.000000;3.804556
2783.000000;3.574167
2782.000000;3.399642
2781.000000;3.323336
2780.000000;3.266451
2779.000000;3.279241
2778.000000;3.400249
2777.000000;3.982717
2776.000000;3.855703
2775.000000;3.610938
2774.000000;3.796937
2773.000000;4.248017
2772.000000;3.648414
2771.000000;3.406083
2770.000000;3.325998
2769.000000;3.443386
2768.000000;3.772273
2767.000000;3.534996
2766.000000;3.511919
2765.000000;3.889698
2764.000000;3.686499
2763.000000;3.310653
2762.000000;3.211977
2761.000000;3.234474
2760.000000;3.366858
2759.000000;3.288380
2758.000000;3.121560
2757.000000;3.114914
2756.000000;3.226352
2755.000000;3.300887
2754.000000;3.270457
2753.000000;3.299945
2752.000000;3.565780
2751.000000;3.720287
2750.000000;3.361218
2749.000000;3.205388
2748.000000;3.205012
2747.000000;3.326004
2746.000000;3.662811
2745.000000;4.020883
2744.000000;3.742032
2743.000000;3.867744
2742.000000;3.609163
2741.000000;3.539164
2740.000000;3.864109
2739.000000;4.328218
2738.000000;3.959186
2737.000000;3.807439
2736.000000;3.531006
2735.000000;3.474437
2734.000000;3.490646
2733.000000;3.559732
2732.000000;3.678777
2731.000000;3.749189
2730.000000;3.705216
2729.000000;3.657543
2728.000000;3.636002
2727.000000;3.666892
2726.000000;3.707171
2725.000000;4.335550
2724.000000;3.999944
2723.000000;3.689697
2722.000000;3.855316
2721.000000;4.113334
2720.000000;3.890730
2719.000000;3.896768
2718.000000;3.853361
2717.000000;3.619233
2716.000000;3.465965
2715.000000;3.415382
2714.000000;3.436981
2713.000000;3.461264
2712.000000;3.437489
2711.000000;3.444825
2710.000000;3.572657
2709.000000;3.798035
2708.000000;3.773077
2707.000000;3.490920
2706.000000;3.295189
2705.000000;3.237093
2704.000000;3.312913
2703.000000;3.585627
2702.000000;3.690343
2701.000000;3.496576
2700.000000;3.470254
2699.000000;3.558127
2698.000000;3.772959
2697.000000;4.256605
2696.000000;3.758566
2695.000000;3.438053
2694.000000;3.326669
2693.000000;3.355658
2692.000000;3.445321
2691.000000;3.344110
2690.000000;3.227886
2689.000000;3.150616
2688.000000;3.086744
2687.000000;3.065757
2686.000000;3.100345
2685.000000;3.164881
2684.000000;3.200484
2683.000000;3.217248
2682.000000;3.292545
2681.000000;3.369051
2680.000000;3.319920
2679.000000;3.268455
2678.000000;3.324726
2677.000000;3.500447
2676.000000;3.660780
2675.000000;3.672153
2674.000000;3.592249
2673.000000;3.492699
2672.000000;3.446108
2671.000000;3.419487
2670.000000;3.382892
2669.000000;3.350570
2668.000000;3.377255
2667.000000;3.514988
2666.000000;3.678868
2665.000000;3.427710
2664.000000;3.217821
2663.000000;3.149091
2662.000000;3.208648
2661.000000;3.414034
2660.000000;3.588162
2659.000000;3.509661
2658.000000;3.720750
2657.000000;4.198074
2656.000000;3.612873
2655.000000;3.370582
2654.000000;3.257257
2653.000000;3.284938
2652.000000;3.448149
2651.000000;3.489516
2650.000000;3.335921
2649.000000;3.279247
2648.000000;3.273970
2647.000000;3.236134
2646.000000;3.214389
2645.000000;3.292493
2644.000000;3.518961
2643.000000;3.797352
2642.000000;3.761245
2641.000000;3.623037
2640.000000;3.473388
2639.000000;3.383117
2638.000000;3.390479
2637.000000;3.499349
2636.000000;3.671576
2635.000000;3.886938
2634.000000;4.464850
2633.000000;3.887124
2632.000000;3.768532
2631.000000;4.111983
2630.000000;4.090729
2629.000000;3.662272
2628.000000;3.600336
2627.000000;3.562480
2626.000000;3.503476
2625.000000;3.414343
2624.000000;3.304561
2623.000000;3.261379
2622.000000;3.328709
2621.000000;3.661065
2620.000000;3.899204
2619.000000;3.578439
2618.000000;3.557772
2617.000000;3.778916
2616.000000;4.000929
2615.000000;4.151052
2614.000000;4.152156
2613.000000;3.931561
2612.000000;3.795808
2611.000000;3.650103
2610.000000;3.495072
2609.000000;3.419808
2608.000000;3.440835
2607.000000;3.505502
2606.000000;3.489512
2605.000000;3.421565
2604.000000;3.383826
2603.000000;3.371109
2602.000000;3.356345
2601.000000;3.332011
2600.000000;3.343772
2599.000000;3.482569
2598.000000;3.769839
2597.000000;3.624388
2596.000000;3.376036
2595.000000;3.297747
2594.000000;3.306951
2593.000000;3.437286
2592.000000;3.684735
2591.000000;3.685792
2590.000000;3.517530
2589.000000;3.480573
2588.000000;3.684261
2587.000000;3.804369
2586.000000;3.553698
2585.000000;3.428159
2584.000000;3.389173
2583.000000;3.432796
2582.000000;3.536652
2581.000000;3.555191
2580.000000;3.480094
2579.000000;3.457617
2578.000000;3.474722
2577.000000;3.463654
2576.000000;3.410852
2575.000000;3.313342
2574.000000;3.175401
2573.000000;3.038069
2572.000000;2.951394
2571.000000;2.933634
2570.000000;2.973173
2569.000000;3.035852
2568.000000;3.080862
2567.000000;3.097676
2566.000000;3.108156
2565.000000;3.130147
2564.000000;3.156570
2563.000000;3.164824
2562.000000;3.147413
2561.000000;3.113589
2560.000000;3.070564
2559.000000;3.033633
2558.000000;3.029425
2557.000000;3.076997
2556.000000;3.173449
2555.000000;3.270363
2554.000000;3.316485
2553.000000;3.351299
2552.000000;3.416931
2551.000000;3.462880
2550.000000;3.386669
2549.000000;3.303234
2548.000000;3.299184
2547.000000;3.298936
2546.000000;3.270401
2545.000000;3.248560
2544.000000;3.228342
2543.000000;3.238245
2542.000000;3.316607
2541.000000;3.691641
2540.000000;4.002744
2539.000000;3.614066
2538.000000;3.633528
2537.000000;3.752277
2536.000000;3.752732
2535.000000;3.632022
2534.000000;3.443183
2533.000000;3.344555
2532.000000;3.430377
2531.000000;3.742531
2530.000000;3.491095
2529.000000;3.312980
2528.000000;3.464152
2527.000000;4.073164
2526.000000;3.645076
2525.000000;3.508742
2524.000000;3.773470
2523.000000;3.997554
2522.000000;3.721274
2521.000000;3.864218
2520.000000;3.903639
2519.000000;3.679548
2518.000000;3.628922
2517.000000;3.654357
2516.000000;3.706901
2515.000000;3.688446
2514.000000;3.637072
2513.000000;3.647139
2512.000000;3.714956
2511.000000;3.834327
2510.000000;3.785506
2509.000000;3.561692
2508.000000;3.453533
2507.000000;3.473163
2506.000000;3.545441
2505.000000;3.550510
2504.000000;3.473573
2503.000000;3.398118
2502.000000;3.355515
2501.000000;3.296742
2500.000000;3.220785
2499.000000;3.218124
2498.000000;3.316174
2497.000000;3.618638
2496.000000;4.248019
2495.000000;3.809614
2494.000000;3.627429
2493.000000;3.633704
2492.000000;3.757704
2491.000000;3.982339
2490.000000;3.801789
2489.000000;3.545285
2488.000000;3.438227
2487.000000;3.384991
2486.000000;3.346886
2485.000000;3.322127
2484.000000;3.326916
2483.000000;3.382257
2482.000000;3.455264
2481.000000;3.487377
2480.000000;3.444180
2479.000000;3.363318
2478.000000;3.291430
2477.000000;3.352056
2476.000000;3.648545
2475.000000;3.461659
2474.000000;3.250707
2473.000000;3.295209
2472.000000;3.589369
2471.000000;4.301397
2470.000000;4.132111
2469.000000;3.672883
2468.000000;3.338750
2467.000000;3.152500
2466.000000;3.083524
2465.000000;3.116000
2464.000000;3.256466
2463.000000;3.555641
2462.000000;4.018614
2461.000000;3.970738
2460.000000;3.662933
2459.000000;3.450158
2458.000000;3.369568
2457.000000;3.446395
2456.000000;3.692380
2455.000000;3.911508
2454.000000;3.788287
2453.000000;3.565068
2452.000000;3.403799
2451.000000;3.372279
2450.000000;3.507358
2449.000000;3.598417
2448.000000;3.409200
2447.000000;3.328272
2446.000000;3.404136
2445.000000;3.591710
2444.000000;3.779130
2443.000000;3.698910
2442.000000;3.475846
2441.000000;3.367100
2440.000000;3.401078
2439.000000;3.541905
2438.000000;3.700298
2437.000000;3.728048
2436.000000;3.661179
2435.000000;3.599083
2434.000000;3.572604
2433.000000;3.569693
2432.000000;3.581978
2431.000000;3.584319
2430.000000;3.531244
2429.000000;3.409429
2428.000000;3.314370
2427.000000;3.310111
2426.000000;3.497214
2425.000000;3.927408
2424.000000;3.649632
2423.000000;3.452268
2422.000000;3.446473
2421.000000;3.502317
2420.000000;3.567265
2419.000000;3.638309
2418.000000;3.782498
2417.000000;3.867092
2416.000000;3.882389
2415.000000;3.909117
2414.000000;3.907663
2413.000000;4.275373
2412.000000;4.156264
2411.000000;3.565210
2410.000000;3.365712
2409.000000;3.274671
2408.000000;3.255114
2407.000000;3.287320
2406.000000;3.325925
2405.000000;3.345839
2404.000000;3.370732
2403.000000;3.495801
2402.000000;3.834309
2401.000000;4.044222
2400.000000;3.927861
2399.000000;3.830172
2398.000000;3.693877
2397.000000;3.617318
2396.000000;3.529174
2395.000000;3.430118
2394.000000;3.385240
2393.000000;3.397550
2392.000000;3.513392
2391.000000;3.827937
2390.000000;3.858325
2389.000000;3.635057
2388.000000;3.705430
2387.000000;3.817167
2386.000000;3.642576
2385.000000;3.482252
2384.000000;3.507102
2383.000000;3.647630
2382.000000;3.500182
2381.000000;3.305906
2380.000000;3.267054
2379.000000;3.281346
2378.000000;3.302591
2377.000000;3.354229
2376.000000;3.469848
2375.000000;3.617239
2374.000000;3.743170
2373.000000;3.944151
2372.000000;3.803279
2371.000000;3.482379
2370.000000;3.305251
2369.000000;3.250637
2368.000000;3.302302
2367.000000;3.381411
2366.000000;3.471375
2365.000000;3.526093
2364.000000;3.507016
2363.000000;3.451814
2362.000000;3.326000
2361.000000;3.229374
2360.000000;3.178608
2359.000000;3.167126
2358.000000;3.236978
2357.000000;3.486787
2356.000000;3.745719
2355.000000;3.802095
2354.000000;3.676650
2353.000000;3.378957
2352.000000;3.287363
2351.000000;3.338797
2350.000000;3.361915
2349.000000;3.383760
2348.000000;3.590944
2347.000000;3.470784
2346.000000;3.228617
2345.000000;3.208912
2344.000000;3.283827
2343.000000;3.417293
2342.000000;3.604458
2341.000000;3.847131
2340.000000;3.867226
2339.000000;3.595235
2338.000000;3.472140
2337.000000;3.522156
2336.000000;3.469092
2335.000000;3.307489
2334.000000;3.237789
2333.000000;3.249899
2332.000000;3.326679
2331.000000;3.468251
2330.000000;3.844593
2329.000000;4.310510
2328.000000;3.785768
2327.000000;3.553421
2326.000000;3.458739
2325.000000;3.449319
2324.000000;3.462582
2323.000000;3.445478
2322.000000;3.534730
2321.000000;3.574239
2320.000000;3.380027
2319.000000;3.263358
2318.000000;3.247251
2317.000000;3.276026
2316.000000;3.357470
2315.000000;3.569888
2314.000000;4.090629
2313.000000;4.046345
2312.000000;3.684181
2311.000000;3.573819
2310.000000;3.534051
2309.000000;3.509906
2308.000000;3.521249
2307.000000;3.635173
2306.000000;4.000293
2305.000000;4.343129
2304.000000;3.906014
2303.000000;3.613886
2302.000000;3.458667
2301.000000;3.446929
2300.000000;3.557179
2299.000000;3.751227
2298.000000;3.929023
2297.000000;3.858400
2296.000000;3.637691
2295.000000;3.437141
2294.000000;3.329846
2293.000000;3.307289
2292.000000;3.348855
2291.000000;3.412520
2290.000000;3.523566
2289.000000;3.755752
2288.000000;3.719349
2287.000000;3.515763
2286.000000;3.474695
2285.000000;3.520380
2284.000000;3.561004
2283.000000;3.605195
2282.000000;3.683658
2281.000000;3.762343
2280.000000;4.124340
2279.000000;4.515795
2278.000000;3.803873
2277.000000;3.562016
2276.000000;3.511886
2275.000000;3.562541
2274.000000;3.612362
2273.000000;3.597875
2272.000000;3.602653
2271.000000;3.612391
2270.000000;3.688131
2269.000000;3.953844
2268.000000;4.071153
2267.000000;3.996569
2266.000000;3.960366
2265.000000;3.759517
2264.000000;3.719397
2263.000000;3.768074
2262.000000;3.655651
2261.000000;3.631334
2260.000000;3.773907
2259.000000;3.735492
2258.000000;3.519806
2257.000000;3.449871
2256.000000;3.533452
2255.000000;3.552870
2254.000000;3.540445
2253.000000;3.732188
2252.000000;3.700500
2251.000000;3.476035
2250.000000;3.454446
2249.000000;3.712728
2248.000000;4.077349
2247.000000;3.663920
2246.000000;3.486892
2245.000000;3.502893
2244.000000;3.560571
2243.000000;3.595348
2242.000000;3.578782
2241.000000;3.607799
2240.000000;3.725889
2239.000000;3.890658
2238.000000;3.945530
2237.000000;3.886658
2236.000000;3.947613
2235.000000;4.277645
2234.000000;4.236716
2233.000000;3.999892
2232.000000;3.955780
2231.000000;3.985992
2230.000000;4.088258
2229.000000;4.023314
2228.000000;3.826079
2227.000000;3.774048
2226.000000;3.800701
2225.000000;3.741521
2224.000000;3.627570
2223.000000;3.594131
2222.000000;3.879897
2221.000000;4.317729
2220.000000;3.932685
2219.000000;3.856015
2218.000000;3.831482
2217.000000;3.845297
2216.000000;3.990530
2215.000000;3.914202
2214.000000;3.685424
2213.000000;3.586307
2212.000000;3.608806
2211.000000;3.731917
2210.000000;4.115842
2209.000000;4.016123
2208.000000;3.845739
2207.000000;4.206937
2206.000000;4.347000
2205.000000;4.022616
2204.000000;3.807775
2203.000000;3.624267
2202.000000;3.534596
2201.000000;3.475339
2200.000000;3.422143
2199.000000;3.391914
2198.000000;3.403814
2197.000000;3.488517
2196.000000;3.521248
2195.000000;3.425630
2194.000000;3.455566
2193.000000;3.773586
2192.000000;4.490609
2191.000000;4.741991
2190.000000;3.958756
2189.000000;3.663891
2188.000000;3.652210
2187.000000;3.848353
2186.000000;4.466096
2185.000000;3.987898
2184.000000;3.763340
2183.000000;4.172201
2182.000000;3.873054
2181.000000;3.478755
2180.000000;3.370396
2179.000000;3.379494
2178.000000;3.441688
2177.000000;3.506797
2176.000000;3.560477
2175.000000;3.580217
2174.000000;3.515574
2173.000000;3.417285
2172.000000;3.369363
2171.000000;3.424103
2170.000000;3.732947
2169.000000;3.815800
2168.000000;3.478862
2167.000000;3.443855
2166.000000;3.657258
2165.000000;3.988349
2164.000000;3.776255
2163.000000;3.605702
2162.000000;3.583468
2161.000000;3.666239
2160.000000;3.985416
2159.000000;4.391153
2158.000000;4.688092
2157.000000;3.902455
2156.000000;3.592534
2155.000000;3.554794
2154.000000;3.534416
2153.000000;3.425240
2152.000000;3.331031
2151.000000;3.326839
2150.000000;3.411589
2149.000000;3.523412
2148.000000;3.496647
2147.000000;3.426240
2146.000000;3.476900
2145.000000;3.824038
2144.000000;3.934140
2143.000000;3.642248
2142.000000;3.966161
2141.000000;4.022879
2140.000000;3.537058
2139.000000;3.377411
2138.000000;3.315323
2137.000000;3.337340
2136.000000;3.357411
2135.000000;3.340946
2134.000000;3.384564
2133.000000;3.572799
2132.000000;3.784917
2131.000000;3.698829
2130.000000;3.827080
2129.000000;4.108825
2128.000000;3.704663
2127.000000;3.478373
2126.000000;3.351180
2125.000000;3.265787
2124.000000;3.246398
2123.000000;3.283486
2122.000000;3.392925
2121.000000;3.594083
2120.000000;3.744346
2119.000000;3.729095
2118.000000;3.710406
2117.000000;3.487854
2116.000000;3.323113
2115.000000;3.346208
2114.000000;3.540329
2113.000000;3.932284
2112.000000;3.906484
2111.000000;3.547818
2110.000000;3.396945
2109.000000;3.339414
2108.000000;3.250682
2107.000000;3.173678
2106.000000;3.184982
2105.000000;3.287142
2104.000000;3.449011
2103.000000;3.522814
2102.000000;3.439178
2101.000000;3.437922
2100.000000;3.534091
2099.000000;3.565907
2098.000000;3.497598
2097.000000;3.637726
2096.000000;4.178715
2095.000000;3.831686
2094.000000;3.573742
2093.000000;3.637826
2092.000000;3.743290
2091.000000;3.634727
2090.000000;3.528477
2089.000000;3.590794
2088.000000;3.734783
2087.000000;3.616094
2086.000000;3.427976
2085.000000;3.406450
2084.000000;3.553813
2083.000000;3.811593
2082.000000;3.704628
2081.000000;3.572962
2080.000000;3.615768
2079.000000;3.879713
2078.000000;4.290765
2077.000000;3.746722
2076.000000;3.494418
2075.000000;3.449801
2074.000000;3.491688
2073.000000;3.625884
2072.000000;3.803426
2071.000000;3.869358
2070.000000;3.777087
2069.000000;3.718786
2068.000000;3.759808
2067.000000;3.934514
2066.000000;4.272984
2065.000000;4.182175
2064.000000;3.893709
2063.000000;3.781019
2062.000000;3.650925
2061.000000;3.519976
2060.000000;3.426869
2059.000000;3.371289
2058.000000;3.367619
2057.000000;3.416507
2056.000000;3.506177
2055.000000;3.619084
2054.000000;3.737151
2053.000000;3.757352
2052.000000;3.655106
2051.000000;3.543035
2050.000000;3.462497
2049.000000;3.409140
2048.000000;3.412542
2047.000000;3.499345
2046.000000;3.739797
2045.000000;4.115675
2044.000000;4.485170
2043.000000;4.468004
2042.000000;3.833102
2041.000000;3.610425
2040.000000;3.595586
2039.000000;3.674678
2038.000000;3.765560
2037.000000;3.759277
2036.000000;3.695556
2035.000000;3.617122
2034.000000;3.555300
2033.000000;3.511991
2032.000000;3.512677
2031.000000;3.582477
2030.000000;3.722872
2029.000000;3.811009
2028.000000;3.708442
2027.000000;3.580555
2026.000000;3.491640
2025.000000;3.396965
2024.000000;3.329969
2023.000000;3.353786
2022.000000;3.470481
2021.000000;3.645474
2020.000000;3.658158
2019.000000;3.419763
2018.000000;3.268950
2017.000000;3.253358
2016.000000;3.356478
2015.000000;3.462563
2014.000000;3.397819
2013.000000;3.378598
2012.000000;3.438591
2011.000000;3.383958
2010.000000;3.269273
2009.000000;3.198760
2008.000000;3.159283
2007.000000;3.150080
2006.000000;3.192185
2005.000000;3.280597
2004.000000;3.340658
2003.000000;3.300318
2002.000000;3.214421
2001.000000;3.154391
2000.000000;3.152495
1999.000000;3.211128
1998.000000;3.318985
1997.000000;3.449587
1996.000000;3.583480
1995.000000;3.686474
1994.000000;3.615910
1993.000000;3.487164
1992.000000;3.413321
1991.000000;3.315909
1990.000000;3.210581
1989.000000;3.185595
1988.000000;3.261533
1987.000000;3.409594
1986.000000;3.551826
1985.000000;3.580854
1984.000000;3.474269
1983.000000;3.314556
1982.000000;3.189643
1981.000000;3.122186
1980.000000;3.107428
1979.000000;3.141685
1978.000000;3.206592
1977.000000;3.238166
1976.000000;3.193777
1975.000000;3.122063
1974.000000;3.073434
1973.000000;3.070419
1972.000000;3.120117
1971.000000;3.225075
1970.000000;3.376609
1969.000000;3.516522
1968.000000;3.541839
1967.000000;3.442639
1966.000000;3.337514
1965.000000;3.293805
1964.000000;3.301456
1963.000000;3.320256
1962.000000;3.303890
1961.000000;3.243966
1960.000000;3.194675
1959.000000;3.209079
1958.000000;3.300523
1957.000000;3.453229
1956.000000;3.584526
1955.000000;3.589902
1954.000000;3.548682
1953.000000;3.518038
1952.000000;3.493731
1951.000000;3.508873
1950.000000;3.538326
1949.000000;3.523657
1948.000000;3.451776
1947.000000;3.346965
1946.000000;3.283683
1945.000000;3.299795
1944.000000;3.378482
1943.000000;3.512117
1942.000000;3.693158
1941.000000;3.744044
1940.000000;3.619335
1939.000000;3.490019
1938.000000;3.451845
1937.000000;3.560529
1936.000000;3.916059
1935.000000;4.281811
1934.000000;3.813607
1933.000000;3.581602
1932.000000;3.481119
1931.000000;3.563044
1930.000000;3.839228
1929.000000;3.637447
1928.000000;3.399295
1927.000000;3.403538
1926.000000;3.705718
1925.000000;4.186647
1924.000000;3.814575
1923.000000;3.755558
1922.000000;4.030441
1921.000000;3.873080
1920.000000;3.598133
1919.000000;3.528743
1918.000000;3.608274
1917.000000;4.008146
1916.000000;4.170407
1915.000000;3.865830
1914.000000;4.067919
1913.000000;4.139188
1912.000000;3.814628
1911.000000;3.743755
1910.000000;3.842617
1909.000000;4.029062
1908.000000;4.191256
1907.000000;3.972511
1906.000000;3.604990
1905.000000;3.421309
1904.000000;3.429759
1903.000000;3.653452
1902.000000;3.762993
1901.000000;3.600056
1900.000000;3.811513
1899.000000;4.262342
1898.000000;3.850386
1897.000000;3.637370
1896.000000;3.536411
1895.000000;3.491746
1894.000000;3.606028
1893.000000;3.699178
1892.000000;3.560267
1891.000000;3.547122
1890.000000;3.627485
1889.000000;3.531648
1888.000000;3.427911
1887.000000;3.382729
1886.000000;3.327723
1885.000000;3.294341
1884.000000;3.323687
1883.000000;3.406124
1882.000000;3.464509
1881.000000;3.410495
1880.000000;3.308045
1879.000000;3.249590
1878.000000;3.275183
1877.000000;3.366250
1876.000000;3.424743
1875.000000;3.440411
1874.000000;3.517154
1873.000000;3.658989
1872.000000;3.700724
1871.000000;3.554130
1870.000000;3.378017
1869.000000;3.262755
1868.000000;3.220943
1867.000000;3.221841
1866.000000;3.230615
1865.000000;3.229178
1864.000000;3.205323
1863.000000;3.175191
1862.000000;3.170960
1861.000000;3.212688
1860.000000;3.311061
1859.000000;3.482000
1858.000000;3.648340
1857.000000;3.668215
1856.000000;3.673123
1855.000000;3.629550
1854.000000;3.541033
1853.000000;3.517292
1852.000000;3.553317
1851.000000;3.592933
1850.000000;3.542021
1849.000000;3.471148
1848.000000;3.469263
1847.000000;3.645342
1846.000000;3.901014
1845.000000;3.682867
1844.000000;3.519593
1843.000000;3.621786
1842.000000;4.148167
1841.000000;3.988811
1840.000000;3.913823
1839.000000;4.070741
1838.000000;3.609389
1837.000000;3.419739
1836.000000;3.438169
1835.000000;3.613549
1834.000000;3.823584
1833.000000;3.785369
1832.000000;3.703741
1831.000000;3.648593
1830.000000;3.649586
1829.000000;3.870025
1828.000000;4.032780
1827.000000;3.715593
1826.000000;3.712488
1825.000000;3.718354
1824.000000;3.502235
1823.000000;3.358274
1822.000000;3.323406
1821.000000;3.401357
1820.000000;3.588755
1819.000000;3.721342
1818.000000;3.618580
1817.000000;3.505798
1816.000000;3.460266
1815.000000;3.517165
1814.000000;3.741513
1813.000000;3.922897
1812.000000;3.785898
1811.000000;3.775717
1810.000000;3.987307
1809.000000;3.955877
1808.000000;3.751545
1807.000000;3.639448
1806.000000;3.533036
1805.000000;3.439055
1804.000000;3.407807
1803.000000;3.448414
1802.000000;3.524765
1801.000000;3.586762
1800.000000;3.595724
1799.000000;3.526030
1798.000000;3.401499
1797.000000;3.280515
1796.000000;3.209210
1795.000000;3.196399
1794.000000;3.229972
1793.000000;3.310319
1792.000000;3.458104
1791.000000;3.631261
1790.000000;3.679126
1789.000000;3.503192
1788.000000;3.350225
1787.000000;3.332645
1786.000000;3.465122
1785.000000;3.821095
1784.000000;3.775015
1783.000000;3.600664
1782.000000;3.599151
1781.000000;3.459534
1780.000000;3.333421
1779.000000;3.312156
1778.000000;3.397522
1777.000000;3.536188
1776.000000;3.600563
1775.000000;3.696438
1774.000000;3.641868
1773.000000;3.412649
1772.000000;3.307893
1771.000000;3.365816
1770.000000;3.512934
1769.000000;3.371272
1768.000000;3.270152
1767.000000;3.372309
1766.000000;3.672122
1765.000000;4.135845
1764.000000;3.822920
1763.000000;3.453822
1762.000000;3.273130
1761.000000;3.189538
1760.000000;3.194711
1759.000000;3.274453
1758.000000;3.372457
1757.000000;3.417589
1756.000000;3.388408
1755.000000;3.380935
1754.000000;3.506211
1753.000000;3.781266
1752.000000;4.064367
1751.000000;3.956083
1750.000000;3.614186
1749.000000;3.332148
1748.000000;3.162054
1747.000000;3.124256
1746.000000;3.231483
1745.000000;3.436461
1744.000000;3.616607
1743.000000;3.616724
1742.000000;3.385861
1741.000000;3.219851
1740.000000;3.174083
1739.000000;3.254552
1738.000000;3.436628
1737.000000;3.578858
1736.000000;3.671198
1735.000000;4.001156
1734.000000;4.262634
1733.000000;3.803684
1732.000000;3.829712
1731.000000;3.703796
1730.000000;3.449971
1729.000000;3.436523
1728.000000;3.774694
1727.000000;4.120975
1726.000000;3.812718
1725.000000;3.773437
1724.000000;3.697556
1723.000000;3.588918
1722.000000;3.607303
1721.000000;3.835589
1720.000000;4.175173
1719.000000;3.898416
1718.000000;3.593638
1717.000000;3.422843
1716.000000;3.447257
1715.000000;3.635888
1714.000000;3.544508
1713.000000;3.460892
1712.000000;3.893837
1711.000000;4.057222
1710.000000;3.790443
1709.000000;3.873148
1708.000000;3.479064
1707.000000;3.287978
1706.000000;3.288777
1705.000000;3.377231
1704.000000;3.548251
1703.000000;3.870480
1702.000000;3.890461
1701.000000;3.819720
1700.000000;3.850023
1699.000000;3.955730
1698.000000;3.985618
1697.000000;3.618322
1696.000000;3.552717
1695.000000;3.604861
1694.000000;3.777812
1693.000000;4.290968
1692.000000;3.863273
1691.000000;3.661797
1690.000000;3.621822
1689.000000;3.683369
1688.000000;3.651988
1687.000000;3.471660
1686.000000;3.446560
1685.000000;3.619919
1684.000000;3.927829
1683.000000;3.538435
1682.000000;3.209759
1681.000000;3.188796
1680.000000;3.398520
1679.000000;3.931099
1678.000000;3.715288
1677.000000;3.415233
1676.000000;3.387640
1675.000000;3.565079
1674.000000;3.814852
1673.000000;3.558045
1672.000000;3.624181
1671.000000;4.060094
1670.000000;3.987332
1669.000000;3.774140
1668.000000;3.587541
1667.000000;3.376031
1666.000000;3.272176
1665.000000;3.312850
1664.000000;3.507591
1663.000000;3.807242
1662.000000;3.751645
1661.000000;3.611823
1660.000000;3.550410
1659.000000;3.713044
1658.000000;3.957207
1657.000000;3.503292
1656.000000;3.250064
1655.000000;3.217957
1654.000000;3.321263
1653.000000;3.554555
1652.000000;3.721090
1651.000000;3.882565
1650.000000;3.930033
1649.000000;3.549230
1648.000000;3.339136
1647.000000;3.280763
1646.000000;3.350320
1645.000000;3.767127
1644.000000;3.822685
1643.000000;3.615580
1642.000000;3.609058
1641.000000;3.477494
1640.000000;3.415905
1639.000000;3.501385
1638.000000;3.669838
1637.000000;3.736028
1636.000000;3.778091
1635.000000;3.643645
1634.000000;3.236351
1633.000000;3.001174
1632.000000;2.938416
1631.000000;2.980705
1630.000000;3.080352
1629.000000;3.222446
1628.000000;3.398019
1627.000000;3.633950
1626.000000;3.782391
1625.000000;3.684500
1624.000000;3.549090
1623.000000;3.449909
1622.000000;3.503367
1621.000000;3.524567
1620.000000;3.337698
1619.000000;3.233963
1618.000000;3.224555
1617.000000;3.251162
1616.000000;3.308172
1615.000000;3.351422
1614.000000;3.305367
1613.000000;3.308157
1612.000000;3.331127
1611.000000;3.266632
1610.000000;3.196008
1609.000000;3.188941
1608.000000;3.253020
1607.000000;3.365255
1606.000000;3.486967
1605.000000;3.539980
1604.000000;3.496285
1603.000000;3.442397
1602.000000;3.394950
1601.000000;3.357616
1600.000000;3.374163
1599.000000;3.460947
1598.000000;3.566745
1597.000000;3.658904
1596.000000;3.701853
1595.000000;4.466700
1594.000000;3.628801
1593.000000;3.225558
1592.000000;3.141221
1591.000000;3.231193
1590.000000;3.482590
1589.000000;3.501274
1588.000000;3.466231
1587.000000;3.603714
1586.000000;3.661906
1585.000000;3.541122
1584.000000;3.456448
1583.000000;3.430178
1582.000000;3.516153
1581.000000;3.749827
1580.000000;3.843397
1579.000000;3.713943
1578.000000;3.663055
1577.000000;3.567140
1576.000000;3.441681
1575.000000;3.357951
1574.000000;3.372931
1573.000000;3.428921
1572.000000;3.424266
1571.000000;3.436193
1570.000000;3.510219
1569.000000;3.762821
1568.000000;3.633213
1567.000000;3.394690
1566.000000;3.385442
1565.000000;3.449183
1564.000000;3.504772
1563.000000;3.626691
1562.000000;4.052198
1561.000000;4.289570
1560.000000;3.922030
1559.000000;3.841384
1558.000000;3.385102
1557.000000;3.040328
1556.000000;2.999309
1555.000000;3.212606
1554.000000;3.630452
1553.000000;3.665825
1552.000000;3.404280
1551.000000;3.385322
1550.000000;3.342067
1549.000000;3.207757
1548.000000;3.159030
1547.000000;3.266050
1546.000000;3.718059
1545.000000;4.061577
1544.000000;3.715662
1543.000000;3.713049
1542.000000;3.511656
1541.000000;3.325184
1540.000000;3.271459
1539.000000;3.314888
1538.000000;3.163441
1537.000000;3.091198
1536.000000;3.243468
1535.000000;3.446582
1534.000000;3.341138
1533.000000;3.304945
1532.000000;3.544516
1531.000000;3.887958
1530.000000;3.601715
1529.000000;3.522391
1528.000000;3.500549
1527.000000;3.804791
1526.000000;3.932720
1525.000000;3.438629
1524.000000;3.455974
1523.000000;3.936740
1522.000000;4.573353
1521.000000;3.851890
1520.000000;3.838787
1519.000000;3.614874
1518.000000;3.639478
1517.000000;3.682836
1516.000000;3.728707
1515.000000;3.515406
1514.000000;3.344593
1513.000000;3.357419
1512.000000;3.480212
1511.000000;3.635519
1510.000000;3.867058
1509.000000;4.117880
1508.000000;4.085814
1507.000000;4.005783
1506.000000;3.773259
1505.000000;3.663948
1504.000000;3.739895
1503.000000;3.673622
1502.000000;3.803510
1501.000000;3.918826
1500.000000;3.610432
1499.000000;3.394661
1498.000000;3.310018
1497.000000;3.379541
1496.000000;3.674621
1495.000000;4.275136
1494.000000;4.045839
1493.000000;3.533369
1492.000000;3.279515
1491.000000;3.189823
1490.000000;3.215009
1489.000000;3.363557
1488.000000;3.665413
1487.000000;3.706100
1486.000000;3.637011
1485.000000;3.770514
1484.000000;3.968582
1483.000000;4.230313
1482.000000;4.256499
1481.000000;4.589615
1480.000000;4.018013
1479.000000;3.509460
1478.000000;3.263534
1477.000000;3.143065
1476.000000;3.120889
1475.000000;3.195836
1474.000000;3.349095
1473.000000;3.501061
1472.000000;3.514350
1471.000000;3.409698
1470.000000;3.353108
1469.000000;3.342584
1468.000000;3.375192
1467.000000;3.477727
1466.000000;3.592955
1465.000000;3.588579
1464.000000;3.678209
1463.000000;3.815895
1462.000000;3.636764
1461.000000;3.643034
1460.000000;3.836086
1459.000000;3.715157
1458.000000;3.526008
1457.000000;3.470849
1456.000000;3.653728
1455.000000;3.854432
1454.000000;3.413078
1453.000000;3.396948
1452.000000;3.649007
1451.000000;4.380162
1450.000000;3.688780
1449.000000;3.553854
1448.000000;3.537936
1447.000000;3.562082
1446.000000;3.634937
1445.000000;3.997974
1444.000000;4.792527
1443.000000;4.129023
1442.000000;3.749449
1441.000000;3.693513
1440.000000;3.732029
1439.000000;3.441762
1438.000000;3.249970
1437.000000;3.207301
1436.000000;3.189378
1435.000000;3.134177
1434.000000;3.140413
1433.000000;3.196265
1432.000000;3.182601
1431.000000;3.097098
1430.000000;3.022998
1429.000000;3.024165
1428.000000;3.116546
1427.000000;3.226824
1426.000000;3.318021
1425.000000;3.505030
1424.000000;3.863234
1423.000000;3.608527
1422.000000;3.377246
1421.000000;3.289034
1420.000000;3.279664
1419.000000;3.327523
1418.000000;3.437359
1417.000000;3.467799
1416.000000;3.317912
1415.000000;3.216395
1414.000000;3.212625
1413.000000;3.295024
1412.000000;3.402047
1411.000000;3.421985
1410.000000;3.318805
1409.000000;3.196051
1408.000000;3.128929
1407.000000;3.101303
1406.000000;3.096417
1405.000000;3.138747
1404.000000;3.242588
1403.000000;3.293822
1402.000000;3.297127
1401.000000;3.299152
1400.000000;3.177058
1399.000000;3.050100
1398.000000;3.002154
1397.000000;3.026723
1396.000000;3.086072
1395.000000;3.126737
1394.000000;3.132312
1393.000000;3.171996
1392.000000;3.271726
1391.000000;3.324661
1390.000000;3.331016
1389.000000;3.423187
1388.000000;3.448214
1387.000000;3.265522
1386.000000;3.125169
1385.000000;3.063364
1384.000000;3.073744
1383.000000;3.160546
1382.000000;3.318363
1381.000000;3.509860
1380.000000;3.651456
1379.000000;3.692363
1378.000000;3.596517
1377.000000;3.468930
1376.000000;3.419974
1375.000000;3.377798
1374.000000;3.308023
1373.000000;3.296647
1372.000000;3.378761
1371.000000;3.589294
1370.000000;4.068099
1369.000000;3.573417
1368.000000;3.415407
1367.000000;3.486000
1366.000000;3.523420
1365.000000;3.373201
1364.000000;3.304211
1363.000000;3.295056
1362.000000;3.352228
1361.000000;3.458048
1360.000000;3.586283
1359.000000;3.742785
1358.000000;4.007972
1357.000000;4.478628
1356.000000;4.069586
1355.000000;3.578110
1354.000000;3.287996
1353.000000;3.155782
1352.000000;3.175523
1351.000000;3.328826
1350.000000;3.683629
1349.000000;3.841707
1348.000000;3.516971
1347.000000;3.366708
1346.000000;3.280943
1345.000000;3.226930
1344.000000;3.232551
1343.000000;3.323690
1342.000000;3.573417
1341.000000;3.928166
1340.000000;3.682440
1339.000000;3.736199
1338.000000;3.695577
1337.000000;3.457321
1336.000000;3.401813
1335.000000;3.576446
1334.000000;3.751135
1333.000000;3.402460
1332.000000;3.219835
1331.000000;3.217671
1330.000000;3.355741
1329.000000;3.560756
1328.000000;3.687786
1327.000000;3.645898
1326.000000;3.508105
1325.000000;3.404127
1324.000000;3.333465
1323.000000;3.320911
1322.000000;3.440928
1321.000000;3.835923
1320.000000;4.069212
1319.000000;3.970848
1318.000000;4.067999
1317.000000;3.668597
1316.000000;3.418314
1315.000000;3.293621
1314.000000;3.261362
1313.000000;3.281474
1312.000000;3.299440
1311.000000;3.293268
1310.000000;3.295957
1309.000000;3.334404
1308.000000;3.376140
1307.000000;3.365845
1306.000000;3.316411
1305.000000;3.274219
1304.000000;3.276120
1303.000000;3.312633
1302.000000;3.290089
1301.000000;3.282112
1300.000000;3.390228
1299.000000;3.990733
1298.000000;3.708152
1297.000000;3.386066
1296.000000;3.233734
1295.000000;3.125714
1294.000000;3.156834
1293.000000;3.339030
1292.000000;3.565882
1291.000000;3.669649
1290.000000;3.783799
1289.000000;3.844382
1288.000000;4.015637
1287.000000;4.061575
1286.000000;4.132002
1285.000000;3.997354
1284.000000;3.575643
1283.000000;3.510001
1282.000000;3.662121
1281.000000;3.687745
1280.000000;3.482775
1279.000000;3.423419
1278.000000;3.759976
1277.000000;3.837467
1276.000000;3.318623
1275.000000;3.183251
1274.000000;3.229171
1273.000000;3.506488
1272.000000;3.559792
1271.000000;3.429683
1270.000000;3.638969
1269.000000;3.776488
1268.000000;3.379398
1267.000000;3.215287
1266.000000;3.186092
1265.000000;3.211148
1264.000000;3.238506
1263.000000;3.259536
1262.000000;3.289437
1261.000000;3.346417
1260.000000;3.505788
1259.000000;3.924300
1258.000000;4.141395
1257.000000;3.777752
1256.000000;3.795583
1255.000000;3.936184
1254.000000;4.028084
1253.000000;4.226985
1252.000000;4.321427
1251.000000;3.781629
1250.000000;3.581740
1249.000000;3.642007
1248.000000;3.768215
1247.000000;3.515002
1246.000000;3.352932
1245.000000;3.392504
1244.000000;3.562151
1243.000000;4.261667
1242.000000;3.960600
1241.000000;3.663346
1240.000000;3.747126
1239.000000;4.194131
1238.000000;3.880693
1237.000000;3.585674
1236.000000;3.414287
1235.000000;3.356689
1234.000000;3.362951
1233.000000;3.266807
1232.000000;3.163481
1231.000000;3.188211
1230.000000;3.463903
1229.000000;3.821990
1228.000000;3.505540
1227.000000;3.444625
1226.000000;3.478953
1225.000000;3.469648
1224.000000;3.357700
1223.000000;3.297126
1222.000000;3.309181
1221.000000;3.250477
1220.000000;3.192795
1219.000000;3.289221
1218.000000;3.649211
1217.000000;4.241525
1216.000000;3.623607
1215.000000;3.243262
1214.000000;3.099006
1213.000000;3.127286
1212.000000;3.313850
1211.000000;3.614188
1210.000000;3.776232
1209.000000;3.567611
1208.000000;3.361915
1207.000000;3.230691
1206.000000;3.141829
1205.000000;3.082987
1204.000000;3.054192
1203.000000;3.069726
1202.000000;3.159162
1201.000000;3.270956
1200.000000;3.278833
