Criado como novo conjunto de dados;"1909daniel.spp","-4288845.0 Secs"
cm-1;Abs
10000.000000;1.244978
9999.000000;1.244661
9998.000000;1.244530
9997.000000;1.244326
9996.000000;1.243872
9995.000000;1.243114
9994.000000;1.242097
9993.000000;1.241261
9992.000000;1.241031
9991.000000;1.241135
9990.000000;1.240674
9989.000000;1.239189
9988.000000;1.237265
9987.000000;1.235870
9986.000000;1.235459
9985.000000;1.235834
9984.000000;1.236419
9983.000000;1.236451
9982.000000;1.235342
9981.000000;1.233290
9980.000000;1.231218
9979.000000;1.229794
9978.000000;1.228849
9977.000000;1.228040
9976.000000;1.227613
9975.000000;1.227923
9974.000000;1.228500
9973.000000;1.228317
9972.000000;1.227031
9971.000000;1.225348
9970.000000;1.224072
9969.000000;1.223319
9968.000000;1.222826
9967.000000;1.222509
9966.000000;1.222379
9965.000000;1.222266
9964.000000;1.221994
9963.000000;1.221649
9962.000000;1.221336
9961.000000;1.220807
9960.000000;1.219709
9959.000000;1.218213
9958.000000;1.217013
9957.000000;1.216585
9956.000000;1.216699
9955.000000;1.216827
9954.000000;1.216766
9953.000000;1.216618
9952.000000;1.216357
9951.000000;1.215826
9950.000000;1.215123
9949.000000;1.214575
9948.000000;1.214203
9947.000000;1.213579
9946.000000;1.212437
9945.000000;1.211088
9944.000000;1.209923
9943.000000;1.208816
9942.000000;1.207484
9941.000000;1.206234
9940.000000;1.205789
9939.000000;1.206311
9938.000000;1.207023
9937.000000;1.206989
9936.000000;1.205972
9935.000000;1.204428
9934.000000;1.202932
9933.000000;1.201798
9932.000000;1.200989
9931.000000;1.200212
9930.000000;1.199278
9929.000000;1.198428
9928.000000;1.198075
9927.000000;1.198142
9926.000000;1.197984
9925.000000;1.197103
9924.000000;1.195650
9923.000000;1.194053
9922.000000;1.192526
9921.000000;1.191240
9920.000000;1.190622
9919.000000;1.190946
9918.000000;1.191750
9917.000000;1.192099
9916.000000;1.191472
9915.000000;1.190122
9914.000000;1.188597
9913.000000;1.187246
9912.000000;1.186175
9911.000000;1.185344
9910.000000;1.184577
9909.000000;1.183721
9908.000000;1.182889
9907.000000;1.182327
9906.000000;1.181987
9905.000000;1.181455
9904.000000;1.180441
9903.000000;1.179145
9902.000000;1.177995
9901.000000;1.177152
9900.000000;1.176434
9899.000000;1.175641
9898.000000;1.174751
9897.000000;1.173864
9896.000000;1.173075
9895.000000;1.172406
9894.000000;1.171742
9893.000000;1.170903
9892.000000;1.169886
9891.000000;1.168988
9890.000000;1.168544
9889.000000;1.168509
9888.000000;1.168432
9887.000000;1.167931
9886.000000;1.167124
9885.000000;1.166495
9884.000000;1.166391
9883.000000;1.166677
9882.000000;1.166895
9881.000000;1.166714
9880.000000;1.166160
9879.000000;1.165418
9878.000000;1.164507
9877.000000;1.163324
9876.000000;1.161997
9875.000000;1.160960
9874.000000;1.160473
9873.000000;1.160177
9872.000000;1.159424
9871.000000;1.158077
9870.000000;1.156721
9869.000000;1.155968
9868.000000;1.155771
9867.000000;1.155582
9866.000000;1.154968
9865.000000;1.153871
9864.000000;1.152500
9863.000000;1.151259
9862.000000;1.150633
9861.000000;1.150754
9860.000000;1.151058
9859.000000;1.150705
9858.000000;1.149469
9857.000000;1.147938
9856.000000;1.146721
9855.000000;1.145766
9854.000000;1.144650
9853.000000;1.143335
9852.000000;1.142359
9851.000000;1.142274
9850.000000;1.142997
9849.000000;1.143776
9848.000000;1.143792
9847.000000;1.142840
9846.000000;1.141419
9845.000000;1.140146
9844.000000;1.139192
9843.000000;1.138330
9842.000000;1.137362
9841.000000;1.136298
9840.000000;1.135282
9839.000000;1.134565
9838.000000;1.134412
9837.000000;1.134705
9836.000000;1.134738
9835.000000;1.133841
9834.000000;1.132267
9833.000000;1.131004
9832.000000;1.130599
9831.000000;1.130619
9830.000000;1.130421
9829.000000;1.129956
9828.000000;1.129462
9827.000000;1.128784
9826.000000;1.127551
9825.000000;1.125848
9824.000000;1.124251
9823.000000;1.123193
9822.000000;1.122575
9821.000000;1.122019
9820.000000;1.121294
9819.000000;1.120511
9818.000000;1.120020
9817.000000;1.120060
9816.000000;1.120399
9815.000000;1.120489
9814.000000;1.120106
9813.000000;1.119608
9812.000000;1.119344
9811.000000;1.119076
9810.000000;1.118301
9809.000000;1.116987
9808.000000;1.115633
9807.000000;1.114634
9806.000000;1.113904
9805.000000;1.113124
9804.000000;1.112099
9803.000000;1.110866
9802.000000;1.109627
9801.000000;1.108578
9800.000000;1.107686
9799.000000;1.106695
9798.000000;1.105451
9797.000000;1.104147
9796.000000;1.103129
9795.000000;1.102594
9794.000000;1.102575
9793.000000;1.103011
9792.000000;1.103631
9791.000000;1.103962
9790.000000;1.103703
9789.000000;1.103010
9788.000000;1.102230
9787.000000;1.101533
9786.000000;1.100998
9785.000000;1.100794
9784.000000;1.100932
9783.000000;1.100998
9782.000000;1.100474
9781.000000;1.099272
9780.000000;1.097743
9779.000000;1.096274
9778.000000;1.095074
9777.000000;1.094148
9776.000000;1.093255
9775.000000;1.092065
9774.000000;1.090644
9773.000000;1.089532
9772.000000;1.089037
9771.000000;1.088715
9770.000000;1.087967
9769.000000;1.086917
9768.000000;1.086136
9767.000000;1.085641
9766.000000;1.084850
9765.000000;1.083554
9764.000000;1.082298
9763.000000;1.081618
9762.000000;1.081447
9761.000000;1.081518
9760.000000;1.081796
9759.000000;1.082177
9758.000000;1.082175
9757.000000;1.081429
9756.000000;1.080344
9755.000000;1.079796
9754.000000;1.080187
9753.000000;1.081033
9752.000000;1.081465
9751.000000;1.080968
9750.000000;1.079642
9749.000000;1.077909
9748.000000;1.076083
9747.000000;1.074246
9746.000000;1.072490
9745.000000;1.071119
9744.000000;1.070440
9743.000000;1.070364
9742.000000;1.070347
9741.000000;1.069792
9740.000000;1.068514
9739.000000;1.066882
9738.000000;1.065555
9737.000000;1.065008
9736.000000;1.065189
9735.000000;1.065647
9734.000000;1.066012
9733.000000;1.066201
9732.000000;1.066157
9731.000000;1.065675
9730.000000;1.064738
9729.000000;1.063733
9728.000000;1.062986
9727.000000;1.062271
9726.000000;1.061157
9725.000000;1.059711
9724.000000;1.058437
9723.000000;1.057531
9722.000000;1.056667
9721.000000;1.055571
9720.000000;1.054422
9719.000000;1.053522
9718.000000;1.052921
9717.000000;1.052562
9716.000000;1.052516
9715.000000;1.052819
9714.000000;1.053238
9713.000000;1.053363
9712.000000;1.052881
9711.000000;1.051715
9710.000000;1.050039
9709.000000;1.048251
9708.000000;1.046791
9707.000000;1.045872
9706.000000;1.045414
9705.000000;1.045195
9704.000000;1.044951
9703.000000;1.044371
9702.000000;1.043260
9701.000000;1.041815
9700.000000;1.040612
9699.000000;1.040217
9698.000000;1.040750
9697.000000;1.041731
9696.000000;1.042292
9695.000000;1.041736
9694.000000;1.040150
9693.000000;1.038384
9692.000000;1.037232
9691.000000;1.036702
9690.000000;1.036270
9689.000000;1.035634
9688.000000;1.034951
9687.000000;1.034423
9686.000000;1.034020
9685.000000;1.033605
9684.000000;1.032973
9683.000000;1.031814
9682.000000;1.030064
9681.000000;1.028345
9680.000000;1.027604
9679.000000;1.028094
9678.000000;1.029026
9677.000000;1.029408
9676.000000;1.028974
9675.000000;1.028089
9674.000000;1.027047
9673.000000;1.025815
9672.000000;1.024313
9671.000000;1.022641
9670.000000;1.021049
9669.000000;1.019859
9668.000000;1.019349
9667.000000;1.019499
9666.000000;1.019879
9665.000000;1.019926
9664.000000;1.019403
9663.000000;1.018542
9662.000000;1.017815
9661.000000;1.017577
9660.000000;1.017853
9659.000000;1.018332
9658.000000;1.018559
9657.000000;1.018187
9656.000000;1.017105
9655.000000;1.015416
9654.000000;1.013420
9653.000000;1.011581
9652.000000;1.010353
9651.000000;1.009918
9650.000000;1.010063
9649.000000;1.010301
9648.000000;1.010136
9647.000000;1.009314
9646.000000;1.007965
9645.000000;1.006467
9644.000000;1.005119
9643.000000;1.003953
9642.000000;1.002868
9641.000000;1.001870
9640.000000;1.001105
9639.000000;1.000735
9638.000000;1.000814
9637.000000;1.001154
9636.000000;1.001288
9635.000000;1.000813
9634.000000;0.999882
9633.000000;0.999100
9632.000000;0.998730
9631.000000;0.998290
9630.000000;0.997206
9629.000000;0.995661
9628.000000;0.994430
9627.000000;0.994002
9626.000000;0.994231
9625.000000;0.994715
9624.000000;0.995098
9623.000000;0.995041
9622.000000;0.994378
9621.000000;0.993397
9620.000000;0.992583
9619.000000;0.991984
9618.000000;0.991163
9617.000000;0.989871
9616.000000;0.988404
9615.000000;0.987159
9614.000000;0.986174
9613.000000;0.985340
9612.000000;0.984748
9611.000000;0.984540
9610.000000;0.984580
9609.000000;0.984561
9608.000000;0.984334
9607.000000;0.983922
9606.000000;0.983300
9605.000000;0.982360
9604.000000;0.981100
9603.000000;0.979701
9602.000000;0.978414
9601.000000;0.977417
9600.000000;0.976731
9599.000000;0.976217
9598.000000;0.975685
9597.000000;0.975036
9596.000000;0.974308
9595.000000;0.973586
9594.000000;0.972935
9593.000000;0.972385
9592.000000;0.971902
9591.000000;0.971371
9590.000000;0.970725
9589.000000;0.970040
9588.000000;0.969426
9587.000000;0.968839
9586.000000;0.968133
9585.000000;0.967326
9584.000000;0.966672
9583.000000;0.966404
9582.000000;0.966456
9581.000000;0.966443
9580.000000;0.965897
9579.000000;0.964639
9578.000000;0.963027
9577.000000;0.961739
9576.000000;0.961184
9575.000000;0.961184
9574.000000;0.961261
9573.000000;0.961116
9572.000000;0.960716
9571.000000;0.960135
9570.000000;0.959541
9569.000000;0.959190
9568.000000;0.959159
9567.000000;0.959137
9566.000000;0.958730
9565.000000;0.957919
9564.000000;0.957023
9563.000000;0.956272
9562.000000;0.955658
9561.000000;0.955141
9560.000000;0.954705
9559.000000;0.954242
9558.000000;0.953634
9557.000000;0.952962
9556.000000;0.952402
9555.000000;0.951927
9554.000000;0.951333
9553.000000;0.950538
9552.000000;0.949675
9551.000000;0.948865
9550.000000;0.948119
9549.000000;0.947417
9548.000000;0.946708
9547.000000;0.945905
9546.000000;0.945057
9545.000000;0.944443
9544.000000;0.944219
9543.000000;0.944115
9542.000000;0.943776
9541.000000;0.943286
9540.000000;0.943011
9539.000000;0.942970
9538.000000;0.942776
9537.000000;0.942185
9536.000000;0.941314
9535.000000;0.940307
9534.000000;0.939182
9533.000000;0.938070
9532.000000;0.937186
9531.000000;0.936446
9530.000000;0.935467
9529.000000;0.934098
9528.000000;0.932633
9527.000000;0.931419
9526.000000;0.930606
9525.000000;0.930349
9524.000000;0.930764
9523.000000;0.931485
9522.000000;0.931718
9521.000000;0.931050
9520.000000;0.929936
9519.000000;0.929074
9518.000000;0.928593
9517.000000;0.928123
9516.000000;0.927399
9515.000000;0.926487
9514.000000;0.925623
9513.000000;0.925105
9512.000000;0.925126
9511.000000;0.925444
9510.000000;0.925420
9509.000000;0.924711
9508.000000;0.923742
9507.000000;0.923165
9506.000000;0.923005
9505.000000;0.922751
9504.000000;0.922128
9503.000000;0.921382
9502.000000;0.920770
9501.000000;0.920209
9500.000000;0.919525
9499.000000;0.918741
9498.000000;0.917967
9497.000000;0.917237
9496.000000;0.916592
9495.000000;0.916157
9494.000000;0.915991
9493.000000;0.915915
9492.000000;0.915596
9491.000000;0.914814
9490.000000;0.913679
9489.000000;0.912633
9488.000000;0.912152
9487.000000;0.912287
9486.000000;0.912497
9485.000000;0.912140
9484.000000;0.911151
9483.000000;0.910064
9482.000000;0.909314
9481.000000;0.908755
9480.000000;0.908000
9479.000000;0.907079
9478.000000;0.906469
9477.000000;0.906469
9476.000000;0.906781
9475.000000;0.906821
9474.000000;0.906331
9473.000000;0.905540
9472.000000;0.904801
9471.000000;0.904193
9470.000000;0.903511
9469.000000;0.902539
9468.000000;0.901287
9467.000000;0.900015
9466.000000;0.899043
9465.000000;0.898487
9464.000000;0.898159
9463.000000;0.897755
9462.000000;0.897144
9461.000000;0.896455
9460.000000;0.895906
9459.000000;0.895593
9458.000000;0.895447
9457.000000;0.895354
9456.000000;0.895293
9455.000000;0.895348
9454.000000;0.895484
9453.000000;0.895342
9452.000000;0.894456
9451.000000;0.892864
9450.000000;0.891299
9449.000000;0.890491
9448.000000;0.890356
9447.000000;0.890202
9446.000000;0.889673
9445.000000;0.889103
9444.000000;0.888828
9443.000000;0.888644
9442.000000;0.888198
9441.000000;0.887530
9440.000000;0.886869
9439.000000;0.886202
9438.000000;0.885464
9437.000000;0.884916
9436.000000;0.884893
9435.000000;0.885205
9434.000000;0.885227
9433.000000;0.884610
9432.000000;0.883552
9431.000000;0.882332
9430.000000;0.880948
9429.000000;0.879390
9428.000000;0.877977
9427.000000;0.877166
9426.000000;0.877092
9425.000000;0.877419
9424.000000;0.877599
9423.000000;0.877236
9422.000000;0.876299
9421.000000;0.875103
9420.000000;0.874128
9419.000000;0.873792
9418.000000;0.874233
9417.000000;0.875140
9416.000000;0.875823
9415.000000;0.875717
9414.000000;0.874921
9413.000000;0.874041
9412.000000;0.873414
9411.000000;0.872779
9410.000000;0.871869
9409.000000;0.870985
9408.000000;0.870625
9407.000000;0.870756
9406.000000;0.870829
9405.000000;0.870439
9404.000000;0.869630
9403.000000;0.868607
9402.000000;0.867531
9401.000000;0.866614
9400.000000;0.866051
9399.000000;0.865773
9398.000000;0.865504
9397.000000;0.865133
9396.000000;0.864806
9395.000000;0.864604
9394.000000;0.864348
9393.000000;0.863837
9392.000000;0.863079
9391.000000;0.862201
9390.000000;0.861267
9389.000000;0.860265
9388.000000;0.859205
9387.000000;0.858228
9386.000000;0.857671
9385.000000;0.857879
9384.000000;0.858767
9383.000000;0.859652
9382.000000;0.859773
9381.000000;0.858989
9380.000000;0.857794
9379.000000;0.856722
9378.000000;0.855966
9377.000000;0.855517
9376.000000;0.855329
9375.000000;0.855225
9374.000000;0.854907
9373.000000;0.854188
9372.000000;0.853168
9371.000000;0.852164
9370.000000;0.851543
9369.000000;0.851509
9368.000000;0.851833
9367.000000;0.851890
9366.000000;0.851191
9365.000000;0.849898
9364.000000;0.848583
9363.000000;0.847578
9362.000000;0.846810
9361.000000;0.846191
9360.000000;0.845808
9359.000000;0.845680
9358.000000;0.845672
9357.000000;0.845717
9356.000000;0.845847
9355.000000;0.845908
9354.000000;0.845568
9353.000000;0.844777
9352.000000;0.843954
9351.000000;0.843522
9350.000000;0.843437
9349.000000;0.843323
9348.000000;0.842900
9347.000000;0.842125
9346.000000;0.841091
9345.000000;0.839969
9344.000000;0.838973
9343.000000;0.838211
9342.000000;0.837632
9341.000000;0.837189
9340.000000;0.836926
9339.000000;0.836842
9338.000000;0.836799
9337.000000;0.836703
9336.000000;0.836629
9335.000000;0.836635
9334.000000;0.836527
9333.000000;0.836015
9332.000000;0.835114
9331.000000;0.834243
9330.000000;0.833808
9329.000000;0.833757
9328.000000;0.833624
9327.000000;0.833061
9326.000000;0.832221
9325.000000;0.831520
9324.000000;0.831105
9323.000000;0.830779
9322.000000;0.830426
9321.000000;0.830196
9320.000000;0.830119
9319.000000;0.829818
9318.000000;0.828959
9317.000000;0.827835
9316.000000;0.827144
9315.000000;0.827164
9314.000000;0.827409
9313.000000;0.827126
9312.000000;0.825975
9311.000000;0.824250
9310.000000;0.822630
9309.000000;0.821704
9308.000000;0.821526
9307.000000;0.821616
9306.000000;0.821485
9305.000000;0.821140
9304.000000;0.820906
9303.000000;0.820876
9302.000000;0.820773
9301.000000;0.820315
9300.000000;0.819468
9299.000000;0.818376
9298.000000;0.817324
9297.000000;0.816720
9296.000000;0.816812
9295.000000;0.817375
9294.000000;0.817906
9293.000000;0.818143
9292.000000;0.818132
9291.000000;0.817849
9290.000000;0.817167
9289.000000;0.816272
9288.000000;0.815684
9287.000000;0.815668
9286.000000;0.815892
9285.000000;0.815879
9284.000000;0.815558
9283.000000;0.815120
9282.000000;0.814602
9281.000000;0.813909
9280.000000;0.813140
9279.000000;0.812568
9278.000000;0.812280
9277.000000;0.812023
9276.000000;0.811465
9275.000000;0.810537
9274.000000;0.809531
9273.000000;0.808862
9272.000000;0.808662
9271.000000;0.808577
9270.000000;0.808107
9269.000000;0.807178
9268.000000;0.806220
9267.000000;0.805635
9266.000000;0.805409
9265.000000;0.805354
9264.000000;0.805495
9263.000000;0.805962
9262.000000;0.806584
9261.000000;0.806895
9260.000000;0.806597
9259.000000;0.805851
9258.000000;0.805044
9257.000000;0.804362
9256.000000;0.803685
9255.000000;0.802873
9254.000000;0.802024
9253.000000;0.801388
9252.000000;0.801054
9251.000000;0.800823
9250.000000;0.800434
9249.000000;0.799847
9248.000000;0.799237
9247.000000;0.798761
9246.000000;0.798414
9245.000000;0.798096
9244.000000;0.797733
9243.000000;0.797330
9242.000000;0.796936
9241.000000;0.796536
9240.000000;0.795996
9239.000000;0.795240
9238.000000;0.794524
9237.000000;0.794361
9236.000000;0.794970
9235.000000;0.795872
9234.000000;0.796222
9233.000000;0.795565
9232.000000;0.794184
9231.000000;0.792741
9230.000000;0.791739
9229.000000;0.791324
9228.000000;0.791396
9227.000000;0.791735
9226.000000;0.792060
9225.000000;0.792085
9224.000000;0.791653
9223.000000;0.790898
9222.000000;0.790229
9221.000000;0.789994
9220.000000;0.790096
9219.000000;0.790089
9218.000000;0.789681
9217.000000;0.789010
9216.000000;0.788366
9215.000000;0.787854
9214.000000;0.787473
9213.000000;0.787289
9212.000000;0.787327
9211.000000;0.787433
9210.000000;0.787466
9209.000000;0.787475
9208.000000;0.787447
9207.000000;0.787080
9206.000000;0.786114
9205.000000;0.784825
9204.000000;0.783827
9203.000000;0.783402
9202.000000;0.783303
9201.000000;0.783205
9200.000000;0.783028
9199.000000;0.782751
9198.000000;0.782270
9197.000000;0.781595
9196.000000;0.780979
9195.000000;0.780655
9194.000000;0.780595
9193.000000;0.780632
9192.000000;0.780733
9191.000000;0.780968
9190.000000;0.781257
9189.000000;0.781306
9188.000000;0.780848
9187.000000;0.779935
9186.000000;0.778939
9185.000000;0.778231
9184.000000;0.777856
9183.000000;0.777611
9182.000000;0.777394
9181.000000;0.777310
9180.000000;0.777396
9179.000000;0.777454
9178.000000;0.777288
9177.000000;0.776913
9176.000000;0.776397
9175.000000;0.775718
9174.000000;0.774981
9173.000000;0.774582
9172.000000;0.774821
9171.000000;0.775460
9170.000000;0.775906
9169.000000;0.775791
9168.000000;0.775151
9167.000000;0.774189
9166.000000;0.773150
9165.000000;0.772312
9164.000000;0.771770
9163.000000;0.771225
9162.000000;0.770318
9161.000000;0.769165
9160.000000;0.768325
9159.000000;0.768203
9158.000000;0.768698
9157.000000;0.769377
9156.000000;0.769763
9155.000000;0.769548
9154.000000;0.768859
9153.000000;0.768306
9152.000000;0.768400
9151.000000;0.768914
9150.000000;0.769070
9149.000000;0.768420
9148.000000;0.767257
9147.000000;0.766151
9146.000000;0.765404
9145.000000;0.765027
9144.000000;0.764877
9143.000000;0.764711
9142.000000;0.764363
9141.000000;0.763993
9140.000000;0.763919
9139.000000;0.764125
9138.000000;0.764241
9137.000000;0.764082
9136.000000;0.763874
9135.000000;0.763769
9134.000000;0.763484
9133.000000;0.762707
9132.000000;0.761646
9131.000000;0.760882
9130.000000;0.760734
9129.000000;0.760995
9128.000000;0.761199
9127.000000;0.761002
9126.000000;0.760398
9125.000000;0.759739
9124.000000;0.759475
9123.000000;0.759723
9122.000000;0.760123
9121.000000;0.760208
9120.000000;0.759866
9119.000000;0.759349
9118.000000;0.758925
9117.000000;0.758626
9116.000000;0.758315
9115.000000;0.757908
9114.000000;0.757508
9113.000000;0.757320
9112.000000;0.757388
9111.000000;0.757477
9110.000000;0.757312
9109.000000;0.756914
9108.000000;0.756561
9107.000000;0.756447
9106.000000;0.756485
9105.000000;0.756457
9104.000000;0.756218
9103.000000;0.755750
9102.000000;0.755178
9101.000000;0.754748
9100.000000;0.754633
9099.000000;0.754726
9098.000000;0.754765
9097.000000;0.754656
9096.000000;0.754508
9095.000000;0.754380
9094.000000;0.754154
9093.000000;0.753716
9092.000000;0.753077
9091.000000;0.752269
9090.000000;0.751317
9089.000000;0.750343
9088.000000;0.749553
9087.000000;0.749032
9086.000000;0.748710
9085.000000;0.748530
9084.000000;0.748474
9083.000000;0.748405
9082.000000;0.748139
9081.000000;0.747764
9080.000000;0.747602
9079.000000;0.747716
9078.000000;0.747698
9077.000000;0.747184
9076.000000;0.746409
9075.000000;0.745956
9074.000000;0.746033
9073.000000;0.746281
9072.000000;0.746319
9071.000000;0.746200
9070.000000;0.746220
9069.000000;0.746443
9068.000000;0.746619
9067.000000;0.746542
9066.000000;0.746306
9065.000000;0.746146
9064.000000;0.746109
9063.000000;0.746003
9062.000000;0.745658
9061.000000;0.745126
9060.000000;0.744547
9059.000000;0.743969
9058.000000;0.743400
9057.000000;0.742966
9056.000000;0.742827
9055.000000;0.742927
9054.000000;0.742970
9053.000000;0.742712
9052.000000;0.742220
9051.000000;0.741771
9050.000000;0.741545
9049.000000;0.741458
9048.000000;0.741321
9047.000000;0.741096
9046.000000;0.740917
9045.000000;0.740834
9044.000000;0.740682
9043.000000;0.740331
9042.000000;0.739993
9041.000000;0.739988
9040.000000;0.740197
9039.000000;0.740052
9038.000000;0.739236
9037.000000;0.738157
9036.000000;0.737524
9035.000000;0.737594
9034.000000;0.738067
9033.000000;0.738549
9032.000000;0.738856
9031.000000;0.738920
9030.000000;0.738667
9029.000000;0.738078
9028.000000;0.737238
9027.000000;0.736329
9026.000000;0.735611
9025.000000;0.735285
9024.000000;0.735274
9023.000000;0.735281
9022.000000;0.735171
9021.000000;0.735119
9020.000000;0.735217
9019.000000;0.735222
9018.000000;0.734965
9017.000000;0.734743
9016.000000;0.734884
9015.000000;0.735107
9014.000000;0.734814
9013.000000;0.733987
9012.000000;0.733259
9011.000000;0.733043
9010.000000;0.733077
9009.000000;0.732981
9008.000000;0.732793
9007.000000;0.732650
9006.000000;0.732357
9005.000000;0.731666
9004.000000;0.730804
9003.000000;0.730303
9002.000000;0.730374
9001.000000;0.730704
9000.000000;0.730873
8999.000000;0.730780
8998.000000;0.730647
8997.000000;0.730733
8996.000000;0.731067
8995.000000;0.731378
8994.000000;0.731340
8993.000000;0.730899
8992.000000;0.730308
8991.000000;0.729794
8990.000000;0.729316
8989.000000;0.728735
8988.000000;0.728094
8987.000000;0.727623
8986.000000;0.727495
8985.000000;0.727697
8984.000000;0.728090
8983.000000;0.728501
8982.000000;0.728786
8981.000000;0.728881
8980.000000;0.728820
8979.000000;0.728658
8978.000000;0.728372
8977.000000;0.727890
8976.000000;0.727233
8975.000000;0.726639
8974.000000;0.726441
8973.000000;0.726735
8972.000000;0.727177
8971.000000;0.727234
8970.000000;0.726731
8969.000000;0.726036
8968.000000;0.725600
8967.000000;0.725444
8966.000000;0.725234
8965.000000;0.724803
8964.000000;0.724351
8963.000000;0.724148
8962.000000;0.724202
8961.000000;0.724304
8960.000000;0.724281
8959.000000;0.724139
8958.000000;0.723989
8957.000000;0.723905
8956.000000;0.723861
8955.000000;0.723793
8954.000000;0.723688
8953.000000;0.723527
8952.000000;0.723173
8951.000000;0.722496
8950.000000;0.721678
8949.000000;0.721242
8948.000000;0.721595
8947.000000;0.722603
8946.000000;0.723702
8945.000000;0.724357
8944.000000;0.724363
8943.000000;0.723852
8942.000000;0.723199
8941.000000;0.722791
8940.000000;0.722680
8939.000000;0.722543
8938.000000;0.722098
8937.000000;0.721444
8936.000000;0.720842
8935.000000;0.720362
8934.000000;0.719966
8933.000000;0.719757
8932.000000;0.719806
8931.000000;0.719850
8930.000000;0.719527
8929.000000;0.718913
8928.000000;0.718487
8927.000000;0.718526
8926.000000;0.718848
8925.000000;0.719188
8924.000000;0.719472
8923.000000;0.719624
8922.000000;0.719471
8921.000000;0.719050
8920.000000;0.718770
8919.000000;0.719000
8918.000000;0.719629
8917.000000;0.720209
8916.000000;0.720404
8915.000000;0.720175
8914.000000;0.719665
8913.000000;0.719092
8912.000000;0.718667
8911.000000;0.718443
8910.000000;0.718252
8909.000000;0.717906
8908.000000;0.717457
8907.000000;0.717171
8906.000000;0.717259
8905.000000;0.717666
8904.000000;0.718086
8903.000000;0.718165
8902.000000;0.717740
8901.000000;0.716943
8900.000000;0.716092
8899.000000;0.715475
8898.000000;0.715247
8897.000000;0.715421
8896.000000;0.715840
8895.000000;0.716191
8894.000000;0.716237
8893.000000;0.716091
8892.000000;0.716107
8891.000000;0.716481
8890.000000;0.717034
8889.000000;0.717423
8888.000000;0.717419
8887.000000;0.716934
8886.000000;0.715981
8885.000000;0.714766
8884.000000;0.713743
8883.000000;0.713344
8882.000000;0.713603
8881.000000;0.714123
8880.000000;0.714476
8879.000000;0.714591
8878.000000;0.714700
8877.000000;0.714951
8876.000000;0.715179
8875.000000;0.715119
8874.000000;0.714730
8873.000000;0.714179
8872.000000;0.713577
8871.000000;0.712936
8870.000000;0.712406
8869.000000;0.712305
8868.000000;0.712777
8867.000000;0.713544
8866.000000;0.714147
8865.000000;0.714328
8864.000000;0.714087
8863.000000;0.713544
8862.000000;0.712959
8861.000000;0.712725
8860.000000;0.713057
8859.000000;0.713703
8858.000000;0.714176
8857.000000;0.714262
8856.000000;0.714122
8855.000000;0.713943
8854.000000;0.713737
8853.000000;0.713496
8852.000000;0.713292
8851.000000;0.713141
8850.000000;0.712933
8849.000000;0.712625
8848.000000;0.712376
8847.000000;0.712399
8846.000000;0.712733
8845.000000;0.713204
8844.000000;0.713531
8843.000000;0.713509
8842.000000;0.713186
8841.000000;0.712885
8840.000000;0.712913
8839.000000;0.713242
8838.000000;0.713563
8837.000000;0.713656
8836.000000;0.713587
8835.000000;0.713533
8834.000000;0.713548
8833.000000;0.713566
8832.000000;0.713493
8831.000000;0.713264
8830.000000;0.712902
8829.000000;0.712589
8828.000000;0.712570
8827.000000;0.712888
8826.000000;0.713257
8825.000000;0.713299
8824.000000;0.712897
8823.000000;0.712309
8822.000000;0.711927
8821.000000;0.711951
8820.000000;0.712269
8819.000000;0.712644
8818.000000;0.712942
8817.000000;0.713146
8816.000000;0.713218
8815.000000;0.713092
8814.000000;0.712841
8813.000000;0.712673
8812.000000;0.712689
8811.000000;0.712773
8810.000000;0.712824
8809.000000;0.712974
8808.000000;0.713408
8807.000000;0.714047
8806.000000;0.714580
8805.000000;0.714749
8804.000000;0.714520
8803.000000;0.714040
8802.000000;0.713592
8801.000000;0.713490
8800.000000;0.713822
8799.000000;0.714292
8798.000000;0.714493
8797.000000;0.714336
8796.000000;0.714091
8795.000000;0.714024
8794.000000;0.714140
8793.000000;0.714277
8792.000000;0.714296
8791.000000;0.714157
8790.000000;0.713932
8789.000000;0.713810
8788.000000;0.713963
8787.000000;0.714338
8786.000000;0.714660
8785.000000;0.714676
8784.000000;0.714394
8783.000000;0.714100
8782.000000;0.714139
8781.000000;0.714625
8780.000000;0.715303
8779.000000;0.715752
8778.000000;0.715814
8777.000000;0.715759
8776.000000;0.715952
8775.000000;0.716405
8774.000000;0.716778
8773.000000;0.716798
8772.000000;0.716575
8771.000000;0.716468
8770.000000;0.716694
8769.000000;0.717083
8768.000000;0.717235
8767.000000;0.716977
8766.000000;0.716648
8765.000000;0.716812
8764.000000;0.717624
8763.000000;0.718610
8762.000000;0.719193
8761.000000;0.719289
8760.000000;0.719259
8759.000000;0.719380
8758.000000;0.719573
8757.000000;0.719623
8756.000000;0.719487
8755.000000;0.719311
8754.000000;0.719264
8753.000000;0.719384
8752.000000;0.719559
8751.000000;0.719663
8750.000000;0.719701
8749.000000;0.719778
8748.000000;0.719927
8747.000000;0.720075
8746.000000;0.720197
8745.000000;0.720381
8744.000000;0.720683
8743.000000;0.721063
8742.000000;0.721501
8741.000000;0.722019
8740.000000;0.722484
8739.000000;0.722592
8738.000000;0.722234
8737.000000;0.721761
8736.000000;0.721705
8735.000000;0.722249
8734.000000;0.723076
8733.000000;0.723628
8732.000000;0.723494
8731.000000;0.722723
8730.000000;0.721868
8729.000000;0.721553
8728.000000;0.721825
8727.000000;0.722120
8726.000000;0.722006
8725.000000;0.721746
8724.000000;0.721888
8723.000000;0.722501
8722.000000;0.723153
8721.000000;0.723544
8720.000000;0.723785
8719.000000;0.724069
8718.000000;0.724354
8717.000000;0.724503
8716.000000;0.724516
8715.000000;0.724524
8714.000000;0.724666
8713.000000;0.724996
8712.000000;0.725435
8711.000000;0.725808
8710.000000;0.726026
8709.000000;0.726154
8708.000000;0.726252
8707.000000;0.726229
8706.000000;0.726002
8705.000000;0.725694
8704.000000;0.725500
8703.000000;0.725440
8702.000000;0.725422
8701.000000;0.725464
8700.000000;0.725684
8699.000000;0.726111
8698.000000;0.726660
8697.000000;0.727246
8696.000000;0.727784
8695.000000;0.728152
8694.000000;0.728309
8693.000000;0.728348
8692.000000;0.728335
8691.000000;0.728226
8690.000000;0.728081
8689.000000;0.728161
8688.000000;0.728557
8687.000000;0.728923
8686.000000;0.728864
8685.000000;0.728481
8684.000000;0.728163
8683.000000;0.727964
8682.000000;0.727615
8681.000000;0.727121
8680.000000;0.726896
8679.000000;0.727190
8678.000000;0.727732
8677.000000;0.728153
8676.000000;0.728484
8675.000000;0.729001
8674.000000;0.729759
8673.000000;0.730512
8672.000000;0.730991
8671.000000;0.731106
8670.000000;0.730939
8669.000000;0.730650
8668.000000;0.730370
8667.000000;0.730131
8666.000000;0.729918
8665.000000;0.729770
8664.000000;0.729725
8663.000000;0.729687
8662.000000;0.729485
8661.000000;0.729090
8660.000000;0.728660
8659.000000;0.728369
8658.000000;0.728266
8657.000000;0.728285
8656.000000;0.728315
8655.000000;0.728292
8654.000000;0.728327
8653.000000;0.728679
8652.000000;0.729447
8651.000000;0.730334
8650.000000;0.730900
8649.000000;0.730991
8648.000000;0.730766
8647.000000;0.730340
8646.000000;0.729688
8645.000000;0.728923
8644.000000;0.728394
8643.000000;0.728354
8642.000000;0.728665
8641.000000;0.728956
8640.000000;0.728974
8639.000000;0.728708
8638.000000;0.728302
8637.000000;0.727957
8636.000000;0.727846
8635.000000;0.728009
8634.000000;0.728329
8633.000000;0.728641
8632.000000;0.728836
8631.000000;0.728876
8630.000000;0.728802
8629.000000;0.728743
8628.000000;0.728838
8627.000000;0.729094
8626.000000;0.729350
8625.000000;0.729404
8624.000000;0.729173
8623.000000;0.728739
8622.000000;0.728286
8621.000000;0.727976
8620.000000;0.727842
8619.000000;0.727828
8618.000000;0.727928
8617.000000;0.728189
8616.000000;0.728531
8615.000000;0.728682
8614.000000;0.728434
8613.000000;0.727927
8612.000000;0.727540
8611.000000;0.727512
8610.000000;0.727738
8609.000000;0.727906
8608.000000;0.727776
8607.000000;0.727356
8606.000000;0.726892
8605.000000;0.726649
8604.000000;0.726650
8603.000000;0.726665
8602.000000;0.726469
8601.000000;0.726063
8600.000000;0.725614
8599.000000;0.725303
8598.000000;0.725283
8597.000000;0.725645
8596.000000;0.726309
8595.000000;0.727017
8594.000000;0.727542
8593.000000;0.727831
8592.000000;0.727914
8591.000000;0.727779
8590.000000;0.727423
8589.000000;0.726909
8588.000000;0.726298
8587.000000;0.725658
8586.000000;0.725193
8585.000000;0.725146
8584.000000;0.725439
8583.000000;0.725641
8582.000000;0.725481
8581.000000;0.725205
8580.000000;0.725205
8579.000000;0.725458
8578.000000;0.725599
8577.000000;0.725421
8576.000000;0.725020
8575.000000;0.724528
8574.000000;0.724019
8573.000000;0.723662
8572.000000;0.723664
8571.000000;0.723980
8570.000000;0.724308
8569.000000;0.724442
8568.000000;0.724476
8567.000000;0.724611
8566.000000;0.724879
8565.000000;0.725113
8564.000000;0.725095
8563.000000;0.724767
8562.000000;0.724351
8561.000000;0.724176
8560.000000;0.724293
8559.000000;0.724348
8558.000000;0.723980
8557.000000;0.723287
8556.000000;0.722725
8555.000000;0.722617
8554.000000;0.722879
8553.000000;0.723182
8552.000000;0.723234
8551.000000;0.722969
8550.000000;0.722617
8549.000000;0.722518
8548.000000;0.722750
8547.000000;0.723028
8546.000000;0.723078
8545.000000;0.722971
8544.000000;0.722919
8543.000000;0.722897
8542.000000;0.722708
8541.000000;0.722301
8540.000000;0.721796
8539.000000;0.721265
8538.000000;0.720759
8537.000000;0.720448
8536.000000;0.720454
8535.000000;0.720566
8534.000000;0.720440
8533.000000;0.720072
8532.000000;0.719834
8531.000000;0.720014
8530.000000;0.720547
8529.000000;0.721212
8528.000000;0.721819
8527.000000;0.722142
8526.000000;0.721959
8525.000000;0.721311
8524.000000;0.720566
8523.000000;0.720099
8522.000000;0.720014
8521.000000;0.720171
8520.000000;0.720342
8519.000000;0.720320
8518.000000;0.720038
8517.000000;0.719674
8516.000000;0.719504
8515.000000;0.719621
8514.000000;0.719890
8513.000000;0.720152
8512.000000;0.720340
8511.000000;0.720402
8510.000000;0.720310
8509.000000;0.720135
8508.000000;0.719956
8507.000000;0.719726
8506.000000;0.719379
8505.000000;0.719075
8504.000000;0.719076
8503.000000;0.719378
8502.000000;0.719685
8501.000000;0.719819
8500.000000;0.719936
8499.000000;0.720205
8498.000000;0.720458
8497.000000;0.720318
8496.000000;0.719626
8495.000000;0.718646
8494.000000;0.717905
8493.000000;0.717825
8492.000000;0.718403
8491.000000;0.719167
8490.000000;0.719562
8489.000000;0.719414
8488.000000;0.718994
8487.000000;0.718642
8486.000000;0.718447
8485.000000;0.718278
8484.000000;0.717989
8483.000000;0.717565
8482.000000;0.717179
8481.000000;0.717109
8480.000000;0.717477
8479.000000;0.718067
8478.000000;0.718488
8477.000000;0.718553
8476.000000;0.718413
8475.000000;0.718335
8474.000000;0.718435
8473.000000;0.718618
8472.000000;0.718684
8471.000000;0.718493
8470.000000;0.718130
8469.000000;0.717844
8468.000000;0.717748
8467.000000;0.717652
8466.000000;0.717337
8465.000000;0.716890
8464.000000;0.716556
8463.000000;0.716362
8462.000000;0.716130
8461.000000;0.715852
8460.000000;0.715750
8459.000000;0.715915
8458.000000;0.716160
8457.000000;0.716345
8456.000000;0.716596
8455.000000;0.717025
8454.000000;0.717428
8453.000000;0.717466
8452.000000;0.717045
8451.000000;0.716376
8450.000000;0.715724
8449.000000;0.715261
8448.000000;0.715086
8447.000000;0.715194
8446.000000;0.715419
8445.000000;0.715513
8444.000000;0.715356
8443.000000;0.715065
8442.000000;0.714883
8441.000000;0.714967
8440.000000;0.715243
8439.000000;0.715445
8438.000000;0.715374
8437.000000;0.715116
8436.000000;0.714968
8435.000000;0.715112
8434.000000;0.715430
8433.000000;0.715665
8432.000000;0.715695
8431.000000;0.715578
8430.000000;0.715408
8429.000000;0.715220
8428.000000;0.715049
8427.000000;0.714965
8426.000000;0.714983
8425.000000;0.714964
8424.000000;0.714709
8423.000000;0.714194
8422.000000;0.713659
8421.000000;0.713417
8420.000000;0.713574
8419.000000;0.713972
8418.000000;0.714362
8417.000000;0.714563
8416.000000;0.714507
8415.000000;0.714269
8414.000000;0.714029
8413.000000;0.713899
8412.000000;0.713768
8411.000000;0.713456
8410.000000;0.713038
8409.000000;0.712844
8408.000000;0.713072
8407.000000;0.713545
8406.000000;0.713940
8405.000000;0.714124
8404.000000;0.714157
8403.000000;0.714126
8402.000000;0.714099
8401.000000;0.714131
8400.000000;0.714184
8399.000000;0.714124
8398.000000;0.713904
8397.000000;0.713674
8396.000000;0.713584
8395.000000;0.713599
8394.000000;0.713616
8393.000000;0.713654
8392.000000;0.713769
8391.000000;0.713876
8390.000000;0.713817
8389.000000;0.713576
8388.000000;0.713283
8387.000000;0.713068
8386.000000;0.713002
8385.000000;0.713099
8384.000000;0.713251
8383.000000;0.713245
8382.000000;0.712995
8381.000000;0.712690
8380.000000;0.712572
8379.000000;0.712648
8378.000000;0.712764
8377.000000;0.712857
8376.000000;0.712943
8375.000000;0.712926
8374.000000;0.712669
8373.000000;0.712283
8372.000000;0.712107
8371.000000;0.712340
8370.000000;0.712794
8369.000000;0.713079
8368.000000;0.712965
8367.000000;0.712531
8366.000000;0.712058
8365.000000;0.711783
8364.000000;0.711720
8363.000000;0.711726
8362.000000;0.711726
8361.000000;0.711783
8360.000000;0.711922
8359.000000;0.712021
8358.000000;0.711975
8357.000000;0.711853
8356.000000;0.711780
8355.000000;0.711759
8354.000000;0.711754
8353.000000;0.711832
8352.000000;0.712059
8351.000000;0.712326
8350.000000;0.712434
8349.000000;0.712296
8348.000000;0.711928
8347.000000;0.711364
8346.000000;0.710753
8345.000000;0.710434
8344.000000;0.710664
8343.000000;0.711273
8342.000000;0.711802
8341.000000;0.711970
8340.000000;0.711861
8339.000000;0.711655
8338.000000;0.711418
8337.000000;0.711182
8336.000000;0.711050
8335.000000;0.711092
8334.000000;0.711198
8333.000000;0.711126
8332.000000;0.710706
8331.000000;0.710016
8330.000000;0.709387
8329.000000;0.709178
8328.000000;0.709442
8327.000000;0.709866
8326.000000;0.710074
8325.000000;0.709968
8324.000000;0.709727
8323.000000;0.709562
8322.000000;0.709555
8321.000000;0.709643
8320.000000;0.709645
8319.000000;0.709420
8318.000000;0.709067
8317.000000;0.708877
8316.000000;0.708972
8315.000000;0.709125
8314.000000;0.709062
8313.000000;0.708807
8312.000000;0.708565
8311.000000;0.708404
8310.000000;0.708246
8309.000000;0.708095
8308.000000;0.708034
8307.000000;0.708033
8306.000000;0.707994
8305.000000;0.707948
8304.000000;0.708035
8303.000000;0.708262
8302.000000;0.708464
8301.000000;0.708503
8300.000000;0.708389
8299.000000;0.708194
8298.000000;0.707980
8297.000000;0.707821
8296.000000;0.707774
8295.000000;0.707829
8294.000000;0.707953
8293.000000;0.708118
8292.000000;0.708219
8291.000000;0.708067
8290.000000;0.707619
8289.000000;0.707118
8288.000000;0.706843
8287.000000;0.706785
8286.000000;0.706719
8285.000000;0.706512
8284.000000;0.706208
8283.000000;0.705895
8282.000000;0.705698
8281.000000;0.705794
8280.000000;0.706205
8279.000000;0.706614
8278.000000;0.706616
8277.000000;0.706174
8276.000000;0.705632
8275.000000;0.705302
8274.000000;0.705229
8273.000000;0.705313
8272.000000;0.705431
8271.000000;0.705438
8270.000000;0.705258
8269.000000;0.705018
8268.000000;0.704906
8267.000000;0.704903
8266.000000;0.704831
8265.000000;0.704682
8264.000000;0.704666
8263.000000;0.704899
8262.000000;0.705241
8261.000000;0.705519
8260.000000;0.705702
8259.000000;0.705787
8258.000000;0.705709
8257.000000;0.705482
8256.000000;0.705301
8255.000000;0.705342
8254.000000;0.705541
8253.000000;0.705639
8252.000000;0.705416
8251.000000;0.704878
8250.000000;0.704283
8249.000000;0.703977
8248.000000;0.704115
8247.000000;0.704503
8246.000000;0.704821
8245.000000;0.704968
8244.000000;0.705106
8243.000000;0.705384
8242.000000;0.705735
8241.000000;0.705964
8240.000000;0.705915
8239.000000;0.705539
8238.000000;0.704935
8237.000000;0.704344
8236.000000;0.703991
8235.000000;0.703877
8234.000000;0.703820
8233.000000;0.703694
8232.000000;0.703534
8231.000000;0.703427
8230.000000;0.703412
8229.000000;0.703503
8228.000000;0.703690
8227.000000;0.703883
8226.000000;0.703964
8225.000000;0.703904
8224.000000;0.703758
8223.000000;0.703545
8222.000000;0.703238
8221.000000;0.702876
8220.000000;0.702582
8219.000000;0.702442
8218.000000;0.702458
8217.000000;0.702591
8216.000000;0.702793
8215.000000;0.702979
8214.000000;0.703087
8213.000000;0.703153
8212.000000;0.703244
8211.000000;0.703314
8210.000000;0.703253
8209.000000;0.703060
8208.000000;0.702886
8207.000000;0.702861
8206.000000;0.702978
8205.000000;0.703145
8204.000000;0.703264
8203.000000;0.703281
8202.000000;0.703218
8201.000000;0.703155
8200.000000;0.703097
8199.000000;0.702915
8198.000000;0.702515
8197.000000;0.702029
8196.000000;0.701712
8195.000000;0.701672
8194.000000;0.701808
8193.000000;0.701988
8192.000000;0.702162
8191.000000;0.702295
8190.000000;0.702335
8189.000000;0.702304
8188.000000;0.702327
8187.000000;0.702507
8186.000000;0.702788
8185.000000;0.702954
8184.000000;0.702756
8183.000000;0.702130
8182.000000;0.701331
8181.000000;0.700780
8180.000000;0.700675
8179.000000;0.700841
8178.000000;0.701010
8177.000000;0.701149
8176.000000;0.701381
8175.000000;0.701689
8174.000000;0.701905
8173.000000;0.701943
8172.000000;0.701883
8171.000000;0.701808
8170.000000;0.701738
8169.000000;0.701693
8168.000000;0.701665
8167.000000;0.701522
8166.000000;0.701120
8165.000000;0.700550
8164.000000;0.700137
8163.000000;0.700120
8162.000000;0.700429
8161.000000;0.700803
8160.000000;0.701035
8159.000000;0.701076
8158.000000;0.701004
8157.000000;0.700944
8156.000000;0.700937
8155.000000;0.700854
8154.000000;0.700503
8153.000000;0.699833
8152.000000;0.699029
8151.000000;0.698391
8150.000000;0.698156
8149.000000;0.698359
8148.000000;0.698797
8147.000000;0.699167
8146.000000;0.699323
8145.000000;0.699376
8144.000000;0.699488
8143.000000;0.699631
8142.000000;0.699638
8141.000000;0.699437
8140.000000;0.699122
8139.000000;0.698850
8138.000000;0.698742
8137.000000;0.698828
8136.000000;0.698990
8135.000000;0.699022
8134.000000;0.698841
8133.000000;0.698602
8132.000000;0.698485
8131.000000;0.698457
8130.000000;0.698378
8129.000000;0.698262
8128.000000;0.698251
8127.000000;0.698377
8126.000000;0.698500
8125.000000;0.698509
8124.000000;0.698422
8123.000000;0.698296
8122.000000;0.698175
8121.000000;0.698132
8120.000000;0.698239
8119.000000;0.698468
8118.000000;0.698697
8117.000000;0.698834
8116.000000;0.698857
8115.000000;0.698772
8114.000000;0.698622
8113.000000;0.698499
8112.000000;0.698458
8111.000000;0.698430
8110.000000;0.698344
8109.000000;0.698264
8108.000000;0.698296
8107.000000;0.698401
8106.000000;0.698418
8105.000000;0.698264
8104.000000;0.698005
8103.000000;0.697760
8102.000000;0.697645
8101.000000;0.697723
8100.000000;0.697885
8099.000000;0.697853
8098.000000;0.697477
8097.000000;0.697001
8096.000000;0.696850
8095.000000;0.697148
8094.000000;0.697618
8093.000000;0.697945
8092.000000;0.698049
8091.000000;0.697998
8090.000000;0.697844
8089.000000;0.697634
8088.000000;0.697450
8087.000000;0.697326
8086.000000;0.697229
8085.000000;0.697149
8084.000000;0.697135
8083.000000;0.697204
8082.000000;0.697281
8081.000000;0.697273
8080.000000;0.697149
8079.000000;0.696941
8078.000000;0.696731
8077.000000;0.696648
8076.000000;0.696780
8075.000000;0.697095
8074.000000;0.697470
8073.000000;0.697774
8072.000000;0.697880
8071.000000;0.697685
8070.000000;0.697226
8069.000000;0.696747
8068.000000;0.696505
8067.000000;0.696533
8066.000000;0.696675
8065.000000;0.696800
8064.000000;0.696873
8063.000000;0.696850
8062.000000;0.696666
8061.000000;0.696361
8060.000000;0.696083
8059.000000;0.695940
8058.000000;0.695898
8057.000000;0.695852
8056.000000;0.695735
8055.000000;0.695571
8054.000000;0.695493
8053.000000;0.695640
8052.000000;0.695971
8051.000000;0.696227
8050.000000;0.696186
8049.000000;0.695916
8048.000000;0.695672
8047.000000;0.695598
8046.000000;0.695654
8045.000000;0.695760
8044.000000;0.695866
8043.000000;0.695903
8042.000000;0.695836
8041.000000;0.695746
8040.000000;0.695745
8039.000000;0.695797
8038.000000;0.695769
8037.000000;0.695652
8036.000000;0.695573
8035.000000;0.695598
8034.000000;0.695658
8033.000000;0.695688
8032.000000;0.695702
8031.000000;0.695719
8030.000000;0.695736
8029.000000;0.695800
8028.000000;0.695971
8027.000000;0.696196
8026.000000;0.696322
8025.000000;0.696268
8024.000000;0.696087
8023.000000;0.695863
8022.000000;0.695638
8021.000000;0.695464
8020.000000;0.695393
8019.000000;0.695390
8018.000000;0.695351
8017.000000;0.695242
8016.000000;0.695146
8015.000000;0.695145
8014.000000;0.695234
8013.000000;0.695362
8012.000000;0.695487
8011.000000;0.695575
8010.000000;0.695593
8009.000000;0.695539
8008.000000;0.695416
8007.000000;0.695202
8006.000000;0.694899
8005.000000;0.694581
8004.000000;0.694346
8003.000000;0.694222
8002.000000;0.694179
8001.000000;0.694200
8000.000000;0.694281
7999.000000;0.694403
7998.000000;0.694561
7997.000000;0.694778
7996.000000;0.695006
7995.000000;0.695098
7994.000000;0.694957
7993.000000;0.694653
7992.000000;0.694326
7991.000000;0.694042
7990.000000;0.693864
7989.000000;0.693937
7988.000000;0.694336
7987.000000;0.694879
7986.000000;0.695249
7985.000000;0.695300
7984.000000;0.695134
7983.000000;0.694927
7982.000000;0.694795
7981.000000;0.694777
7980.000000;0.694807
7979.000000;0.694734
7978.000000;0.694523
7977.000000;0.694372
7976.000000;0.694493
7975.000000;0.694805
7974.000000;0.695002
7973.000000;0.694907
7972.000000;0.694607
7971.000000;0.694283
7970.000000;0.694066
7969.000000;0.694048
7968.000000;0.694224
7967.000000;0.694427
7966.000000;0.694471
7965.000000;0.694388
7964.000000;0.694359
7963.000000;0.694431
7962.000000;0.694465
7961.000000;0.694404
7960.000000;0.694381
7959.000000;0.694498
7958.000000;0.694669
7957.000000;0.694768
7956.000000;0.694782
7955.000000;0.694745
7954.000000;0.694628
7953.000000;0.694397
7952.000000;0.694117
7951.000000;0.693918
7950.000000;0.693882
7949.000000;0.694004
7948.000000;0.694191
7947.000000;0.694317
7946.000000;0.694333
7945.000000;0.694320
7944.000000;0.694375
7943.000000;0.694460
7942.000000;0.694468
7941.000000;0.694394
7940.000000;0.694325
7939.000000;0.694280
7938.000000;0.694205
7937.000000;0.694120
7936.000000;0.694138
7935.000000;0.694298
7934.000000;0.694514
7933.000000;0.694706
7932.000000;0.694883
7931.000000;0.695057
7930.000000;0.695178
7929.000000;0.695206
7928.000000;0.695156
7927.000000;0.695054
7926.000000;0.694926
7925.000000;0.694831
7924.000000;0.694801
7923.000000;0.694754
7922.000000;0.694574
7921.000000;0.694292
7920.000000;0.694073
7919.000000;0.694025
7918.000000;0.694116
7917.000000;0.694278
7916.000000;0.694479
7915.000000;0.694667
7914.000000;0.694782
7913.000000;0.694853
7912.000000;0.694978
7911.000000;0.695166
7910.000000;0.695296
7909.000000;0.695287
7908.000000;0.695185
7907.000000;0.695075
7906.000000;0.695003
7905.000000;0.695030
7904.000000;0.695236
7903.000000;0.695585
7902.000000;0.695861
7901.000000;0.695854
7900.000000;0.695575
7899.000000;0.695240
7898.000000;0.695062
7897.000000;0.695085
7896.000000;0.695184
7895.000000;0.695214
7894.000000;0.695154
7893.000000;0.695111
7892.000000;0.695153
7891.000000;0.695212
7890.000000;0.695175
7889.000000;0.695043
7888.000000;0.694904
7887.000000;0.694812
7886.000000;0.694768
7885.000000;0.694777
7884.000000;0.694833
7883.000000;0.694892
7882.000000;0.694961
7881.000000;0.695144
7880.000000;0.695491
7879.000000;0.695841
7878.000000;0.695983
7877.000000;0.695931
7876.000000;0.695872
7875.000000;0.695881
7874.000000;0.695858
7873.000000;0.695780
7872.000000;0.695783
7871.000000;0.695924
7870.000000;0.696027
7869.000000;0.695901
7868.000000;0.695607
7867.000000;0.695381
7866.000000;0.695370
7865.000000;0.695542
7864.000000;0.695803
7863.000000;0.696097
7862.000000;0.696375
7861.000000;0.696564
7860.000000;0.696597
7859.000000;0.696484
7858.000000;0.696350
7857.000000;0.696351
7856.000000;0.696522
7855.000000;0.696715
7854.000000;0.696764
7853.000000;0.696674
7852.000000;0.696584
7851.000000;0.696561
7850.000000;0.696535
7849.000000;0.696444
7848.000000;0.696351
7847.000000;0.696360
7846.000000;0.696489
7845.000000;0.696646
7844.000000;0.696733
7843.000000;0.696724
7842.000000;0.696700
7841.000000;0.696767
7840.000000;0.696947
7839.000000;0.697142
7838.000000;0.697233
7837.000000;0.697198
7836.000000;0.697095
7835.000000;0.697010
7834.000000;0.697034
7833.000000;0.697220
7832.000000;0.697480
7831.000000;0.697601
7830.000000;0.697480
7829.000000;0.697276
7828.000000;0.697238
7827.000000;0.697410
7826.000000;0.697622
7825.000000;0.697720
7824.000000;0.697680
7823.000000;0.697549
7822.000000;0.697395
7821.000000;0.697306
7820.000000;0.697315
7819.000000;0.697323
7818.000000;0.697218
7817.000000;0.697047
7816.000000;0.696986
7815.000000;0.697116
7814.000000;0.697359
7813.000000;0.697605
7812.000000;0.697809
7811.000000;0.697965
7810.000000;0.698096
7809.000000;0.698276
7808.000000;0.698550
7807.000000;0.698852
7806.000000;0.699080
7805.000000;0.699233
7804.000000;0.699363
7803.000000;0.699412
7802.000000;0.699252
7801.000000;0.698907
7800.000000;0.698590
7799.000000;0.698481
7798.000000;0.698592
7797.000000;0.698838
7796.000000;0.699137
7795.000000;0.699389
7794.000000;0.699478
7793.000000;0.699360
7792.000000;0.699102
7791.000000;0.698831
7790.000000;0.698692
7789.000000;0.698802
7788.000000;0.699137
7787.000000;0.699479
7786.000000;0.699622
7785.000000;0.699626
7784.000000;0.699719
7783.000000;0.699970
7782.000000;0.700217
7781.000000;0.700350
7780.000000;0.700452
7779.000000;0.700598
7778.000000;0.700678
7777.000000;0.700563
7776.000000;0.700330
7775.000000;0.700183
7774.000000;0.700220
7773.000000;0.700390
7772.000000;0.700624
7771.000000;0.700885
7770.000000;0.701125
7769.000000;0.701264
7768.000000;0.701256
7767.000000;0.701127
7766.000000;0.700971
7765.000000;0.700910
7764.000000;0.701017
7763.000000;0.701260
7762.000000;0.701522
7761.000000;0.701700
7760.000000;0.701755
7759.000000;0.701688
7758.000000;0.701534
7757.000000;0.701392
7756.000000;0.701399
7755.000000;0.701634
7754.000000;0.702035
7753.000000;0.702434
7752.000000;0.702670
7751.000000;0.702721
7750.000000;0.702728
7749.000000;0.702859
7748.000000;0.703117
7747.000000;0.703324
7746.000000;0.703333
7745.000000;0.703191
7744.000000;0.703042
7743.000000;0.702974
7742.000000;0.703009
7741.000000;0.703173
7740.000000;0.703449
7739.000000;0.703727
7738.000000;0.703916
7737.000000;0.704063
7736.000000;0.704247
7735.000000;0.704386
7734.000000;0.704324
7733.000000;0.704065
7732.000000;0.703812
7731.000000;0.703732
7730.000000;0.703828
7729.000000;0.704017
7728.000000;0.704210
7727.000000;0.704314
7726.000000;0.704281
7725.000000;0.704201
7724.000000;0.704241
7723.000000;0.704460
7722.000000;0.704783
7721.000000;0.705133
7720.000000;0.705475
7719.000000;0.705724
7718.000000;0.705753
7717.000000;0.705570
7716.000000;0.705360
7715.000000;0.705299
7714.000000;0.705408
7713.000000;0.705614
7712.000000;0.705870
7711.000000;0.706166
7710.000000;0.706496
7709.000000;0.706847
7708.000000;0.707165
7707.000000;0.707329
7706.000000;0.707246
7705.000000;0.706995
7704.000000;0.706788
7703.000000;0.706764
7702.000000;0.706896
7701.000000;0.707093
7700.000000;0.707302
7699.000000;0.707514
7698.000000;0.707750
7697.000000;0.708081
7696.000000;0.708537
7695.000000;0.708975
7694.000000;0.709156
7693.000000;0.709006
7692.000000;0.708725
7691.000000;0.708561
7690.000000;0.708572
7689.000000;0.708651
7688.000000;0.708725
7687.000000;0.708837
7686.000000;0.709081
7685.000000;0.709491
7684.000000;0.709973
7683.000000;0.710333
7682.000000;0.710431
7681.000000;0.710320
7680.000000;0.710194
7679.000000;0.710189
7678.000000;0.710306
7677.000000;0.710496
7676.000000;0.710726
7675.000000;0.710932
7674.000000;0.711027
7673.000000;0.711018
7672.000000;0.711047
7671.000000;0.711246
7670.000000;0.711593
7669.000000;0.711952
7668.000000;0.712196
7667.000000;0.712273
7666.000000;0.712213
7665.000000;0.712108
7664.000000;0.712063
7663.000000;0.712125
7662.000000;0.712268
7661.000000;0.712451
7660.000000;0.712637
7659.000000;0.712770
7658.000000;0.712800
7657.000000;0.712757
7656.000000;0.712746
7655.000000;0.712846
7654.000000;0.713056
7653.000000;0.713341
7652.000000;0.713685
7651.000000;0.714069
7650.000000;0.714453
7649.000000;0.714788
7648.000000;0.715036
7647.000000;0.715172
7646.000000;0.715229
7645.000000;0.715319
7644.000000;0.715556
7643.000000;0.715944
7642.000000;0.716374
7641.000000;0.716748
7640.000000;0.717051
7639.000000;0.717315
7638.000000;0.717552
7637.000000;0.717731
7636.000000;0.717807
7635.000000;0.717784
7634.000000;0.717759
7633.000000;0.717853
7632.000000;0.718054
7631.000000;0.718194
7630.000000;0.718155
7629.000000;0.718043
7628.000000;0.718072
7627.000000;0.718309
7626.000000;0.718644
7625.000000;0.718950
7624.000000;0.719177
7623.000000;0.719309
7622.000000;0.719352
7621.000000;0.719385
7620.000000;0.719517
7619.000000;0.719773
7618.000000;0.720089
7617.000000;0.720412
7616.000000;0.720731
7615.000000;0.721019
7614.000000;0.721247
7613.000000;0.721451
7612.000000;0.721686
7611.000000;0.721921
7610.000000;0.722096
7609.000000;0.722262
7608.000000;0.722548
7607.000000;0.722961
7606.000000;0.723360
7605.000000;0.723671
7604.000000;0.723985
7603.000000;0.724380
7602.000000;0.724748
7601.000000;0.724928
7600.000000;0.724947
7599.000000;0.725022
7598.000000;0.725324
7597.000000;0.725807
7596.000000;0.726260
7595.000000;0.726516
7594.000000;0.726597
7593.000000;0.726669
7592.000000;0.726870
7591.000000;0.727186
7590.000000;0.727524
7589.000000;0.727836
7588.000000;0.728132
7587.000000;0.728402
7586.000000;0.728607
7585.000000;0.728761
7584.000000;0.728957
7583.000000;0.729265
7582.000000;0.729657
7581.000000;0.730017
7580.000000;0.730235
7579.000000;0.730300
7578.000000;0.730354
7577.000000;0.730607
7576.000000;0.731129
7575.000000;0.731759
7574.000000;0.732260
7573.000000;0.732550
7572.000000;0.732715
7571.000000;0.732862
7570.000000;0.733047
7569.000000;0.733311
7568.000000;0.733673
7567.000000;0.734089
7566.000000;0.734499
7565.000000;0.734913
7564.000000;0.735364
7563.000000;0.735779
7562.000000;0.736025
7561.000000;0.736086
7560.000000;0.736128
7559.000000;0.736317
7558.000000;0.736663
7557.000000;0.737054
7556.000000;0.737405
7555.000000;0.737722
7554.000000;0.738051
7553.000000;0.738395
7552.000000;0.738677
7551.000000;0.738813
7550.000000;0.738833
7549.000000;0.738895
7548.000000;0.739147
7547.000000;0.739579
7546.000000;0.740053
7545.000000;0.740445
7544.000000;0.740743
7543.000000;0.741036
7542.000000;0.741443
7541.000000;0.741998
7540.000000;0.742567
7539.000000;0.742929
7538.000000;0.743016
7537.000000;0.742999
7536.000000;0.743105
7535.000000;0.743401
7534.000000;0.743835
7533.000000;0.744383
7532.000000;0.745035
7531.000000;0.745704
7530.000000;0.746252
7529.000000;0.746605
7528.000000;0.746781
7527.000000;0.746845
7526.000000;0.746920
7525.000000;0.747166
7524.000000;0.747633
7523.000000;0.748192
7522.000000;0.748684
7521.000000;0.749109
7520.000000;0.749545
7519.000000;0.749971
7518.000000;0.750310
7517.000000;0.750582
7516.000000;0.750877
7515.000000;0.751198
7514.000000;0.751477
7513.000000;0.751714
7512.000000;0.751989
7511.000000;0.752324
7510.000000;0.752684
7509.000000;0.753080
7508.000000;0.753571
7507.000000;0.754148
7506.000000;0.754727
7505.000000;0.755249
7504.000000;0.755705
7503.000000;0.756071
7502.000000;0.756329
7501.000000;0.756531
7500.000000;0.756740
7499.000000;0.756971
7498.000000;0.757202
7497.000000;0.757483
7496.000000;0.757869
7495.000000;0.758315
7494.000000;0.758766
7493.000000;0.759266
7492.000000;0.759838
7491.000000;0.760343
7490.000000;0.760616
7489.000000;0.760721
7488.000000;0.760895
7487.000000;0.761261
7486.000000;0.761745
7485.000000;0.762249
7484.000000;0.762746
7483.000000;0.763220
7482.000000;0.763653
7481.000000;0.764084
7480.000000;0.764551
7479.000000;0.765002
7478.000000;0.765384
7477.000000;0.765791
7476.000000;0.766333
7475.000000;0.766930
7474.000000;0.767397
7473.000000;0.767739
7472.000000;0.768161
7471.000000;0.768770
7470.000000;0.769444
7469.000000;0.770042
7468.000000;0.770548
7467.000000;0.770990
7466.000000;0.771374
7465.000000;0.771742
7464.000000;0.772153
7463.000000;0.772563
7462.000000;0.772856
7461.000000;0.773023
7460.000000;0.773196
7459.000000;0.773463
7458.000000;0.773803
7457.000000;0.774188
7456.000000;0.774620
7455.000000;0.775047
7454.000000;0.775402
7453.000000;0.775724
7452.000000;0.776115
7451.000000;0.776548
7450.000000;0.776913
7449.000000;0.777230
7448.000000;0.777651
7447.000000;0.778204
7446.000000;0.778718
7445.000000;0.779055
7444.000000;0.779272
7443.000000;0.779485
7442.000000;0.779740
7441.000000;0.780055
7440.000000;0.780460
7439.000000;0.780928
7438.000000;0.781398
7437.000000;0.781892
7436.000000;0.782482
7435.000000;0.783118
7434.000000;0.783633
7433.000000;0.783957
7432.000000;0.784187
7431.000000;0.784427
7430.000000;0.784686
7429.000000;0.784986
7428.000000;0.785400
7427.000000;0.785925
7426.000000;0.786455
7425.000000;0.786926
7424.000000;0.787353
7423.000000;0.787700
7422.000000;0.787885
7421.000000;0.787946
7420.000000;0.788053
7419.000000;0.788280
7418.000000;0.788541
7417.000000;0.788792
7416.000000;0.789148
7415.000000;0.789732
7414.000000;0.790511
7413.000000;0.791323
7412.000000;0.791993
7411.000000;0.792415
7410.000000;0.792627
7409.000000;0.792782
7408.000000;0.792953
7407.000000;0.793020
7406.000000;0.792896
7405.000000;0.792783
7404.000000;0.792999
7403.000000;0.793596
7402.000000;0.794321
7401.000000;0.794918
7400.000000;0.795319
7399.000000;0.795588
7398.000000;0.795829
7397.000000;0.796142
7396.000000;0.796520
7395.000000;0.796852
7394.000000;0.797116
7393.000000;0.797470
7392.000000;0.798005
7391.000000;0.798542
7390.000000;0.798907
7389.000000;0.799237
7388.000000;0.799738
7387.000000;0.800275
7386.000000;0.800582
7385.000000;0.800728
7384.000000;0.800887
7383.000000;0.800792
7382.000000;0.800074
7381.000000;0.799184
7380.000000;0.799209
7379.000000;0.800418
7378.000000;0.801710
7377.000000;0.801943
7376.000000;0.801296
7375.000000;0.800959
7374.000000;0.801796
7373.000000;0.803637
7372.000000;0.805616
7371.000000;0.806810
7370.000000;0.806786
7369.000000;0.805994
7368.000000;0.805467
7367.000000;0.805830
7366.000000;0.806804
7365.000000;0.807847
7364.000000;0.808735
7363.000000;0.809303
7362.000000;0.809299
7361.000000;0.808970
7360.000000;0.809134
7359.000000;0.810066
7358.000000;0.810899
7357.000000;0.810697
7356.000000;0.809706
7355.000000;0.809018
7354.000000;0.809305
7353.000000;0.810415
7352.000000;0.811839
7351.000000;0.812922
7350.000000;0.813020
7349.000000;0.812223
7348.000000;0.811543
7347.000000;0.811731
7346.000000;0.812300
7345.000000;0.812429
7344.000000;0.812186
7343.000000;0.811960
7342.000000;0.811378
7341.000000;0.810048
7340.000000;0.809089
7339.000000;0.810350
7338.000000;0.813927
7337.000000;0.817901
7336.000000;0.820642
7335.000000;0.822024
7334.000000;0.822580
7333.000000;0.822743
7332.000000;0.822881
7331.000000;0.823020
7330.000000;0.822452
7329.000000;0.820649
7328.000000;0.818683
7327.000000;0.818583
7326.000000;0.820817
7325.000000;0.823664
7324.000000;0.825561
7323.000000;0.826747
7322.000000;0.828172
7321.000000;0.829861
7320.000000;0.831163
7319.000000;0.831861
7318.000000;0.832180
7317.000000;0.832298
7316.000000;0.832463
7315.000000;0.833029
7314.000000;0.833783
7313.000000;0.833906
7312.000000;0.833269
7311.000000;0.833027
7310.000000;0.834085
7309.000000;0.835649
7308.000000;0.836282
7307.000000;0.835985
7306.000000;0.836196
7305.000000;0.837801
7304.000000;0.840227
7303.000000;0.842519
7302.000000;0.844149
7301.000000;0.844826
7300.000000;0.844653
7299.000000;0.844602
7298.000000;0.845715
7297.000000;0.847602
7296.000000;0.848699
7295.000000;0.848303
7294.000000;0.847617
7293.000000;0.848268
7292.000000;0.850328
7291.000000;0.852542
7290.000000;0.854016
7289.000000;0.854877
7288.000000;0.855687
7287.000000;0.856843
7286.000000;0.858462
7285.000000;0.860347
7284.000000;0.862041
7283.000000;0.863240
7282.000000;0.864163
7281.000000;0.865282
7280.000000;0.866725
7279.000000;0.868202
7278.000000;0.869445
7277.000000;0.870480
7276.000000;0.871433
7275.000000;0.872348
7274.000000;0.873306
7273.000000;0.874529
7272.000000;0.876180
7271.000000;0.878119
7270.000000;0.879971
7269.000000;0.881454
7268.000000;0.882632
7267.000000;0.883848
7266.000000;0.885350
7265.000000;0.886962
7264.000000;0.888244
7263.000000;0.889081
7262.000000;0.889965
7261.000000;0.891521
7260.000000;0.893809
7259.000000;0.896343
7258.000000;0.898692
7257.000000;0.900754
7256.000000;0.902471
7255.000000;0.903717
7254.000000;0.904614
7253.000000;0.905740
7252.000000;0.907724
7251.000000;0.910522
7250.000000;0.913356
7249.000000;0.915546
7248.000000;0.917222
7247.000000;0.918937
7246.000000;0.920655
7245.000000;0.921580
7244.000000;0.921248
7243.000000;0.920655
7242.000000;0.921758
7241.000000;0.925455
7240.000000;0.930517
7239.000000;0.935004
7238.000000;0.938212
7237.000000;0.940787
7236.000000;0.943302
7235.000000;0.945262
7234.000000;0.945789
7233.000000;0.945219
7232.000000;0.945609
7231.000000;0.948922
7230.000000;0.954825
7229.000000;0.961069
7228.000000;0.965829
7227.000000;0.969008
7226.000000;0.971694
7225.000000;0.974943
7224.000000;0.978908
7223.000000;0.982894
7222.000000;0.986147
7221.000000;0.988613
7220.000000;0.991018
7219.000000;0.994163
7218.000000;0.998151
7217.000000;1.002429
7216.000000;1.006517
7215.000000;1.010471
7214.000000;1.014603
7213.000000;1.018950
7212.000000;1.023220
7211.000000;1.027194
7210.000000;1.030984
7209.000000;1.034844
7208.000000;1.038819
7207.000000;1.042643
7206.000000;1.046007
7205.000000;1.049019
7204.000000;1.052312
7203.000000;1.056547
7202.000000;1.061797
7201.000000;1.067514
7200.000000;1.073097
7199.000000;1.078343
7198.000000;1.083310
7197.000000;1.087976
7196.000000;1.092267
7195.000000;1.096414
7194.000000;1.100935
7193.000000;1.106090
7192.000000;1.111561
7191.000000;1.116878
7190.000000;1.121944
7189.000000;1.126914
7188.000000;1.131838
7187.000000;1.136751
7186.000000;1.141913
7185.000000;1.147433
7184.000000;1.152747
7183.000000;1.157035
7182.000000;1.160392
7181.000000;1.164157
7180.000000;1.169600
7179.000000;1.176552
7178.000000;1.183825
7177.000000;1.190535
7176.000000;1.196565
7175.000000;1.202180
7174.000000;1.207643
7173.000000;1.213108
7172.000000;1.218492
7171.000000;1.223517
7170.000000;1.228120
7169.000000;1.232660
7168.000000;1.237583
7167.000000;1.243065
7166.000000;1.249141
7165.000000;1.255822
7164.000000;1.262778
7163.000000;1.269279
7162.000000;1.274958
7161.000000;1.280476
7160.000000;1.286848
7159.000000;1.294109
7158.000000;1.301346
7157.000000;1.308012
7156.000000;1.314464
7155.000000;1.321193
7154.000000;1.328140
7153.000000;1.334871
7152.000000;1.341037
7151.000000;1.346498
7150.000000;1.351382
7149.000000;1.356181
7148.000000;1.361484
7147.000000;1.367348
7146.000000;1.373243
7145.000000;1.378885
7144.000000;1.384724
7143.000000;1.391179
7142.000000;1.397790
7141.000000;1.403714
7140.000000;1.408892
7139.000000;1.414168
7138.000000;1.420237
7137.000000;1.426988
7136.000000;1.433959
7135.000000;1.440924
7134.000000;1.447848
7133.000000;1.454628
7132.000000;1.461149
7131.000000;1.467397
7130.000000;1.473380
7129.000000;1.479060
7128.000000;1.484482
7127.000000;1.489874
7126.000000;1.495458
7125.000000;1.501176
7124.000000;1.506727
7123.000000;1.511939
7122.000000;1.517058
7121.000000;1.522490
7120.000000;1.528191
7119.000000;1.533561
7118.000000;1.538242
7117.000000;1.542820
7116.000000;1.548215
7115.000000;1.554497
7114.000000;1.560950
7113.000000;1.567141
7112.000000;1.573234
7111.000000;1.579200
7110.000000;1.584449
7109.000000;1.588632
7108.000000;1.592331
7107.000000;1.596533
7106.000000;1.601701
7105.000000;1.607642
7104.000000;1.613895
7103.000000;1.619841
7102.000000;1.624807
7101.000000;1.628686
7100.000000;1.632312
7099.000000;1.636627
7098.000000;1.641539
7097.000000;1.646120
7096.000000;1.649883
7095.000000;1.653353
7094.000000;1.657278
7093.000000;1.661777
7092.000000;1.666473
7091.000000;1.671082
7090.000000;1.675570
7089.000000;1.679923
7088.000000;1.684019
7087.000000;1.687743
7086.000000;1.691196
7085.000000;1.694723
7084.000000;1.698620
7083.000000;1.702796
7082.000000;1.706847
7081.000000;1.710524
7080.000000;1.713911
7079.000000;1.717126
7078.000000;1.720194
7077.000000;1.723284
7076.000000;1.726651
7075.000000;1.730131
7074.000000;1.733156
7073.000000;1.735552
7072.000000;1.737903
7071.000000;1.740770
7070.000000;1.743945
7069.000000;1.746860
7068.000000;1.749376
7067.000000;1.751740
7066.000000;1.754087
7065.000000;1.756487
7064.000000;1.759269
7063.000000;1.762776
7062.000000;1.766810
7061.000000;1.770755
7060.000000;1.774245
7059.000000;1.777364
7058.000000;1.780222
7057.000000;1.782730
7056.000000;1.784865
7055.000000;1.786830
7054.000000;1.788832
7053.000000;1.790833
7052.000000;1.792581
7051.000000;1.793890
7050.000000;1.794881
7049.000000;1.795889
7048.000000;1.797123
7047.000000;1.798550
7046.000000;1.800230
7045.000000;1.802589
7044.000000;1.806032
7043.000000;1.810274
7042.000000;1.814292
7041.000000;1.816989
7040.000000;1.817894
7039.000000;1.817422
7038.000000;1.816743
7037.000000;1.817181
7036.000000;1.819244
7035.000000;1.822219
7034.000000;1.824990
7033.000000;1.827188
7032.000000;1.829223
7031.000000;1.831382
7030.000000;1.833414
7029.000000;1.834938
7028.000000;1.835802
7027.000000;1.836030
7026.000000;1.835886
7025.000000;1.835930
7024.000000;1.836584
7023.000000;1.837797
7022.000000;1.839454
7021.000000;1.841716
7020.000000;1.844463
7019.000000;1.846870
7018.000000;1.848292
7017.000000;1.849201
7016.000000;1.850361
7015.000000;1.851463
7014.000000;1.851727
7013.000000;1.851635
7012.000000;1.852679
7011.000000;1.855233
7010.000000;1.857863
7009.000000;1.859140
7008.000000;1.859130
7007.000000;1.858685
7006.000000;1.858300
7005.000000;1.858199
7004.000000;1.858651
7003.000000;1.859658
7002.000000;1.860952
7001.000000;1.862587
7000.000000;1.864743
6999.000000;1.866818
6998.000000;1.867705
6997.000000;1.867341
6996.000000;1.866889
6995.000000;1.866992
6994.000000;1.867043
6993.000000;1.866699
6992.000000;1.866834
6991.000000;1.868070
6990.000000;1.869423
6989.000000;1.869584
6988.000000;1.868908
6987.000000;1.868925
6986.000000;1.870237
6985.000000;1.871933
6984.000000;1.872924
6983.000000;1.873085
6982.000000;1.873099
6981.000000;1.873748
6980.000000;1.875254
6979.000000;1.876892
6978.000000;1.877500
6977.000000;1.876766
6976.000000;1.875623
6975.000000;1.875033
6974.000000;1.874941
6973.000000;1.874866
6972.000000;1.874868
6971.000000;1.875218
6970.000000;1.875600
6969.000000;1.875514
6968.000000;1.875218
6967.000000;1.875536
6966.000000;1.876754
6965.000000;1.878287
6964.000000;1.879395
6963.000000;1.879827
6962.000000;1.879838
6961.000000;1.879925
6960.000000;1.880444
6959.000000;1.881216
6958.000000;1.881581
6957.000000;1.881106
6956.000000;1.880111
6955.000000;1.879309
6954.000000;1.879102
6953.000000;1.879324
6952.000000;1.879393
6951.000000;1.878627
6950.000000;1.876898
6949.000000;1.875151
6948.000000;1.874683
6947.000000;1.875614
6946.000000;1.876571
6945.000000;1.876285
6944.000000;1.875141
6943.000000;1.874646
6942.000000;1.875715
6941.000000;1.878006
6940.000000;1.880567
6939.000000;1.882525
6938.000000;1.883249
6937.000000;1.882486
6936.000000;1.880534
6935.000000;1.878070
6934.000000;1.875740
6933.000000;1.873963
6932.000000;1.872918
6931.000000;1.872498
6930.000000;1.872374
6929.000000;1.872283
6928.000000;1.872223
6927.000000;1.872275
6926.000000;1.872355
6925.000000;1.872222
6924.000000;1.871686
6923.000000;1.870831
6922.000000;1.870086
6921.000000;1.869829
6920.000000;1.869758
6919.000000;1.869004
6918.000000;1.867276
6917.000000;1.865603
6916.000000;1.865344
6915.000000;1.866613
6914.000000;1.868268
6913.000000;1.869359
6912.000000;1.869935
6911.000000;1.870336
6910.000000;1.870410
6909.000000;1.869776
6908.000000;1.868382
6907.000000;1.866538
6906.000000;1.864742
6905.000000;1.863513
6904.000000;1.862918
6903.000000;1.862292
6902.000000;1.860973
6901.000000;1.859293
6900.000000;1.858254
6899.000000;1.858188
6898.000000;1.858368
6897.000000;1.858130
6896.000000;1.857739
6895.000000;1.857807
6894.000000;1.858434
6893.000000;1.859306
6892.000000;1.860118
6891.000000;1.860530
6890.000000;1.860219
6889.000000;1.859408
6888.000000;1.858860
6887.000000;1.858928
6886.000000;1.859016
6885.000000;1.858454
6884.000000;1.857519
6883.000000;1.857014
6882.000000;1.857020
6881.000000;1.856711
6880.000000;1.855395
6879.000000;1.853310
6878.000000;1.851276
6877.000000;1.849902
6876.000000;1.849225
6875.000000;1.849000
6874.000000;1.849107
6873.000000;1.849519
6872.000000;1.849886
6871.000000;1.849490
6870.000000;1.847941
6869.000000;1.845821
6868.000000;1.844261
6867.000000;1.843911
6866.000000;1.844527
6865.000000;1.845383
6864.000000;1.845758
6863.000000;1.845181
6862.000000;1.843654
6861.000000;1.841710
6860.000000;1.839956
6859.000000;1.838619
6858.000000;1.837713
6857.000000;1.837332
6856.000000;1.837311
6855.000000;1.836918
6854.000000;1.835652
6853.000000;1.834265
6852.000000;1.834103
6851.000000;1.835274
6850.000000;1.836232
6849.000000;1.835591
6848.000000;1.833793
6847.000000;1.832408
6846.000000;1.832176
6845.000000;1.832238
6844.000000;1.831182
6843.000000;1.828531
6842.000000;1.825114
6841.000000;1.822128
6840.000000;1.820068
6839.000000;1.818662
6838.000000;1.817584
6837.000000;1.816774
6836.000000;1.815937
6835.000000;1.814417
6834.000000;1.812094
6833.000000;1.809949
6832.000000;1.808994
6831.000000;1.808927
6830.000000;1.808494
6829.000000;1.807000
6828.000000;1.804813
6827.000000;1.802536
6826.000000;1.800458
6825.000000;1.798714
6824.000000;1.797228
6823.000000;1.795479
6822.000000;1.793069
6821.000000;1.790494
6820.000000;1.788637
6819.000000;1.787540
6818.000000;1.786429
6817.000000;1.784939
6816.000000;1.783421
6815.000000;1.781951
6814.000000;1.779997
6813.000000;1.777408
6812.000000;1.774848
6811.000000;1.772851
6810.000000;1.771233
6809.000000;1.769708
6808.000000;1.768296
6807.000000;1.766714
6806.000000;1.764236
6805.000000;1.760815
6804.000000;1.757672
6803.000000;1.755993
6802.000000;1.755457
6801.000000;1.754700
6800.000000;1.752888
6799.000000;1.750259
6798.000000;1.747401
6797.000000;1.744701
6796.000000;1.742419
6795.000000;1.740645
6794.000000;1.739073
6793.000000;1.737152
6792.000000;1.734566
6791.000000;1.731446
6790.000000;1.728227
6789.000000;1.725390
6788.000000;1.723177
6787.000000;1.721350
6786.000000;1.719313
6785.000000;1.716703
6784.000000;1.713755
6783.000000;1.710985
6782.000000;1.708648
6781.000000;1.706616
6780.000000;1.704603
6779.000000;1.702390
6778.000000;1.699950
6777.000000;1.697461
6776.000000;1.695114
6775.000000;1.692925
6774.000000;1.690859
6773.000000;1.688965
6772.000000;1.687126
6771.000000;1.684821
6770.000000;1.681622
6769.000000;1.677916
6768.000000;1.674627
6767.000000;1.672108
6766.000000;1.669785
6765.000000;1.667076
6764.000000;1.664195
6763.000000;1.661707
6762.000000;1.659669
6761.000000;1.657615
6760.000000;1.655154
6759.000000;1.652270
6758.000000;1.649227
6757.000000;1.646436
6756.000000;1.644269
6755.000000;1.642728
6754.000000;1.641357
6753.000000;1.639652
6752.000000;1.637469
6751.000000;1.634968
6750.000000;1.632346
6749.000000;1.629732
6748.000000;1.627139
6747.000000;1.624376
6746.000000;1.621214
6745.000000;1.617792
6744.000000;1.614630
6743.000000;1.612102
6742.000000;1.610053
6741.000000;1.608061
6740.000000;1.605878
6739.000000;1.603508
6738.000000;1.601048
6737.000000;1.598629
6736.000000;1.596307
6735.000000;1.593924
6734.000000;1.591235
6733.000000;1.588279
6732.000000;1.585394
6731.000000;1.582746
6730.000000;1.580135
6729.000000;1.577410
6728.000000;1.574802
6727.000000;1.572577
6726.000000;1.570612
6725.000000;1.568602
6724.000000;1.566504
6723.000000;1.564467
6722.000000;1.562433
6721.000000;1.560166
6720.000000;1.557631
6719.000000;1.555040
6718.000000;1.552502
6717.000000;1.549861
6716.000000;1.546966
6715.000000;1.543926
6714.000000;1.540996
6713.000000;1.538376
6712.000000;1.536109
6711.000000;1.534056
6710.000000;1.531977
6709.000000;1.529678
6708.000000;1.527171
6707.000000;1.524647
6706.000000;1.522285
6705.000000;1.519993
6704.000000;1.517597
6703.000000;1.515042
6702.000000;1.512444
6701.000000;1.510007
6700.000000;1.507759
6699.000000;1.505532
6698.000000;1.503144
6697.000000;1.500602
6696.000000;1.498091
6695.000000;1.495783
6694.000000;1.493685
6693.000000;1.491641
6692.000000;1.489455
6691.000000;1.487044
6690.000000;1.484525
6689.000000;1.482126
6688.000000;1.479971
6687.000000;1.477988
6686.000000;1.476013
6685.000000;1.473913
6684.000000;1.471573
6683.000000;1.468913
6682.000000;1.466050
6681.000000;1.463340
6680.000000;1.461061
6679.000000;1.459084
6678.000000;1.457005
6677.000000;1.454596
6676.000000;1.452020
6675.000000;1.449623
6674.000000;1.447614
6673.000000;1.445934
6672.000000;1.444289
6671.000000;1.442324
6670.000000;1.439890
6669.000000;1.437191
6668.000000;1.434605
6667.000000;1.432365
6666.000000;1.430450
6665.000000;1.428676
6664.000000;1.426810
6663.000000;1.424662
6662.000000;1.422218
6661.000000;1.419665
6660.000000;1.417173
6659.000000;1.414716
6658.000000;1.412222
6657.000000;1.409805
6656.000000;1.407673
6655.000000;1.405815
6654.000000;1.403962
6653.000000;1.401866
6652.000000;1.399506
6651.000000;1.397023
6650.000000;1.394617
6649.000000;1.392508
6648.000000;1.390788
6647.000000;1.389262
6646.000000;1.387539
6645.000000;1.385365
6644.000000;1.382837
6643.000000;1.380297
6642.000000;1.378078
6641.000000;1.376312
6640.000000;1.374817
6639.000000;1.373180
6638.000000;1.371091
6637.000000;1.368623
6636.000000;1.366123
6635.000000;1.363830
6634.000000;1.361724
6633.000000;1.359690
6632.000000;1.357679
6631.000000;1.355680
6630.000000;1.353688
6629.000000;1.351752
6628.000000;1.349941
6627.000000;1.348208
6626.000000;1.346381
6625.000000;1.344318
6624.000000;1.341997
6623.000000;1.339485
6622.000000;1.336937
6621.000000;1.334629
6620.000000;1.332800
6619.000000;1.331392
6618.000000;1.330041
6617.000000;1.328400
6616.000000;1.326419
6615.000000;1.324271
6614.000000;1.322118
6613.000000;1.320010
6612.000000;1.317922
6611.000000;1.315819
6610.000000;1.313711
6609.000000;1.311694
6608.000000;1.309869
6607.000000;1.308194
6606.000000;1.306490
6605.000000;1.304648
6604.000000;1.302756
6603.000000;1.300963
6602.000000;1.299287
6601.000000;1.297609
6600.000000;1.295833
6599.000000;1.293973
6598.000000;1.292091
6597.000000;1.290203
6596.000000;1.288283
6595.000000;1.286328
6594.000000;1.284388
6593.000000;1.282521
6592.000000;1.280727
6591.000000;1.278972
6590.000000;1.277253
6589.000000;1.275590
6588.000000;1.273939
6587.000000;1.272200
6586.000000;1.270352
6585.000000;1.268506
6584.000000;1.266765
6583.000000;1.265097
6582.000000;1.263400
6581.000000;1.261664
6580.000000;1.259960
6579.000000;1.258311
6578.000000;1.256652
6577.000000;1.254929
6576.000000;1.253187
6575.000000;1.251524
6574.000000;1.249993
6573.000000;1.248524
6572.000000;1.246960
6571.000000;1.245204
6570.000000;1.243351
6569.000000;1.241590
6568.000000;1.239965
6567.000000;1.238328
6566.000000;1.236559
6565.000000;1.234728
6564.000000;1.232960
6563.000000;1.231265
6562.000000;1.229605
6561.000000;1.228032
6560.000000;1.226609
6559.000000;1.225239
6558.000000;1.223753
6557.000000;1.222131
6556.000000;1.220516
6555.000000;1.218992
6554.000000;1.217482
6553.000000;1.215900
6552.000000;1.214277
6551.000000;1.212690
6550.000000;1.211155
6549.000000;1.209627
6548.000000;1.208069
6547.000000;1.206477
6546.000000;1.204882
6545.000000;1.203332
6544.000000;1.201850
6543.000000;1.200419
6542.000000;1.199017
6541.000000;1.197649
6540.000000;1.196302
6539.000000;1.194917
6538.000000;1.193453
6537.000000;1.191945
6536.000000;1.190440
6535.000000;1.188910
6534.000000;1.187324
6533.000000;1.185743
6532.000000;1.184264
6531.000000;1.182864
6530.000000;1.181420
6529.000000;1.179870
6528.000000;1.178289
6527.000000;1.176769
6526.000000;1.175323
6525.000000;1.173922
6524.000000;1.172564
6523.000000;1.171274
6522.000000;1.170032
6521.000000;1.168761
6520.000000;1.167391
6519.000000;1.165941
6518.000000;1.164508
6517.000000;1.163130
6516.000000;1.161678
6515.000000;1.159994
6514.000000;1.158129
6513.000000;1.156358
6512.000000;1.154884
6511.000000;1.153644
6510.000000;1.152459
6509.000000;1.151286
6508.000000;1.150191
6507.000000;1.149159
6506.000000;1.148073
6505.000000;1.146874
6504.000000;1.145631
6503.000000;1.144422
6502.000000;1.143227
6501.000000;1.141957
6500.000000;1.140546
6499.000000;1.139016
6498.000000;1.137490
6497.000000;1.136129
6496.000000;1.134986
6495.000000;1.133972
6494.000000;1.132957
6493.000000;1.131896
6492.000000;1.130787
6491.000000;1.129589
6490.000000;1.128262
6489.000000;1.126847
6488.000000;1.125429
6487.000000;1.124067
6486.000000;1.122795
6485.000000;1.121649
6484.000000;1.120593
6483.000000;1.119491
6482.000000;1.118249
6481.000000;1.116960
6480.000000;1.115791
6479.000000;1.114757
6478.000000;1.113729
6477.000000;1.112622
6476.000000;1.111465
6475.000000;1.110283
6474.000000;1.109054
6473.000000;1.107809
6472.000000;1.106652
6471.000000;1.105617
6470.000000;1.104577
6469.000000;1.103383
6468.000000;1.102047
6467.000000;1.100734
6466.000000;1.099591
6465.000000;1.098608
6464.000000;1.097636
6463.000000;1.096533
6462.000000;1.095293
6461.000000;1.094029
6460.000000;1.092839
6459.000000;1.091724
6458.000000;1.090643
6457.000000;1.089581
6456.000000;1.088531
6455.000000;1.087463
6454.000000;1.086382
6453.000000;1.085371
6452.000000;1.084491
6451.000000;1.083667
6450.000000;1.082752
6449.000000;1.081697
6448.000000;1.080597
6447.000000;1.079566
6446.000000;1.078606
6445.000000;1.077608
6444.000000;1.076462
6443.000000;1.075162
6442.000000;1.073831
6441.000000;1.072622
6440.000000;1.071570
6439.000000;1.070576
6438.000000;1.069555
6437.000000;1.068525
6436.000000;1.067533
6435.000000;1.066565
6434.000000;1.065589
6433.000000;1.064632
6432.000000;1.063732
6431.000000;1.062875
6430.000000;1.062021
6429.000000;1.061150
6428.000000;1.060212
6427.000000;1.059104
6426.000000;1.057800
6425.000000;1.056445
6424.000000;1.055242
6423.000000;1.054263
6422.000000;1.053452
6421.000000;1.052757
6420.000000;1.052156
6419.000000;1.051581
6418.000000;1.050929
6417.000000;1.050152
6416.000000;1.049270
6415.000000;1.048316
6414.000000;1.047331
6413.000000;1.046367
6412.000000;1.045426
6411.000000;1.044417
6410.000000;1.043282
6409.000000;1.042122
6408.000000;1.041091
6407.000000;1.040200
6406.000000;1.039329
6405.000000;1.038427
6404.000000;1.037573
6403.000000;1.036820
6402.000000;1.036103
6401.000000;1.035347
6400.000000;1.034561
6399.000000;1.033776
6398.000000;1.032976
6397.000000;1.032139
6396.000000;1.031284
6395.000000;1.030438
6394.000000;1.029600
6393.000000;1.028761
6392.000000;1.027931
6391.000000;1.027102
6390.000000;1.026257
6389.000000;1.025407
6388.000000;1.024595
6387.000000;1.023829
6386.000000;1.023062
6385.000000;1.022257
6384.000000;1.021414
6383.000000;1.020549
6382.000000;1.019672
6381.000000;1.018810
6380.000000;1.017992
6379.000000;1.017209
6378.000000;1.016420
6377.000000;1.015622
6376.000000;1.014860
6375.000000;1.014168
6374.000000;1.013526
6373.000000;1.012897
6372.000000;1.012266
6371.000000;1.011628
6370.000000;1.010973
6369.000000;1.010290
6368.000000;1.009562
6367.000000;1.008772
6366.000000;1.007945
6365.000000;1.007161
6364.000000;1.006494
6363.000000;1.005934
6362.000000;1.005399
6361.000000;1.004823
6360.000000;1.004180
6359.000000;1.003459
6358.000000;1.002662
6357.000000;1.001831
6356.000000;1.000995
6355.000000;1.000136
6354.000000;0.999233
6353.000000;0.998356
6352.000000;0.997608
6351.000000;0.996980
6350.000000;0.996334
6349.000000;0.995574
6348.000000;0.994758
6347.000000;0.993997
6346.000000;0.993302
6345.000000;0.992590
6344.000000;0.991813
6343.000000;0.991016
6342.000000;0.990281
6341.000000;0.989643
6340.000000;0.989074
6339.000000;0.988523
6338.000000;0.987950
6337.000000;0.987338
6336.000000;0.986692
6335.000000;0.986036
6334.000000;0.985422
6333.000000;0.984881
6332.000000;0.984369
6331.000000;0.983788
6330.000000;0.983105
6329.000000;0.982420
6328.000000;0.981866
6327.000000;0.981448
6326.000000;0.981040
6325.000000;0.980513
6324.000000;0.979843
6323.000000;0.979086
6322.000000;0.978306
6321.000000;0.977551
6320.000000;0.976836
6319.000000;0.976149
6318.000000;0.975472
6317.000000;0.974817
6316.000000;0.974208
6315.000000;0.973629
6314.000000;0.973030
6313.000000;0.972392
6312.000000;0.971753
6311.000000;0.971172
6310.000000;0.970672
6309.000000;0.970228
6308.000000;0.969789
6307.000000;0.969307
6306.000000;0.968763
6305.000000;0.968173
6304.000000;0.967567
6303.000000;0.966965
6302.000000;0.966380
6301.000000;0.965836
6300.000000;0.965343
6299.000000;0.964872
6298.000000;0.964381
6297.000000;0.963861
6296.000000;0.963334
6295.000000;0.962823
6294.000000;0.962325
6293.000000;0.961832
6292.000000;0.961342
6291.000000;0.960865
6290.000000;0.960406
6289.000000;0.959971
6288.000000;0.959550
6287.000000;0.959119
6286.000000;0.958647
6285.000000;0.958097
6284.000000;0.957436
6283.000000;0.956667
6282.000000;0.955863
6281.000000;0.955135
6280.000000;0.954545
6279.000000;0.954064
6278.000000;0.953633
6277.000000;0.953223
6276.000000;0.952827
6275.000000;0.952413
6274.000000;0.951945
6273.000000;0.951429
6272.000000;0.950894
6271.000000;0.950359
6270.000000;0.949829
6269.000000;0.949316
6268.000000;0.948826
6267.000000;0.948344
6266.000000;0.947854
6265.000000;0.947371
6264.000000;0.946921
6263.000000;0.946491
6262.000000;0.946031
6261.000000;0.945517
6260.000000;0.944979
6259.000000;0.944477
6258.000000;0.944042
6257.000000;0.943651
6256.000000;0.943254
6255.000000;0.942833
6254.000000;0.942432
6253.000000;0.942094
6252.000000;0.941793
6251.000000;0.941452
6250.000000;0.941039
6249.000000;0.940599
6248.000000;0.940165
6247.000000;0.939698
6246.000000;0.939151
6245.000000;0.938569
6244.000000;0.938073
6243.000000;0.937761
6242.000000;0.937620
6241.000000;0.937529
6240.000000;0.937325
6239.000000;0.936917
6238.000000;0.936371
6237.000000;0.935848
6236.000000;0.935443
6235.000000;0.935102
6234.000000;0.934726
6233.000000;0.934287
6232.000000;0.933821
6231.000000;0.933351
6230.000000;0.932889
6229.000000;0.932461
6228.000000;0.932087
6227.000000;0.931736
6226.000000;0.931357
6225.000000;0.930943
6224.000000;0.930528
6223.000000;0.930126
6222.000000;0.929725
6221.000000;0.929322
6220.000000;0.928921
6219.000000;0.928500
6218.000000;0.928025
6217.000000;0.927507
6216.000000;0.927009
6215.000000;0.926585
6214.000000;0.926232
6213.000000;0.925906
6212.000000;0.925570
6211.000000;0.925218
6210.000000;0.924863
6209.000000;0.924519
6208.000000;0.924174
6207.000000;0.923817
6206.000000;0.923473
6205.000000;0.923178
6204.000000;0.922922
6203.000000;0.922645
6202.000000;0.922309
6201.000000;0.921938
6200.000000;0.921574
6199.000000;0.921237
6198.000000;0.920946
6197.000000;0.920721
6196.000000;0.920522
6195.000000;0.920242
6194.000000;0.919797
6193.000000;0.919234
6192.000000;0.918676
6191.000000;0.918203
6190.000000;0.917815
6189.000000;0.917481
6188.000000;0.917179
6187.000000;0.916887
6186.000000;0.916585
6185.000000;0.916261
6184.000000;0.915905
6183.000000;0.915515
6182.000000;0.915143
6181.000000;0.914888
6180.000000;0.914789
6179.000000;0.914743
6178.000000;0.914576
6177.000000;0.914207
6176.000000;0.913696
6175.000000;0.913154
6174.000000;0.912664
6173.000000;0.912261
6172.000000;0.911937
6171.000000;0.911649
6170.000000;0.911353
6169.000000;0.911045
6168.000000;0.910759
6167.000000;0.910514
6166.000000;0.910292
6165.000000;0.910056
6164.000000;0.909779
6163.000000;0.909457
6162.000000;0.909118
6161.000000;0.908797
6160.000000;0.908496
6159.000000;0.908182
6158.000000;0.907852
6157.000000;0.907549
6156.000000;0.907302
6155.000000;0.907064
6154.000000;0.906784
6153.000000;0.906482
6152.000000;0.906215
6151.000000;0.905980
6150.000000;0.905727
6149.000000;0.905455
6148.000000;0.905225
6147.000000;0.905069
6146.000000;0.904937
6145.000000;0.904765
6144.000000;0.904535
6143.000000;0.904251
6142.000000;0.903899
6141.000000;0.903483
6140.000000;0.903052
6139.000000;0.902662
6138.000000;0.902317
6137.000000;0.901980
6136.000000;0.901642
6135.000000;0.901348
6134.000000;0.901152
6133.000000;0.901049
6132.000000;0.900974
6131.000000;0.900860
6130.000000;0.900683
6129.000000;0.900453
6128.000000;0.900168
6127.000000;0.899807
6126.000000;0.899385
6125.000000;0.898975
6124.000000;0.898662
6123.000000;0.898476
6122.000000;0.898374
6121.000000;0.898281
6120.000000;0.898140
6119.000000;0.897948
6118.000000;0.897753
6117.000000;0.897600
6116.000000;0.897476
6115.000000;0.897315
6114.000000;0.897070
6113.000000;0.896759
6112.000000;0.896426
6111.000000;0.896096
6110.000000;0.895770
6109.000000;0.895454
6108.000000;0.895156
6107.000000;0.894880
6106.000000;0.894635
6105.000000;0.894446
6104.000000;0.894327
6103.000000;0.894259
6102.000000;0.894187
6101.000000;0.894059
6100.000000;0.893844
6099.000000;0.893556
6098.000000;0.893253
6097.000000;0.892989
6096.000000;0.892750
6095.000000;0.892469
6094.000000;0.892119
6093.000000;0.891768
6092.000000;0.891509
6091.000000;0.891351
6090.000000;0.891223
6089.000000;0.891069
6088.000000;0.890895
6087.000000;0.890728
6086.000000;0.890568
6085.000000;0.890399
6084.000000;0.890221
6083.000000;0.890059
6082.000000;0.889932
6081.000000;0.889825
6080.000000;0.889690
6079.000000;0.889498
6078.000000;0.889259
6077.000000;0.889003
6076.000000;0.888747
6075.000000;0.888498
6074.000000;0.888279
6073.000000;0.888126
6072.000000;0.888039
6071.000000;0.887975
6070.000000;0.887886
6069.000000;0.887757
6068.000000;0.887595
6067.000000;0.887406
6066.000000;0.887212
6065.000000;0.887048
6064.000000;0.886936
6063.000000;0.886846
6062.000000;0.886726
6061.000000;0.886543
6060.000000;0.886306
6059.000000;0.886052
6058.000000;0.885825
6057.000000;0.885651
6056.000000;0.885522
6055.000000;0.885405
6054.000000;0.885266
6053.000000;0.885085
6052.000000;0.884868
6051.000000;0.884650
6050.000000;0.884470
6049.000000;0.884316
6048.000000;0.884126
6047.000000;0.883861
6046.000000;0.883581
6045.000000;0.883384
6044.000000;0.883299
6043.000000;0.883268
6042.000000;0.883244
6041.000000;0.883238
6040.000000;0.883269
6039.000000;0.883299
6038.000000;0.883264
6037.000000;0.883122
6036.000000;0.882878
6035.000000;0.882590
6034.000000;0.882353
6033.000000;0.882231
6032.000000;0.882186
6031.000000;0.882115
6030.000000;0.881963
6029.000000;0.881769
6028.000000;0.881599
6027.000000;0.881481
6026.000000;0.881412
6025.000000;0.881375
6024.000000;0.881321
6023.000000;0.881199
6022.000000;0.881025
6021.000000;0.880885
6020.000000;0.880849
6019.000000;0.880891
6018.000000;0.880935
6017.000000;0.880923
6016.000000;0.880837
6015.000000;0.880690
6014.000000;0.880535
6013.000000;0.880431
6012.000000;0.880382
6011.000000;0.880321
6010.000000;0.880200
6009.000000;0.880043
6008.000000;0.879908
6007.000000;0.879811
6006.000000;0.879739
6005.000000;0.879681
6004.000000;0.879624
6003.000000;0.879539
6002.000000;0.879412
6001.000000;0.879257
6000.000000;0.879092
5999.000000;0.878917
5998.000000;0.878740
5997.000000;0.878592
5996.000000;0.878487
5995.000000;0.878412
5994.000000;0.878361
5993.000000;0.878351
5992.000000;0.878375
5991.000000;0.878393
5990.000000;0.878382
5989.000000;0.878369
5988.000000;0.878384
5987.000000;0.878419
5986.000000;0.878454
5985.000000;0.878485
5984.000000;0.878503
5983.000000;0.878487
5982.000000;0.878454
5981.000000;0.878468
5980.000000;0.878553
5979.000000;0.878645
5978.000000;0.878659
5977.000000;0.878587
5976.000000;0.878476
5975.000000;0.878358
5974.000000;0.878237
5973.000000;0.878132
5972.000000;0.878068
5971.000000;0.878033
5970.000000;0.877997
5969.000000;0.877960
5968.000000;0.877946
5967.000000;0.877962
5966.000000;0.878000
5965.000000;0.878059
5964.000000;0.878136
5963.000000;0.878206
5962.000000;0.878250
5961.000000;0.878274
5960.000000;0.878289
5959.000000;0.878271
5958.000000;0.878182
5957.000000;0.878031
5956.000000;0.877871
5955.000000;0.877758
5954.000000;0.877721
5953.000000;0.877772
5952.000000;0.877895
5951.000000;0.878037
5950.000000;0.878131
5949.000000;0.878138
5948.000000;0.878063
5947.000000;0.877950
5946.000000;0.877861
5945.000000;0.877847
5944.000000;0.877908
5943.000000;0.877984
5942.000000;0.878010
5941.000000;0.877988
5940.000000;0.877987
5939.000000;0.878088
5938.000000;0.878310
5937.000000;0.878588
5936.000000;0.878812
5935.000000;0.878905
5934.000000;0.878878
5933.000000;0.878797
5932.000000;0.878708
5931.000000;0.878625
5930.000000;0.878574
5929.000000;0.878605
5928.000000;0.878734
5927.000000;0.878917
5926.000000;0.879095
5925.000000;0.879240
5924.000000;0.879354
5923.000000;0.879453
5922.000000;0.879570
5921.000000;0.879738
5920.000000;0.879949
5919.000000;0.880158
5918.000000;0.880315
5917.000000;0.880385
5916.000000;0.880349
5915.000000;0.880219
5914.000000;0.880078
5913.000000;0.880022
5912.000000;0.880068
5911.000000;0.880131
5910.000000;0.880136
5909.000000;0.880084
5908.000000;0.880019
5907.000000;0.879967
5906.000000;0.879943
5905.000000;0.879981
5904.000000;0.880098
5903.000000;0.880270
5902.000000;0.880457
5901.000000;0.880646
5900.000000;0.880836
5899.000000;0.881016
5898.000000;0.881179
5897.000000;0.881332
5896.000000;0.881468
5895.000000;0.881564
5894.000000;0.881633
5893.000000;0.881724
5892.000000;0.881853
5891.000000;0.881964
5890.000000;0.881999
5889.000000;0.881980
5888.000000;0.881993
5887.000000;0.882090
5886.000000;0.882267
5885.000000;0.882487
5884.000000;0.882716
5883.000000;0.882935
5882.000000;0.883149
5881.000000;0.883391
5880.000000;0.883677
5879.000000;0.883975
5878.000000;0.884231
5877.000000;0.884415
5876.000000;0.884546
5875.000000;0.884673
5874.000000;0.884830
5873.000000;0.885000
5872.000000;0.885115
5871.000000;0.885135
5870.000000;0.885125
5869.000000;0.885201
5868.000000;0.885411
5867.000000;0.885692
5866.000000;0.885955
5865.000000;0.886166
5864.000000;0.886333
5863.000000;0.886464
5862.000000;0.886575
5861.000000;0.886695
5860.000000;0.886815
5859.000000;0.886896
5858.000000;0.886930
5857.000000;0.886985
5856.000000;0.887135
5855.000000;0.887381
5854.000000;0.887674
5853.000000;0.887968
5852.000000;0.888244
5851.000000;0.888488
5850.000000;0.888698
5849.000000;0.888891
5848.000000;0.889076
5847.000000;0.889263
5846.000000;0.889493
5845.000000;0.889821
5844.000000;0.890246
5843.000000;0.890686
5842.000000;0.891067
5841.000000;0.891392
5840.000000;0.891693
5839.000000;0.891950
5838.000000;0.892120
5837.000000;0.892213
5836.000000;0.892298
5835.000000;0.892438
5834.000000;0.892664
5833.000000;0.892984
5832.000000;0.893377
5831.000000;0.893790
5830.000000;0.894170
5829.000000;0.894513
5828.000000;0.894839
5827.000000;0.895154
5826.000000;0.895443
5825.000000;0.895703
5824.000000;0.895947
5823.000000;0.896188
5822.000000;0.896426
5821.000000;0.896677
5820.000000;0.896976
5819.000000;0.897343
5818.000000;0.897749
5817.000000;0.898125
5816.000000;0.898414
5815.000000;0.898639
5814.000000;0.898877
5813.000000;0.899182
5812.000000;0.899536
5811.000000;0.899901
5810.000000;0.900294
5809.000000;0.900754
5808.000000;0.901247
5807.000000;0.901685
5806.000000;0.902032
5805.000000;0.902357
5804.000000;0.902739
5803.000000;0.903185
5802.000000;0.903639
5801.000000;0.904060
5800.000000;0.904431
5799.000000;0.904758
5798.000000;0.905075
5797.000000;0.905438
5796.000000;0.905880
5795.000000;0.906381
5794.000000;0.906900
5793.000000;0.907409
5792.000000;0.907894
5791.000000;0.908349
5790.000000;0.908780
5789.000000;0.909187
5788.000000;0.909550
5787.000000;0.909859
5786.000000;0.910166
5785.000000;0.910550
5784.000000;0.911034
5783.000000;0.911554
5782.000000;0.912037
5781.000000;0.912457
5780.000000;0.912816
5779.000000;0.913132
5778.000000;0.913452
5777.000000;0.913842
5776.000000;0.914317
5775.000000;0.914818
5774.000000;0.915288
5773.000000;0.915735
5772.000000;0.916205
5771.000000;0.916732
5770.000000;0.917320
5769.000000;0.917949
5768.000000;0.918558
5767.000000;0.919074
5766.000000;0.919495
5765.000000;0.919905
5764.000000;0.920392
5763.000000;0.920970
5762.000000;0.921593
5761.000000;0.922218
5760.000000;0.922823
5759.000000;0.923410
5758.000000;0.924005
5757.000000;0.924640
5756.000000;0.925306
5755.000000;0.925958
5754.000000;0.926566
5753.000000;0.927134
5752.000000;0.927660
5751.000000;0.928132
5750.000000;0.928576
5749.000000;0.929063
5748.000000;0.929631
5747.000000;0.930251
5746.000000;0.930882
5745.000000;0.931533
5744.000000;0.932217
5743.000000;0.932906
5742.000000;0.933550
5741.000000;0.934133
5740.000000;0.934664
5739.000000;0.935168
5738.000000;0.935692
5737.000000;0.936293
5736.000000;0.936979
5735.000000;0.937689
5734.000000;0.938376
5733.000000;0.939065
5732.000000;0.939792
5731.000000;0.940535
5730.000000;0.941233
5729.000000;0.941866
5728.000000;0.942467
5727.000000;0.943084
5726.000000;0.943747
5725.000000;0.944468
5724.000000;0.945237
5723.000000;0.946019
5722.000000;0.946786
5721.000000;0.947524
5720.000000;0.948227
5719.000000;0.948908
5718.000000;0.949619
5717.000000;0.950415
5716.000000;0.951278
5715.000000;0.952121
5714.000000;0.952897
5713.000000;0.953645
5712.000000;0.954418
5711.000000;0.955212
5710.000000;0.955994
5709.000000;0.956770
5708.000000;0.957573
5707.000000;0.958406
5706.000000;0.959251
5705.000000;0.960107
5704.000000;0.960978
5703.000000;0.961833
5702.000000;0.962630
5701.000000;0.963368
5700.000000;0.964088
5699.000000;0.964844
5698.000000;0.965664
5697.000000;0.966557
5696.000000;0.967499
5695.000000;0.968425
5694.000000;0.969274
5693.000000;0.970039
5692.000000;0.970773
5691.000000;0.971537
5690.000000;0.972356
5689.000000;0.973204
5688.000000;0.974025
5687.000000;0.974780
5686.000000;0.975495
5685.000000;0.976233
5684.000000;0.977024
5683.000000;0.977834
5682.000000;0.978615
5681.000000;0.979366
5680.000000;0.980127
5679.000000;0.980934
5678.000000;0.981793
5677.000000;0.982691
5676.000000;0.983611
5675.000000;0.984543
5674.000000;0.985495
5673.000000;0.986474
5672.000000;0.987465
5671.000000;0.988440
5670.000000;0.989371
5669.000000;0.990230
5668.000000;0.991009
5667.000000;0.991750
5666.000000;0.992526
5665.000000;0.993365
5664.000000;0.994192
5663.000000;0.994909
5662.000000;0.995523
5661.000000;0.996127
5660.000000;0.996776
5659.000000;0.997434
5658.000000;0.998061
5657.000000;0.998688
5656.000000;0.999379
5655.000000;1.000154
5654.000000;1.000984
5653.000000;1.001826
5652.000000;1.002656
5651.000000;1.003473
5650.000000;1.004290
5649.000000;1.005090
5648.000000;1.005827
5647.000000;1.006476
5646.000000;1.007075
5645.000000;1.007678
5644.000000;1.008296
5643.000000;1.008914
5642.000000;1.009551
5641.000000;1.010239
5640.000000;1.010952
5639.000000;1.011641
5638.000000;1.012314
5637.000000;1.013025
5636.000000;1.013782
5635.000000;1.014531
5634.000000;1.015243
5633.000000;1.015942
5632.000000;1.016633
5631.000000;1.017281
5630.000000;1.017866
5629.000000;1.018406
5628.000000;1.018909
5627.000000;1.019366
5626.000000;1.019804
5625.000000;1.020294
5624.000000;1.020867
5623.000000;1.021482
5622.000000;1.022084
5621.000000;1.022643
5620.000000;1.023137
5619.000000;1.023564
5618.000000;1.023970
5617.000000;1.024423
5616.000000;1.024924
5615.000000;1.025416
5614.000000;1.025881
5613.000000;1.026365
5612.000000;1.026880
5611.000000;1.027379
5610.000000;1.027842
5609.000000;1.028318
5608.000000;1.028845
5607.000000;1.029369
5606.000000;1.029794
5605.000000;1.030075
5604.000000;1.030236
5603.000000;1.030358
5602.000000;1.030559
5601.000000;1.030920
5600.000000;1.031400
5599.000000;1.031881
5598.000000;1.032308
5597.000000;1.032704
5596.000000;1.033077
5595.000000;1.033379
5594.000000;1.033612
5593.000000;1.033865
5592.000000;1.034191
5591.000000;1.034530
5590.000000;1.034784
5589.000000;1.034943
5588.000000;1.035060
5587.000000;1.035192
5586.000000;1.035377
5585.000000;1.035652
5584.000000;1.036014
5583.000000;1.036408
5582.000000;1.036775
5581.000000;1.037090
5580.000000;1.037350
5579.000000;1.037557
5578.000000;1.037740
5577.000000;1.037922
5576.000000;1.038090
5575.000000;1.038224
5574.000000;1.038364
5573.000000;1.038569
5572.000000;1.038815
5571.000000;1.039029
5570.000000;1.039207
5569.000000;1.039413
5568.000000;1.039645
5567.000000;1.039804
5566.000000;1.039847
5565.000000;1.039846
5564.000000;1.039875
5563.000000;1.039933
5562.000000;1.040021
5561.000000;1.040176
5560.000000;1.040365
5559.000000;1.040461
5558.000000;1.040407
5557.000000;1.040318
5556.000000;1.040329
5555.000000;1.040416
5554.000000;1.040461
5553.000000;1.040428
5552.000000;1.040397
5551.000000;1.040443
5550.000000;1.040578
5549.000000;1.040774
5548.000000;1.040982
5547.000000;1.041145
5546.000000;1.041241
5545.000000;1.041316
5544.000000;1.041407
5543.000000;1.041491
5542.000000;1.041528
5541.000000;1.041529
5540.000000;1.041519
5539.000000;1.041481
5538.000000;1.041397
5537.000000;1.041307
5536.000000;1.041279
5535.000000;1.041335
5534.000000;1.041453
5533.000000;1.041608
5532.000000;1.041776
5531.000000;1.041906
5530.000000;1.041963
5529.000000;1.041953
5528.000000;1.041899
5527.000000;1.041823
5526.000000;1.041742
5525.000000;1.041663
5524.000000;1.041577
5523.000000;1.041480
5522.000000;1.041437
5521.000000;1.041554
5520.000000;1.041833
5519.000000;1.042142
5518.000000;1.042343
5517.000000;1.042416
5516.000000;1.042435
5515.000000;1.042466
5514.000000;1.042530
5513.000000;1.042633
5512.000000;1.042767
5511.000000;1.042893
5510.000000;1.042966
5509.000000;1.042965
5508.000000;1.042923
5507.000000;1.042931
5506.000000;1.043082
5505.000000;1.043383
5504.000000;1.043774
5503.000000;1.044206
5502.000000;1.044693
5501.000000;1.045217
5500.000000;1.045588
5499.000000;1.045614
5498.000000;1.045383
5497.000000;1.045211
5496.000000;1.045260
5495.000000;1.045347
5494.000000;1.045222
5493.000000;1.044962
5492.000000;1.044874
5491.000000;1.045094
5490.000000;1.045478
5489.000000;1.045883
5488.000000;1.046328
5487.000000;1.046882
5486.000000;1.047500
5485.000000;1.048043
5484.000000;1.048442
5483.000000;1.048678
5482.000000;1.048694
5481.000000;1.048512
5480.000000;1.048343
5479.000000;1.048455
5478.000000;1.048867
5477.000000;1.049244
5476.000000;1.049302
5475.000000;1.049274
5474.000000;1.049659
5473.000000;1.050567
5472.000000;1.051634
5471.000000;1.052483
5470.000000;1.053026
5469.000000;1.053405
5468.000000;1.053737
5467.000000;1.054065
5466.000000;1.054449
5465.000000;1.054911
5464.000000;1.055396
5463.000000;1.055822
5462.000000;1.056162
5461.000000;1.056508
5460.000000;1.057034
5459.000000;1.057857
5458.000000;1.058939
5457.000000;1.060062
5456.000000;1.060967
5455.000000;1.061638
5454.000000;1.062308
5453.000000;1.063097
5452.000000;1.063809
5451.000000;1.064188
5450.000000;1.064336
5449.000000;1.064667
5448.000000;1.065328
5447.000000;1.066026
5446.000000;1.066564
5445.000000;1.067168
5444.000000;1.068158
5443.000000;1.069455
5442.000000;1.070624
5441.000000;1.071412
5440.000000;1.072094
5439.000000;1.073068
5438.000000;1.074391
5437.000000;1.075775
5436.000000;1.076816
5435.000000;1.077416
5434.000000;1.078006
5433.000000;1.079057
5432.000000;1.080592
5431.000000;1.082230
5430.000000;1.083581
5429.000000;1.084691
5428.000000;1.086042
5427.000000;1.087977
5426.000000;1.090350
5425.000000;1.092734
5424.000000;1.094799
5423.000000;1.096572
5422.000000;1.098287
5421.000000;1.099966
5420.000000;1.101399
5419.000000;1.102552
5418.000000;1.103742
5417.000000;1.105248
5416.000000;1.106901
5415.000000;1.108357
5414.000000;1.109748
5413.000000;1.111605
5412.000000;1.114105
5411.000000;1.116861
5410.000000;1.119539
5409.000000;1.122201
5408.000000;1.124996
5407.000000;1.127859
5406.000000;1.130681
5405.000000;1.133509
5404.000000;1.136326
5403.000000;1.138980
5402.000000;1.141513
5401.000000;1.144146
5400.000000;1.146925
5399.000000;1.149708
5398.000000;1.152466
5397.000000;1.155412
5396.000000;1.158621
5395.000000;1.161877
5394.000000;1.165111
5393.000000;1.168581
5392.000000;1.172420
5391.000000;1.176406
5390.000000;1.180384
5389.000000;1.184516
5388.000000;1.188927
5387.000000;1.193415
5386.000000;1.197822
5385.000000;1.202396
5384.000000;1.207255
5383.000000;1.212046
5382.000000;1.216585
5381.000000;1.221259
5380.000000;1.226481
5379.000000;1.232083
5378.000000;1.237612
5377.000000;1.243095
5376.000000;1.248962
5375.000000;1.255306
5374.000000;1.261826
5373.000000;1.268393
5372.000000;1.275107
5371.000000;1.281940
5370.000000;1.288752
5369.000000;1.295624
5368.000000;1.302812
5367.000000;1.310327
5366.000000;1.317981
5365.000000;1.325764
5364.000000;1.333828
5363.000000;1.342212
5362.000000;1.350860
5361.000000;1.359757
5360.000000;1.368872
5359.000000;1.378084
5358.000000;1.387417
5357.000000;1.397156
5356.000000;1.407445
5355.000000;1.417937
5354.000000;1.428306
5353.000000;1.438906
5352.000000;1.450259
5351.000000;1.462182
5350.000000;1.474177
5349.000000;1.486247
5348.000000;1.498813
5347.000000;1.512039
5346.000000;1.525648
5345.000000;1.539466
5344.000000;1.553716
5343.000000;1.568461
5342.000000;1.583386
5341.000000;1.598456
5340.000000;1.613967
5339.000000;1.630069
5338.000000;1.646819
5337.000000;1.664344
5336.000000;1.682615
5335.000000;1.701221
5334.000000;1.719715
5333.000000;1.738198
5332.000000;1.757212
5331.000000;1.777080
5330.000000;1.797673
5329.000000;1.818720
5328.000000;1.840021
5327.000000;1.861488
5326.000000;1.883150
5325.000000;1.905151
5324.000000;1.927598
5323.000000;1.950439
5322.000000;1.973647
5321.000000;1.997312
5320.000000;2.021303
5319.000000;2.045193
5318.000000;2.068828
5317.000000;2.092626
5316.000000;2.117043
5315.000000;2.142018
5314.000000;2.167187
5313.000000;2.192351
5312.000000;2.217371
5311.000000;2.242056
5310.000000;2.266425
5309.000000;2.290611
5308.000000;2.314323
5307.000000;2.336968
5306.000000;2.358462
5305.000000;2.379323
5304.000000;2.399979
5303.000000;2.420640
5302.000000;2.441661
5301.000000;2.462894
5300.000000;2.482765
5299.000000;2.499521
5298.000000;2.513543
5297.000000;2.526955
5296.000000;2.541076
5295.000000;2.555671
5294.000000;2.570258
5293.000000;2.584268
5292.000000;2.595998
5291.000000;2.603668
5290.000000;2.608062
5289.000000;2.612155
5288.000000;2.617766
5287.000000;2.624397
5286.000000;2.630982
5285.000000;2.636740
5284.000000;2.640831
5283.000000;2.643036
5282.000000;2.644540
5281.000000;2.646578
5280.000000;2.648553
5279.000000;2.649094
5278.000000;2.648567
5277.000000;2.648751
5276.000000;2.650480
5275.000000;2.653222
5274.000000;2.656360
5273.000000;2.659178
5272.000000;2.660144
5271.000000;2.658294
5270.000000;2.655061
5269.000000;2.652879
5268.000000;2.652505
5267.000000;2.653423
5266.000000;2.655780
5265.000000;2.659524
5264.000000;2.662577
5263.000000;2.662738
5262.000000;2.660994
5261.000000;2.660031
5260.000000;2.660130
5259.000000;2.659484
5258.000000;2.657944
5257.000000;2.657462
5256.000000;2.658852
5255.000000;2.660814
5254.000000;2.662350
5253.000000;2.663876
5252.000000;2.665612
5251.000000;2.666962
5250.000000;2.667746
5249.000000;2.668172
5248.000000;2.667710
5247.000000;2.665934
5246.000000;2.664156
5245.000000;2.663997
5244.000000;2.664706
5243.000000;2.664057
5242.000000;2.661598
5241.000000;2.658882
5240.000000;2.656924
5239.000000;2.655698
5238.000000;2.655428
5237.000000;2.656037
5236.000000;2.655886
5235.000000;2.653617
5234.000000;2.650822
5233.000000;2.650145
5232.000000;2.651206
5231.000000;2.651252
5230.000000;2.649824
5229.000000;2.649622
5228.000000;2.652237
5227.000000;2.656067
5226.000000;2.659043
5225.000000;2.660873
5224.000000;2.661518
5223.000000;2.659894
5222.000000;2.655696
5221.000000;2.650596
5220.000000;2.646610
5219.000000;2.644788
5218.000000;2.645302
5217.000000;2.647051
5216.000000;2.647741
5215.000000;2.646391
5214.000000;2.645211
5213.000000;2.646624
5212.000000;2.649103
5211.000000;2.648884
5210.000000;2.645848
5209.000000;2.644166
5208.000000;2.646270
5207.000000;2.649521
5206.000000;2.650097
5205.000000;2.647671
5204.000000;2.644383
5203.000000;2.641776
5202.000000;2.640652
5201.000000;2.641560
5200.000000;2.643692
5199.000000;2.644993
5198.000000;2.644788
5197.000000;2.644690
5196.000000;2.645850
5195.000000;2.647410
5194.000000;2.648754
5193.000000;2.650854
5192.000000;2.653837
5191.000000;2.655464
5190.000000;2.653981
5189.000000;2.650878
5188.000000;2.648815
5187.000000;2.648170
5186.000000;2.647326
5185.000000;2.645211
5184.000000;2.642185
5183.000000;2.639472
5182.000000;2.638732
5181.000000;2.640981
5180.000000;2.644916
5179.000000;2.647455
5178.000000;2.647085
5177.000000;2.645478
5176.000000;2.644600
5175.000000;2.644057
5174.000000;2.642920
5173.000000;2.642310
5172.000000;2.644047
5171.000000;2.647759
5170.000000;2.651026
5169.000000;2.652129
5168.000000;2.651565
5167.000000;2.650998
5166.000000;2.651593
5165.000000;2.653077
5164.000000;2.653887
5163.000000;2.652886
5162.000000;2.650944
5161.000000;2.649876
5160.000000;2.650187
5159.000000;2.650757
5158.000000;2.650657
5157.000000;2.650122
5156.000000;2.649580
5155.000000;2.649204
5154.000000;2.649608
5153.000000;2.651344
5152.000000;2.653378
5151.000000;2.653651
5150.000000;2.651609
5149.000000;2.648596
5148.000000;2.645558
5147.000000;2.642351
5146.000000;2.639779
5145.000000;2.639832
5144.000000;2.642990
5143.000000;2.647124
5142.000000;2.649969
5141.000000;2.651354
5140.000000;2.651944
5139.000000;2.651522
5138.000000;2.650056
5137.000000;2.648753
5136.000000;2.648598
5135.000000;2.649146
5134.000000;2.649649
5133.000000;2.650115
5132.000000;2.650654
5131.000000;2.651229
5130.000000;2.652512
5129.000000;2.655227
5128.000000;2.658088
5127.000000;2.658385
5126.000000;2.655448
5125.000000;2.651490
5124.000000;2.648336
5123.000000;2.645667
5122.000000;2.643049
5121.000000;2.641155
5120.000000;2.639932
5119.000000;2.638080
5118.000000;2.635878
5117.000000;2.636005
5116.000000;2.639738
5115.000000;2.644359
5114.000000;2.646173
5113.000000;2.644889
5112.000000;2.643247
5111.000000;2.643681
5110.000000;2.646906
5109.000000;2.652073
5108.000000;2.656799
5107.000000;2.658708
5106.000000;2.658306
5105.000000;2.658377
5104.000000;2.659461
5103.000000;2.658569
5102.000000;2.653947
5101.000000;2.648305
5100.000000;2.645084
5099.000000;2.644238
5098.000000;2.643734
5097.000000;2.642922
5096.000000;2.641946
5095.000000;2.639799
5094.000000;2.636081
5093.000000;2.633161
5092.000000;2.633677
5091.000000;2.636952
5090.000000;2.640261
5089.000000;2.642770
5088.000000;2.645630
5087.000000;2.648716
5086.000000;2.650138
5085.000000;2.649115
5084.000000;2.647068
5083.000000;2.645660
5082.000000;2.645513
5081.000000;2.646542
5080.000000;2.647828
5079.000000;2.647528
5078.000000;2.644576
5077.000000;2.640086
5076.000000;2.635827
5075.000000;2.632445
5074.000000;2.630566
5073.000000;2.632033
5072.000000;2.637719
5071.000000;2.644630
5070.000000;2.647565
5069.000000;2.644466
5068.000000;2.638314
5067.000000;2.633292
5066.000000;2.631236
5065.000000;2.631784
5064.000000;2.633781
5063.000000;2.635989
5062.000000;2.637525
5061.000000;2.638177
5060.000000;2.638094
5059.000000;2.637395
5058.000000;2.636278
5057.000000;2.634703
5056.000000;2.631615
5055.000000;2.625912
5054.000000;2.619076
5053.000000;2.615119
5052.000000;2.616471
5051.000000;2.621059
5050.000000;2.624761
5049.000000;2.625976
5048.000000;2.626027
5047.000000;2.625902
5046.000000;2.625099
5045.000000;2.623461
5044.000000;2.622044
5043.000000;2.621669
5042.000000;2.621814
5041.000000;2.621183
5040.000000;2.618642
5039.000000;2.614009
5038.000000;2.608933
5037.000000;2.606333
5036.000000;2.607682
5035.000000;2.611246
5034.000000;2.613961
5033.000000;2.614354
5032.000000;2.612460
5031.000000;2.608256
5030.000000;2.602441
5029.000000;2.597727
5028.000000;2.596777
5027.000000;2.598947
5026.000000;2.600910
5025.000000;2.600886
5024.000000;2.600520
5023.000000;2.602071
5022.000000;2.605382
5021.000000;2.607969
5020.000000;2.607272
5019.000000;2.602947
5018.000000;2.597539
5017.000000;2.594494
5016.000000;2.594783
5015.000000;2.595870
5014.000000;2.594998
5013.000000;2.592865
5012.000000;2.592436
5011.000000;2.594607
5010.000000;2.596876
5009.000000;2.596327
5008.000000;2.592539
5007.000000;2.587331
5006.000000;2.583114
5005.000000;2.581849
5004.000000;2.583982
5003.000000;2.587502
5002.000000;2.588913
5001.000000;2.585975
5000.000000;2.579367
4999.000000;2.571641
4998.000000;2.565465
4997.000000;2.562599
4996.000000;2.563031
4995.000000;2.564549
4994.000000;2.564175
4993.000000;2.560809
4992.000000;2.555917
4991.000000;2.551445
4990.000000;2.547974
4989.000000;2.545078
4988.000000;2.542604
4987.000000;2.540979
4986.000000;2.540456
4985.000000;2.540442
4984.000000;2.539788
4983.000000;2.537812
4982.000000;2.534890
4981.000000;2.531656
4980.000000;2.527865
4979.000000;2.522978
4978.000000;2.517857
4977.000000;2.514723
4976.000000;2.514698
4975.000000;2.516197
4974.000000;2.516445
4973.000000;2.514072
4972.000000;2.509639
4971.000000;2.504369
4970.000000;2.499543
4969.000000;2.496442
4968.000000;2.495553
4967.000000;2.495834
4966.000000;2.495530
4965.000000;2.493715
4964.000000;2.490511
4963.000000;2.486236
4962.000000;2.481322
4961.000000;2.476786
4960.000000;2.473616
4959.000000;2.471562
4958.000000;2.469201
4957.000000;2.465417
4956.000000;2.460272
4955.000000;2.454523
4954.000000;2.448909
4953.000000;2.443937
4952.000000;2.439874
4951.000000;2.436782
4950.000000;2.434758
4949.000000;2.433835
4948.000000;2.433449
4947.000000;2.432336
4946.000000;2.429471
4945.000000;2.424872
4944.000000;2.419109
4943.000000;2.412576
4942.000000;2.405747
4941.000000;2.399740
4940.000000;2.395821
4939.000000;2.394262
4938.000000;2.394031
4937.000000;2.393632
4936.000000;2.392123
4935.000000;2.389526
4934.000000;2.386436
4933.000000;2.383107
4932.000000;2.378999
4931.000000;2.373626
4930.000000;2.367763
4929.000000;2.363036
4928.000000;2.360127
4927.000000;2.358024
4926.000000;2.355214
4925.000000;2.351091
4924.000000;2.346027
4923.000000;2.340730
4922.000000;2.335978
4921.000000;2.332329
4920.000000;2.329415
4919.000000;2.326039
4918.000000;2.321662
4917.000000;2.317204
4916.000000;2.313746
4915.000000;2.311071
4914.000000;2.308205
4913.000000;2.304806
4912.000000;2.301194
4911.000000;2.297409
4910.000000;2.293157
4909.000000;2.288483
4908.000000;2.283768
4907.000000;2.279161
4906.000000;2.274597
4905.000000;2.270222
4904.000000;2.266212
4903.000000;2.262330
4902.000000;2.258216
4901.000000;2.253961
4900.000000;2.249914
4899.000000;2.246064
4898.000000;2.242084
4897.000000;2.237851
4896.000000;2.233568
4895.000000;2.229559
4894.000000;2.226177
4893.000000;2.223546
4892.000000;2.221066
4891.000000;2.217588
4890.000000;2.212569
4889.000000;2.206762
4888.000000;2.201346
4887.000000;2.196766
4886.000000;2.192817
4885.000000;2.189345
4884.000000;2.186239
4883.000000;2.182986
4882.000000;2.178982
4881.000000;2.174265
4880.000000;2.169503
4879.000000;2.165245
4878.000000;2.161510
4877.000000;2.157924
4876.000000;2.153953
4875.000000;2.149251
4874.000000;2.144062
4873.000000;2.139027
4872.000000;2.134373
4871.000000;2.129704
4870.000000;2.124880
4869.000000;2.120558
4868.000000;2.117291
4867.000000;2.114525
4866.000000;2.111151
4865.000000;2.106878
4864.000000;2.102430
4863.000000;2.098525
4862.000000;2.095211
4861.000000;2.092072
4860.000000;2.088570
4859.000000;2.084293
4858.000000;2.079362
4857.000000;2.074506
4856.000000;2.070356
4855.000000;2.066800
4854.000000;2.063363
4853.000000;2.059942
4852.000000;2.056645
4851.000000;2.053122
4850.000000;2.048732
4849.000000;2.043372
4848.000000;2.037674
4847.000000;2.032408
4846.000000;2.028061
4845.000000;2.024795
4844.000000;2.022259
4843.000000;2.019539
4842.000000;2.015839
4841.000000;2.011315
4840.000000;2.006815
4839.000000;2.002818
4838.000000;1.999073
4837.000000;1.995208
4836.000000;1.991219
4835.000000;1.987282
4834.000000;1.983490
4833.000000;1.979849
4832.000000;1.976273
4831.000000;1.972554
4830.000000;1.968641
4829.000000;1.964841
4828.000000;1.961389
4827.000000;1.957910
4826.000000;1.953798
4825.000000;1.949136
4824.000000;1.944694
4823.000000;1.940910
4822.000000;1.937354
4821.000000;1.933410
4820.000000;1.929068
4819.000000;1.924796
4818.000000;1.920913
4817.000000;1.917378
4816.000000;1.913993
4815.000000;1.910575
4814.000000;1.907046
4813.000000;1.903496
4812.000000;1.900091
4811.000000;1.896771
4810.000000;1.893299
4809.000000;1.889564
4808.000000;1.885661
4807.000000;1.881624
4806.000000;1.877320
4805.000000;1.872856
4804.000000;1.868749
4803.000000;1.865492
4802.000000;1.862983
4801.000000;1.860562
4800.000000;1.857605
4799.000000;1.854029
4798.000000;1.850258
4797.000000;1.846755
4796.000000;1.843590
4795.000000;1.840424
4794.000000;1.836932
4793.000000;1.833170
4792.000000;1.829466
4791.000000;1.825974
4790.000000;1.822490
4789.000000;1.818722
4788.000000;1.814652
4787.000000;1.810570
4786.000000;1.806795
4785.000000;1.803424
4784.000000;1.800351
4783.000000;1.797484
4782.000000;1.794844
4781.000000;1.792348
4780.000000;1.789593
4779.000000;1.786118
4778.000000;1.781992
4777.000000;1.777893
4776.000000;1.774403
4775.000000;1.771390
4774.000000;1.768305
4773.000000;1.764944
4772.000000;1.761613
4771.000000;1.758562
4770.000000;1.755569
4769.000000;1.752244
4768.000000;1.748538
4767.000000;1.744784
4766.000000;1.741317
4765.000000;1.738161
4764.000000;1.735086
4763.000000;1.731886
4762.000000;1.728564
4761.000000;1.725243
4760.000000;1.721987
4759.000000;1.718786
4758.000000;1.715695
4757.000000;1.712836
4756.000000;1.710195
4755.000000;1.707545
4754.000000;1.704687
4753.000000;1.701679
4752.000000;1.698730
4751.000000;1.695917
4750.000000;1.693120
4749.000000;1.690184
4748.000000;1.687095
4747.000000;1.684008
4746.000000;1.681127
4745.000000;1.678477
4744.000000;1.675774
4743.000000;1.672665
4742.000000;1.669141
4741.000000;1.665581
4740.000000;1.662331
4739.000000;1.659422
4738.000000;1.656757
4737.000000;1.654321
4736.000000;1.652034
4735.000000;1.649631
4734.000000;1.646946
4733.000000;1.644190
4732.000000;1.641665
4731.000000;1.639307
4730.000000;1.636791
4729.000000;1.634027
4728.000000;1.631289
4727.000000;1.628806
4726.000000;1.626472
4725.000000;1.624027
4724.000000;1.621366
4723.000000;1.618599
4722.000000;1.615932
4721.000000;1.613495
4720.000000;1.611202
4719.000000;1.608778
4718.000000;1.606032
4717.000000;1.603069
4716.000000;1.600137
4715.000000;1.597332
4714.000000;1.594594
4713.000000;1.591937
4712.000000;1.589501
4711.000000;1.587378
4710.000000;1.585528
4709.000000;1.583865
4708.000000;1.582270
4707.000000;1.580522
4706.000000;1.578397
4705.000000;1.575906
4704.000000;1.573312
4703.000000;1.570852
4702.000000;1.568555
4701.000000;1.566321
4700.000000;1.564083
4699.000000;1.561809
4698.000000;1.559448
4697.000000;1.556951
4696.000000;1.554355
4695.000000;1.551811
4694.000000;1.549515
4693.000000;1.547546
4692.000000;1.545751
4691.000000;1.543871
4690.000000;1.541827
4689.000000;1.539811
4688.000000;1.538043
4687.000000;1.536513
4686.000000;1.535007
4685.000000;1.533310
4684.000000;1.531310
4683.000000;1.529040
4682.000000;1.526718
4681.000000;1.524627
4680.000000;1.522802
4679.000000;1.520950
4678.000000;1.518829
4677.000000;1.516609
4676.000000;1.514649
4675.000000;1.513016
4674.000000;1.511435
4673.000000;1.509699
4672.000000;1.507874
4671.000000;1.506093
4670.000000;1.504358
4669.000000;1.502635
4668.000000;1.500946
4667.000000;1.499291
4666.000000;1.497606
4665.000000;1.495897
4664.000000;1.494314
4663.000000;1.492987
4662.000000;1.491852
4661.000000;1.490686
4660.000000;1.489269
4659.000000;1.487496
4658.000000;1.485402
4657.000000;1.483141
4656.000000;1.480908
4655.000000;1.478847
4654.000000;1.477026
4653.000000;1.475460
4652.000000;1.474105
4651.000000;1.472863
4650.000000;1.471643
4649.000000;1.470406
4648.000000;1.469126
4647.000000;1.467750
4646.000000;1.466264
4645.000000;1.464747
4644.000000;1.463299
4643.000000;1.461959
4642.000000;1.460723
4641.000000;1.459571
4640.000000;1.458389
4639.000000;1.456979
4638.000000;1.455260
4637.000000;1.453444
4636.000000;1.451856
4635.000000;1.450614
4634.000000;1.449561
4633.000000;1.448468
4632.000000;1.447201
4631.000000;1.445732
4630.000000;1.444144
4629.000000;1.442609
4628.000000;1.441256
4627.000000;1.440031
4626.000000;1.438757
4625.000000;1.437336
4624.000000;1.435835
4623.000000;1.434414
4622.000000;1.433193
4621.000000;1.432175
4620.000000;1.431225
4619.000000;1.430177
4618.000000;1.428992
4617.000000;1.427757
4616.000000;1.426515
4615.000000;1.425215
4614.000000;1.423896
4613.000000;1.422734
4612.000000;1.421792
4611.000000;1.420886
4610.000000;1.419863
4609.000000;1.418847
4608.000000;1.418004
4607.000000;1.417204
4606.000000;1.416185
4605.000000;1.414969
4604.000000;1.413830
4603.000000;1.412877
4602.000000;1.411951
4601.000000;1.410947
4600.000000;1.409955
4599.000000;1.409000
4598.000000;1.407921
4597.000000;1.406646
4596.000000;1.405384
4595.000000;1.404391
4594.000000;1.403659
4593.000000;1.402973
4592.000000;1.402172
4591.000000;1.401269
4590.000000;1.400402
4589.000000;1.399724
4588.000000;1.399263
4587.000000;1.398806
4586.000000;1.398034
4585.000000;1.396843
4584.000000;1.395488
4583.000000;1.394337
4582.000000;1.393554
4581.000000;1.393048
4580.000000;1.392632
4579.000000;1.392139
4578.000000;1.391472
4577.000000;1.390639
4576.000000;1.389730
4575.000000;1.388821
4574.000000;1.387917
4573.000000;1.387009
4572.000000;1.386136
4571.000000;1.385356
4570.000000;1.384658
4569.000000;1.383951
4568.000000;1.383139
4567.000000;1.382197
4566.000000;1.381201
4565.000000;1.380280
4564.000000;1.379531
4563.000000;1.378948
4562.000000;1.378425
4561.000000;1.377805
4560.000000;1.376964
4559.000000;1.375948
4558.000000;1.374994
4557.000000;1.374312
4556.000000;1.373820
4555.000000;1.373210
4554.000000;1.372325
4553.000000;1.371362
4552.000000;1.370636
4551.000000;1.370251
4550.000000;1.370078
4549.000000;1.369918
4548.000000;1.369598
4547.000000;1.369007
4546.000000;1.368200
4545.000000;1.367367
4544.000000;1.366632
4543.000000;1.365945
4542.000000;1.365268
4541.000000;1.364702
4540.000000;1.364296
4539.000000;1.363884
4538.000000;1.363306
4537.000000;1.362677
4536.000000;1.362234
4535.000000;1.361999
4534.000000;1.361799
4533.000000;1.361554
4532.000000;1.361317
4531.000000;1.361075
4530.000000;1.360751
4529.000000;1.360375
4528.000000;1.360066
4527.000000;1.359819
4526.000000;1.359521
4525.000000;1.359145
4524.000000;1.358778
4523.000000;1.358451
4522.000000;1.358121
4521.000000;1.357811
4520.000000;1.357602
4519.000000;1.357502
4518.000000;1.357476
4517.000000;1.357566
4516.000000;1.357775
4515.000000;1.357884
4514.000000;1.357612
4513.000000;1.356993
4512.000000;1.356380
4511.000000;1.356070
4510.000000;1.356101
4509.000000;1.356401
4508.000000;1.356886
4507.000000;1.357369
4506.000000;1.357593
4505.000000;1.357466
4504.000000;1.357112
4503.000000;1.356651
4502.000000;1.356132
4501.000000;1.355724
4500.000000;1.355732
4499.000000;1.356253
4498.000000;1.356984
4497.000000;1.357499
4496.000000;1.357652
4495.000000;1.357607
4494.000000;1.357564
4493.000000;1.357580
4492.000000;1.357611
4491.000000;1.357631
4490.000000;1.357688
4489.000000;1.357831
4488.000000;1.358008
4487.000000;1.358116
4486.000000;1.358198
4485.000000;1.358458
4484.000000;1.358988
4483.000000;1.359616
4482.000000;1.360169
4481.000000;1.360762
4480.000000;1.361560
4479.000000;1.362379
4478.000000;1.362816
4477.000000;1.362784
4476.000000;1.362639
4475.000000;1.362717
4474.000000;1.362989
4473.000000;1.363267
4472.000000;1.363512
4471.000000;1.363814
4470.000000;1.364233
4469.000000;1.364759
4468.000000;1.365317
4467.000000;1.365773
4466.000000;1.366037
4465.000000;1.366221
4464.000000;1.366514
4463.000000;1.366919
4462.000000;1.367264
4461.000000;1.367533
4460.000000;1.367969
4459.000000;1.368758
4458.000000;1.369767
4457.000000;1.370696
4456.000000;1.371387
4455.000000;1.371910
4454.000000;1.372437
4453.000000;1.373084
4452.000000;1.373823
4451.000000;1.374504
4450.000000;1.375067
4449.000000;1.375671
4448.000000;1.376514
4447.000000;1.377534
4446.000000;1.378454
4445.000000;1.379120
4444.000000;1.379643
4443.000000;1.380230
4442.000000;1.381010
4441.000000;1.382030
4440.000000;1.383219
4439.000000;1.384358
4438.000000;1.385256
4437.000000;1.385971
4436.000000;1.386714
4435.000000;1.387557
4434.000000;1.388417
4433.000000;1.389269
4432.000000;1.390135
4431.000000;1.390897
4430.000000;1.391436
4429.000000;1.391956
4428.000000;1.392857
4427.000000;1.394174
4426.000000;1.395475
4425.000000;1.396435
4424.000000;1.397220
4423.000000;1.398118
4422.000000;1.399084
4421.000000;1.399911
4420.000000;1.400671
4419.000000;1.401649
4418.000000;1.402937
4417.000000;1.404329
4416.000000;1.405608
4415.000000;1.406754
4414.000000;1.407879
4413.000000;1.409109
4412.000000;1.410538
4411.000000;1.412116
4410.000000;1.413545
4409.000000;1.414400
4408.000000;1.414548
4407.000000;1.414437
4406.000000;1.414853
4405.000000;1.416263
4404.000000;1.418432
4403.000000;1.420761
4402.000000;1.422966
4401.000000;1.425201
4400.000000;1.427452
4399.000000;1.429211
4398.000000;1.430032
4397.000000;1.430173
4396.000000;1.430309
4395.000000;1.430723
4394.000000;1.431161
4393.000000;1.431475
4392.000000;1.431986
4391.000000;1.433061
4390.000000;1.434641
4389.000000;1.436371
4388.000000;1.438015
4387.000000;1.439548
4386.000000;1.440949
4385.000000;1.442111
4384.000000;1.443014
4383.000000;1.443856
4382.000000;1.444960
4381.000000;1.446501
4380.000000;1.448350
4379.000000;1.450234
4378.000000;1.452006
4377.000000;1.453643
4376.000000;1.455023
4375.000000;1.455970
4374.000000;1.456587
4373.000000;1.457275
4372.000000;1.458249
4371.000000;1.459294
4370.000000;1.460189
4369.000000;1.461110
4368.000000;1.462355
4367.000000;1.463861
4366.000000;1.465350
4365.000000;1.466756
4364.000000;1.468206
4363.000000;1.469691
4362.000000;1.471104
4361.000000;1.472497
4360.000000;1.473956
4359.000000;1.475280
4358.000000;1.476145
4357.000000;1.476570
4356.000000;1.476983
4355.000000;1.477802
4354.000000;1.479120
4353.000000;1.480732
4352.000000;1.482325
4351.000000;1.483772
4350.000000;1.485352
4349.000000;1.487435
4348.000000;1.489820
4347.000000;1.491744
4346.000000;1.492818
4345.000000;1.493516
4344.000000;1.494391
4343.000000;1.495284
4342.000000;1.495846
4341.000000;1.496383
4340.000000;1.497485
4339.000000;1.499102
4338.000000;1.500731
4337.000000;1.502325
4336.000000;1.504274
4335.000000;1.506553
4334.000000;1.508619
4333.000000;1.510151
4332.000000;1.511287
4331.000000;1.512200
4330.000000;1.513061
4329.000000;1.514358
4328.000000;1.516487
4327.000000;1.518971
4326.000000;1.520806
4325.000000;1.521720
4324.000000;1.522447
4323.000000;1.523592
4322.000000;1.524937
4321.000000;1.526091
4320.000000;1.527157
4319.000000;1.528374
4318.000000;1.529617
4317.000000;1.530597
4316.000000;1.531269
4315.000000;1.531855
4314.000000;1.532695
4313.000000;1.534044
4312.000000;1.535669
4311.000000;1.536807
4310.000000;1.537069
4309.000000;1.537237
4308.000000;1.538497
4307.000000;1.540896
4306.000000;1.543212
4305.000000;1.544416
4304.000000;1.544611
4303.000000;1.544426
4302.000000;1.544251
4301.000000;1.544383
4300.000000;1.545226
4299.000000;1.546867
4298.000000;1.548877
4297.000000;1.550749
4296.000000;1.552264
4295.000000;1.553420
4294.000000;1.554361
4293.000000;1.555353
4292.000000;1.556462
4291.000000;1.557325
4290.000000;1.557571
4289.000000;1.557321
4288.000000;1.556965
4287.000000;1.556803
4286.000000;1.557262
4285.000000;1.558810
4284.000000;1.560933
4283.000000;1.561847
4282.000000;1.560315
4281.000000;1.557435
4280.000000;1.555507
4279.000000;1.555456
4278.000000;1.556438
4277.000000;1.557633
4276.000000;1.559141
4275.000000;1.561137
4274.000000;1.563377
4273.000000;1.565624
4272.000000;1.567469
4271.000000;1.567617
4270.000000;1.564705
4269.000000;1.559319
4268.000000;1.553977
4267.000000;1.550691
4266.000000;1.549337
4265.000000;1.548603
4264.000000;1.547736
4263.000000;1.547103
4262.000000;1.547602
4261.000000;1.549525
4260.000000;1.551681
4259.000000;1.552059
4258.000000;1.550010
4257.000000;1.547606
4256.000000;1.547560
4255.000000;1.549874
4254.000000;1.551850
4253.000000;1.551247
4252.000000;1.548186
4251.000000;1.544032
4250.000000;1.539868
4249.000000;1.536223
4248.000000;1.533079
4247.000000;1.530027
4246.000000;1.526960
4245.000000;1.524327
4244.000000;1.521854
4243.000000;1.518002
4242.000000;1.512217
4241.000000;1.506778
4240.000000;1.504342
4239.000000;1.504039
4238.000000;1.502046
4237.000000;1.495993
4236.000000;1.486871
4235.000000;1.477038
4234.000000;1.468810
4233.000000;1.464459
4232.000000;1.464757
4231.000000;1.466774
4230.000000;1.465245
4229.000000;1.457469
4228.000000;1.445138
4227.000000;1.431108
4226.000000;1.417391
4225.000000;1.406397
4224.000000;1.400139
4223.000000;1.396595
4222.000000;1.389598
4221.000000;1.375043
4220.000000;1.355734
4219.000000;1.337372
4218.000000;1.322053
4217.000000;1.307964
4216.000000;1.293376
4215.000000;1.278396
4214.000000;1.263165
4213.000000;1.246031
4212.000000;1.223916
4211.000000;1.194896
4210.000000;1.161182
4209.000000;1.128759
4208.000000;1.102203
4207.000000;1.079283
4206.000000;1.052036
4205.000000;1.014607
4204.000000;0.968762
4203.000000;0.919196
4202.000000;0.865410
4201.000000;0.803331
4200.000000;0.736903
4199.000000;0.684339
4198.000000;0.665970
4197.000000;0.687362
4196.000000;0.737924
4195.000000;0.800110
4194.000000;0.863721
4193.000000;0.929962
4192.000000;1.000195
4191.000000;1.067925
4190.000000;1.125283
4189.000000;1.172975
4188.000000;1.218888
4187.000000;1.268690
4186.000000;1.320858
4185.000000;1.368458
4184.000000;1.403466
4183.000000;1.423020
4182.000000;1.434299
4181.000000;1.449995
4180.000000;1.477763
4179.000000;1.515558
4178.000000;1.555547
4177.000000;1.591291
4176.000000;1.621242
4175.000000;1.647466
4174.000000;1.674022
4173.000000;1.703727
4172.000000;1.733103
4171.000000;1.753938
4170.000000;1.764104
4169.000000;1.771531
4168.000000;1.782305
4167.000000;1.792060
4166.000000;1.795512
4165.000000;1.798353
4164.000000;1.811109
4163.000000;1.836440
4162.000000;1.868648
4161.000000;1.902908
4160.000000;1.938908
4159.000000;1.974120
4158.000000;1.999871
4157.000000;2.009911
4156.000000;2.007995
4155.000000;2.002598
4154.000000;2.002433
4153.000000;2.013733
4152.000000;2.035028
4151.000000;2.058256
4150.000000;2.078721
4149.000000;2.099944
4148.000000;2.123961
4147.000000;2.143687
4146.000000;2.152868
4145.000000;2.159575
4144.000000;2.176336
4143.000000;2.201548
4142.000000;2.221982
4141.000000;2.231152
4140.000000;2.235775
4139.000000;2.245540
4138.000000;2.260338
4137.000000;2.272192
4136.000000;2.281134
4135.000000;2.291815
4134.000000;2.304586
4133.000000;2.321415
4132.000000;2.346832
4131.000000;2.378215
4130.000000;2.399473
4129.000000;2.396831
4128.000000;2.382532
4127.000000;2.381258
4126.000000;2.401939
4125.000000;2.434198
4124.000000;2.458412
4123.000000;2.457490
4122.000000;2.436272
4121.000000;2.418736
4120.000000;2.419432
4119.000000;2.433785
4118.000000;2.451640
4117.000000;2.469666
4116.000000;2.483717
4115.000000;2.486308
4114.000000;2.484378
4113.000000;2.497977
4112.000000;2.534533
4111.000000;2.576577
4110.000000;2.599270
4109.000000;2.598191
4108.000000;2.585102
4107.000000;2.561311
4106.000000;2.525021
4105.000000;2.493651
4104.000000;2.489828
4103.000000;2.518275
4102.000000;2.562308
4101.000000;2.595233
4100.000000;2.602750
4099.000000;2.592758
4098.000000;2.573580
4097.000000;2.553498
4096.000000;2.544945
4095.000000;2.544551
4094.000000;2.540354
4093.000000;2.537126
4092.000000;2.548558
4091.000000;2.575373
4090.000000;2.611414
4089.000000;2.654356
4088.000000;2.694772
4087.000000;2.705681
4086.000000;2.673017
4085.000000;2.632262
4084.000000;2.625686
4083.000000;2.661317
4082.000000;2.715326
4081.000000;2.753087
4080.000000;2.766092
4079.000000;2.767087
4078.000000;2.761176
4077.000000;2.750401
4076.000000;2.737838
4075.000000;2.729985
4074.000000;2.736159
4073.000000;2.758452
4072.000000;2.789294
4071.000000;2.802254
4070.000000;2.769007
4069.000000;2.712433
4068.000000;2.683222
4067.000000;2.702446
4066.000000;2.749652
4065.000000;2.783553
4064.000000;2.787272
4063.000000;2.773702
4062.000000;2.767695
4061.000000;2.794184
4060.000000;2.848696
4059.000000;2.886577
4058.000000;2.874851
4057.000000;2.837662
4056.000000;2.823825
4055.000000;2.861797
4054.000000;2.943302
4053.000000;3.034106
4052.000000;3.097870
4051.000000;3.123399
4050.000000;3.117922
4049.000000;3.090271
4048.000000;3.041415
4047.000000;2.959743
4046.000000;2.860948
4045.000000;2.787734
4044.000000;2.765243
4043.000000;2.792225
4042.000000;2.847399
4041.000000;2.894389
4040.000000;2.902785
4039.000000;2.877959
4038.000000;2.849616
4037.000000;2.837638
4036.000000;2.842808
4035.000000;2.850269
4034.000000;2.844690
4033.000000;2.830804
4032.000000;2.825348
4031.000000;2.837842
4030.000000;2.870762
4029.000000;2.924269
4028.000000;2.991366
4027.000000;3.048457
4026.000000;3.058771
4025.000000;3.020671
4024.000000;2.981167
4023.000000;2.969725
4022.000000;2.980454
4021.000000;2.986505
4020.000000;2.953321
4019.000000;2.917801
4018.000000;2.916208
4017.000000;2.924577
4016.000000;2.944869
4015.000000;2.984957
4014.000000;3.029480
4013.000000;3.074701
4012.000000;3.107050
4011.000000;3.108192
4010.000000;3.088656
4009.000000;3.072878
4008.000000;3.068474
4007.000000;3.060279
4006.000000;3.038760
4005.000000;3.028122
4004.000000;3.041317
4003.000000;3.051209
4002.000000;3.053044
4001.000000;3.084907
4000.000000;3.170168
3999.000000;3.271129
3998.000000;3.286371
3997.000000;3.200476
3996.000000;3.113041
3995.000000;3.089158
3994.000000;3.119822
3993.000000;3.159494
3992.000000;3.192056
3991.000000;3.217252
3990.000000;3.218393
3989.000000;3.208390
3988.000000;3.215800
3987.000000;3.231526
3986.000000;3.216438
3985.000000;3.149050
3984.000000;3.050556
3983.000000;2.963570
3982.000000;2.922001
3981.000000;2.943493
3980.000000;3.027071
3979.000000;3.154899
3978.000000;3.337067
3977.000000;3.651481
3976.000000;3.921585
3975.000000;3.635161
3974.000000;3.377862
3973.000000;3.254322
3972.000000;3.254321
3971.000000;3.337532
3970.000000;3.443425
3969.000000;3.508100
3968.000000;3.590274
3967.000000;3.765817
3966.000000;3.620983
3965.000000;3.383760
3964.000000;3.303405
3963.000000;3.260645
3962.000000;3.185663
3961.000000;3.138237
3960.000000;3.154052
3959.000000;3.184165
3958.000000;3.180822
3957.000000;3.174525
3956.000000;3.175344
3955.000000;3.183139
3954.000000;3.212653
3953.000000;3.248612
3952.000000;3.260651
3951.000000;3.263717
3950.000000;3.286076
3949.000000;3.327482
3948.000000;3.383615
3947.000000;3.444691
3946.000000;3.447160
3945.000000;3.362613
3944.000000;3.279922
3943.000000;3.281640
3942.000000;3.371914
3941.000000;3.529966
3940.000000;3.645638
3939.000000;3.495775
3938.000000;3.338906
3937.000000;3.309716
3936.000000;3.357180
3935.000000;3.433606
3934.000000;3.503137
3933.000000;3.540567
3932.000000;3.632846
3931.000000;3.895449
3930.000000;4.463313
3929.000000;4.642510
3928.000000;4.024238
3927.000000;3.676247
3926.000000;3.494459
3925.000000;3.485040
3924.000000;3.587195
3923.000000;3.686688
3922.000000;3.748526
3921.000000;3.809817
3920.000000;3.808935
3919.000000;3.681086
3918.000000;3.597718
3917.000000;3.557175
3916.000000;3.473947
3915.000000;3.367341
3914.000000;3.267899
3913.000000;3.217473
3912.000000;3.271182
3911.000000;3.425552
3910.000000;3.607974
3909.000000;3.796974
3908.000000;3.967550
3907.000000;3.924209
3906.000000;3.743591
3905.000000;3.685076
3904.000000;3.838218
3903.000000;4.169463
3902.000000;4.559797
3901.000000;4.020929
3900.000000;3.730034
3899.000000;3.657149
3898.000000;3.687579
3897.000000;3.730320
3896.000000;3.794507
3895.000000;3.826795
3894.000000;3.742597
3893.000000;3.596720
3892.000000;3.520477
3891.000000;3.574782
3890.000000;3.743408
3889.000000;3.857474
3888.000000;3.850773
3887.000000;3.846342
3886.000000;4.068199
3885.000000;4.325585
3884.000000;4.411810
3883.000000;4.417981
3882.000000;4.210226
3881.000000;3.873847
3880.000000;3.869658
3879.000000;4.244149
3878.000000;4.764761
3877.000000;4.086876
3876.000000;3.784834
3875.000000;3.867039
3874.000000;4.316945
3873.000000;4.931197
3872.000000;4.763130
3871.000000;4.739012
3870.000000;4.894962
3869.000000;4.635459
3868.000000;4.643851
3867.000000;4.588894
3866.000000;4.808429
3865.000000;4.595141
3864.000000;4.355905
3863.000000;4.556703
3862.000000;4.419908
3861.000000;4.101173
3860.000000;3.987663
3859.000000;4.134164
3858.000000;4.542766
3857.000000;5.492253
3856.000000;5.389535
3855.000000;5.019432
3854.000000;5.113648
3853.000000;5.564354
3852.000000;5.808234
3851.000000;5.467955
3850.000000;5.097855
3849.000000;4.178580
3848.000000;3.836927
3847.000000;3.762798
3846.000000;3.818908
3845.000000;3.882257
3844.000000;3.952762
3843.000000;4.021662
3842.000000;4.007020
3841.000000;4.005488
3840.000000;4.053184
3839.000000;4.157063
3838.000000;4.315810
3837.000000;4.502229
3836.000000;4.811147
3835.000000;5.207454
3834.000000;4.625398
3833.000000;4.600662
3832.000000;4.500974
3831.000000;4.223276
3830.000000;4.202449
3829.000000;4.424767
3828.000000;4.172735
3827.000000;3.785310
3826.000000;3.789691
3825.000000;3.946279
3824.000000;3.922026
3823.000000;3.647485
3822.000000;3.544665
3821.000000;3.846450
3820.000000;4.450769
3819.000000;4.822170
3818.000000;4.666442
3817.000000;4.211534
3816.000000;4.037720
3815.000000;4.029751
3814.000000;3.981703
3813.000000;3.874622
3812.000000;3.862850
3811.000000;3.987011
3810.000000;4.172183
3809.000000;4.523496
3808.000000;4.251279
3807.000000;3.975637
3806.000000;4.111194
3805.000000;4.225668
3804.000000;4.169427
3803.000000;3.974968
3802.000000;3.933032
3801.000000;4.124046
3800.000000;4.326681
3799.000000;4.292677
3798.000000;4.110834
3797.000000;4.014630
3796.000000;4.168352
3795.000000;4.074744
3794.000000;3.802812
3793.000000;3.696264
3792.000000;3.801288
3791.000000;3.845612
3790.000000;3.671859
3789.000000;3.565336
3788.000000;3.580171
3787.000000;3.711233
3786.000000;3.960568
3785.000000;3.970100
3784.000000;3.825089
3783.000000;3.850889
3782.000000;3.938406
3781.000000;3.904892
3780.000000;3.635838
3779.000000;3.589370
3778.000000;3.781778
3777.000000;3.948890
3776.000000;3.862748
3775.000000;3.796920
3774.000000;3.911464
3773.000000;4.275710
3772.000000;4.716537
3771.000000;4.738375
3770.000000;4.214825
3769.000000;4.045031
3768.000000;3.962252
3767.000000;3.927076
3766.000000;3.920798
3765.000000;3.703334
3764.000000;3.656157
3763.000000;3.658338
3762.000000;3.665176
3761.000000;3.893930
3760.000000;4.442392
3759.000000;4.104880
3758.000000;4.052077
3757.000000;4.166669
3756.000000;4.416740
3755.000000;4.947716
3754.000000;5.224863
3753.000000;5.015197
3752.000000;5.086204
3751.000000;5.409820
3750.000000;5.799143
3749.000000;5.556630
3748.000000;5.483171
3747.000000;5.431212
3746.000000;5.283543
3745.000000;4.927928
3744.000000;4.848739
3743.000000;4.978388
3742.000000;4.773975
3741.000000;4.386789
3740.000000;4.252568
3739.000000;4.430215
3738.000000;4.660264
3737.000000;4.406099
3736.000000;4.339516
3735.000000;4.295344
3734.000000;4.250871
3733.000000;4.202259
3732.000000;4.075440
3731.000000;3.998658
3730.000000;3.989395
3729.000000;4.007965
3728.000000;3.945967
3727.000000;3.671546
3726.000000;3.596413
3725.000000;3.633957
3724.000000;3.641324
3723.000000;3.675729
3722.000000;3.813647
3721.000000;4.519795
3720.000000;4.181792
3719.000000;3.818901
3718.000000;3.756064
3717.000000;3.750635
3716.000000;3.859853
3715.000000;4.034014
3714.000000;4.137405
3713.000000;4.155765
3712.000000;4.397006
3711.000000;4.637879
3710.000000;4.143550
3709.000000;3.935062
3708.000000;3.879566
3707.000000;3.856803
3706.000000;3.701404
3705.000000;3.601856
3704.000000;3.639088
3703.000000;3.834607
3702.000000;3.929939
3701.000000;3.930014
3700.000000;3.878347
3699.000000;3.675842
3698.000000;3.455876
3697.000000;3.380230
3696.000000;3.518887
3695.000000;3.953087
3694.000000;4.295843
3693.000000;4.072034
3692.000000;4.057314
3691.000000;4.155379
3690.000000;4.321340
3689.000000;4.614354
3688.000000;4.612547
3687.000000;4.492414
3686.000000;4.519021
3685.000000;3.969822
3684.000000;3.632477
3683.000000;3.659283
3682.000000;4.092141
3681.000000;4.211983
3680.000000;4.249711
3679.000000;4.654106
3678.000000;4.493127
3677.000000;4.231350
3676.000000;4.348537
3675.000000;4.859968
3674.000000;5.446441
3673.000000;5.463267
3672.000000;4.974899
3671.000000;4.405105
3670.000000;4.197690
3669.000000;4.209965
3668.000000;4.186362
3667.000000;3.995912
3666.000000;3.751123
3665.000000;3.706818
3664.000000;3.714068
3663.000000;3.581765
3662.000000;3.478548
3661.000000;3.415914
3660.000000;3.462956
3659.000000;3.563385
3658.000000;3.639359
3657.000000;3.757928
3656.000000;4.045317
3655.000000;4.440640
3654.000000;4.442363
3653.000000;4.296110
3652.000000;4.208505
3651.000000;4.482909
3650.000000;4.809063
3649.000000;4.332963
3648.000000;4.155113
3647.000000;4.079799
3646.000000;4.086232
3645.000000;4.041642
3644.000000;3.830853
3643.000000;3.584330
3642.000000;3.441041
3641.000000;3.386350
3640.000000;3.374435
3639.000000;3.424695
3638.000000;3.573072
3637.000000;3.750744
3636.000000;3.820749
3635.000000;3.900134
3634.000000;4.096748
3633.000000;4.214467
3632.000000;4.260612
3631.000000;4.281064
3630.000000;4.197786
3629.000000;4.142236
3628.000000;4.297109
3627.000000;4.336564
3626.000000;4.132367
3625.000000;4.024444
3624.000000;4.162078
3623.000000;4.216955
3622.000000;4.125111
3621.000000;4.039631
3620.000000;4.048873
3619.000000;4.078131
3618.000000;3.910798
3617.000000;3.800931
3616.000000;3.774636
3615.000000;3.846158
3614.000000;3.998335
3613.000000;3.857906
3612.000000;3.767519
3611.000000;3.765307
3610.000000;3.761708
3609.000000;3.790247
3608.000000;3.904883
3607.000000;3.805835
3606.000000;3.626131
3605.000000;3.531558
3604.000000;3.496615
3603.000000;3.549061
3602.000000;3.553395
3601.000000;3.325975
3600.000000;3.221444
3599.000000;3.241893
3598.000000;3.323787
3597.000000;3.409630
3596.000000;3.472038
3595.000000;3.557592
3594.000000;4.066247
3593.000000;4.186878
3592.000000;3.759768
3591.000000;3.811978
3590.000000;3.923279
3589.000000;3.826234
3588.000000;3.756092
3587.000000;3.905515
3586.000000;3.987585
3585.000000;3.824503
3584.000000;3.599715
3583.000000;3.417616
3582.000000;3.276206
3581.000000;3.200497
3580.000000;3.240075
3579.000000;3.442190
3578.000000;3.774862
3577.000000;3.609138
3576.000000;3.384918
3575.000000;3.268388
3574.000000;3.264932
3573.000000;3.395465
3572.000000;3.529353
3571.000000;3.484293
3570.000000;3.400064
3569.000000;3.321870
3568.000000;3.314925
3567.000000;3.461118
3566.000000;3.717650
3565.000000;3.873041
3564.000000;3.925213
3563.000000;3.994309
3562.000000;3.779190
3561.000000;3.588225
3560.000000;3.550470
3559.000000;3.480101
3558.000000;3.338012
3557.000000;3.235870
3556.000000;3.189925
3555.000000;3.203661
3554.000000;3.301154
3553.000000;3.436757
3552.000000;3.465373
3551.000000;3.405840
3550.000000;3.369631
3549.000000;3.371098
3548.000000;3.400325
3547.000000;3.511122
3546.000000;3.856145
3545.000000;3.853317
3544.000000;3.511137
3543.000000;3.433107
3542.000000;3.477117
3541.000000;3.629735
3540.000000;3.721642
3539.000000;3.647034
3538.000000;3.573024
3537.000000;3.618983
3536.000000;3.522492
3535.000000;3.334696
3534.000000;3.294484
3533.000000;3.379824
3532.000000;3.579882
3531.000000;3.721623
3530.000000;3.539516
3529.000000;3.439906
3528.000000;3.468711
3527.000000;3.484298
3526.000000;3.436200
3525.000000;3.314684
3524.000000;3.299930
3523.000000;3.611133
3522.000000;4.126956
3521.000000;3.506260
3520.000000;3.406930
3519.000000;3.488950
3518.000000;3.748324
3517.000000;3.683376
3516.000000;3.485372
3515.000000;3.401635
3514.000000;3.361685
3513.000000;3.363835
3512.000000;3.353670
3511.000000;3.326211
3510.000000;3.303814
3509.000000;3.302249
3508.000000;3.364958
3507.000000;3.509606
3506.000000;3.513249
3505.000000;3.410367
3504.000000;3.551392
3503.000000;3.766108
3502.000000;3.527966
3501.000000;3.488205
3500.000000;3.623547
3499.000000;3.753141
3498.000000;3.740290
3497.000000;3.529446
3496.000000;3.409608
3495.000000;3.480620
3494.000000;3.566829
3493.000000;3.395856
3492.000000;3.384380
3491.000000;3.512130
3490.000000;3.486440
3489.000000;3.389819
3488.000000;3.362942
3487.000000;3.354560
3486.000000;3.312043
3485.000000;3.231349
3484.000000;3.151039
3483.000000;3.094431
3482.000000;3.060788
3481.000000;3.053849
3480.000000;3.082551
3479.000000;3.146502
3478.000000;3.223156
3477.000000;3.292143
3476.000000;3.342462
3475.000000;3.387059
3474.000000;3.471609
3473.000000;3.666341
3472.000000;4.505275
3471.000000;3.598243
3470.000000;3.226691
3469.000000;3.113526
3468.000000;3.177173
3467.000000;3.463193
3466.000000;3.891681
3465.000000;3.754888
3464.000000;3.725105
3463.000000;3.820158
3462.000000;3.894392
3461.000000;3.813746
3460.000000;3.726922
3459.000000;3.698826
3458.000000;3.734702
3457.000000;4.004966
3456.000000;3.694273
3455.000000;3.383739
3454.000000;3.368903
3453.000000;3.535883
3452.000000;4.347776
3451.000000;4.143410
3450.000000;3.841605
3449.000000;4.272835
3448.000000;3.880912
3447.000000;3.629045
3446.000000;3.660122
3445.000000;3.818982
3444.000000;3.779497
3443.000000;3.656243
3442.000000;3.706297
3441.000000;3.858368
3440.000000;3.882258
3439.000000;3.806445
3438.000000;3.724848
3437.000000;3.450458
3436.000000;3.268675
3435.000000;3.287931
3434.000000;3.493361
3433.000000;3.556865
3432.000000;3.363672
3431.000000;3.247499
3430.000000;3.187316
3429.000000;3.185793
3428.000000;3.227931
3427.000000;3.283949
3426.000000;3.280005
3425.000000;3.224663
3424.000000;3.217454
3423.000000;3.315579
3422.000000;3.396674
3421.000000;3.382715
3420.000000;3.623211
3419.000000;3.690344
3418.000000;3.332491
3417.000000;3.325982
3416.000000;3.665581
3415.000000;3.476892
3414.000000;3.194955
3413.000000;3.158305
3412.000000;3.235742
3411.000000;3.316493
3410.000000;3.328459
3409.000000;3.295930
3408.000000;3.295060
3407.000000;3.302713
3406.000000;3.275171
3405.000000;3.248594
3404.000000;3.182584
3403.000000;3.114483
3402.000000;3.159771
3401.000000;3.590577
3400.000000;3.660629
3399.000000;3.256722
3398.000000;3.234839
3397.000000;3.507484
3396.000000;3.436794
3395.000000;3.163488
3394.000000;3.122201
3393.000000;3.237035
3392.000000;3.302017
3391.000000;3.175161
3390.000000;3.112538
3389.000000;3.194607
3388.000000;3.455662
3387.000000;3.700583
3386.000000;3.531363
3385.000000;3.578516
3384.000000;3.767025
3383.000000;3.608277
3382.000000;3.415129
3381.000000;3.381577
3380.000000;3.685138
3379.000000;3.581809
3378.000000;3.133456
3377.000000;3.030044
3376.000000;3.091436
3375.000000;3.234542
3374.000000;3.435232
3373.000000;3.768947
3372.000000;3.282741
3371.000000;3.008316
3370.000000;2.970267
3369.000000;2.996500
3368.000000;3.000768
3367.000000;2.971847
3366.000000;2.995086
3365.000000;3.141286
3364.000000;3.485301
3363.000000;3.482157
3362.000000;3.270847
3361.000000;3.274837
3360.000000;3.512075
3359.000000;3.825419
3358.000000;3.602881
3357.000000;3.520568
3356.000000;3.384348
3355.000000;3.358333
3354.000000;3.488375
3353.000000;3.462469
3352.000000;3.266097
3351.000000;3.194455
3350.000000;3.325815
3349.000000;3.454357
3348.000000;3.317622
3347.000000;3.274344
3346.000000;3.281278
3345.000000;3.245067
3344.000000;3.195406
3343.000000;3.098814
3342.000000;3.022794
3341.000000;3.071141
3340.000000;3.363462
3339.000000;3.366004
3338.000000;3.105358
3337.000000;3.039101
3336.000000;3.059723
3335.000000;3.081367
3334.000000;3.100486
3333.000000;3.142449
3332.000000;3.093445
3331.000000;2.986960
3330.000000;2.987125
3329.000000;3.110973
3328.000000;3.311388
3327.000000;3.480715
3326.000000;3.610688
3325.000000;3.653411
3324.000000;3.639802
3323.000000;4.032134
3322.000000;3.814721
3321.000000;3.442494
3320.000000;3.423507
3319.000000;3.336938
3318.000000;3.243704
3317.000000;3.238801
3316.000000;3.234186
3315.000000;3.134206
3314.000000;3.042564
3313.000000;3.053336
3312.000000;3.273546
3311.000000;4.158325
3310.000000;3.411862
3309.000000;3.208859
3308.000000;3.225152
3307.000000;3.347803
3306.000000;3.574643
3305.000000;3.511889
3304.000000;3.376290
3303.000000;3.319942
3302.000000;3.250525
3301.000000;3.159776
3300.000000;3.119658
3299.000000;3.069292
3298.000000;2.985952
3297.000000;2.975473
3296.000000;3.103290
3295.000000;3.502849
3294.000000;3.473043
3293.000000;3.202173
3292.000000;3.249438
3291.000000;3.495934
3290.000000;4.125682
3289.000000;4.682494
3288.000000;4.066279
3287.000000;3.522921
3286.000000;3.239423
3285.000000;3.149212
3284.000000;3.182615
3283.000000;3.233727
3282.000000;3.244829
3281.000000;3.263664
3280.000000;3.280240
3279.000000;3.267618
3278.000000;3.229501
3277.000000;3.265457
3276.000000;3.526751
3275.000000;3.725728
3274.000000;3.427496
3273.000000;3.339239
3272.000000;3.281728
3271.000000;3.187891
3270.000000;3.105240
3269.000000;3.075255
3268.000000;3.109701
3267.000000;3.241454
3266.000000;3.437665
3265.000000;3.561481
3264.000000;3.913276
3263.000000;3.604116
3262.000000;3.295753
3261.000000;3.219783
3260.000000;3.167597
3259.000000;3.117714
3258.000000;3.094186
3257.000000;3.194080
3256.000000;3.606674
3255.000000;3.575386
3254.000000;3.418644
3253.000000;3.568862
3252.000000;3.428062
3251.000000;3.352556
3250.000000;3.555925
3249.000000;3.868567
3248.000000;3.613529
3247.000000;3.435779
3246.000000;3.342823
3245.000000;3.223701
3244.000000;3.107029
3243.000000;3.053735
3242.000000;3.087617
3241.000000;3.148266
3240.000000;3.156550
3239.000000;3.146491
3238.000000;3.147002
3237.000000;3.144918
3236.000000;3.191351
3235.000000;3.341449
3234.000000;3.505455
3233.000000;3.429432
3232.000000;3.237706
3231.000000;3.118777
3230.000000;3.116523
3229.000000;3.233686
3228.000000;3.417627
3227.000000;3.459188
3226.000000;3.506266
3225.000000;3.554681
3224.000000;3.293871
3223.000000;3.182069
3222.000000;3.283127
3221.000000;3.638260
3220.000000;4.010579
3219.000000;3.924945
3218.000000;4.102706
3217.000000;3.742722
3216.000000;3.577653
3215.000000;3.823744
3214.000000;3.759037
3213.000000;3.683725
3212.000000;3.697124
3211.000000;3.422031
3210.000000;3.315971
3209.000000;3.389039
3208.000000;3.659441
3207.000000;3.617688
3206.000000;3.321755
3205.000000;3.213186
3204.000000;3.232924
3203.000000;3.330594
3202.000000;3.302989
3201.000000;3.203976
3200.000000;3.261785
3199.000000;3.526960
3198.000000;3.955084
3197.000000;4.044075
3196.000000;3.891714
3195.000000;4.055340
3194.000000;4.078153
3193.000000;3.625683
3192.000000;3.421137
3191.000000;3.367086
3190.000000;3.292179
3189.000000;3.202874
3188.000000;3.153685
3187.000000;3.118689
3186.000000;3.158162
3185.000000;3.331754
3184.000000;3.948384
3183.000000;3.633981
3182.000000;3.201395
3181.000000;3.058989
3180.000000;3.074711
3179.000000;3.399812
3178.000000;3.217627
3177.000000;2.902461
3176.000000;2.815631
3175.000000;2.848039
3174.000000;2.991741
3173.000000;3.344844
3172.000000;3.505462
3171.000000;3.211650
3170.000000;3.231165
3169.000000;3.320032
3168.000000;3.298019
3167.000000;3.206452
3166.000000;3.188825
3165.000000;3.239440
3164.000000;3.266420
3163.000000;3.712625
3162.000000;3.747486
3161.000000;3.182384
3160.000000;3.075992
3159.000000;3.059057
3158.000000;3.131156
3157.000000;3.510778
3156.000000;3.575659
3155.000000;3.201858
3154.000000;3.128131
3153.000000;3.320253
3152.000000;3.651357
3151.000000;3.278323
3150.000000;3.137551
3149.000000;3.281585
3148.000000;3.491586
3147.000000;3.296671
3146.000000;3.210570
3145.000000;3.313762
3144.000000;3.552602
3143.000000;3.856809
3142.000000;3.730774
3141.000000;3.557541
3140.000000;3.530933
3139.000000;3.648628
3138.000000;3.614312
3137.000000;3.398300
3136.000000;3.269893
3135.000000;3.200210
3134.000000;3.137295
3133.000000;3.077456
3132.000000;3.069316
3131.000000;3.172910
3130.000000;3.351835
3129.000000;3.366230
3128.000000;3.318728
3127.000000;3.353027
3126.000000;3.407654
3125.000000;3.454370
3124.000000;3.391528
3123.000000;3.271128
3122.000000;3.214766
3121.000000;3.421625
3120.000000;3.839810
3119.000000;3.360947
3118.000000;3.246922
3117.000000;3.206515
3116.000000;3.104677
3115.000000;3.033113
3114.000000;2.995520
3113.000000;2.946680
3112.000000;2.872032
3111.000000;2.856115
3110.000000;2.964479
3109.000000;3.216991
3108.000000;3.439158
3107.000000;3.375012
3106.000000;3.251041
3105.000000;3.167207
3104.000000;3.113381
3103.000000;3.083064
3102.000000;3.071619
3101.000000;3.077985
3100.000000;3.105236
3099.000000;3.151897
3098.000000;3.175822
3097.000000;3.127837
3096.000000;3.101387
3095.000000;3.184169
3094.000000;3.233045
3093.000000;3.102115
3092.000000;3.013259
3091.000000;3.017218
3090.000000;3.076761
3089.000000;3.346790
3088.000000;3.955634
3087.000000;3.626376
3086.000000;3.480598
3085.000000;3.486161
3084.000000;3.441042
3083.000000;3.231532
3082.000000;3.160617
3081.000000;3.218394
3080.000000;3.211057
3079.000000;3.124762
3078.000000;3.142020
3077.000000;3.328902
3076.000000;3.529080
3075.000000;3.373038
3074.000000;3.326754
3073.000000;3.763328
3072.000000;3.325000
3071.000000;3.013142
3070.000000;2.940429
3069.000000;2.928662
3068.000000;2.964585
3067.000000;3.016988
3066.000000;3.025578
3065.000000;2.988322
3064.000000;3.003342
3063.000000;3.111675
3062.000000;3.336649
3061.000000;3.604611
3060.000000;3.529225
3059.000000;3.462210
3058.000000;3.632929
3057.000000;3.573665
3056.000000;3.416286
3055.000000;3.701372
3054.000000;3.806916
3053.000000;3.424951
3052.000000;3.379257
3051.000000;3.399526
3050.000000;3.395167
3049.000000;3.463797
3048.000000;3.522783
3047.000000;3.572263
3046.000000;3.759295
3045.000000;3.991660
3044.000000;3.974973
3043.000000;3.961301
3042.000000;4.473590
3041.000000;3.864811
3040.000000;3.446429
3039.000000;3.253434
3038.000000;3.174093
3037.000000;3.223506
3036.000000;3.454126
3035.000000;3.890763
3034.000000;3.786774
3033.000000;3.537814
3032.000000;3.439778
3031.000000;3.396637
3030.000000;3.356471
3029.000000;3.331492
3028.000000;3.584210
3027.000000;3.853368
3026.000000;3.402529
3025.000000;3.243994
3024.000000;3.254543
3023.000000;3.309931
3022.000000;3.424507
3021.000000;3.790737
3020.000000;3.638132
3019.000000;3.510998
3018.000000;3.883748
3017.000000;3.511993
3016.000000;3.317634
3015.000000;3.348168
3014.000000;3.447115
3013.000000;3.631210
3012.000000;3.665115
3011.000000;3.481442
3010.000000;3.577050
3009.000000;4.054087
3008.000000;3.485247
3007.000000;3.295765
3006.000000;3.494716
3005.000000;3.678325
3004.000000;3.345814
3003.000000;3.158731
3002.000000;3.045415
3001.000000;2.972128
3000.000000;2.983645
2999.000000;3.158091
2998.000000;3.517862
2997.000000;3.562983
2996.000000;3.611431
2995.000000;3.726456
2994.000000;3.382913
2993.000000;3.223205
2992.000000;3.395255
2991.000000;3.844899
2990.000000;3.851068
2989.000000;3.760060
2988.000000;3.611476
2987.000000;3.610497
2986.000000;3.606037
2985.000000;3.440972
2984.000000;3.321328
2983.000000;3.295082
2982.000000;3.401691
2981.000000;3.494899
2980.000000;3.327642
2979.000000;3.180379
2978.000000;3.155638
2977.000000;3.188992
2976.000000;3.154585
2975.000000;3.029573
2974.000000;2.931485
2973.000000;2.926070
2972.000000;3.029587
2971.000000;3.180532
2970.000000;3.289326
2969.000000;3.388139
2968.000000;3.515517
2967.000000;3.727834
2966.000000;3.814124
2965.000000;3.563286
2964.000000;3.291925
2963.000000;3.122924
2962.000000;3.121439
2961.000000;3.236926
2960.000000;3.556296
2959.000000;4.086141
2958.000000;3.549669
2957.000000;3.703762
2956.000000;3.512700
2955.000000;3.113868
2954.000000;3.195153
2953.000000;3.493970
2952.000000;3.212070
2951.000000;3.006531
2950.000000;3.004405
2949.000000;3.130828
2948.000000;3.313242
2947.000000;3.385399
2946.000000;3.354621
2945.000000;3.349219
2944.000000;3.529772
2943.000000;3.480889
2942.000000;3.154557
2941.000000;3.020858
2940.000000;3.065148
2939.000000;3.206299
2938.000000;3.286457
2937.000000;3.397687
2936.000000;3.711734
2935.000000;3.946338
2934.000000;3.588867
2933.000000;3.375660
2932.000000;3.353803
2931.000000;3.283796
2930.000000;3.124890
2929.000000;2.988906
2928.000000;2.926513
2927.000000;2.964828
2926.000000;3.229295
2925.000000;3.494765
2924.000000;3.141352
2923.000000;3.014207
2922.000000;3.019867
2921.000000;3.170635
2920.000000;3.512073
2919.000000;3.330152
2918.000000;3.124722
2917.000000;3.226664
2916.000000;3.441232
2915.000000;3.284593
2914.000000;3.133854
2913.000000;3.219142
2912.000000;3.392789
2911.000000;3.642613
2910.000000;3.949758
2909.000000;3.500064
2908.000000;3.375947
2907.000000;3.342741
2906.000000;3.251741
2905.000000;3.366573
2904.000000;3.680347
2903.000000;3.673154
2902.000000;3.800984
2901.000000;3.835329
2900.000000;3.456546
2899.000000;3.257062
2898.000000;3.180900
2897.000000;3.204180
2896.000000;3.268872
2895.000000;3.193102
2894.000000;3.016854
2893.000000;2.947746
2892.000000;3.008533
2891.000000;3.132441
2890.000000;3.238102
2889.000000;3.440603
2888.000000;3.757796
2887.000000;3.494112
2886.000000;3.515785
2885.000000;4.127304
2884.000000;3.662173
2883.000000;3.434998
2882.000000;3.330491
2881.000000;3.167475
2880.000000;3.045949
2879.000000;2.981971
2878.000000;3.012305
2877.000000;3.144494
2876.000000;3.374848
2875.000000;3.555127
2874.000000;3.460715
2873.000000;3.296567
2872.000000;3.192128
2871.000000;3.202380
2870.000000;3.296018
2869.000000;3.373415
2868.000000;3.407466
2867.000000;3.532821
2866.000000;3.811301
2865.000000;3.750214
2864.000000;3.693484
2863.000000;3.836855
2862.000000;3.779531
2861.000000;3.496892
2860.000000;3.299421
2859.000000;3.236513
2858.000000;3.192144
2857.000000;3.154417
2856.000000;3.240172
2855.000000;3.495974
2854.000000;3.582541
2853.000000;3.512481
2852.000000;3.558173
2851.000000;3.439329
2850.000000;3.325882
2849.000000;3.310143
2848.000000;3.256918
2847.000000;3.223989
2846.000000;3.258901
2845.000000;3.248483
2844.000000;3.186839
2843.000000;3.131479
2842.000000;3.103851
2841.000000;3.152104
2840.000000;3.330562
2839.000000;3.548462
2838.000000;3.678761
2837.000000;4.149385
2836.000000;4.292893
2835.000000;3.785180
2834.000000;3.728798
2833.000000;3.679134
2832.000000;3.747970
2831.000000;4.259310
2830.000000;3.736609
2829.000000;3.563560
2828.000000;3.807452
2827.000000;4.178532
2826.000000;3.587833
2825.000000;3.223865
2824.000000;3.098927
2823.000000;3.335440
2822.000000;4.111682
2821.000000;3.276969
2820.000000;3.112614
2819.000000;3.220512
2818.000000;3.653800
2817.000000;3.738839
2816.000000;3.569999
2815.000000;3.819399
2814.000000;3.476839
2813.000000;3.291951
2812.000000;3.176024
2811.000000;3.104412
2810.000000;3.110383
2809.000000;3.189577
2808.000000;3.352182
2807.000000;3.422877
2806.000000;3.249706
2805.000000;3.062696
2804.000000;2.989781
2803.000000;3.051806
2802.000000;3.268718
2801.000000;3.661600
2800.000000;3.817538
2799.000000;3.476346
2798.000000;3.223432
2797.000000;3.241361
2796.000000;3.419388
2795.000000;3.424900
2794.000000;3.476939
2793.000000;3.244234
2792.000000;3.065210
2791.000000;3.122766
2790.000000;3.408937
2789.000000;3.850807
2788.000000;3.531692
2787.000000;3.296979
2786.000000;3.188758
2785.000000;3.112259
2784.000000;3.063261
2783.000000;3.051550
2782.000000;3.104760
2781.000000;3.225478
2780.000000;3.344185
2779.000000;3.360835
2778.000000;3.406612
2777.000000;3.488933
2776.000000;3.485194
2775.000000;3.407167
2774.000000;3.319270
2773.000000;3.303570
2772.000000;3.359984
2771.000000;3.468049
2770.000000;3.561693
2769.000000;3.702409
2768.000000;3.909584
2767.000000;3.660558
2766.000000;3.479611
2765.000000;3.471216
2764.000000;3.527419
2763.000000;3.500591
2762.000000;3.323892
2761.000000;3.250698
2760.000000;3.284346
2759.000000;3.330972
2758.000000;3.330022
2757.000000;3.367377
2756.000000;3.821377
2755.000000;4.028465
2754.000000;3.661806
2753.000000;3.642673
2752.000000;3.349536
2751.000000;3.143204
2750.000000;3.082615
2749.000000;3.126367
2748.000000;3.200441
2747.000000;3.208381
2746.000000;3.229478
2745.000000;3.437275
2744.000000;3.688444
2743.000000;3.780667
2742.000000;4.120322
2741.000000;3.430229
2740.000000;3.146280
2739.000000;3.155768
2738.000000;3.544542
2737.000000;3.691185
2736.000000;3.259856
2735.000000;3.268697
2734.000000;3.277112
2733.000000;3.223858
2732.000000;3.210713
2731.000000;3.248901
2730.000000;3.293070
2729.000000;3.319556
2728.000000;3.587316
2727.000000;3.703116
2726.000000;3.378329
2725.000000;3.237407
2724.000000;3.125302
2723.000000;3.019902
2722.000000;3.030033
2721.000000;3.298735
2720.000000;3.440768
2719.000000;3.040340
2718.000000;2.862207
2717.000000;2.845194
2716.000000;2.957852
2715.000000;3.247527
2714.000000;3.508601
2713.000000;3.381744
2712.000000;3.283038
2711.000000;3.359755
2710.000000;3.479007
2709.000000;3.477691
2708.000000;3.815669
2707.000000;4.032468
2706.000000;4.020645
2705.000000;3.852685
2704.000000;3.315752
2703.000000;3.152538
2702.000000;3.101959
2701.000000;3.170792
2700.000000;3.250294
2699.000000;3.155228
2698.000000;3.178380
2697.000000;3.394245
2696.000000;3.778825
2695.000000;4.464653
2694.000000;3.577186
2693.000000;3.175469
2692.000000;3.040382
2691.000000;3.032253
2690.000000;3.121542
2689.000000;3.279046
2688.000000;3.671996
2687.000000;3.847561
2686.000000;3.409229
2685.000000;3.331133
2684.000000;3.365810
2683.000000;3.422569
2682.000000;3.600371
2681.000000;4.037379
2680.000000;3.756925
2679.000000;3.286846
2678.000000;3.096093
2677.000000;3.021311
2676.000000;3.065132
2675.000000;3.206665
2674.000000;3.346006
2673.000000;3.525816
2672.000000;3.522332
2671.000000;3.242349
2670.000000;3.142587
2669.000000;3.215188
2668.000000;3.483153
2667.000000;4.045364
2666.000000;3.646950
2665.000000;3.403703
2664.000000;3.442616
2663.000000;3.600315
2662.000000;3.612905
2661.000000;3.426259
2660.000000;3.286983
2659.000000;3.253371
2658.000000;3.339391
2657.000000;3.528457
2656.000000;3.776160
2655.000000;3.670572
2654.000000;3.386541
2653.000000;3.273288
2652.000000;3.418867
2651.000000;3.670470
2650.000000;3.556843
2649.000000;3.406802
2648.000000;3.210376
2647.000000;3.072660
2646.000000;3.057339
2645.000000;3.129818
2644.000000;3.390421
2643.000000;3.552493
2642.000000;3.265229
2641.000000;3.122263
2640.000000;3.067878
2639.000000;3.050687
2638.000000;3.086011
2637.000000;3.163682
2636.000000;3.283974
2635.000000;3.401248
2634.000000;3.466734
2633.000000;3.592234
2632.000000;3.745694
2631.000000;3.570198
2630.000000;3.367697
2629.000000;3.310415
2628.000000;3.579295
2627.000000;3.878064
2626.000000;3.547449
2625.000000;3.585802
2624.000000;3.540928
2623.000000;3.310557
2622.000000;3.179170
2621.000000;3.129242
2620.000000;3.186120
2619.000000;3.319964
2618.000000;3.543984
2617.000000;3.943394
2616.000000;3.721454
2615.000000;3.536585
2614.000000;3.546542
2613.000000;3.478991
2612.000000;3.457645
2611.000000;3.698913
2610.000000;3.870047
2609.000000;3.340048
2608.000000;3.128889
2607.000000;3.094055
2606.000000;3.108436
2605.000000;3.125923
2604.000000;3.129788
2603.000000;3.370203
2602.000000;3.863077
2601.000000;3.408416
2600.000000;3.338274
2599.000000;3.572089
2598.000000;3.469763
2597.000000;3.288170
2596.000000;3.293904
2595.000000;3.574020
2594.000000;3.622233
2593.000000;3.288731
2592.000000;3.200837
2591.000000;3.249412
2590.000000;3.358042
2589.000000;3.382100
2588.000000;3.303083
2587.000000;3.438348
2586.000000;3.478508
2585.000000;3.174281
2584.000000;3.015483
2583.000000;2.957969
2582.000000;2.979061
2581.000000;3.068438
2580.000000;3.135096
2579.000000;3.208873
2578.000000;3.295774
2577.000000;3.256081
2576.000000;3.143866
2575.000000;3.046593
2574.000000;2.987638
2573.000000;2.963597
2572.000000;2.951221
2571.000000;2.939450
2570.000000;2.922287
2569.000000;2.915591
2568.000000;2.971159
2567.000000;3.166649
2566.000000;3.316409
2565.000000;3.194184
2564.000000;3.093444
2563.000000;3.074430
2562.000000;3.132591
2561.000000;3.327965
2560.000000;3.933707
2559.000000;3.855480
2558.000000;3.618856
2557.000000;4.044909
2556.000000;3.674473
2555.000000;3.321781
2554.000000;3.222563
2553.000000;3.221636
2552.000000;3.261200
2551.000000;3.229503
2550.000000;3.136887
2549.000000;3.014348
2548.000000;2.934775
2547.000000;2.955299
2546.000000;3.092779
2545.000000;3.307449
2544.000000;3.385470
2543.000000;3.342773
2542.000000;3.277912
2541.000000;3.241878
2540.000000;3.284710
2539.000000;3.447785
2538.000000;3.650654
2537.000000;3.757137
2536.000000;4.125744
2535.000000;3.891238
2534.000000;3.398641
2533.000000;3.223731
2532.000000;3.165104
2531.000000;3.369930
2530.000000;3.924230
2529.000000;3.335426
2528.000000;3.096965
2527.000000;3.037821
2526.000000;3.025843
2525.000000;3.097261
2524.000000;3.303849
2523.000000;3.348215
2522.000000;3.059281
2521.000000;2.969812
2520.000000;3.005531
2519.000000;3.091180
2518.000000;3.172456
2517.000000;3.256096
2516.000000;3.377950
2515.000000;3.480488
2514.000000;3.855324
2513.000000;3.831359
2512.000000;3.320980
2511.000000;3.154567
2510.000000;3.164829
2509.000000;3.449739
2508.000000;3.878051
2507.000000;3.408923
2506.000000;3.245386
2505.000000;3.331194
2504.000000;3.430864
2503.000000;3.297148
2502.000000;3.118811
2501.000000;3.032365
2500.000000;3.028447
2499.000000;3.175394
2498.000000;3.617320
2497.000000;3.756885
2496.000000;3.458364
2495.000000;3.653554
2494.000000;3.898641
2493.000000;3.565944
2492.000000;3.416539
2491.000000;3.412554
2490.000000;3.359135
2489.000000;3.278940
2488.000000;3.283324
2487.000000;3.407667
2486.000000;4.021080
2485.000000;3.697424
2484.000000;3.322213
2483.000000;3.381029
2482.000000;3.216270
2481.000000;3.014551
2480.000000;2.980979
2479.000000;3.053956
2478.000000;3.214094
2477.000000;3.429109
2476.000000;3.822375
2475.000000;4.583370
2474.000000;3.746967
2473.000000;3.690793
2472.000000;3.942289
2471.000000;3.842385
2470.000000;3.860205
2469.000000;3.739925
2468.000000;3.496287
2467.000000;3.338329
2466.000000;3.390861
2465.000000;3.834480
2464.000000;4.154516
2463.000000;3.628863
2462.000000;3.421629
2461.000000;3.338077
2460.000000;3.344812
2459.000000;3.357267
2458.000000;3.392309
2457.000000;3.501418
2456.000000;3.594988
2455.000000;3.613720
2454.000000;3.541613
2453.000000;3.406465
2452.000000;3.331498
2451.000000;3.431693
2450.000000;3.446034
2449.000000;3.362755
2448.000000;3.451791
2447.000000;3.686478
2446.000000;3.769264
2445.000000;3.694953
2444.000000;3.727455
2443.000000;3.570853
2442.000000;3.716081
2441.000000;4.081965
2440.000000;3.495065
2439.000000;3.186250
2438.000000;3.088305
2437.000000;3.131927
2436.000000;3.317622
2435.000000;3.541685
2434.000000;3.359335
2433.000000;3.183527
2432.000000;3.200565
2431.000000;3.363536
2430.000000;3.659605
2429.000000;3.790002
2428.000000;3.958092
2427.000000;4.222935
2426.000000;3.910825
2425.000000;3.906922
2424.000000;3.813660
2423.000000;3.450154
2422.000000;3.225093
2421.000000;3.205135
2420.000000;3.396108
2419.000000;3.680033
2418.000000;4.070967
2417.000000;3.793306
2416.000000;3.284294
2415.000000;3.161322
2414.000000;3.258468
2413.000000;3.357737
2412.000000;3.408281
2411.000000;3.471752
2410.000000;3.378544
2409.000000;3.293279
2408.000000;3.389168
2407.000000;3.662350
2406.000000;3.591987
2405.000000;3.300607
2404.000000;3.229161
2403.000000;3.357917
2402.000000;3.620311
2401.000000;3.671535
2400.000000;3.512738
2399.000000;3.466174
2398.000000;3.542550
2397.000000;3.875128
2396.000000;4.505173
2395.000000;3.971219
2394.000000;3.853375
2393.000000;3.815213
2392.000000;3.556877
2391.000000;3.287338
2390.000000;3.133605
2389.000000;3.134715
2388.000000;3.293868
2387.000000;3.520583
2386.000000;3.459245
2385.000000;3.335567
2384.000000;3.300218
2383.000000;3.230449
2382.000000;3.150455
2381.000000;3.192276
2380.000000;3.490849
2379.000000;4.291631
2378.000000;4.603246
2377.000000;3.760427
2376.000000;3.444243
2375.000000;3.324157
2374.000000;3.335173
2373.000000;3.468643
2372.000000;3.500811
2371.000000;3.480239
2370.000000;3.374538
2369.000000;3.134080
2368.000000;2.977971
2367.000000;3.083346
2366.000000;3.606269
2365.000000;3.531083
2364.000000;3.361200
2363.000000;3.260638
2362.000000;3.179036
2361.000000;3.510121
2360.000000;3.456209
2359.000000;3.252104
2358.000000;3.483523
2357.000000;3.575115
2356.000000;3.304083
2355.000000;3.190466
2354.000000;3.134429
2353.000000;3.144514
2352.000000;3.393529
2351.000000;3.883811
2350.000000;3.568056
2349.000000;3.451658
2348.000000;3.592818
2347.000000;3.563292
2346.000000;3.667873
2345.000000;3.653954
2344.000000;3.350781
2343.000000;3.234647
2342.000000;3.325406
2341.000000;3.570423
2340.000000;3.895858
2339.000000;3.282640
2338.000000;3.019557
2337.000000;3.058591
2336.000000;3.253073
2335.000000;3.337080
2334.000000;3.266988
2333.000000;3.269710
2332.000000;3.221119
2331.000000;3.434644
2330.000000;3.731030
2329.000000;3.250065
2328.000000;2.967424
2327.000000;2.840590
2326.000000;2.864244
2325.000000;3.012209
2324.000000;3.132641
2323.000000;3.197333
2322.000000;3.281265
2321.000000;3.412881
2320.000000;3.482954
2319.000000;3.417654
2318.000000;3.275242
2317.000000;3.157370
2316.000000;3.152969
2315.000000;3.264698
2314.000000;3.289485
2313.000000;3.248231
2312.000000;3.349948
2311.000000;3.400883
2310.000000;3.411922
2309.000000;3.344552
2308.000000;3.160574
2307.000000;3.184376
2306.000000;3.313621
2305.000000;3.320564
2304.000000;3.314326
2303.000000;3.371302
2302.000000;3.663210
2301.000000;3.932968
2300.000000;3.879902
2299.000000;4.257596
2298.000000;3.987438
2297.000000;3.813428
2296.000000;3.721630
2295.000000;3.406988
2294.000000;3.198747
2293.000000;3.145708
2292.000000;3.237572
2291.000000;3.332440
2290.000000;3.493582
2289.000000;3.618342
2288.000000;3.379204
2287.000000;3.311946
2286.000000;3.409296
2285.000000;3.567236
2284.000000;3.682068
2283.000000;3.520936
2282.000000;3.330936
2281.000000;3.270249
2280.000000;3.394266
2279.000000;3.623445
2278.000000;3.519346
2277.000000;3.355314
2276.000000;3.292350
2275.000000;3.326963
2274.000000;3.640281
2273.000000;3.436531
2272.000000;3.029081
2271.000000;2.918914
2270.000000;2.965043
2269.000000;3.033293
2268.000000;3.015187
2267.000000;3.001926
2266.000000;3.116133
2265.000000;3.398294
2264.000000;3.528462
2263.000000;3.365795
2262.000000;3.293252
2261.000000;3.293574
2260.000000;3.365178
2259.000000;3.465430
2258.000000;3.465183
2257.000000;3.388042
2256.000000;3.541033
2255.000000;3.897839
2254.000000;4.255245
2253.000000;4.361419
2252.000000;3.567248
2251.000000;3.248673
2250.000000;3.055019
2249.000000;2.975630
2248.000000;3.054114
2247.000000;3.210623
2246.000000;3.338926
2245.000000;3.351566
2244.000000;3.222020
2243.000000;3.124825
2242.000000;3.115666
2241.000000;3.167602
2240.000000;3.202769
2239.000000;3.141941
2238.000000;3.143811
2237.000000;3.279589
2236.000000;3.323510
2235.000000;3.159945
2234.000000;3.083772
2233.000000;3.161008
2232.000000;3.480386
2231.000000;3.936505
2230.000000;3.673439
2229.000000;3.609263
2228.000000;3.605584
2227.000000;3.590588
2226.000000;3.494687
2225.000000;3.772120
2224.000000;4.112252
2223.000000;3.382900
2222.000000;3.277250
2221.000000;3.339969
2220.000000;3.541012
2219.000000;3.706943
2218.000000;3.603148
2217.000000;3.617862
2216.000000;3.298413
2215.000000;3.033748
2214.000000;2.994446
2213.000000;3.113167
2212.000000;3.177818
2211.000000;3.128074
2210.000000;3.165400
2209.000000;3.323015
2208.000000;3.709465
2207.000000;4.065896
2206.000000;3.480290
2205.000000;3.286180
2204.000000;3.249759
2203.000000;3.420676
2202.000000;3.844314
2201.000000;3.494294
2200.000000;3.245193
2199.000000;3.173421
2198.000000;3.286697
2197.000000;3.442246
2196.000000;3.230568
2195.000000;3.135607
2194.000000;3.196420
2193.000000;3.149231
2192.000000;3.079613
2191.000000;3.210319
2190.000000;3.525143
2189.000000;3.589203
2188.000000;3.413571
2187.000000;3.290724
2186.000000;3.245162
2185.000000;3.273877
2184.000000;3.556251
2183.000000;3.999974
2182.000000;3.618957
2181.000000;3.612338
2180.000000;3.633929
2179.000000;3.462738
2178.000000;3.420733
2177.000000;3.411810
2176.000000;3.335027
2175.000000;3.178927
2174.000000;3.031576
2173.000000;2.936784
2172.000000;2.933618
2171.000000;3.002993
2170.000000;3.133260
2169.000000;3.293921
2168.000000;3.395896
2167.000000;3.699602
2166.000000;3.537339
2165.000000;3.223128
2164.000000;3.274139
2163.000000;3.364630
2162.000000;3.409992
2161.000000;3.582578
2160.000000;3.839754
2159.000000;3.787807
2158.000000;3.581847
2157.000000;3.337774
2156.000000;3.224771
2155.000000;3.138774
2154.000000;3.282277
2153.000000;4.015507
2152.000000;3.333527
2151.000000;3.071528
2150.000000;3.052305
2149.000000;3.122074
2148.000000;3.289211
2147.000000;3.443327
2146.000000;3.476164
2145.000000;3.375276
2144.000000;3.482374
2143.000000;3.407222
2142.000000;3.265158
2141.000000;3.286010
2140.000000;3.323975
2139.000000;3.357517
2138.000000;3.394748
2137.000000;3.617181
2136.000000;3.901860
2135.000000;3.551504
2134.000000;3.321507
2133.000000;3.256958
2132.000000;3.198998
2131.000000;3.177794
2130.000000;3.346401
2129.000000;3.350029
2128.000000;3.282943
2127.000000;3.599925
2126.000000;3.965448
2125.000000;4.008068
2124.000000;4.071956
2123.000000;4.139592
2122.000000;4.623523
2121.000000;3.586002
2120.000000;3.145492
2119.000000;2.966664
2118.000000;2.897165
2117.000000;2.909685
2116.000000;3.030855
2115.000000;3.472030
2114.000000;3.657903
2113.000000;3.242256
2112.000000;3.217189
2111.000000;3.236268
2110.000000;3.267475
2109.000000;3.337462
2108.000000;3.390994
2107.000000;3.338544
2106.000000;3.308170
2105.000000;3.494264
2104.000000;3.717417
2103.000000;3.751586
2102.000000;3.441143
2101.000000;3.187053
2100.000000;3.192751
2099.000000;3.504725
2098.000000;3.462121
2097.000000;3.113384
2096.000000;3.004303
2095.000000;3.040393
2094.000000;3.220353
2093.000000;3.451738
2092.000000;3.450415
2091.000000;3.458173
2090.000000;3.619070
2089.000000;3.565145
2088.000000;3.446899
2087.000000;3.387851
2086.000000;3.298887
2085.000000;3.259463
2084.000000;3.195414
2083.000000;3.105624
2082.000000;3.074397
2081.000000;3.126556
2080.000000;3.194232
2079.000000;3.149145
2078.000000;3.146831
2077.000000;3.134717
2076.000000;3.251529
2075.000000;3.624990
2074.000000;3.240993
2073.000000;3.022523
2072.000000;3.098344
2071.000000;3.279495
2070.000000;3.279867
2069.000000;3.253595
2068.000000;3.403197
2067.000000;3.481496
2066.000000;3.432126
2065.000000;3.300455
2064.000000;3.139118
2063.000000;3.079796
2062.000000;3.150913
2061.000000;3.321873
2060.000000;3.431744
2059.000000;3.384328
2058.000000;3.311007
2057.000000;3.376109
2056.000000;3.681188
2055.000000;3.579980
2054.000000;3.415459
2053.000000;3.450855
2052.000000;3.556367
2051.000000;3.636269
2050.000000;3.413243
2049.000000;3.372093
2048.000000;3.518890
2047.000000;3.560321
2046.000000;3.512180
2045.000000;3.332952
2044.000000;3.195028
2043.000000;3.178192
2042.000000;3.220086
2041.000000;3.278831
2040.000000;3.356512
2039.000000;3.724411
2038.000000;3.827231
2037.000000;3.313159
2036.000000;3.294705
2035.000000;3.579488
2034.000000;3.443015
2033.000000;3.255811
2032.000000;3.478825
2031.000000;3.973473
2030.000000;3.782893
2029.000000;3.580822
2028.000000;3.673038
2027.000000;3.629921
2026.000000;3.634640
2025.000000;4.254027
2024.000000;3.663722
2023.000000;3.255578
2022.000000;3.170749
2021.000000;3.228766
2020.000000;3.469315
2019.000000;3.934032
2018.000000;3.515749
2017.000000;3.150510
2016.000000;3.040143
2015.000000;3.067905
2014.000000;3.204905
2013.000000;3.408706
2012.000000;3.551200
2011.000000;3.630775
2010.000000;3.886552
2009.000000;4.309561
2008.000000;3.842954
2007.000000;3.586556
2006.000000;3.943667
2005.000000;3.667093
2004.000000;3.260940
2003.000000;3.215728
2002.000000;3.258359
2001.000000;3.305403
2000.000000;3.422308
1999.000000;3.751897
1998.000000;3.474776
1997.000000;3.359090
1996.000000;3.732054
1995.000000;3.495560
1994.000000;3.235368
1993.000000;3.173119
1992.000000;3.149989
1991.000000;3.167193
1990.000000;3.269224
1989.000000;3.511715
1988.000000;3.572882
1987.000000;3.332090
1986.000000;3.150113
1985.000000;3.099296
1984.000000;3.281479
1983.000000;3.848201
1982.000000;3.955450
1981.000000;3.946641
1980.000000;3.951012
1979.000000;3.566512
1978.000000;3.519425
1977.000000;3.556284
1976.000000;3.518810
1975.000000;3.518359
1974.000000;3.647048
1973.000000;3.664191
1972.000000;3.658757
1971.000000;4.068255
1970.000000;4.474398
1969.000000;3.761434
1968.000000;3.467751
1967.000000;3.340005
1966.000000;3.201674
1965.000000;3.067072
1964.000000;2.974740
1963.000000;3.022112
1962.000000;3.330160
1961.000000;3.481380
1960.000000;3.354875
1959.000000;3.639406
1958.000000;3.742640
1957.000000;3.485057
1956.000000;3.454851
1955.000000;3.552938
1954.000000;3.750047
1953.000000;3.544732
1952.000000;3.368501
1951.000000;3.376365
1950.000000;3.370011
1949.000000;3.394930
1948.000000;3.444608
1947.000000;3.364964
1946.000000;3.222906
1945.000000;3.056079
1944.000000;2.964188
1943.000000;3.007265
1942.000000;3.048908
1941.000000;3.022235
1940.000000;3.015040
1939.000000;3.148307
1938.000000;3.591382
1937.000000;3.738445
1936.000000;3.519692
1935.000000;3.456240
1934.000000;3.347526
1933.000000;3.343140
1932.000000;3.388570
1931.000000;3.782674
1930.000000;4.121458
1929.000000;3.341560
1928.000000;3.118843
1927.000000;3.060026
1926.000000;3.173384
1925.000000;3.406952
1924.000000;3.413626
1923.000000;3.158625
1922.000000;2.957181
1921.000000;2.942938
1920.000000;3.181350
1919.000000;3.838239
1918.000000;3.614662
1917.000000;3.394079
1916.000000;3.613954
1915.000000;3.520809
1914.000000;3.572220
1913.000000;3.919631
1912.000000;3.492810
1911.000000;3.528535
1910.000000;4.288531
1909.000000;3.955813
1908.000000;3.876258
1907.000000;3.792425
1906.000000;3.222610
1905.000000;3.023808
1904.000000;3.032961
1903.000000;3.146202
1902.000000;3.343916
1901.000000;3.484441
1900.000000;3.335614
1899.000000;3.164529
1898.000000;3.133087
1897.000000;3.191164
1896.000000;3.218861
1895.000000;3.195426
1894.000000;3.197885
1893.000000;3.289411
1892.000000;3.668864
1891.000000;3.697598
1890.000000;3.294761
1889.000000;3.170513
1888.000000;3.181814
1887.000000;3.366128
1886.000000;3.648193
1885.000000;3.710259
1884.000000;3.785298
1883.000000;3.750918
1882.000000;3.957694
1881.000000;3.773029
1880.000000;3.389369
1879.000000;3.344232
1878.000000;3.415037
1877.000000;3.583346
1876.000000;3.809033
1875.000000;4.252555
1874.000000;4.208613
1873.000000;3.435787
1872.000000;3.208017
1871.000000;3.306092
1870.000000;3.563562
1869.000000;3.488465
1868.000000;3.384182
1867.000000;3.334520
1866.000000;3.304568
1865.000000;3.507876
1864.000000;3.659375
1863.000000;3.537396
1862.000000;3.760968
1861.000000;4.350263
1860.000000;3.807503
1859.000000;3.466749
1858.000000;3.437629
1857.000000;3.632447
1856.000000;3.661971
1855.000000;3.820519
1854.000000;3.632490
1853.000000;3.145117
1852.000000;3.056937
1851.000000;3.218777
1850.000000;3.495528
1849.000000;3.714285
1848.000000;3.928786
1847.000000;3.864455
1846.000000;3.551856
1845.000000;3.398132
1844.000000;3.328536
1843.000000;3.296375
1842.000000;3.293195
1841.000000;3.447110
1840.000000;3.539585
1839.000000;3.419144
1838.000000;3.386462
1837.000000;3.463432
1836.000000;3.475230
1835.000000;3.386313
1834.000000;3.569178
1833.000000;3.545316
1832.000000;3.327767
1831.000000;3.390771
1830.000000;3.510372
1829.000000;3.343645
1828.000000;3.322261
1827.000000;3.566464
1826.000000;3.277015
1825.000000;3.059810
1824.000000;3.057321
1823.000000;3.112975
1822.000000;3.204301
1821.000000;3.327722
1820.000000;3.452501
1819.000000;3.496853
1818.000000;3.527503
1817.000000;3.570444
1816.000000;3.663791
1815.000000;3.884589
1814.000000;4.204752
1813.000000;3.845660
1812.000000;3.454278
1811.000000;3.367381
1810.000000;3.547721
1809.000000;3.983127
1808.000000;3.939719
1807.000000;3.582174
1806.000000;3.478956
1805.000000;3.510105
1804.000000;3.547767
1803.000000;3.538629
1802.000000;3.411696
1801.000000;3.244726
1800.000000;3.107755
1799.000000;3.020907
1798.000000;3.009916
1797.000000;3.116045
1796.000000;3.334995
1795.000000;3.568855
1794.000000;4.033215
1793.000000;4.092142
1792.000000;3.587933
1791.000000;3.541864
1790.000000;3.810864
1789.000000;4.349149
1788.000000;4.509784
1787.000000;3.708233
1786.000000;3.317749
1785.000000;3.172822
1784.000000;3.155227
1783.000000;3.209780
1782.000000;3.334953
1781.000000;3.442403
1780.000000;3.566161
1779.000000;4.029172
1778.000000;3.563190
1777.000000;3.143288
1776.000000;3.020401
1775.000000;3.057198
1774.000000;3.225094
1773.000000;3.432577
1772.000000;3.665887
1771.000000;3.719486
1770.000000;3.424298
1769.000000;3.295910
1768.000000;3.397725
1767.000000;3.610858
1766.000000;3.559353
1765.000000;3.365862
1764.000000;3.241560
1763.000000;3.239681
1762.000000;3.351370
1761.000000;3.366941
1760.000000;3.348819
1759.000000;3.507052
1758.000000;3.838347
1757.000000;3.812554
1756.000000;3.437909
1755.000000;3.448427
1754.000000;3.572006
1753.000000;3.312771
1752.000000;3.213969
1751.000000;3.407563
1750.000000;3.944675
1749.000000;3.605264
1748.000000;3.259554
1747.000000;3.177223
1746.000000;3.210826
1745.000000;3.557706
1744.000000;4.390566
1743.000000;3.749823
1742.000000;3.608679
1741.000000;3.577654
1740.000000;3.628107
1739.000000;3.568001
1738.000000;3.580652
1737.000000;3.975440
1736.000000;3.579367
1735.000000;3.271690
1734.000000;3.234033
1733.000000;3.288702
1732.000000;3.248542
1731.000000;3.172750
1730.000000;3.217699
1729.000000;3.356449
1728.000000;3.453021
1727.000000;3.386647
1726.000000;3.436698
1725.000000;3.714301
1724.000000;3.803078
1723.000000;3.625464
1722.000000;3.508563
1721.000000;3.376736
1720.000000;3.222496
1719.000000;3.126360
1718.000000;3.108153
1717.000000;3.205283
1716.000000;3.442049
1715.000000;3.833537
1714.000000;3.768429
1713.000000;3.391668
1712.000000;3.294541
1711.000000;3.364763
1710.000000;3.369243
1709.000000;3.392493
1708.000000;3.708948
1707.000000;3.659771
1706.000000;3.353060
1705.000000;3.288424
1704.000000;3.276746
1703.000000;3.282086
1702.000000;3.295028
1701.000000;3.350615
1700.000000;3.420797
1699.000000;3.649229
1698.000000;4.198110
1697.000000;3.737165
1696.000000;3.529051
1695.000000;3.449812
1694.000000;3.414352
1693.000000;3.453478
1692.000000;3.388791
1691.000000;3.287590
1690.000000;3.287807
1689.000000;3.288113
1688.000000;3.180075
1687.000000;3.205317
1686.000000;3.362119
1685.000000;3.460829
1684.000000;3.443728
1683.000000;3.357400
1682.000000;3.289863
1681.000000;3.377753
1680.000000;3.525279
1679.000000;3.323602
1678.000000;3.182105
1677.000000;3.268525
1676.000000;3.542692
1675.000000;3.492169
1674.000000;3.403977
1673.000000;3.597120
1672.000000;3.474307
1671.000000;3.430230
1670.000000;3.642246
1669.000000;3.852210
1668.000000;3.537642
1667.000000;3.151765
1666.000000;3.073246
1665.000000;3.221710
1664.000000;3.483007
1663.000000;3.820843
1662.000000;4.391238
1661.000000;4.449193
1660.000000;3.715704
1659.000000;3.391512
1658.000000;3.350583
1657.000000;3.410926
1656.000000;3.450345
1655.000000;3.479197
1654.000000;3.513707
1653.000000;3.545126
1652.000000;3.587963
1651.000000;3.579567
1650.000000;3.651453
1649.000000;3.641191
1648.000000;3.354039
1647.000000;3.200019
1646.000000;3.319838
1645.000000;3.941630
1644.000000;3.759645
1643.000000;3.484477
1642.000000;3.618869
1641.000000;3.498813
1640.000000;3.257572
1639.000000;3.245024
1638.000000;3.335586
1637.000000;3.302024
1636.000000;3.296332
1635.000000;3.321556
1634.000000;3.398251
1633.000000;3.576173
1632.000000;3.612893
1631.000000;3.977779
1630.000000;3.926305
1629.000000;3.468288
1628.000000;3.765616
1627.000000;3.783406
1626.000000;3.364566
1625.000000;3.462090
1624.000000;3.960457
1623.000000;3.608404
1622.000000;3.392007
1621.000000;3.438515
1620.000000;3.349024
1619.000000;3.286896
1618.000000;3.411374
1617.000000;3.538350
1616.000000;3.467439
1615.000000;3.567329
1614.000000;3.735225
1613.000000;3.549775
1612.000000;3.365256
1611.000000;3.259600
1610.000000;3.273123
1609.000000;3.477750
1608.000000;3.592647
1607.000000;3.288929
1606.000000;3.211819
1605.000000;3.634779
1604.000000;3.765903
1603.000000;3.297691
1602.000000;3.393828
1601.000000;3.719362
1600.000000;3.566088
1599.000000;3.326995
1598.000000;3.235171
1597.000000;3.165087
1596.000000;3.084892
1595.000000;3.091648
1594.000000;3.215852
1593.000000;3.291934
1592.000000;3.249130
1591.000000;3.193201
1590.000000;3.198247
1589.000000;3.303423
1588.000000;3.330576
1587.000000;3.175991
1586.000000;3.040872
1585.000000;3.032006
1584.000000;3.087041
1583.000000;3.097977
1582.000000;3.056380
1581.000000;3.009513
1580.000000;3.126845
1579.000000;3.484781
1578.000000;3.488476
1577.000000;3.310730
1576.000000;3.277696
1575.000000;3.232970
1574.000000;3.212412
1573.000000;3.267248
1572.000000;3.353349
1571.000000;3.305690
1570.000000;3.203844
1569.000000;3.193124
1568.000000;3.327693
1567.000000;3.378336
1566.000000;3.167918
1565.000000;3.032582
1564.000000;3.022395
1563.000000;3.145516
1562.000000;3.325670
1561.000000;3.284554
1560.000000;3.137178
1559.000000;3.087410
1558.000000;3.210340
1557.000000;3.506885
1556.000000;3.560722
1555.000000;3.531269
1554.000000;3.786857
1553.000000;4.209793
1552.000000;3.785186
1551.000000;3.308799
1550.000000;3.315188
1549.000000;3.434002
1548.000000;3.305589
1547.000000;3.320704
1546.000000;3.538340
1545.000000;3.869238
1544.000000;3.829418
1543.000000;3.589142
1542.000000;3.577386
1541.000000;3.669474
1540.000000;3.415571
1539.000000;3.158790
1538.000000;3.130538
1537.000000;3.381579
1536.000000;3.415695
1535.000000;3.168983
1534.000000;3.089661
1533.000000;3.325229
1532.000000;3.465065
1531.000000;2.920287
1530.000000;2.776644
1529.000000;2.846822
1528.000000;3.079424
1527.000000;3.414112
1526.000000;3.450426
1525.000000;3.829058
1524.000000;3.807510
1523.000000;3.435380
1522.000000;3.369780
1521.000000;3.257755
1520.000000;3.304099
1519.000000;3.445052
1518.000000;3.399253
1517.000000;3.458291
1516.000000;3.604520
1515.000000;3.375136
1514.000000;3.112955
1513.000000;3.061393
1512.000000;3.198066
1511.000000;3.324115
1510.000000;3.183381
1509.000000;3.051745
1508.000000;3.094396
1507.000000;3.295772
1506.000000;3.460161
1505.000000;3.396751
1504.000000;3.283755
1503.000000;3.304027
1502.000000;3.391664
1501.000000;3.320052
1500.000000;3.267669
1499.000000;3.285238
1498.000000;3.404100
1497.000000;3.576238
1496.000000;3.588198
1495.000000;3.467088
1494.000000;3.358236
1493.000000;3.290247
1492.000000;3.266559
1491.000000;3.450887
1490.000000;3.253481
1489.000000;3.014354
1488.000000;3.051946
1487.000000;3.329011
1486.000000;4.047317
1485.000000;3.591955
1484.000000;3.253024
1483.000000;3.128327
1482.000000;3.140817
1481.000000;3.455706
1480.000000;4.073459
1479.000000;3.994005
1478.000000;3.617230
1477.000000;3.205488
1476.000000;2.995457
1475.000000;2.967853
1474.000000;3.185262
1473.000000;3.695231
1472.000000;3.472347
1471.000000;3.336107
1470.000000;3.578435
1469.000000;3.663133
1468.000000;3.334820
1467.000000;3.174121
1466.000000;3.129493
1465.000000;3.182011
1464.000000;3.311086
1463.000000;3.302577
1462.000000;3.275601
1461.000000;3.548270
1460.000000;4.476177
1459.000000;3.762085
1458.000000;3.210143
1457.000000;3.022379
1456.000000;3.029311
1455.000000;3.130610
1454.000000;3.163824
1453.000000;3.093533
1452.000000;3.088284
1451.000000;3.216773
1450.000000;3.467007
1449.000000;3.853585
1448.000000;3.814518
1447.000000;3.381381
1446.000000;3.263020
1445.000000;3.381170
1444.000000;3.372509
1443.000000;3.144913
1442.000000;3.113780
1441.000000;3.199411
1440.000000;3.184951
1439.000000;3.259499
1438.000000;3.224249
1437.000000;3.014971
1436.000000;2.939340
1435.000000;2.959848
1434.000000;3.108148
1433.000000;3.348054
1432.000000;3.169725
1431.000000;3.089598
1430.000000;3.153242
1429.000000;3.279243
1428.000000;3.764284
1427.000000;3.338080
1426.000000;3.039189
1425.000000;2.974436
1424.000000;3.026283
1423.000000;3.131103
1422.000000;3.085463
1421.000000;3.039437
1420.000000;3.067285
1419.000000;3.173374
1418.000000;3.425986
1417.000000;3.756578
1416.000000;3.398692
1415.000000;3.172955
1414.000000;3.193772
1413.000000;3.126627
1412.000000;2.966211
1411.000000;2.902159
1410.000000;2.946409
1409.000000;3.073550
1408.000000;3.295184
1407.000000;3.458870
1406.000000;3.304535
1405.000000;3.388173
1404.000000;3.600585
1403.000000;3.246777
1402.000000;3.166932
1401.000000;3.355171
1400.000000;3.690915
1399.000000;3.792048
1398.000000;3.399243
1397.000000;3.275451
1396.000000;3.442333
1395.000000;3.543359
1394.000000;3.367320
1393.000000;3.278736
1392.000000;3.228139
1391.000000;3.203255
1390.000000;3.183112
1389.000000;3.202378
1388.000000;3.227645
1387.000000;3.139182
1386.000000;2.990317
1385.000000;2.948605
1384.000000;3.112995
1383.000000;3.107214
1382.000000;3.031139
1381.000000;3.182330
1380.000000;3.150082
1379.000000;3.120160
1378.000000;3.136313
1377.000000;3.104438
1376.000000;3.305877
1375.000000;3.463945
1374.000000;3.504181
1373.000000;4.384019
1372.000000;3.487704
1371.000000;3.439257
1370.000000;4.046474
1369.000000;3.215976
1368.000000;2.966557
1367.000000;3.074622
1366.000000;3.280661
1365.000000;3.103694
1364.000000;3.076364
1363.000000;3.405271
1362.000000;3.778422
1361.000000;3.500628
1360.000000;3.734630
1359.000000;3.651027
1358.000000;3.258152
1357.000000;3.044323
1356.000000;2.962585
1355.000000;3.278386
1354.000000;3.354963
1353.000000;3.016168
1352.000000;2.990619
1351.000000;3.063484
1350.000000;3.126117
1349.000000;3.006533
1348.000000;2.816003
1347.000000;2.757874
1346.000000;2.892720
1345.000000;3.282826
1344.000000;3.572355
1343.000000;3.660161
1342.000000;3.641670
1341.000000;3.654499
1340.000000;3.503218
1339.000000;3.216366
1338.000000;3.343927
1337.000000;3.229152
1336.000000;2.971397
1335.000000;2.926151
1334.000000;2.928316
1333.000000;2.943018
1332.000000;2.956673
1331.000000;2.966617
1330.000000;3.027897
1329.000000;3.247429
1328.000000;3.698013
1327.000000;3.506015
1326.000000;3.090779
1325.000000;2.946723
1324.000000;3.007317
1323.000000;3.156333
1322.000000;3.438526
1321.000000;3.501270
1320.000000;3.126274
1319.000000;3.052078
1318.000000;3.139610
1317.000000;3.169622
1316.000000;3.227243
1315.000000;3.594123
1314.000000;3.777179
1313.000000;3.364833
1312.000000;3.309060
1311.000000;3.365358
1310.000000;3.445274
1309.000000;3.388781
1308.000000;3.249845
1307.000000;3.234250
1306.000000;3.125119
1305.000000;2.921521
1304.000000;2.842079
1303.000000;2.828988
1302.000000;2.786922
1301.000000;2.801451
1300.000000;2.966846
1299.000000;3.105064
1298.000000;3.072017
1297.000000;3.011506
1296.000000;2.927890
1295.000000;2.883806
1294.000000;3.057892
1293.000000;3.609302
1292.000000;3.840215
1291.000000;3.696462
1290.000000;3.049208
1289.000000;2.775324
1288.000000;2.786802
1287.000000;2.962746
1286.000000;2.932362
1285.000000;2.948489
1284.000000;3.123366
1283.000000;3.017254
1282.000000;2.974024
1281.000000;3.114931
1280.000000;3.468049
1279.000000;4.118066
1278.000000;3.534058
1277.000000;3.183434
1276.000000;3.153508
1275.000000;3.348786
1274.000000;3.597892
1273.000000;3.320904
1272.000000;3.036861
1271.000000;2.901048
1270.000000;2.894919
1269.000000;2.972563
1268.000000;3.045751
1267.000000;3.144165
1266.000000;3.383522
1265.000000;3.506543
1264.000000;3.162157
1263.000000;3.003932
1262.000000;2.964634
1261.000000;2.983364
1260.000000;3.029245
1259.000000;2.926360
1258.000000;2.872673
1257.000000;3.019473
1256.000000;3.336467
1255.000000;3.666131
1254.000000;3.176012
1253.000000;2.933846
1252.000000;3.019966
1251.000000;3.145256
1250.000000;3.460047
1249.000000;3.680267
1248.000000;3.256323
1247.000000;3.186836
1246.000000;3.175179
1245.000000;3.069321
1244.000000;3.007143
1243.000000;3.004645
1242.000000;3.079519
1241.000000;3.129080
1240.000000;2.998854
1239.000000;2.862391
1238.000000;3.026313
1237.000000;3.844357
1236.000000;3.152836
1235.000000;3.075741
1234.000000;3.130459
1233.000000;2.982040
1232.000000;2.962293
1231.000000;3.230383
1230.000000;3.725455
1229.000000;3.561956
1228.000000;3.676840
1227.000000;3.476264
1226.000000;3.418155
1225.000000;3.487244
1224.000000;3.776081
1223.000000;3.398517
1222.000000;3.070807
1221.000000;2.914493
1220.000000;2.755250
1219.000000;2.718014
1218.000000;2.771383
1217.000000;2.867863
1216.000000;3.022473
1215.000000;3.124432
1214.000000;3.053073
1213.000000;3.064991
1212.000000;3.120501
1211.000000;3.276078
1210.000000;3.574190
1209.000000;3.113530
1208.000000;3.020410
1207.000000;3.248300
1206.000000;3.502302
1205.000000;3.149102
1204.000000;2.908401
1203.000000;2.910092
1202.000000;3.011868
1201.000000;3.048649
1200.000000;3.081441
