Criado como novo conjunto de dados;"1909daniel.spp","-4283984.7 Secs"
cm-1;Abs
10000.000000;1.088499
9999.000000;1.086916
9998.000000;1.085323
9997.000000;1.083765
9996.000000;1.082133
9995.000000;1.080777
9994.000000;1.079960
9993.000000;1.079502
9992.000000;1.079212
9991.000000;1.078826
9990.000000;1.078226
9989.000000;1.077461
9988.000000;1.076554
9987.000000;1.075404
9986.000000;1.074109
9985.000000;1.073077
9984.000000;1.072515
9983.000000;1.072074
9982.000000;1.071350
9981.000000;1.070502
9980.000000;1.069944
9979.000000;1.069592
9978.000000;1.068982
9977.000000;1.068026
9976.000000;1.067096
9975.000000;1.066352
9974.000000;1.065517
9973.000000;1.064459
9972.000000;1.063514
9971.000000;1.062991
9970.000000;1.062706
9969.000000;1.062236
9968.000000;1.061412
9967.000000;1.060339
9966.000000;1.059164
9965.000000;1.058060
9964.000000;1.057276
9963.000000;1.056916
9962.000000;1.056693
9961.000000;1.056136
9960.000000;1.055107
9959.000000;1.053990
9958.000000;1.053326
9957.000000;1.053321
9956.000000;1.053767
9955.000000;1.054344
9954.000000;1.054819
9953.000000;1.054920
9952.000000;1.054293
9951.000000;1.052866
9950.000000;1.051132
9949.000000;1.049677
9948.000000;1.048452
9947.000000;1.046913
9946.000000;1.044981
9945.000000;1.043421
9944.000000;1.042956
9943.000000;1.043331
9942.000000;1.043634
9941.000000;1.043351
9940.000000;1.042715
9939.000000;1.042195
9938.000000;1.042062
9937.000000;1.042392
9936.000000;1.043025
9935.000000;1.043413
9934.000000;1.042901
9933.000000;1.041354
9932.000000;1.039320
9931.000000;1.037523
9930.000000;1.036358
9929.000000;1.035805
9928.000000;1.035482
9927.000000;1.034731
9926.000000;1.033036
9925.000000;1.030599
9924.000000;1.028331
9923.000000;1.027076
9922.000000;1.026932
9921.000000;1.027399
9920.000000;1.027959
9919.000000;1.028351
9918.000000;1.028456
9917.000000;1.028174
9916.000000;1.027500
9915.000000;1.026603
9914.000000;1.025746
9913.000000;1.025095
9912.000000;1.024561
9911.000000;1.023867
9910.000000;1.022878
9909.000000;1.021818
9908.000000;1.021021
9907.000000;1.020459
9906.000000;1.019690
9905.000000;1.018373
9904.000000;1.016689
9903.000000;1.015153
9902.000000;1.014129
9901.000000;1.013689
9900.000000;1.013814
9899.000000;1.014472
9898.000000;1.015379
9897.000000;1.015896
9896.000000;1.015453
9895.000000;1.014153
9894.000000;1.012751
9893.000000;1.011918
9892.000000;1.011610
9891.000000;1.011265
9890.000000;1.010505
9889.000000;1.009402
9888.000000;1.008081
9887.000000;1.006421
9886.000000;1.004381
9885.000000;1.002412
9884.000000;1.001206
9883.000000;1.001016
9882.000000;1.001375
9881.000000;1.001564
9880.000000;1.001253
9879.000000;1.000635
9878.000000;1.000043
9877.000000;0.999554
9876.000000;0.998966
9875.000000;0.998109
9874.000000;0.997067
9873.000000;0.996094
9872.000000;0.995396
9871.000000;0.995060
9870.000000;0.995083
9869.000000;0.995288
9868.000000;0.995241
9867.000000;0.994509
9866.000000;0.993066
9865.000000;0.991333
9864.000000;0.989766
9863.000000;0.988541
9862.000000;0.987685
9861.000000;0.987283
9860.000000;0.987349
9859.000000;0.987600
9858.000000;0.987526
9857.000000;0.986723
9856.000000;0.985157
9855.000000;0.983238
9854.000000;0.981647
9853.000000;0.980905
9852.000000;0.980920
9851.000000;0.981011
9850.000000;0.980516
9849.000000;0.979384
9848.000000;0.978078
9847.000000;0.977039
9846.000000;0.976362
9845.000000;0.975872
9844.000000;0.975350
9843.000000;0.974677
9842.000000;0.973898
9841.000000;0.973179
9840.000000;0.972681
9839.000000;0.972503
9838.000000;0.972628
9837.000000;0.972792
9836.000000;0.972480
9835.000000;0.971354
9834.000000;0.969770
9833.000000;0.968568
9832.000000;0.968192
9831.000000;0.968224
9830.000000;0.967969
9829.000000;0.967238
9828.000000;0.966305
9827.000000;0.965326
9826.000000;0.964207
9825.000000;0.962995
9824.000000;0.962006
9823.000000;0.961475
9822.000000;0.961303
9821.000000;0.961211
9820.000000;0.960975
9819.000000;0.960460
9818.000000;0.959599
9817.000000;0.958458
9816.000000;0.957245
9815.000000;0.956198
9814.000000;0.955473
9813.000000;0.955100
9812.000000;0.954943
9811.000000;0.954763
9810.000000;0.954399
9809.000000;0.953873
9808.000000;0.953235
9807.000000;0.952364
9806.000000;0.951056
9805.000000;0.949303
9804.000000;0.947432
9803.000000;0.945956
9802.000000;0.945287
9801.000000;0.945444
9800.000000;0.945952
9799.000000;0.946122
9798.000000;0.945605
9797.000000;0.944639
9796.000000;0.943758
9795.000000;0.943312
9794.000000;0.943288
9793.000000;0.943377
9792.000000;0.943151
9791.000000;0.942346
9790.000000;0.941134
9789.000000;0.939992
9788.000000;0.939187
9787.000000;0.938519
9786.000000;0.937655
9785.000000;0.936558
9784.000000;0.935476
9783.000000;0.934685
9782.000000;0.934368
9781.000000;0.934524
9780.000000;0.934810
9779.000000;0.934677
9778.000000;0.933896
9777.000000;0.932786
9776.000000;0.931703
9775.000000;0.930557
9774.000000;0.929105
9773.000000;0.927477
9772.000000;0.926025
9771.000000;0.924807
9770.000000;0.923646
9769.000000;0.922583
9768.000000;0.921859
9767.000000;0.921461
9766.000000;0.921082
9765.000000;0.920593
9764.000000;0.920193
9763.000000;0.920024
9762.000000;0.919965
9761.000000;0.919892
9760.000000;0.919806
9759.000000;0.919621
9758.000000;0.919136
9757.000000;0.918383
9756.000000;0.917742
9755.000000;0.917491
9754.000000;0.917413
9753.000000;0.917017
9752.000000;0.916016
9751.000000;0.914504
9750.000000;0.912817
9749.000000;0.911339
9748.000000;0.910289
9747.000000;0.909527
9746.000000;0.908671
9745.000000;0.907524
9744.000000;0.906325
9743.000000;0.905488
9742.000000;0.905177
9741.000000;0.905200
9740.000000;0.905225
9739.000000;0.905046
9738.000000;0.904680
9737.000000;0.904268
9736.000000;0.903854
9735.000000;0.903288
9734.000000;0.902413
9733.000000;0.901276
9732.000000;0.900032
9731.000000;0.898740
9730.000000;0.897414
9729.000000;0.896212
9728.000000;0.895368
9727.000000;0.894956
9726.000000;0.894875
9725.000000;0.895011
9724.000000;0.895194
9723.000000;0.895106
9722.000000;0.894481
9721.000000;0.893442
9720.000000;0.892376
9719.000000;0.891497
9718.000000;0.890765
9717.000000;0.890217
9716.000000;0.890004
9715.000000;0.889999
9714.000000;0.889722
9713.000000;0.888869
9712.000000;0.887706
9711.000000;0.886717
9710.000000;0.886040
9709.000000;0.885407
9708.000000;0.884509
9707.000000;0.883260
9706.000000;0.881818
9705.000000;0.880530
9704.000000;0.879756
9703.000000;0.879565
9702.000000;0.879674
9701.000000;0.879793
9700.000000;0.879924
9699.000000;0.880173
9698.000000;0.880374
9697.000000;0.880111
9696.000000;0.879125
9695.000000;0.877578
9694.000000;0.875892
9693.000000;0.874387
9692.000000;0.873079
9691.000000;0.871826
9690.000000;0.870653
9689.000000;0.869851
9688.000000;0.869675
9687.000000;0.869965
9686.000000;0.870239
9685.000000;0.870151
9684.000000;0.869737
9683.000000;0.869176
9682.000000;0.868518
9681.000000;0.867764
9680.000000;0.867032
9679.000000;0.866473
9678.000000;0.866072
9677.000000;0.865632
9676.000000;0.864947
9675.000000;0.863960
9674.000000;0.862810
9673.000000;0.861712
9672.000000;0.860743
9671.000000;0.859755
9670.000000;0.858597
9669.000000;0.857394
9668.000000;0.856464
9667.000000;0.855939
9666.000000;0.855630
9665.000000;0.855288
9664.000000;0.854866
9663.000000;0.854450
9662.000000;0.854088
9661.000000;0.853788
9660.000000;0.853577
9659.000000;0.853447
9658.000000;0.853267
9657.000000;0.852832
9656.000000;0.851992
9655.000000;0.850772
9654.000000;0.849398
9653.000000;0.848184
9652.000000;0.847291
9651.000000;0.846595
9650.000000;0.845869
9649.000000;0.845056
9648.000000;0.844293
9647.000000;0.843722
9646.000000;0.843353
9645.000000;0.843080
9644.000000;0.842700
9643.000000;0.841987
9642.000000;0.840902
9641.000000;0.839672
9640.000000;0.838578
9639.000000;0.837748
9638.000000;0.837230
9637.000000;0.837032
9636.000000;0.836902
9635.000000;0.836337
9634.000000;0.835167
9633.000000;0.833961
9632.000000;0.833386
9631.000000;0.833309
9630.000000;0.833038
9629.000000;0.832394
9628.000000;0.831919
9627.000000;0.831912
9626.000000;0.831911
9625.000000;0.831440
9624.000000;0.830691
9623.000000;0.830054
9622.000000;0.829435
9621.000000;0.828566
9620.000000;0.827659
9619.000000;0.827156
9618.000000;0.826997
9617.000000;0.826656
9616.000000;0.825873
9615.000000;0.824905
9614.000000;0.824029
9613.000000;0.823163
9612.000000;0.822115
9611.000000;0.820916
9610.000000;0.819825
9609.000000;0.819121
9608.000000;0.818898
9607.000000;0.818904
9606.000000;0.818657
9605.000000;0.817891
9604.000000;0.816839
9603.000000;0.815933
9602.000000;0.815308
9601.000000;0.814811
9600.000000;0.814368
9599.000000;0.814056
9598.000000;0.813830
9597.000000;0.813430
9596.000000;0.812652
9595.000000;0.811582
9594.000000;0.810521
9593.000000;0.809771
9592.000000;0.809410
9591.000000;0.809162
9590.000000;0.808584
9589.000000;0.807551
9588.000000;0.806463
9587.000000;0.805761
9586.000000;0.805390
9585.000000;0.804969
9584.000000;0.804378
9583.000000;0.803814
9582.000000;0.803331
9581.000000;0.802712
9580.000000;0.801924
9579.000000;0.801311
9578.000000;0.801153
9577.000000;0.801266
9576.000000;0.801213
9575.000000;0.800754
9574.000000;0.799913
9573.000000;0.798804
9572.000000;0.797571
9571.000000;0.796418
9570.000000;0.795503
9569.000000;0.794820
9568.000000;0.794267
9567.000000;0.793764
9566.000000;0.793231
9565.000000;0.792572
9564.000000;0.791809
9563.000000;0.791152
9562.000000;0.790791
9561.000000;0.790643
9560.000000;0.790432
9559.000000;0.789983
9558.000000;0.789342
9557.000000;0.788639
9556.000000;0.787962
9555.000000;0.787371
9554.000000;0.786882
9553.000000;0.786389
9552.000000;0.785718
9551.000000;0.784855
9550.000000;0.784026
9549.000000;0.783477
9548.000000;0.783208
9547.000000;0.783022
9546.000000;0.782797
9545.000000;0.782577
9544.000000;0.782353
9543.000000;0.781925
9542.000000;0.781089
9541.000000;0.779891
9540.000000;0.778614
9539.000000;0.777545
9538.000000;0.776836
9537.000000;0.776508
9536.000000;0.776415
9535.000000;0.776231
9534.000000;0.775641
9533.000000;0.774637
9532.000000;0.773519
9531.000000;0.772566
9530.000000;0.771796
9529.000000;0.771050
9528.000000;0.770220
9527.000000;0.769334
9526.000000;0.768500
9525.000000;0.767792
9524.000000;0.767155
9523.000000;0.766455
9522.000000;0.765674
9521.000000;0.765009
9520.000000;0.764644
9519.000000;0.764478
9518.000000;0.764273
9517.000000;0.764015
9516.000000;0.763892
9515.000000;0.763896
9514.000000;0.763724
9513.000000;0.763181
9512.000000;0.762428
9511.000000;0.761703
9510.000000;0.761027
9509.000000;0.760340
9508.000000;0.759682
9507.000000;0.759048
9506.000000;0.758262
9505.000000;0.757226
9504.000000;0.756174
9503.000000;0.755460
9502.000000;0.755205
9501.000000;0.755289
9500.000000;0.755533
9499.000000;0.755698
9498.000000;0.755505
9497.000000;0.754926
9496.000000;0.754304
9495.000000;0.753942
9494.000000;0.753698
9493.000000;0.753257
9492.000000;0.752637
9491.000000;0.752068
9490.000000;0.751496
9489.000000;0.750644
9488.000000;0.749536
9487.000000;0.748535
9486.000000;0.747795
9485.000000;0.747054
9484.000000;0.746099
9483.000000;0.745108
9482.000000;0.744359
9481.000000;0.743886
9480.000000;0.743591
9479.000000;0.743423
9478.000000;0.743261
9477.000000;0.742834
9476.000000;0.741987
9475.000000;0.740906
9474.000000;0.739904
9473.000000;0.739139
9472.000000;0.738641
9471.000000;0.738431
9470.000000;0.738384
9469.000000;0.738139
9468.000000;0.737398
9467.000000;0.736319
9466.000000;0.735450
9465.000000;0.735239
9464.000000;0.735623
9463.000000;0.736055
9462.000000;0.735901
9461.000000;0.734959
9460.000000;0.733650
9459.000000;0.732596
9458.000000;0.731980
9457.000000;0.731447
9456.000000;0.730660
9455.000000;0.729708
9454.000000;0.728864
9453.000000;0.728205
9452.000000;0.727671
9451.000000;0.727322
9450.000000;0.727219
9449.000000;0.727172
9448.000000;0.726882
9447.000000;0.726321
9446.000000;0.725711
9445.000000;0.725157
9444.000000;0.724538
9443.000000;0.723817
9442.000000;0.723210
9441.000000;0.722918
9440.000000;0.722840
9439.000000;0.722686
9438.000000;0.722302
9437.000000;0.721778
9436.000000;0.721285
9435.000000;0.720873
9434.000000;0.720445
9433.000000;0.719903
9432.000000;0.719256
9431.000000;0.718558
9430.000000;0.717737
9429.000000;0.716613
9428.000000;0.715197
9427.000000;0.713861
9426.000000;0.713049
9425.000000;0.712813
9424.000000;0.712773
9423.000000;0.712548
9422.000000;0.712125
9421.000000;0.711767
9420.000000;0.711666
9419.000000;0.711715
9418.000000;0.711605
9417.000000;0.711122
9416.000000;0.710375
9415.000000;0.709688
9414.000000;0.709199
9413.000000;0.708663
9412.000000;0.707770
9411.000000;0.706620
9410.000000;0.705678
9409.000000;0.705283
9408.000000;0.705374
9407.000000;0.705683
9406.000000;0.705949
9405.000000;0.705845
9404.000000;0.705030
9403.000000;0.703563
9402.000000;0.702129
9401.000000;0.701488
9400.000000;0.701670
9399.000000;0.701919
9398.000000;0.701491
9397.000000;0.700353
9396.000000;0.699066
9395.000000;0.698179
9394.000000;0.697845
9393.000000;0.697838
9392.000000;0.697751
9391.000000;0.697276
9390.000000;0.696460
9389.000000;0.695694
9388.000000;0.695319
9387.000000;0.695295
9386.000000;0.695322
9385.000000;0.695216
9384.000000;0.695007
9383.000000;0.694693
9382.000000;0.694151
9381.000000;0.693369
9380.000000;0.692601
9379.000000;0.692105
9378.000000;0.691813
9377.000000;0.691405
9376.000000;0.690711
9375.000000;0.689883
9374.000000;0.689175
9373.000000;0.688663
9372.000000;0.688251
9371.000000;0.687862
9370.000000;0.687510
9369.000000;0.687205
9368.000000;0.686865
9367.000000;0.686364
9366.000000;0.685653
9365.000000;0.684813
9364.000000;0.683992
9363.000000;0.683287
9362.000000;0.682685
9361.000000;0.682126
9360.000000;0.681587
9359.000000;0.681105
9358.000000;0.680757
9357.000000;0.680620
9356.000000;0.680707
9355.000000;0.680885
9354.000000;0.680897
9353.000000;0.680524
9352.000000;0.679747
9351.000000;0.678732
9350.000000;0.677689
9349.000000;0.676784
9348.000000;0.676125
9347.000000;0.675714
9346.000000;0.675376
9345.000000;0.674881
9344.000000;0.674174
9343.000000;0.673470
9342.000000;0.673040
9341.000000;0.672940
9340.000000;0.672974
9339.000000;0.672884
9338.000000;0.672576
9337.000000;0.672156
9336.000000;0.671781
9335.000000;0.671440
9334.000000;0.670913
9333.000000;0.670006
9332.000000;0.668843
9331.000000;0.667834
9330.000000;0.667318
9329.000000;0.667263
9328.000000;0.667338
9327.000000;0.667189
9326.000000;0.666648
9325.000000;0.665797
9324.000000;0.664924
9323.000000;0.664339
9322.000000;0.664143
9321.000000;0.664196
9320.000000;0.664300
9319.000000;0.664312
9318.000000;0.664068
9317.000000;0.663410
9316.000000;0.662420
9315.000000;0.661445
9314.000000;0.660717
9313.000000;0.660092
9312.000000;0.659396
9311.000000;0.658849
9310.000000;0.658767
9309.000000;0.658919
9308.000000;0.658595
9307.000000;0.657482
9306.000000;0.656129
9305.000000;0.655335
9304.000000;0.655330
9303.000000;0.655751
9302.000000;0.656198
9301.000000;0.656481
9300.000000;0.656475
9299.000000;0.656104
9298.000000;0.655487
9297.000000;0.654824
9296.000000;0.654100
9295.000000;0.653124
9294.000000;0.651939
9293.000000;0.650981
9292.000000;0.650710
9291.000000;0.651152
9290.000000;0.651862
9289.000000;0.652253
9288.000000;0.651972
9287.000000;0.651110
9286.000000;0.650143
9285.000000;0.649546
9284.000000;0.649407
9283.000000;0.649441
9282.000000;0.649346
9281.000000;0.649034
9280.000000;0.648537
9279.000000;0.647870
9278.000000;0.647100
9277.000000;0.646387
9276.000000;0.645821
9275.000000;0.645315
9274.000000;0.644778
9273.000000;0.644307
9272.000000;0.644062
9271.000000;0.643990
9270.000000;0.643842
9269.000000;0.643451
9268.000000;0.642859
9267.000000;0.642146
9266.000000;0.641306
9265.000000;0.640376
9264.000000;0.639592
9263.000000;0.639265
9262.000000;0.639476
9261.000000;0.639949
9260.000000;0.640255
9259.000000;0.640121
9258.000000;0.639546
9257.000000;0.638680
9256.000000;0.637684
9255.000000;0.636730
9254.000000;0.636010
9253.000000;0.635602
9252.000000;0.635345
9251.000000;0.634991
9250.000000;0.634521
9249.000000;0.634192
9248.000000;0.634189
9247.000000;0.634349
9246.000000;0.634343
9245.000000;0.634056
9244.000000;0.633665
9243.000000;0.633355
9242.000000;0.633102
9241.000000;0.632750
9240.000000;0.632210
9239.000000;0.631557
9238.000000;0.630983
9237.000000;0.630649
9236.000000;0.630503
9235.000000;0.630295
9234.000000;0.629871
9233.000000;0.629420
9232.000000;0.629266
9231.000000;0.629387
9230.000000;0.629306
9229.000000;0.628586
9228.000000;0.627306
9227.000000;0.625946
9226.000000;0.624899
9225.000000;0.624254
9224.000000;0.623974
9223.000000;0.624028
9222.000000;0.624313
9221.000000;0.624590
9220.000000;0.624640
9219.000000;0.624428
9218.000000;0.624072
9217.000000;0.623683
9216.000000;0.623297
9215.000000;0.622916
9214.000000;0.622551
9213.000000;0.622195
9212.000000;0.621815
9211.000000;0.621390
9210.000000;0.620963
9209.000000;0.620628
9208.000000;0.620438
9207.000000;0.620329
9206.000000;0.620171
9205.000000;0.619918
9204.000000;0.619644
9203.000000;0.619396
9202.000000;0.619082
9201.000000;0.618615
9200.000000;0.618140
9199.000000;0.617964
9198.000000;0.618186
9197.000000;0.618507
9196.000000;0.618475
9195.000000;0.617862
9194.000000;0.616754
9193.000000;0.615397
9192.000000;0.614085
9191.000000;0.613111
9190.000000;0.612653
9189.000000;0.612660
9188.000000;0.612926
9187.000000;0.613275
9186.000000;0.613597
9185.000000;0.613737
9184.000000;0.613537
9183.000000;0.613023
9182.000000;0.612462
9181.000000;0.612118
9180.000000;0.612004
9179.000000;0.611907
9178.000000;0.611619
9177.000000;0.611112
9176.000000;0.610541
9175.000000;0.610086
9174.000000;0.609765
9173.000000;0.609388
9172.000000;0.608788
9171.000000;0.608078
9170.000000;0.607561
9169.000000;0.607369
9168.000000;0.607351
9167.000000;0.607346
9166.000000;0.607409
9165.000000;0.607606
9164.000000;0.607731
9163.000000;0.607444
9162.000000;0.606669
9161.000000;0.605687
9160.000000;0.604848
9159.000000;0.604291
9158.000000;0.603941
9157.000000;0.603650
9156.000000;0.603309
9155.000000;0.602908
9154.000000;0.602518
9153.000000;0.602175
9152.000000;0.601798
9151.000000;0.601316
9150.000000;0.600815
9149.000000;0.600451
9148.000000;0.600237
9147.000000;0.600052
9146.000000;0.599855
9145.000000;0.599755
9144.000000;0.599813
9143.000000;0.599913
9142.000000;0.599896
9141.000000;0.599757
9140.000000;0.599608
9139.000000;0.599497
9138.000000;0.599338
9137.000000;0.599007
9136.000000;0.598505
9135.000000;0.597981
9134.000000;0.597582
9133.000000;0.597259
9132.000000;0.596823
9131.000000;0.596241
9130.000000;0.595759
9129.000000;0.595601
9128.000000;0.595628
9127.000000;0.595498
9126.000000;0.595101
9125.000000;0.594659
9124.000000;0.594396
9123.000000;0.594336
9122.000000;0.594446
9121.000000;0.594741
9120.000000;0.595138
9119.000000;0.595394
9118.000000;0.595344
9117.000000;0.595070
9116.000000;0.594688
9115.000000;0.594154
9114.000000;0.593420
9113.000000;0.592664
9112.000000;0.592129
9111.000000;0.591802
9110.000000;0.591420
9109.000000;0.590836
9108.000000;0.590233
9107.000000;0.589948
9106.000000;0.590141
9105.000000;0.590637
9104.000000;0.591017
9103.000000;0.590910
9102.000000;0.590295
9101.000000;0.589504
9100.000000;0.588872
9099.000000;0.588425
9098.000000;0.587971
9097.000000;0.587419
9096.000000;0.586885
9095.000000;0.586507
9094.000000;0.586287
9093.000000;0.586133
9092.000000;0.585961
9091.000000;0.585742
9090.000000;0.585483
9089.000000;0.585218
9088.000000;0.584980
9087.000000;0.584764
9086.000000;0.584525
9085.000000;0.584177
9084.000000;0.583639
9083.000000;0.582961
9082.000000;0.582404
9081.000000;0.582254
9080.000000;0.582475
9079.000000;0.582665
9078.000000;0.582480
9077.000000;0.582026
9076.000000;0.581663
9075.000000;0.581498
9074.000000;0.581265
9073.000000;0.580775
9072.000000;0.580262
9071.000000;0.580155
9070.000000;0.580568
9069.000000;0.581147
9068.000000;0.581423
9067.000000;0.581244
9066.000000;0.580807
9065.000000;0.580342
9064.000000;0.579847
9063.000000;0.579192
9062.000000;0.578400
9061.000000;0.577715
9060.000000;0.577361
9059.000000;0.577300
9058.000000;0.577298
9057.000000;0.577167
9056.000000;0.576896
9055.000000;0.576586
9054.000000;0.576342
9053.000000;0.576204
9052.000000;0.576144
9051.000000;0.576094
9050.000000;0.575989
9049.000000;0.575773
9048.000000;0.575426
9047.000000;0.575066
9046.000000;0.574964
9045.000000;0.575284
9044.000000;0.575785
9043.000000;0.575979
9042.000000;0.575681
9041.000000;0.575238
9040.000000;0.575052
9039.000000;0.575026
9038.000000;0.574717
9037.000000;0.573962
9036.000000;0.573067
9035.000000;0.572376
9034.000000;0.571899
9033.000000;0.571478
9032.000000;0.571130
9031.000000;0.571009
9030.000000;0.571109
9029.000000;0.571186
9028.000000;0.571019
9027.000000;0.570696
9026.000000;0.570533
9025.000000;0.570701
9024.000000;0.570977
9023.000000;0.570947
9022.000000;0.570477
9021.000000;0.569869
9020.000000;0.569471
9019.000000;0.569252
9018.000000;0.568917
9017.000000;0.568366
9016.000000;0.567829
9015.000000;0.567542
9014.000000;0.567489
9013.000000;0.567562
9012.000000;0.567762
9011.000000;0.568103
9010.000000;0.568416
9009.000000;0.568405
9008.000000;0.567907
9007.000000;0.567005
9006.000000;0.565940
9005.000000;0.564978
9004.000000;0.564301
9003.000000;0.563914
9002.000000;0.563637
9001.000000;0.563300
9000.000000;0.562978
8999.000000;0.562985
8998.000000;0.563570
8997.000000;0.564625
8996.000000;0.565686
8995.000000;0.566242
8994.000000;0.566089
8993.000000;0.565420
8992.000000;0.564584
8991.000000;0.563789
8990.000000;0.563038
8989.000000;0.562328
8988.000000;0.561772
8987.000000;0.561479
8986.000000;0.561383
8985.000000;0.561295
8984.000000;0.561107
8983.000000;0.560887
8982.000000;0.560770
8981.000000;0.560841
8980.000000;0.561092
8979.000000;0.561421
8978.000000;0.561666
8977.000000;0.561724
8976.000000;0.561666
8975.000000;0.561648
8974.000000;0.561689
8973.000000;0.561625
8972.000000;0.561328
8971.000000;0.560879
8970.000000;0.560439
8969.000000;0.560037
8968.000000;0.559620
8967.000000;0.559221
8966.000000;0.558925
8965.000000;0.558679
8964.000000;0.558353
8963.000000;0.558024
8962.000000;0.557991
8961.000000;0.558376
8960.000000;0.558859
8959.000000;0.558975
8958.000000;0.558604
8957.000000;0.558018
8956.000000;0.557507
8955.000000;0.557161
8954.000000;0.556966
8953.000000;0.556903
8952.000000;0.556891
8951.000000;0.556774
8950.000000;0.556487
8949.000000;0.556156
8948.000000;0.555981
8947.000000;0.556087
8946.000000;0.556444
8945.000000;0.556850
8944.000000;0.556964
8943.000000;0.556539
8942.000000;0.555695
8941.000000;0.554883
8940.000000;0.554472
8939.000000;0.554445
8938.000000;0.554516
8937.000000;0.554442
8936.000000;0.554170
8935.000000;0.553827
8934.000000;0.553632
8933.000000;0.553714
8932.000000;0.553904
8931.000000;0.553827
8930.000000;0.553308
8929.000000;0.552612
8928.000000;0.552142
8927.000000;0.552016
8926.000000;0.552067
8925.000000;0.552165
8924.000000;0.552329
8923.000000;0.552527
8922.000000;0.552629
8921.000000;0.552608
8920.000000;0.552643
8919.000000;0.552897
8918.000000;0.553274
8917.000000;0.553477
8916.000000;0.553267
8915.000000;0.552651
8914.000000;0.551892
8913.000000;0.551374
8912.000000;0.551350
8911.000000;0.551715
8910.000000;0.552042
8909.000000;0.551934
8908.000000;0.551392
8907.000000;0.550830
8906.000000;0.550709
8905.000000;0.551104
8904.000000;0.551619
8903.000000;0.551737
8902.000000;0.551256
8901.000000;0.550393
8900.000000;0.549504
8899.000000;0.548816
8898.000000;0.548414
8897.000000;0.548333
8896.000000;0.548502
8895.000000;0.548677
8894.000000;0.548609
8893.000000;0.548330
8892.000000;0.548141
8891.000000;0.548271
8890.000000;0.548618
8889.000000;0.548871
8888.000000;0.548798
8887.000000;0.548382
8886.000000;0.547752
8885.000000;0.547097
8884.000000;0.546634
8883.000000;0.546540
8882.000000;0.546852
8881.000000;0.547402
8880.000000;0.547900
8879.000000;0.548099
8878.000000;0.547938
8877.000000;0.547547
8876.000000;0.547126
8875.000000;0.546830
8874.000000;0.546734
8873.000000;0.546810
8872.000000;0.546906
8871.000000;0.546823
8870.000000;0.546518
8869.000000;0.546197
8868.000000;0.546125
8867.000000;0.546349
8866.000000;0.546655
8865.000000;0.546806
8864.000000;0.546723
8863.000000;0.546473
8862.000000;0.546183
8861.000000;0.546018
8860.000000;0.546106
8859.000000;0.546400
8858.000000;0.546660
8857.000000;0.546660
8856.000000;0.546417
8855.000000;0.546151
8854.000000;0.546044
8853.000000;0.546064
8852.000000;0.546042
8851.000000;0.545841
8850.000000;0.545470
8849.000000;0.545080
8848.000000;0.544862
8847.000000;0.544916
8846.000000;0.545182
8845.000000;0.545510
8844.000000;0.545798
8843.000000;0.546048
8842.000000;0.546291
8841.000000;0.546478
8840.000000;0.546495
8839.000000;0.546271
8838.000000;0.545850
8837.000000;0.545359
8836.000000;0.544914
8835.000000;0.544580
8834.000000;0.544386
8833.000000;0.544346
8832.000000;0.544449
8831.000000;0.544667
8830.000000;0.544962
8829.000000;0.545314
8828.000000;0.545712
8827.000000;0.546124
8826.000000;0.546459
8825.000000;0.546581
8824.000000;0.546366
8823.000000;0.545807
8822.000000;0.545066
8821.000000;0.544439
8820.000000;0.544211
8819.000000;0.544495
8818.000000;0.545122
8817.000000;0.545698
8816.000000;0.545824
8815.000000;0.545349
8814.000000;0.544468
8813.000000;0.543582
8812.000000;0.543050
8811.000000;0.543008
8810.000000;0.543346
8809.000000;0.543849
8808.000000;0.544387
8807.000000;0.544974
8806.000000;0.545631
8805.000000;0.546224
8804.000000;0.546539
8803.000000;0.546505
8802.000000;0.546275
8801.000000;0.546028
8800.000000;0.545795
8799.000000;0.545561
8798.000000;0.545448
8797.000000;0.545646
8796.000000;0.546180
8795.000000;0.546838
8794.000000;0.547359
8793.000000;0.547599
8792.000000;0.547540
8791.000000;0.547253
8790.000000;0.546918
8789.000000;0.546787
8788.000000;0.547007
8787.000000;0.547468
8786.000000;0.547885
8785.000000;0.548038
8784.000000;0.547958
8783.000000;0.547879
8782.000000;0.547996
8781.000000;0.548275
8780.000000;0.548515
8779.000000;0.548606
8778.000000;0.548650
8777.000000;0.548821
8776.000000;0.549150
8775.000000;0.549504
8774.000000;0.549714
8773.000000;0.549686
8772.000000;0.549469
8771.000000;0.549285
8770.000000;0.549382
8769.000000;0.549755
8768.000000;0.550085
8767.000000;0.550103
8766.000000;0.549931
8765.000000;0.549906
8764.000000;0.550110
8763.000000;0.550316
8762.000000;0.550396
8761.000000;0.550543
8760.000000;0.550989
8759.000000;0.551690
8758.000000;0.552387
8757.000000;0.552865
8756.000000;0.553049
8755.000000;0.552981
8754.000000;0.552833
8753.000000;0.552822
8752.000000;0.552986
8751.000000;0.553105
8750.000000;0.552944
8749.000000;0.552491
8748.000000;0.551898
8747.000000;0.551292
8746.000000;0.550780
8745.000000;0.550533
8744.000000;0.550722
8743.000000;0.551361
8742.000000;0.552293
8741.000000;0.553269
8740.000000;0.554006
8739.000000;0.554269
8738.000000;0.554086
8737.000000;0.553827
8736.000000;0.553914
8735.000000;0.554406
8734.000000;0.554966
8733.000000;0.555224
8732.000000;0.555107
8731.000000;0.554837
8730.000000;0.554696
8729.000000;0.554806
8728.000000;0.555069
8727.000000;0.555318
8726.000000;0.555526
8725.000000;0.555794
8724.000000;0.556114
8723.000000;0.556270
8722.000000;0.556132
8721.000000;0.555930
8720.000000;0.556028
8719.000000;0.556446
8718.000000;0.556822
8717.000000;0.556883
8716.000000;0.556766
8715.000000;0.556769
8714.000000;0.556961
8713.000000;0.557197
8712.000000;0.557414
8711.000000;0.557698
8710.000000;0.558058
8709.000000;0.558319
8708.000000;0.558334
8707.000000;0.558219
8706.000000;0.558248
8705.000000;0.558527
8704.000000;0.558873
8703.000000;0.559048
8702.000000;0.559023
8701.000000;0.558930
8700.000000;0.558837
8699.000000;0.558701
8698.000000;0.558555
8697.000000;0.558590
8696.000000;0.558933
8695.000000;0.559453
8694.000000;0.559896
8693.000000;0.560194
8692.000000;0.560534
8691.000000;0.561059
8690.000000;0.561614
8689.000000;0.561849
8688.000000;0.561600
8687.000000;0.561120
8686.000000;0.560870
8685.000000;0.561043
8684.000000;0.561311
8683.000000;0.561133
8682.000000;0.560312
8681.000000;0.559217
8680.000000;0.558435
8679.000000;0.558295
8678.000000;0.558708
8677.000000;0.559354
8676.000000;0.559941
8675.000000;0.560367
8674.000000;0.560738
8673.000000;0.561224
8672.000000;0.561824
8671.000000;0.562309
8670.000000;0.562453
8669.000000;0.562260
8668.000000;0.561908
8667.000000;0.561555
8666.000000;0.561290
8665.000000;0.561195
8664.000000;0.561289
8663.000000;0.561417
8662.000000;0.561340
8661.000000;0.560992
8660.000000;0.560548
8659.000000;0.560238
8658.000000;0.560158
8657.000000;0.560254
8656.000000;0.560412
8655.000000;0.560540
8654.000000;0.560650
8653.000000;0.560863
8652.000000;0.561243
8651.000000;0.561611
8650.000000;0.561675
8649.000000;0.561379
8648.000000;0.560991
8647.000000;0.560785
8646.000000;0.560743
8645.000000;0.560674
8644.000000;0.560501
8643.000000;0.560301
8642.000000;0.560139
8641.000000;0.560032
8640.000000;0.560055
8639.000000;0.560297
8638.000000;0.560695
8637.000000;0.561022
8636.000000;0.561109
8635.000000;0.560987
8634.000000;0.560773
8633.000000;0.560520
8632.000000;0.560238
8631.000000;0.559979
8630.000000;0.559820
8629.000000;0.559805
8628.000000;0.559953
8627.000000;0.560262
8626.000000;0.560649
8625.000000;0.560922
8624.000000;0.560932
8623.000000;0.560713
8622.000000;0.560408
8621.000000;0.560078
8620.000000;0.559702
8619.000000;0.559350
8618.000000;0.559241
8617.000000;0.559517
8616.000000;0.560049
8615.000000;0.560525
8614.000000;0.560714
8613.000000;0.560604
8612.000000;0.560332
8611.000000;0.560026
8610.000000;0.559733
8609.000000;0.559441
8608.000000;0.559182
8607.000000;0.559077
8606.000000;0.559212
8605.000000;0.559483
8604.000000;0.559634
8603.000000;0.559519
8602.000000;0.559239
8601.000000;0.558972
8600.000000;0.558765
8599.000000;0.558584
8598.000000;0.558491
8597.000000;0.558620
8596.000000;0.558975
8595.000000;0.559374
8594.000000;0.559627
8593.000000;0.559684
8592.000000;0.559592
8591.000000;0.559405
8590.000000;0.559179
8589.000000;0.558964
8588.000000;0.558755
8587.000000;0.558480
8586.000000;0.558097
8585.000000;0.557672
8584.000000;0.557321
8583.000000;0.557097
8582.000000;0.556964
8581.000000;0.556858
8580.000000;0.556740
8579.000000;0.556610
8578.000000;0.556476
8577.000000;0.556331
8576.000000;0.556147
8575.000000;0.555911
8574.000000;0.555665
8573.000000;0.555485
8572.000000;0.555427
8571.000000;0.555493
8570.000000;0.555631
8569.000000;0.555784
8568.000000;0.555935
8567.000000;0.556099
8566.000000;0.556253
8565.000000;0.556301
8564.000000;0.556178
8563.000000;0.555993
8562.000000;0.555955
8561.000000;0.556130
8560.000000;0.556353
8559.000000;0.556440
8558.000000;0.556381
8557.000000;0.556263
8556.000000;0.556104
8555.000000;0.555869
8554.000000;0.555566
8553.000000;0.555213
8552.000000;0.554798
8551.000000;0.554388
8550.000000;0.554184
8549.000000;0.554307
8548.000000;0.554602
8547.000000;0.554822
8546.000000;0.554942
8545.000000;0.555090
8544.000000;0.555243
8543.000000;0.555231
8542.000000;0.555040
8541.000000;0.554844
8540.000000;0.554674
8539.000000;0.554359
8538.000000;0.553881
8537.000000;0.553548
8536.000000;0.553581
8535.000000;0.553741
8534.000000;0.553613
8533.000000;0.553148
8532.000000;0.552723
8531.000000;0.552681
8530.000000;0.552994
8529.000000;0.553368
8528.000000;0.553521
8527.000000;0.553348
8526.000000;0.552963
8525.000000;0.552623
8524.000000;0.552520
8523.000000;0.552611
8522.000000;0.552664
8521.000000;0.552498
8520.000000;0.552147
8519.000000;0.551819
8518.000000;0.551703
8517.000000;0.551803
8516.000000;0.551944
8515.000000;0.551979
8514.000000;0.551954
8513.000000;0.551986
8512.000000;0.552012
8511.000000;0.551824
8510.000000;0.551382
8509.000000;0.550935
8508.000000;0.550725
8507.000000;0.550694
8506.000000;0.550639
8505.000000;0.550534
8504.000000;0.550557
8503.000000;0.550816
8502.000000;0.551197
8501.000000;0.551477
8500.000000;0.551519
8499.000000;0.551362
8498.000000;0.551171
8497.000000;0.551068
8496.000000;0.550984
8495.000000;0.550753
8494.000000;0.550398
8493.000000;0.550198
8492.000000;0.550368
8491.000000;0.550793
8490.000000;0.551183
8489.000000;0.551409
8488.000000;0.551485
8487.000000;0.551320
8486.000000;0.550737
8485.000000;0.549797
8484.000000;0.548902
8483.000000;0.548479
8482.000000;0.548627
8481.000000;0.549133
8480.000000;0.549683
8479.000000;0.550025
8478.000000;0.550025
8477.000000;0.549745
8476.000000;0.549420
8475.000000;0.549290
8474.000000;0.549383
8473.000000;0.549493
8472.000000;0.549373
8471.000000;0.548986
8470.000000;0.548585
8469.000000;0.548492
8468.000000;0.548759
8467.000000;0.549077
8466.000000;0.549095
8465.000000;0.548799
8464.000000;0.548502
8463.000000;0.548450
8462.000000;0.548555
8461.000000;0.548550
8460.000000;0.548330
8459.000000;0.548037
8458.000000;0.547874
8457.000000;0.547916
8456.000000;0.548089
8455.000000;0.548246
8454.000000;0.548237
8453.000000;0.547976
8452.000000;0.547513
8451.000000;0.547012
8450.000000;0.546629
8449.000000;0.546397
8448.000000;0.546280
8447.000000;0.546300
8446.000000;0.546520
8445.000000;0.546886
8444.000000;0.547160
8443.000000;0.547133
8442.000000;0.546862
8441.000000;0.546607
8440.000000;0.546540
8439.000000;0.546606
8438.000000;0.546680
8437.000000;0.546741
8436.000000;0.546841
8435.000000;0.546967
8434.000000;0.547031
8433.000000;0.546972
8432.000000;0.546801
8431.000000;0.546577
8430.000000;0.546371
8429.000000;0.546234
8428.000000;0.546172
8427.000000;0.546157
8426.000000;0.546178
8425.000000;0.546239
8424.000000;0.546300
8423.000000;0.546280
8422.000000;0.546156
8421.000000;0.546005
8420.000000;0.545911
8419.000000;0.545866
8418.000000;0.545804
8417.000000;0.545701
8416.000000;0.545606
8415.000000;0.545582
8414.000000;0.545645
8413.000000;0.545737
8412.000000;0.545733
8411.000000;0.545531
8410.000000;0.545171
8409.000000;0.544850
8408.000000;0.544755
8407.000000;0.544906
8406.000000;0.545150
8405.000000;0.545308
8404.000000;0.545295
8403.000000;0.545166
8402.000000;0.545050
8401.000000;0.545007
8400.000000;0.544967
8399.000000;0.544839
8398.000000;0.544689
8397.000000;0.544683
8396.000000;0.544864
8395.000000;0.545061
8394.000000;0.545102
8393.000000;0.544994
8392.000000;0.544828
8391.000000;0.544591
8390.000000;0.544211
8389.000000;0.543749
8388.000000;0.543437
8387.000000;0.543469
8386.000000;0.543827
8385.000000;0.544292
8384.000000;0.544609
8383.000000;0.544645
8382.000000;0.544469
8381.000000;0.544279
8380.000000;0.544257
8379.000000;0.544452
8378.000000;0.544770
8377.000000;0.545017
8376.000000;0.544975
8375.000000;0.544562
8374.000000;0.543953
8373.000000;0.543488
8372.000000;0.543389
8371.000000;0.543594
8370.000000;0.543879
8369.000000;0.544062
8368.000000;0.544059
8367.000000;0.543852
8366.000000;0.543490
8365.000000;0.543082
8364.000000;0.542726
8363.000000;0.542471
8362.000000;0.542382
8361.000000;0.542528
8360.000000;0.542836
8359.000000;0.543051
8358.000000;0.542962
8357.000000;0.542634
8356.000000;0.542317
8355.000000;0.542171
8354.000000;0.542173
8353.000000;0.542244
8352.000000;0.542335
8351.000000;0.542388
8350.000000;0.542342
8349.000000;0.542186
8348.000000;0.541960
8347.000000;0.541707
8346.000000;0.541508
8345.000000;0.541508
8344.000000;0.541777
8343.000000;0.542144
8342.000000;0.542311
8341.000000;0.542178
8340.000000;0.541941
8339.000000;0.541824
8338.000000;0.541808
8337.000000;0.541710
8336.000000;0.541449
8335.000000;0.541142
8334.000000;0.540937
8333.000000;0.540854
8332.000000;0.540816
8331.000000;0.540772
8330.000000;0.540744
8329.000000;0.540750
8328.000000;0.540747
8327.000000;0.540684
8326.000000;0.540571
8325.000000;0.540451
8324.000000;0.540322
8323.000000;0.540140
8322.000000;0.539908
8321.000000;0.539683
8320.000000;0.539502
8319.000000;0.539365
8318.000000;0.539311
8317.000000;0.539432
8316.000000;0.539726
8315.000000;0.540017
8314.000000;0.540089
8313.000000;0.539899
8312.000000;0.539582
8311.000000;0.539295
8310.000000;0.539114
8309.000000;0.539048
8308.000000;0.539072
8307.000000;0.539128
8306.000000;0.539162
8305.000000;0.539147
8304.000000;0.539078
8303.000000;0.538977
8302.000000;0.538919
8301.000000;0.538996
8300.000000;0.539197
8299.000000;0.539370
8298.000000;0.539368
8297.000000;0.539201
8296.000000;0.538995
8295.000000;0.538842
8294.000000;0.538726
8293.000000;0.538582
8292.000000;0.538367
8291.000000;0.538106
8290.000000;0.537899
8289.000000;0.537827
8288.000000;0.537831
8287.000000;0.537740
8286.000000;0.537496
8285.000000;0.537255
8284.000000;0.537194
8283.000000;0.537292
8282.000000;0.537413
8281.000000;0.537519
8280.000000;0.537639
8279.000000;0.537687
8278.000000;0.537468
8277.000000;0.536936
8276.000000;0.536326
8275.000000;0.535953
8274.000000;0.535933
8273.000000;0.536128
8272.000000;0.536304
8271.000000;0.536308
8270.000000;0.536146
8269.000000;0.535922
8268.000000;0.535725
8267.000000;0.535573
8266.000000;0.535476
8265.000000;0.535467
8264.000000;0.535538
8263.000000;0.535610
8262.000000;0.535649
8261.000000;0.535747
8260.000000;0.536000
8259.000000;0.536342
8258.000000;0.536607
8257.000000;0.536720
8256.000000;0.536724
8255.000000;0.536641
8254.000000;0.536431
8253.000000;0.536091
8252.000000;0.535689
8251.000000;0.535297
8250.000000;0.534988
8249.000000;0.534864
8248.000000;0.534956
8247.000000;0.535097
8246.000000;0.535052
8245.000000;0.534810
8244.000000;0.534615
8243.000000;0.534661
8242.000000;0.534900
8241.000000;0.535192
8240.000000;0.535475
8239.000000;0.535698
8238.000000;0.535722
8237.000000;0.535465
8236.000000;0.535084
8235.000000;0.534842
8234.000000;0.534806
8233.000000;0.534775
8232.000000;0.534529
8231.000000;0.534059
8230.000000;0.533545
8229.000000;0.533191
8228.000000;0.533093
8227.000000;0.533209
8226.000000;0.533404
8225.000000;0.533549
8224.000000;0.533607
8223.000000;0.533625
8222.000000;0.533656
8221.000000;0.533714
8220.000000;0.533767
8219.000000;0.533770
8218.000000;0.533708
8217.000000;0.533596
8216.000000;0.533445
8215.000000;0.533238
8214.000000;0.532971
8213.000000;0.532712
8212.000000;0.532546
8211.000000;0.532472
8210.000000;0.532412
8209.000000;0.532330
8208.000000;0.532270
8207.000000;0.532257
8206.000000;0.532233
8205.000000;0.532158
8204.000000;0.532087
8203.000000;0.532102
8202.000000;0.532198
8201.000000;0.532304
8200.000000;0.532365
8199.000000;0.532360
8198.000000;0.532287
8197.000000;0.532194
8196.000000;0.532170
8195.000000;0.532242
8194.000000;0.532324
8193.000000;0.532346
8192.000000;0.532372
8191.000000;0.532482
8190.000000;0.532577
8189.000000;0.532473
8188.000000;0.532207
8187.000000;0.532077
8186.000000;0.532290
8185.000000;0.532669
8184.000000;0.532828
8183.000000;0.532591
8182.000000;0.532122
8181.000000;0.531685
8180.000000;0.531399
8179.000000;0.531251
8178.000000;0.531230
8177.000000;0.531328
8176.000000;0.531463
8175.000000;0.531490
8174.000000;0.531333
8173.000000;0.531053
8172.000000;0.530789
8171.000000;0.530630
8170.000000;0.530593
8169.000000;0.530665
8168.000000;0.530825
8167.000000;0.530990
8166.000000;0.531013
8165.000000;0.530802
8164.000000;0.530441
8163.000000;0.530141
8162.000000;0.530047
8161.000000;0.530143
8160.000000;0.530351
8159.000000;0.530645
8158.000000;0.530999
8157.000000;0.531275
8156.000000;0.531267
8155.000000;0.530914
8154.000000;0.530402
8153.000000;0.530008
8152.000000;0.529858
8151.000000;0.529879
8150.000000;0.529958
8149.000000;0.530065
8148.000000;0.530217
8147.000000;0.530355
8146.000000;0.530337
8145.000000;0.530074
8144.000000;0.529638
8143.000000;0.529210
8142.000000;0.528910
8141.000000;0.528714
8140.000000;0.528555
8139.000000;0.528452
8138.000000;0.528474
8137.000000;0.528598
8136.000000;0.528679
8135.000000;0.528602
8134.000000;0.528416
8133.000000;0.528269
8132.000000;0.528239
8131.000000;0.528286
8130.000000;0.528348
8129.000000;0.528405
8128.000000;0.528457
8127.000000;0.528511
8126.000000;0.528586
8125.000000;0.528693
8124.000000;0.528778
8123.000000;0.528744
8122.000000;0.528564
8121.000000;0.528344
8120.000000;0.528225
8119.000000;0.528245
8118.000000;0.528288
8117.000000;0.528190
8116.000000;0.527907
8115.000000;0.527586
8114.000000;0.527470
8113.000000;0.527654
8112.000000;0.527964
8111.000000;0.528112
8110.000000;0.527979
8109.000000;0.527692
8108.000000;0.527433
8107.000000;0.527254
8106.000000;0.527138
8105.000000;0.527120
8104.000000;0.527257
8103.000000;0.527483
8102.000000;0.527612
8101.000000;0.527521
8100.000000;0.527262
8099.000000;0.527001
8098.000000;0.526849
8097.000000;0.526803
8096.000000;0.526787
8095.000000;0.526735
8094.000000;0.526639
8093.000000;0.526541
8092.000000;0.526495
8091.000000;0.526522
8090.000000;0.526605
8089.000000;0.526710
8088.000000;0.526808
8087.000000;0.526873
8086.000000;0.526874
8085.000000;0.526801
8084.000000;0.526680
8083.000000;0.526572
8082.000000;0.526519
8081.000000;0.526495
8080.000000;0.526428
8079.000000;0.526286
8078.000000;0.526136
8077.000000;0.526098
8076.000000;0.526253
8075.000000;0.526586
8074.000000;0.526993
8073.000000;0.527310
8072.000000;0.527368
8071.000000;0.527095
8070.000000;0.526593
8069.000000;0.526080
8068.000000;0.525730
8067.000000;0.525576
8066.000000;0.525542
8065.000000;0.525532
8064.000000;0.525483
8063.000000;0.525378
8062.000000;0.525252
8061.000000;0.525158
8060.000000;0.525127
8059.000000;0.525162
8058.000000;0.525253
8057.000000;0.525377
8056.000000;0.525490
8055.000000;0.525570
8054.000000;0.525671
8053.000000;0.525842
8052.000000;0.525994
8051.000000;0.525932
8050.000000;0.525590
8049.000000;0.525149
8048.000000;0.524859
8047.000000;0.524797
8046.000000;0.524854
8045.000000;0.524923
8044.000000;0.524984
8043.000000;0.525035
8042.000000;0.525037
8041.000000;0.524967
8040.000000;0.524859
8039.000000;0.524743
8038.000000;0.524604
8037.000000;0.524425
8036.000000;0.524246
8035.000000;0.524142
8034.000000;0.524162
8033.000000;0.524298
8032.000000;0.524493
8031.000000;0.524652
8030.000000;0.524682
8029.000000;0.524558
8028.000000;0.524364
8027.000000;0.524240
8026.000000;0.524286
8025.000000;0.524481
8024.000000;0.524688
8023.000000;0.524757
8022.000000;0.524640
8021.000000;0.524436
8020.000000;0.524288
8019.000000;0.524243
8018.000000;0.524216
8017.000000;0.524118
8016.000000;0.523983
8015.000000;0.523940
8014.000000;0.524069
8013.000000;0.524315
8012.000000;0.524567
8011.000000;0.524767
8010.000000;0.524914
8009.000000;0.524979
8008.000000;0.524916
8007.000000;0.524735
8006.000000;0.524503
8005.000000;0.524245
8004.000000;0.523919
8003.000000;0.523550
8002.000000;0.523302
8001.000000;0.523318
8000.000000;0.523518
7999.000000;0.523686
7998.000000;0.523731
7997.000000;0.523752
7996.000000;0.523834
7995.000000;0.523915
7994.000000;0.523894
7993.000000;0.523763
7992.000000;0.523543
7991.000000;0.523216
7990.000000;0.522830
7989.000000;0.522582
7988.000000;0.522655
7987.000000;0.522993
7986.000000;0.523351
7985.000000;0.523557
7984.000000;0.523624
7983.000000;0.523608
7982.000000;0.523494
7981.000000;0.523281
7980.000000;0.523054
7979.000000;0.522922
7978.000000;0.522910
7977.000000;0.522976
7976.000000;0.523078
7975.000000;0.523189
7974.000000;0.523293
7973.000000;0.523403
7972.000000;0.523555
7971.000000;0.523733
7970.000000;0.523856
7969.000000;0.523856
7968.000000;0.523755
7967.000000;0.523618
7966.000000;0.523474
7965.000000;0.523349
7964.000000;0.523293
7963.000000;0.523329
7962.000000;0.523384
7961.000000;0.523366
7960.000000;0.523315
7959.000000;0.523371
7958.000000;0.523577
7957.000000;0.523791
7956.000000;0.523838
7955.000000;0.523701
7954.000000;0.523500
7953.000000;0.523332
7952.000000;0.523205
7951.000000;0.523118
7950.000000;0.523123
7949.000000;0.523247
7948.000000;0.523396
7947.000000;0.523390
7946.000000;0.523132
7945.000000;0.522738
7944.000000;0.522471
7943.000000;0.522517
7942.000000;0.522825
7941.000000;0.523174
7940.000000;0.523406
7939.000000;0.523537
7938.000000;0.523634
7937.000000;0.523666
7936.000000;0.523542
7935.000000;0.523264
7934.000000;0.522966
7933.000000;0.522796
7932.000000;0.522818
7931.000000;0.523017
7930.000000;0.523316
7929.000000;0.523576
7928.000000;0.523648
7927.000000;0.523487
7926.000000;0.523208
7925.000000;0.522990
7924.000000;0.522950
7923.000000;0.523088
7922.000000;0.523313
7921.000000;0.523508
7920.000000;0.523624
7919.000000;0.523729
7918.000000;0.523912
7917.000000;0.524110
7916.000000;0.524127
7915.000000;0.523872
7914.000000;0.523511
7913.000000;0.523312
7912.000000;0.523363
7911.000000;0.523511
7910.000000;0.523551
7909.000000;0.523403
7908.000000;0.523138
7907.000000;0.522925
7906.000000;0.522939
7905.000000;0.523217
7904.000000;0.523586
7903.000000;0.523792
7902.000000;0.523728
7901.000000;0.523522
7900.000000;0.523391
7899.000000;0.523440
7898.000000;0.523593
7897.000000;0.523690
7896.000000;0.523635
7895.000000;0.523483
7894.000000;0.523371
7893.000000;0.523361
7892.000000;0.523371
7891.000000;0.523302
7890.000000;0.523177
7889.000000;0.523105
7888.000000;0.523150
7887.000000;0.523284
7886.000000;0.523453
7885.000000;0.523602
7884.000000;0.523664
7883.000000;0.523611
7882.000000;0.523523
7881.000000;0.523540
7880.000000;0.523707
7879.000000;0.523928
7878.000000;0.524069
7877.000000;0.524067
7876.000000;0.523950
7875.000000;0.523803
7874.000000;0.523738
7873.000000;0.523832
7872.000000;0.524056
7871.000000;0.524300
7870.000000;0.524464
7869.000000;0.524500
7868.000000;0.524406
7867.000000;0.524237
7866.000000;0.524106
7865.000000;0.524068
7864.000000;0.524038
7863.000000;0.523900
7862.000000;0.523694
7861.000000;0.523599
7860.000000;0.523715
7859.000000;0.523966
7858.000000;0.524234
7857.000000;0.524482
7856.000000;0.524700
7855.000000;0.524841
7854.000000;0.524884
7853.000000;0.524878
7852.000000;0.524853
7851.000000;0.524760
7850.000000;0.524560
7849.000000;0.524330
7848.000000;0.524213
7847.000000;0.524284
7846.000000;0.524493
7845.000000;0.524728
7844.000000;0.524889
7843.000000;0.524952
7842.000000;0.524989
7841.000000;0.525071
7840.000000;0.525166
7839.000000;0.525157
7838.000000;0.524996
7837.000000;0.524771
7836.000000;0.524601
7835.000000;0.524562
7834.000000;0.524716
7833.000000;0.525091
7832.000000;0.525575
7831.000000;0.525924
7830.000000;0.525976
7829.000000;0.525800
7828.000000;0.525574
7827.000000;0.525395
7826.000000;0.525289
7825.000000;0.525306
7824.000000;0.525481
7823.000000;0.525729
7822.000000;0.525907
7821.000000;0.525976
7820.000000;0.526003
7819.000000;0.526020
7818.000000;0.525967
7817.000000;0.525815
7816.000000;0.525657
7815.000000;0.525639
7814.000000;0.525831
7813.000000;0.526167
7812.000000;0.526486
7811.000000;0.526637
7810.000000;0.526588
7809.000000;0.526444
7808.000000;0.526326
7807.000000;0.526280
7806.000000;0.526283
7805.000000;0.526316
7804.000000;0.526360
7803.000000;0.526384
7802.000000;0.526380
7801.000000;0.526394
7800.000000;0.526469
7799.000000;0.526596
7798.000000;0.526756
7797.000000;0.526955
7796.000000;0.527168
7795.000000;0.527283
7794.000000;0.527208
7793.000000;0.527012
7792.000000;0.526896
7791.000000;0.527005
7790.000000;0.527316
7789.000000;0.527687
7788.000000;0.527948
7787.000000;0.527977
7786.000000;0.527783
7785.000000;0.527538
7784.000000;0.527459
7783.000000;0.527619
7782.000000;0.527900
7781.000000;0.528130
7780.000000;0.528235
7779.000000;0.528258
7778.000000;0.528282
7777.000000;0.528357
7776.000000;0.528460
7775.000000;0.528508
7774.000000;0.528457
7773.000000;0.528367
7772.000000;0.528353
7771.000000;0.528462
7770.000000;0.528632
7769.000000;0.528799
7768.000000;0.528952
7767.000000;0.529093
7766.000000;0.529166
7765.000000;0.529101
7764.000000;0.528913
7763.000000;0.528729
7762.000000;0.528686
7761.000000;0.528818
7760.000000;0.529046
7759.000000;0.529288
7758.000000;0.529539
7757.000000;0.529825
7756.000000;0.530121
7755.000000;0.530358
7754.000000;0.530500
7753.000000;0.530557
7752.000000;0.530530
7751.000000;0.530430
7750.000000;0.530342
7749.000000;0.530392
7748.000000;0.530571
7747.000000;0.530710
7746.000000;0.530663
7745.000000;0.530476
7744.000000;0.530297
7743.000000;0.530202
7742.000000;0.530197
7741.000000;0.530329
7740.000000;0.530659
7739.000000;0.531130
7738.000000;0.531568
7737.000000;0.531849
7736.000000;0.531998
7735.000000;0.532105
7734.000000;0.532211
7733.000000;0.532300
7732.000000;0.532352
7731.000000;0.532354
7730.000000;0.532310
7729.000000;0.532248
7728.000000;0.532196
7727.000000;0.532153
7726.000000;0.532090
7725.000000;0.531997
7724.000000;0.531913
7723.000000;0.531915
7722.000000;0.532087
7721.000000;0.532446
7720.000000;0.532895
7719.000000;0.533253
7718.000000;0.533404
7717.000000;0.533384
7716.000000;0.533303
7715.000000;0.533224
7714.000000;0.533166
7713.000000;0.533182
7712.000000;0.533339
7711.000000;0.533616
7710.000000;0.533906
7709.000000;0.534121
7708.000000;0.534258
7707.000000;0.534341
7706.000000;0.534356
7705.000000;0.534288
7704.000000;0.534171
7703.000000;0.534096
7702.000000;0.534162
7701.000000;0.534403
7700.000000;0.534737
7699.000000;0.535018
7698.000000;0.535166
7697.000000;0.535240
7696.000000;0.535333
7695.000000;0.535437
7694.000000;0.535487
7693.000000;0.535511
7692.000000;0.535645
7691.000000;0.535958
7690.000000;0.536346
7689.000000;0.536627
7688.000000;0.536718
7687.000000;0.536695
7686.000000;0.536717
7685.000000;0.536900
7684.000000;0.537232
7683.000000;0.537587
7682.000000;0.537836
7681.000000;0.537943
7680.000000;0.537954
7679.000000;0.537924
7678.000000;0.537903
7677.000000;0.537957
7676.000000;0.538147
7675.000000;0.538446
7674.000000;0.538743
7673.000000;0.538946
7672.000000;0.539062
7671.000000;0.539159
7670.000000;0.539292
7669.000000;0.539466
7668.000000;0.539648
7667.000000;0.539797
7666.000000;0.539901
7665.000000;0.539981
7664.000000;0.540064
7663.000000;0.540154
7662.000000;0.540246
7661.000000;0.540352
7660.000000;0.540479
7659.000000;0.540610
7658.000000;0.540732
7657.000000;0.540886
7656.000000;0.541122
7655.000000;0.541427
7654.000000;0.541742
7653.000000;0.542029
7652.000000;0.542284
7651.000000;0.542490
7650.000000;0.542629
7649.000000;0.542729
7648.000000;0.542852
7647.000000;0.543014
7646.000000;0.543171
7645.000000;0.543302
7644.000000;0.543445
7643.000000;0.543646
7642.000000;0.543900
7641.000000;0.544161
7640.000000;0.544398
7639.000000;0.544604
7638.000000;0.544797
7637.000000;0.545008
7636.000000;0.545261
7635.000000;0.545556
7634.000000;0.545868
7633.000000;0.546145
7632.000000;0.546308
7631.000000;0.546298
7630.000000;0.546170
7629.000000;0.546090
7628.000000;0.546181
7627.000000;0.546398
7626.000000;0.546623
7625.000000;0.546835
7624.000000;0.547101
7623.000000;0.547416
7622.000000;0.547665
7621.000000;0.547765
7620.000000;0.547772
7619.000000;0.547792
7618.000000;0.547873
7617.000000;0.548012
7616.000000;0.548224
7615.000000;0.548521
7614.000000;0.548867
7613.000000;0.549179
7612.000000;0.549401
7611.000000;0.549544
7610.000000;0.549680
7609.000000;0.549905
7608.000000;0.550258
7607.000000;0.550672
7606.000000;0.551035
7605.000000;0.551299
7604.000000;0.551527
7603.000000;0.551811
7602.000000;0.552190
7601.000000;0.552630
7600.000000;0.553057
7599.000000;0.553394
7598.000000;0.553617
7597.000000;0.553778
7596.000000;0.553925
7595.000000;0.554018
7594.000000;0.553992
7593.000000;0.553901
7592.000000;0.553931
7591.000000;0.554209
7590.000000;0.554672
7589.000000;0.555153
7588.000000;0.555558
7587.000000;0.555897
7586.000000;0.556208
7585.000000;0.556502
7584.000000;0.556770
7583.000000;0.557000
7582.000000;0.557184
7581.000000;0.557347
7580.000000;0.557541
7579.000000;0.557804
7578.000000;0.558112
7577.000000;0.558414
7576.000000;0.558690
7575.000000;0.558962
7574.000000;0.559251
7573.000000;0.559565
7572.000000;0.559887
7571.000000;0.560193
7570.000000;0.560466
7569.000000;0.560714
7568.000000;0.560961
7567.000000;0.561226
7566.000000;0.561523
7565.000000;0.561870
7564.000000;0.562263
7563.000000;0.562632
7562.000000;0.562894
7561.000000;0.563061
7560.000000;0.563264
7559.000000;0.563613
7558.000000;0.564075
7557.000000;0.564504
7556.000000;0.564797
7555.000000;0.564968
7554.000000;0.565096
7553.000000;0.565241
7552.000000;0.565421
7551.000000;0.565644
7550.000000;0.565939
7549.000000;0.566323
7548.000000;0.566768
7547.000000;0.567208
7546.000000;0.567619
7545.000000;0.568038
7544.000000;0.568501
7543.000000;0.568962
7542.000000;0.569336
7541.000000;0.569612
7540.000000;0.569871
7539.000000;0.570187
7538.000000;0.570543
7537.000000;0.570878
7536.000000;0.571173
7535.000000;0.571474
7534.000000;0.571852
7533.000000;0.572330
7532.000000;0.572842
7531.000000;0.573259
7530.000000;0.573500
7529.000000;0.573623
7528.000000;0.573785
7527.000000;0.574101
7526.000000;0.574565
7525.000000;0.575088
7524.000000;0.575585
7523.000000;0.576001
7522.000000;0.576327
7521.000000;0.576618
7520.000000;0.576966
7519.000000;0.577420
7518.000000;0.577937
7517.000000;0.578425
7516.000000;0.578832
7515.000000;0.579172
7514.000000;0.579476
7513.000000;0.579738
7512.000000;0.579940
7511.000000;0.580118
7510.000000;0.580372
7509.000000;0.580785
7508.000000;0.581320
7507.000000;0.581847
7506.000000;0.582276
7505.000000;0.582629
7504.000000;0.582953
7503.000000;0.583250
7502.000000;0.583526
7501.000000;0.583868
7500.000000;0.584369
7499.000000;0.584991
7498.000000;0.585613
7497.000000;0.586155
7496.000000;0.586685
7495.000000;0.587251
7494.000000;0.587738
7493.000000;0.588130
7492.000000;0.588391
7491.000000;0.588553
7490.000000;0.588663
7489.000000;0.588800
7488.000000;0.589054
7487.000000;0.589463
7486.000000;0.589988
7485.000000;0.590567
7484.000000;0.591142
7483.000000;0.591651
7482.000000;0.592031
7481.000000;0.592262
7480.000000;0.592389
7479.000000;0.592491
7478.000000;0.592665
7477.000000;0.592991
7476.000000;0.593470
7475.000000;0.594001
7474.000000;0.594489
7473.000000;0.594966
7472.000000;0.595535
7471.000000;0.596203
7470.000000;0.596845
7469.000000;0.597343
7468.000000;0.597686
7467.000000;0.597929
7466.000000;0.598147
7465.000000;0.598430
7464.000000;0.598849
7463.000000;0.599364
7462.000000;0.599850
7461.000000;0.600239
7460.000000;0.600607
7459.000000;0.601075
7458.000000;0.601670
7457.000000;0.602324
7456.000000;0.602939
7455.000000;0.603438
7454.000000;0.603810
7453.000000;0.604112
7452.000000;0.604412
7451.000000;0.604716
7450.000000;0.605005
7449.000000;0.605322
7448.000000;0.605744
7447.000000;0.606252
7446.000000;0.606723
7445.000000;0.607094
7444.000000;0.607422
7443.000000;0.607768
7442.000000;0.608094
7441.000000;0.608358
7440.000000;0.608613
7439.000000;0.608961
7438.000000;0.609443
7437.000000;0.610038
7436.000000;0.610691
7435.000000;0.611309
7434.000000;0.611767
7433.000000;0.612009
7432.000000;0.612114
7431.000000;0.612224
7430.000000;0.612425
7429.000000;0.612731
7428.000000;0.613129
7427.000000;0.613585
7426.000000;0.614051
7425.000000;0.614507
7424.000000;0.614959
7423.000000;0.615369
7422.000000;0.615648
7421.000000;0.615770
7420.000000;0.615862
7419.000000;0.616103
7418.000000;0.616544
7417.000000;0.617095
7416.000000;0.617667
7415.000000;0.618262
7414.000000;0.618906
7413.000000;0.619556
7412.000000;0.620110
7411.000000;0.620531
7410.000000;0.620898
7409.000000;0.621287
7408.000000;0.621622
7407.000000;0.621730
7406.000000;0.621625
7405.000000;0.621609
7404.000000;0.621983
7403.000000;0.622705
7402.000000;0.623451
7401.000000;0.623958
7400.000000;0.624223
7399.000000;0.624413
7398.000000;0.624719
7397.000000;0.625229
7396.000000;0.625805
7395.000000;0.626175
7394.000000;0.626300
7393.000000;0.626507
7392.000000;0.627065
7391.000000;0.627810
7390.000000;0.628423
7389.000000;0.628908
7388.000000;0.629450
7387.000000;0.629952
7386.000000;0.630140
7385.000000;0.630062
7384.000000;0.630008
7383.000000;0.629958
7382.000000;0.629659
7381.000000;0.629331
7380.000000;0.629682
7379.000000;0.630833
7378.000000;0.631791
7377.000000;0.631584
7376.000000;0.630601
7375.000000;0.630288
7374.000000;0.631529
7373.000000;0.633716
7372.000000;0.635467
7371.000000;0.635885
7370.000000;0.635130
7369.000000;0.634194
7368.000000;0.634135
7367.000000;0.635180
7366.000000;0.636573
7365.000000;0.637495
7364.000000;0.637839
7363.000000;0.637956
7362.000000;0.638098
7361.000000;0.638428
7360.000000;0.639169
7359.000000;0.640210
7358.000000;0.640777
7357.000000;0.640169
7356.000000;0.638854
7355.000000;0.638256
7354.000000;0.639250
7353.000000;0.641273
7352.000000;0.643079
7351.000000;0.643842
7350.000000;0.643500
7349.000000;0.642679
7348.000000;0.642380
7347.000000;0.643125
7346.000000;0.644255
7345.000000;0.644669
7344.000000;0.644138
7343.000000;0.643241
7342.000000;0.642198
7341.000000;0.640830
7340.000000;0.639845
7339.000000;0.640819
7338.000000;0.644117
7337.000000;0.647935
7336.000000;0.650286
7335.000000;0.651019
7334.000000;0.651347
7333.000000;0.652093
7332.000000;0.653015
7331.000000;0.653422
7330.000000;0.652763
7329.000000;0.651095
7328.000000;0.649579
7327.000000;0.649890
7326.000000;0.652233
7325.000000;0.654736
7324.000000;0.655751
7323.000000;0.655866
7322.000000;0.656753
7321.000000;0.658741
7320.000000;0.660608
7319.000000;0.661423
7318.000000;0.661496
7317.000000;0.661573
7316.000000;0.662010
7315.000000;0.662780
7314.000000;0.663580
7313.000000;0.663903
7312.000000;0.663642
7311.000000;0.663586
7310.000000;0.664446
7309.000000;0.665536
7308.000000;0.665586
7307.000000;0.664849
7306.000000;0.665174
7305.000000;0.667560
7304.000000;0.670742
7303.000000;0.672871
7302.000000;0.673505
7301.000000;0.673464
7300.000000;0.673693
7299.000000;0.674762
7298.000000;0.676697
7297.000000;0.678591
7296.000000;0.679057
7295.000000;0.677856
7294.000000;0.676698
7293.000000;0.677576
7292.000000;0.680370
7291.000000;0.683066
7290.000000;0.684224
7289.000000;0.684246
7288.000000;0.684412
7287.000000;0.685510
7286.000000;0.687456
7285.000000;0.689664
7284.000000;0.691530
7283.000000;0.692841
7282.000000;0.693883
7281.000000;0.695069
7280.000000;0.696482
7279.000000;0.697875
7278.000000;0.699083
7277.000000;0.700185
7276.000000;0.701247
7275.000000;0.702228
7274.000000;0.703187
7273.000000;0.704357
7272.000000;0.705910
7271.000000;0.707741
7270.000000;0.709565
7269.000000;0.711181
7268.000000;0.712664
7267.000000;0.714254
7266.000000;0.716021
7265.000000;0.717634
7264.000000;0.718657
7263.000000;0.719152
7262.000000;0.719845
7261.000000;0.721485
7260.000000;0.724085
7259.000000;0.726986
7258.000000;0.729559
7257.000000;0.731589
7256.000000;0.733093
7255.000000;0.734118
7254.000000;0.734909
7253.000000;0.736053
7252.000000;0.738115
7251.000000;0.741063
7250.000000;0.744226
7249.000000;0.746937
7248.000000;0.749088
7247.000000;0.750938
7246.000000;0.752453
7245.000000;0.753079
7244.000000;0.752600
7243.000000;0.752141
7242.000000;0.753627
7241.000000;0.757743
7240.000000;0.763001
7239.000000;0.767465
7238.000000;0.770737
7237.000000;0.773681
7236.000000;0.776703
7235.000000;0.778985
7234.000000;0.779582
7233.000000;0.779063
7232.000000;0.779648
7231.000000;0.783241
7230.000000;0.789288
7229.000000;0.795223
7228.000000;0.799026
7227.000000;0.800935
7226.000000;0.802831
7225.000000;0.806208
7224.000000;0.810856
7223.000000;0.815419
7222.000000;0.818857
7221.000000;0.821280
7220.000000;0.823716
7219.000000;0.827190
7218.000000;0.831796
7217.000000;0.836606
7216.000000;0.840679
7215.000000;0.844015
7214.000000;0.847382
7213.000000;0.851343
7212.000000;0.855750
7211.000000;0.860190
7210.000000;0.864549
7209.000000;0.868874
7208.000000;0.872937
7207.000000;0.876345
7206.000000;0.879091
7205.000000;0.881793
7204.000000;0.885302
7203.000000;0.890063
7202.000000;0.895775
7201.000000;0.901647
7200.000000;0.907068
7199.000000;0.912028
7198.000000;0.916854
7197.000000;0.921621
7196.000000;0.926102
7195.000000;0.930314
7194.000000;0.934755
7193.000000;0.939833
7192.000000;0.945304
7191.000000;0.950651
7190.000000;0.955809
7189.000000;0.961109
7188.000000;0.966655
7187.000000;0.972190
7186.000000;0.977544
7185.000000;0.982706
7184.000000;0.987452
7183.000000;0.991474
7182.000000;0.995188
7181.000000;0.999847
7180.000000;1.006232
7179.000000;1.013581
7178.000000;1.020447
7177.000000;1.026268
7176.000000;1.031624
7175.000000;1.037305
7174.000000;1.043572
7173.000000;1.050157
7172.000000;1.056517
7171.000000;1.062081
7170.000000;1.066668
7169.000000;1.070822
7168.000000;1.075524
7167.000000;1.081414
7166.000000;1.088404
7165.000000;1.095887
7164.000000;1.103029
7163.000000;1.109054
7162.000000;1.113941
7161.000000;1.118842
7160.000000;1.125149
7159.000000;1.132886
7158.000000;1.140647
7157.000000;1.147321
7156.000000;1.153230
7155.000000;1.159368
7154.000000;1.166098
7153.000000;1.172998
7152.000000;1.179664
7151.000000;1.186140
7150.000000;1.192636
7149.000000;1.199180
7148.000000;1.205552
7147.000000;1.211416
7146.000000;1.216693
7145.000000;1.221854
7144.000000;1.227588
7143.000000;1.233976
7142.000000;1.240286
7141.000000;1.245851
7140.000000;1.251038
7139.000000;1.256956
7138.000000;1.264099
7137.000000;1.271638
7136.000000;1.278383
7135.000000;1.284203
7134.000000;1.290085
7133.000000;1.296867
7132.000000;1.304231
7131.000000;1.311120
7130.000000;1.316933
7129.000000;1.322070
7128.000000;1.327361
7127.000000;1.333235
7126.000000;1.339542
7125.000000;1.345883
7124.000000;1.351958
7123.000000;1.357792
7122.000000;1.363727
7121.000000;1.369952
7120.000000;1.375955
7119.000000;1.380868
7118.000000;1.384737
7117.000000;1.389009
7116.000000;1.395050
7115.000000;1.402417
7114.000000;1.409438
7113.000000;1.415238
7112.000000;1.420358
7111.000000;1.425537
7110.000000;1.430753
7109.000000;1.435706
7108.000000;1.440525
7107.000000;1.445543
7106.000000;1.450822
7105.000000;1.456310
7104.000000;1.462068
7103.000000;1.467941
7102.000000;1.473384
7101.000000;1.478074
7100.000000;1.482350
7099.000000;1.486721
7098.000000;1.491178
7097.000000;1.495362
7096.000000;1.499251
7095.000000;1.503301
7094.000000;1.507881
7093.000000;1.512876
7092.000000;1.517946
7091.000000;1.522920
7090.000000;1.527826
7089.000000;1.532636
7088.000000;1.537132
7087.000000;1.541093
7086.000000;1.544665
7085.000000;1.548407
7084.000000;1.552753
7083.000000;1.557433
7082.000000;1.561698
7081.000000;1.565139
7080.000000;1.568030
7079.000000;1.570882
7078.000000;1.574010
7077.000000;1.577589
7076.000000;1.581668
7075.000000;1.585926
7074.000000;1.589748
7073.000000;1.592838
7072.000000;1.595583
7071.000000;1.598632
7070.000000;1.602276
7069.000000;1.606348
7068.000000;1.610411
7067.000000;1.613931
7066.000000;1.616600
7065.000000;1.618710
7064.000000;1.620912
7063.000000;1.623471
7062.000000;1.626093
7061.000000;1.628597
7060.000000;1.631262
7059.000000;1.634250
7058.000000;1.637186
7057.000000;1.639677
7056.000000;1.641864
7055.000000;1.644070
7054.000000;1.646247
7053.000000;1.648215
7052.000000;1.650158
7051.000000;1.652357
7050.000000;1.654697
7049.000000;1.656972
7048.000000;1.659481
7047.000000;1.662663
7046.000000;1.666164
7045.000000;1.668943
7044.000000;1.670536
7043.000000;1.671722
7042.000000;1.673596
7041.000000;1.676280
7040.000000;1.678925
7039.000000;1.680864
7038.000000;1.682413
7037.000000;1.684287
7036.000000;1.686498
7035.000000;1.688282
7034.000000;1.689212
7033.000000;1.689978
7032.000000;1.691653
7031.000000;1.694370
7030.000000;1.697124
7029.000000;1.698845
7028.000000;1.699327
7027.000000;1.699182
7026.000000;1.699332
7025.000000;1.700508
7024.000000;1.702663
7023.000000;1.704795
7022.000000;1.705934
7021.000000;1.706438
7020.000000;1.707656
7019.000000;1.710153
7018.000000;1.712912
7017.000000;1.714582
7016.000000;1.715028
7015.000000;1.715186
7014.000000;1.715813
7013.000000;1.716911
7012.000000;1.718054
7011.000000;1.718835
7010.000000;1.719202
7009.000000;1.719640
7008.000000;1.720814
7007.000000;1.722812
7006.000000;1.724964
7005.000000;1.726600
7004.000000;1.727695
7003.000000;1.728547
7002.000000;1.729212
7001.000000;1.729629
7000.000000;1.729963
6999.000000;1.730442
6998.000000;1.731082
6997.000000;1.731885
6996.000000;1.733007
6995.000000;1.734374
6994.000000;1.735436
6993.000000;1.735687
6992.000000;1.735324
6991.000000;1.735080
6990.000000;1.735516
6989.000000;1.736640
6988.000000;1.737977
6987.000000;1.738814
6986.000000;1.738703
6985.000000;1.737986
6984.000000;1.737535
6983.000000;1.737759
6982.000000;1.738220
6981.000000;1.738442
6980.000000;1.738622
6979.000000;1.739118
6978.000000;1.739643
6977.000000;1.739586
6976.000000;1.738984
6975.000000;1.738596
6974.000000;1.739062
6973.000000;1.740378
6972.000000;1.742156
6971.000000;1.743932
6970.000000;1.745148
6969.000000;1.745305
6968.000000;1.744421
6967.000000;1.743220
6966.000000;1.742708
6965.000000;1.743481
6964.000000;1.745282
6963.000000;1.747118
6962.000000;1.747923
6961.000000;1.747272
6960.000000;1.745460
6959.000000;1.743055
6958.000000;1.740720
6957.000000;1.739386
6956.000000;1.739889
6955.000000;1.741960
6954.000000;1.743943
6953.000000;1.744173
6952.000000;1.742706
6951.000000;1.741189
6950.000000;1.741074
6949.000000;1.742350
6948.000000;1.743955
6947.000000;1.744885
6946.000000;1.744669
6945.000000;1.743186
6944.000000;1.740669
6943.000000;1.737960
6942.000000;1.736309
6941.000000;1.736479
6940.000000;1.737998
6939.000000;1.739548
6938.000000;1.740236
6937.000000;1.740307
6936.000000;1.740474
6935.000000;1.740868
6934.000000;1.740983
6933.000000;1.740475
6932.000000;1.739621
6931.000000;1.738981
6930.000000;1.738927
6929.000000;1.739428
6928.000000;1.740014
6927.000000;1.740011
6926.000000;1.739170
6925.000000;1.738039
6924.000000;1.737388
6923.000000;1.737255
6922.000000;1.736903
6921.000000;1.735760
6920.000000;1.734078
6919.000000;1.732559
6918.000000;1.731714
6917.000000;1.731640
6916.000000;1.732108
6915.000000;1.732722
6914.000000;1.733220
6913.000000;1.733652
6912.000000;1.734082
6911.000000;1.734198
6910.000000;1.733602
6909.000000;1.732461
6908.000000;1.731399
6907.000000;1.730683
6906.000000;1.730016
6905.000000;1.729201
6904.000000;1.728504
6903.000000;1.728128
6902.000000;1.727766
6901.000000;1.727038
6900.000000;1.726046
6899.000000;1.725214
6898.000000;1.724778
6897.000000;1.724674
6896.000000;1.724738
6895.000000;1.724796
6894.000000;1.724663
6893.000000;1.724149
6892.000000;1.723077
6891.000000;1.721384
6890.000000;1.719425
6889.000000;1.717962
6888.000000;1.717473
6887.000000;1.717514
6886.000000;1.717131
6885.000000;1.715888
6884.000000;1.714112
6883.000000;1.712255
6882.000000;1.710636
6881.000000;1.709773
6880.000000;1.710188
6879.000000;1.711563
6878.000000;1.712679
6877.000000;1.712559
6876.000000;1.711345
6875.000000;1.709795
6874.000000;1.708432
6873.000000;1.707499
6872.000000;1.707214
6871.000000;1.707543
6870.000000;1.708008
6869.000000;1.708159
6868.000000;1.708092
6867.000000;1.708169
6866.000000;1.708408
6865.000000;1.708459
6864.000000;1.707996
6863.000000;1.706859
6862.000000;1.705048
6861.000000;1.702929
6860.000000;1.701235
6859.000000;1.700504
6858.000000;1.700548
6857.000000;1.700634
6856.000000;1.700103
6855.000000;1.698754
6854.000000;1.696865
6853.000000;1.695063
6852.000000;1.693942
6851.000000;1.693552
6850.000000;1.693324
6849.000000;1.692614
6848.000000;1.691181
6847.000000;1.689124
6846.000000;1.686737
6845.000000;1.684590
6844.000000;1.683357
6843.000000;1.683204
6842.000000;1.683470
6841.000000;1.683189
6840.000000;1.681871
6839.000000;1.679723
6838.000000;1.677360
6837.000000;1.675424
6836.000000;1.674195
6835.000000;1.673360
6834.000000;1.672323
6833.000000;1.670820
6832.000000;1.669056
6831.000000;1.667188
6830.000000;1.665055
6829.000000;1.662577
6828.000000;1.660083
6827.000000;1.657929
6826.000000;1.656072
6825.000000;1.654239
6824.000000;1.652332
6823.000000;1.650459
6822.000000;1.648787
6821.000000;1.647469
6820.000000;1.646472
6819.000000;1.645368
6818.000000;1.643631
6817.000000;1.641293
6816.000000;1.638972
6815.000000;1.637062
6814.000000;1.635275
6813.000000;1.633239
6812.000000;1.631098
6811.000000;1.629148
6810.000000;1.627243
6809.000000;1.625001
6808.000000;1.622357
6807.000000;1.619486
6806.000000;1.616449
6805.000000;1.613378
6804.000000;1.610766
6803.000000;1.608995
6802.000000;1.607629
6801.000000;1.605698
6800.000000;1.602774
6799.000000;1.599391
6798.000000;1.596328
6797.000000;1.593863
6796.000000;1.591783
6795.000000;1.589811
6794.000000;1.587817
6793.000000;1.585826
6792.000000;1.583924
6791.000000;1.582069
6790.000000;1.580012
6789.000000;1.577549
6788.000000;1.574782
6787.000000;1.571958
6786.000000;1.569128
6785.000000;1.566184
6784.000000;1.563181
6783.000000;1.560347
6782.000000;1.557756
6781.000000;1.555249
6780.000000;1.552716
6779.000000;1.550250
6778.000000;1.547917
6777.000000;1.545587
6776.000000;1.543087
6775.000000;1.540372
6774.000000;1.537436
6773.000000;1.534267
6772.000000;1.531052
6771.000000;1.528261
6770.000000;1.526254
6769.000000;1.524776
6768.000000;1.523042
6767.000000;1.520481
6766.000000;1.517310
6765.000000;1.514275
6764.000000;1.511870
6763.000000;1.509911
6762.000000;1.507831
6761.000000;1.505271
6760.000000;1.502316
6759.000000;1.499306
6758.000000;1.496534
6757.000000;1.494111
6756.000000;1.491971
6755.000000;1.489948
6754.000000;1.487856
6753.000000;1.485499
6752.000000;1.482680
6751.000000;1.479362
6750.000000;1.475873
6749.000000;1.472778
6748.000000;1.470373
6747.000000;1.468347
6746.000000;1.466112
6745.000000;1.463418
6744.000000;1.460493
6743.000000;1.457634
6742.000000;1.454921
6741.000000;1.452338
6740.000000;1.449935
6739.000000;1.447725
6738.000000;1.445555
6737.000000;1.443223
6736.000000;1.440691
6735.000000;1.438085
6734.000000;1.435533
6733.000000;1.433045
6732.000000;1.430521
6731.000000;1.427869
6730.000000;1.425130
6729.000000;1.422459
6728.000000;1.419941
6727.000000;1.417461
6726.000000;1.414829
6725.000000;1.411996
6724.000000;1.409069
6723.000000;1.406173
6722.000000;1.403419
6721.000000;1.400904
6720.000000;1.398598
6719.000000;1.396289
6718.000000;1.393815
6717.000000;1.391268
6716.000000;1.388779
6715.000000;1.386195
6714.000000;1.383279
6713.000000;1.380217
6712.000000;1.377576
6711.000000;1.375638
6710.000000;1.374048
6709.000000;1.372242
6708.000000;1.370009
6707.000000;1.367457
6706.000000;1.364668
6705.000000;1.361720
6704.000000;1.358775
6703.000000;1.356020
6702.000000;1.353325
6701.000000;1.350580
6700.000000;1.347866
6699.000000;1.345241
6698.000000;1.342789
6697.000000;1.340353
6696.000000;1.337833
6695.000000;1.335311
6694.000000;1.332955
6693.000000;1.330766
6692.000000;1.328541
6691.000000;1.326073
6690.000000;1.323385
6689.000000;1.320707
6688.000000;1.318216
6687.000000;1.315857
6686.000000;1.313499
6685.000000;1.311165
6684.000000;1.308973
6683.000000;1.306884
6682.000000;1.304720
6681.000000;1.302437
6680.000000;1.300185
6679.000000;1.298008
6678.000000;1.295660
6677.000000;1.292901
6676.000000;1.289877
6675.000000;1.287029
6674.000000;1.284643
6673.000000;1.282594
6672.000000;1.280508
6671.000000;1.278099
6670.000000;1.275400
6669.000000;1.272714
6668.000000;1.270363
6667.000000;1.268407
6666.000000;1.266620
6665.000000;1.264699
6664.000000;1.262472
6663.000000;1.259961
6662.000000;1.257340
6661.000000;1.254874
6660.000000;1.252743
6659.000000;1.250867
6658.000000;1.248966
6657.000000;1.246855
6656.000000;1.244595
6655.000000;1.242331
6654.000000;1.240082
6653.000000;1.237773
6652.000000;1.235389
6651.000000;1.232994
6650.000000;1.230662
6649.000000;1.228455
6648.000000;1.226389
6647.000000;1.224366
6646.000000;1.222213
6645.000000;1.219894
6644.000000;1.217601
6643.000000;1.215523
6642.000000;1.213595
6641.000000;1.211567
6640.000000;1.209304
6639.000000;1.206888
6638.000000;1.204475
6637.000000;1.202166
6636.000000;1.200023
6635.000000;1.198068
6634.000000;1.196197
6633.000000;1.194218
6632.000000;1.192041
6631.000000;1.189797
6630.000000;1.187704
6629.000000;1.185839
6628.000000;1.184069
6627.000000;1.182207
6626.000000;1.180181
6625.000000;1.178062
6624.000000;1.175950
6623.000000;1.173885
6622.000000;1.171847
6621.000000;1.169803
6620.000000;1.167713
6619.000000;1.165531
6618.000000;1.163248
6617.000000;1.160953
6616.000000;1.158802
6615.000000;1.156901
6614.000000;1.155224
6613.000000;1.153627
6612.000000;1.151928
6611.000000;1.149995
6610.000000;1.147820
6609.000000;1.145538
6608.000000;1.143339
6607.000000;1.141346
6606.000000;1.139568
6605.000000;1.137911
6604.000000;1.136213
6603.000000;1.134313
6602.000000;1.132179
6601.000000;1.129972
6600.000000;1.127905
6599.000000;1.126037
6598.000000;1.124250
6597.000000;1.122424
6596.000000;1.120555
6595.000000;1.118699
6594.000000;1.116881
6593.000000;1.115105
6592.000000;1.113368
6591.000000;1.111650
6590.000000;1.109910
6589.000000;1.108136
6588.000000;1.106340
6587.000000;1.104521
6586.000000;1.102675
6585.000000;1.100859
6584.000000;1.099142
6583.000000;1.097496
6582.000000;1.095791
6581.000000;1.093956
6580.000000;1.092052
6579.000000;1.090172
6578.000000;1.088349
6577.000000;1.086589
6576.000000;1.084919
6575.000000;1.083320
6574.000000;1.081678
6573.000000;1.079894
6572.000000;1.078000
6571.000000;1.076120
6570.000000;1.074344
6569.000000;1.072686
6568.000000;1.071100
6567.000000;1.069501
6566.000000;1.067808
6565.000000;1.066041
6564.000000;1.064331
6563.000000;1.062778
6562.000000;1.061338
6561.000000;1.059894
6560.000000;1.058384
6559.000000;1.056797
6558.000000;1.055121
6557.000000;1.053382
6556.000000;1.051698
6555.000000;1.050158
6554.000000;1.048682
6553.000000;1.047086
6552.000000;1.045317
6551.000000;1.043496
6550.000000;1.041748
6549.000000;1.040075
6548.000000;1.038427
6547.000000;1.036798
6546.000000;1.035201
6545.000000;1.033624
6544.000000;1.032079
6543.000000;1.030618
6542.000000;1.029244
6541.000000;1.027840
6540.000000;1.026283
6539.000000;1.024606
6538.000000;1.022966
6537.000000;1.021464
6536.000000;1.020045
6535.000000;1.018585
6534.000000;1.017033
6533.000000;1.015444
6532.000000;1.013912
6531.000000;1.012498
6530.000000;1.011204
6529.000000;1.009961
6528.000000;1.008668
6527.000000;1.007248
6526.000000;1.005695
6525.000000;1.004060
6524.000000;1.002415
6523.000000;1.000823
6522.000000;0.999344
6521.000000;0.998009
6520.000000;0.996768
6519.000000;0.995489
6518.000000;0.994072
6517.000000;0.992559
6516.000000;0.991094
6515.000000;0.989759
6514.000000;0.988492
6513.000000;0.987177
6512.000000;0.985782
6511.000000;0.984368
6510.000000;0.982993
6509.000000;0.981662
6508.000000;0.980353
6507.000000;0.979038
6506.000000;0.977677
6505.000000;0.976250
6504.000000;0.974817
6503.000000;0.973480
6502.000000;0.972261
6501.000000;0.971067
6500.000000;0.969824
6499.000000;0.968581
6498.000000;0.967426
6497.000000;0.966320
6496.000000;0.965130
6495.000000;0.963801
6494.000000;0.962437
6493.000000;0.961133
6492.000000;0.959844
6491.000000;0.958456
6490.000000;0.956958
6489.000000;0.955454
6488.000000;0.954034
6487.000000;0.952702
6486.000000;0.951437
6485.000000;0.950238
6484.000000;0.949108
6483.000000;0.948015
6482.000000;0.946910
6481.000000;0.945755
6480.000000;0.944515
6479.000000;0.943174
6478.000000;0.941773
6477.000000;0.940410
6476.000000;0.939168
6475.000000;0.938064
6474.000000;0.937058
6473.000000;0.936096
6472.000000;0.935119
6471.000000;0.934070
6470.000000;0.932935
6469.000000;0.931747
6468.000000;0.930541
6467.000000;0.929319
6466.000000;0.928071
6465.000000;0.926807
6464.000000;0.925547
6463.000000;0.924291
6462.000000;0.923040
6461.000000;0.921824
6460.000000;0.920685
6459.000000;0.919649
6458.000000;0.918711
6457.000000;0.917839
6456.000000;0.916948
6455.000000;0.915919
6454.000000;0.914710
6453.000000;0.913435
6452.000000;0.912277
6451.000000;0.911302
6450.000000;0.910398
6449.000000;0.909409
6448.000000;0.908288
6447.000000;0.907103
6446.000000;0.905931
6445.000000;0.904793
6444.000000;0.903664
6443.000000;0.902524
6442.000000;0.901382
6441.000000;0.900276
6440.000000;0.899235
6439.000000;0.898245
6438.000000;0.897257
6437.000000;0.896248
6436.000000;0.895251
6435.000000;0.894304
6434.000000;0.893390
6433.000000;0.892455
6432.000000;0.891469
6431.000000;0.890449
6430.000000;0.889419
6429.000000;0.888371
6428.000000;0.887289
6427.000000;0.886184
6426.000000;0.885099
6425.000000;0.884083
6424.000000;0.883156
6423.000000;0.882294
6422.000000;0.881434
6421.000000;0.880513
6420.000000;0.879511
6419.000000;0.878469
6418.000000;0.877471
6417.000000;0.876586
6416.000000;0.875821
6415.000000;0.875105
6414.000000;0.874329
6413.000000;0.873413
6412.000000;0.872383
6411.000000;0.871337
6410.000000;0.870344
6409.000000;0.869379
6408.000000;0.868374
6407.000000;0.867325
6406.000000;0.866310
6405.000000;0.865388
6404.000000;0.864542
6403.000000;0.863710
6402.000000;0.862852
6401.000000;0.861961
6400.000000;0.861048
6399.000000;0.860153
6398.000000;0.859341
6397.000000;0.858631
6396.000000;0.857936
6395.000000;0.857142
6394.000000;0.856239
6393.000000;0.855325
6392.000000;0.854469
6391.000000;0.853619
6390.000000;0.852699
6389.000000;0.851730
6388.000000;0.850814
6387.000000;0.850013
6386.000000;0.849296
6385.000000;0.848607
6384.000000;0.847930
6383.000000;0.847263
6382.000000;0.846573
6381.000000;0.845823
6380.000000;0.845019
6379.000000;0.844204
6378.000000;0.843403
6377.000000;0.842597
6376.000000;0.841758
6375.000000;0.840883
6374.000000;0.839979
6373.000000;0.839048
6372.000000;0.838125
6371.000000;0.837288
6370.000000;0.836583
6369.000000;0.835938
6368.000000;0.835217
6367.000000;0.834369
6366.000000;0.833494
6365.000000;0.832724
6364.000000;0.832080
6363.000000;0.831483
6362.000000;0.830851
6361.000000;0.830152
6360.000000;0.829380
6359.000000;0.828551
6358.000000;0.827732
6357.000000;0.827012
6356.000000;0.826404
6355.000000;0.825832
6354.000000;0.825209
6353.000000;0.824531
6352.000000;0.823855
6351.000000;0.823215
6350.000000;0.822583
6349.000000;0.821914
6348.000000;0.821201
6347.000000;0.820483
6346.000000;0.819800
6345.000000;0.819139
6344.000000;0.818438
6343.000000;0.817663
6342.000000;0.816860
6341.000000;0.816107
6340.000000;0.815424
6339.000000;0.814744
6338.000000;0.813984
6337.000000;0.813125
6336.000000;0.812229
6335.000000;0.811401
6334.000000;0.810738
6333.000000;0.810268
6332.000000;0.809912
6331.000000;0.809522
6330.000000;0.808989
6329.000000;0.808314
6328.000000;0.807595
6327.000000;0.806938
6326.000000;0.806372
6325.000000;0.805822
6324.000000;0.805187
6323.000000;0.804451
6322.000000;0.803717
6321.000000;0.803085
6320.000000;0.802518
6319.000000;0.801888
6318.000000;0.801145
6317.000000;0.800395
6316.000000;0.799769
6315.000000;0.799269
6314.000000;0.798782
6313.000000;0.798217
6312.000000;0.797582
6311.000000;0.796936
6310.000000;0.796321
6309.000000;0.795730
6308.000000;0.795133
6307.000000;0.794510
6306.000000;0.793868
6305.000000;0.793232
6304.000000;0.792629
6303.000000;0.792081
6302.000000;0.791595
6301.000000;0.791157
6300.000000;0.790708
6299.000000;0.790183
6298.000000;0.789571
6297.000000;0.788939
6296.000000;0.788374
6295.000000;0.787903
6294.000000;0.787475
6293.000000;0.787008
6292.000000;0.786450
6291.000000;0.785810
6290.000000;0.785148
6289.000000;0.784541
6288.000000;0.784036
6287.000000;0.783620
6286.000000;0.783234
6285.000000;0.782809
6284.000000;0.782301
6283.000000;0.781718
6282.000000;0.781111
6281.000000;0.780538
6280.000000;0.780018
6279.000000;0.779529
6278.000000;0.779030
6277.000000;0.778504
6276.000000;0.777969
6275.000000;0.777462
6274.000000;0.776986
6273.000000;0.776489
6272.000000;0.775916
6271.000000;0.775286
6270.000000;0.774685
6269.000000;0.774175
6268.000000;0.773735
6267.000000;0.773317
6266.000000;0.772911
6265.000000;0.772520
6264.000000;0.772100
6263.000000;0.771605
6262.000000;0.771057
6261.000000;0.770535
6260.000000;0.770072
6259.000000;0.769625
6258.000000;0.769140
6257.000000;0.768618
6256.000000;0.768092
6255.000000;0.767595
6254.000000;0.767142
6253.000000;0.766733
6252.000000;0.766340
6251.000000;0.765922
6250.000000;0.765471
6249.000000;0.765006
6248.000000;0.764541
6247.000000;0.764060
6246.000000;0.763558
6245.000000;0.763062
6244.000000;0.762606
6243.000000;0.762204
6242.000000;0.761842
6241.000000;0.761490
6240.000000;0.761103
6239.000000;0.760655
6238.000000;0.760164
6237.000000;0.759668
6236.000000;0.759172
6235.000000;0.758665
6234.000000;0.758169
6233.000000;0.757742
6232.000000;0.757399
6231.000000;0.757082
6230.000000;0.756720
6229.000000;0.756303
6228.000000;0.755876
6227.000000;0.755490
6226.000000;0.755160
6225.000000;0.754861
6224.000000;0.754531
6223.000000;0.754114
6222.000000;0.753615
6221.000000;0.753105
6220.000000;0.752655
6219.000000;0.752277
6218.000000;0.751918
6217.000000;0.751513
6216.000000;0.751050
6215.000000;0.750585
6214.000000;0.750198
6213.000000;0.749892
6212.000000;0.749581
6211.000000;0.749191
6210.000000;0.748764
6209.000000;0.748401
6208.000000;0.748132
6207.000000;0.747889
6206.000000;0.747602
6205.000000;0.747258
6204.000000;0.746856
6203.000000;0.746385
6202.000000;0.745872
6201.000000;0.745399
6200.000000;0.745019
6199.000000;0.744700
6198.000000;0.744384
6197.000000;0.744061
6196.000000;0.743758
6195.000000;0.743468
6194.000000;0.743164
6193.000000;0.742829
6192.000000;0.742472
6191.000000;0.742094
6190.000000;0.741690
6189.000000;0.741264
6188.000000;0.740823
6187.000000;0.740375
6186.000000;0.739949
6185.000000;0.739592
6184.000000;0.739322
6183.000000;0.739099
6182.000000;0.738864
6181.000000;0.738588
6180.000000;0.738270
6179.000000;0.737914
6178.000000;0.737540
6177.000000;0.737185
6176.000000;0.736870
6175.000000;0.736570
6174.000000;0.736256
6173.000000;0.735939
6172.000000;0.735659
6171.000000;0.735424
6170.000000;0.735194
6169.000000;0.734916
6168.000000;0.734571
6167.000000;0.734185
6166.000000;0.733812
6165.000000;0.733496
6164.000000;0.733245
6163.000000;0.733032
6162.000000;0.732833
6161.000000;0.732629
6160.000000;0.732379
6159.000000;0.732045
6158.000000;0.731653
6157.000000;0.731288
6156.000000;0.730993
6155.000000;0.730714
6154.000000;0.730370
6153.000000;0.729968
6152.000000;0.729582
6151.000000;0.729261
6150.000000;0.728979
6149.000000;0.728694
6148.000000;0.728393
6147.000000;0.728091
6146.000000;0.727814
6145.000000;0.727584
6144.000000;0.727393
6143.000000;0.727201
6142.000000;0.726969
6141.000000;0.726705
6140.000000;0.726453
6139.000000;0.726229
6138.000000;0.726001
6137.000000;0.725733
6136.000000;0.725436
6135.000000;0.725140
6134.000000;0.724857
6133.000000;0.724572
6132.000000;0.724272
6131.000000;0.723955
6130.000000;0.723626
6129.000000;0.723288
6128.000000;0.722958
6127.000000;0.722683
6126.000000;0.722513
6125.000000;0.722446
6124.000000;0.722412
6123.000000;0.722316
6122.000000;0.722107
6121.000000;0.721800
6120.000000;0.721449
6119.000000;0.721104
6118.000000;0.720789
6117.000000;0.720488
6116.000000;0.720159
6115.000000;0.719776
6114.000000;0.719373
6113.000000;0.719024
6112.000000;0.718774
6111.000000;0.718596
6110.000000;0.718429
6109.000000;0.718227
6108.000000;0.717982
6107.000000;0.717723
6106.000000;0.717499
6105.000000;0.717347
6104.000000;0.717251
6103.000000;0.717145
6102.000000;0.716965
6101.000000;0.716696
6100.000000;0.716376
6099.000000;0.716072
6098.000000;0.715828
6097.000000;0.715648
6096.000000;0.715482
6095.000000;0.715276
6094.000000;0.715019
6093.000000;0.714749
6092.000000;0.714518
6091.000000;0.714343
6090.000000;0.714204
6089.000000;0.714063
6088.000000;0.713888
6087.000000;0.713679
6086.000000;0.713468
6085.000000;0.713286
6084.000000;0.713132
6083.000000;0.712981
6082.000000;0.712815
6081.000000;0.712627
6080.000000;0.712421
6079.000000;0.712225
6078.000000;0.712081
6077.000000;0.711991
6076.000000;0.711888
6075.000000;0.711682
6074.000000;0.711359
6073.000000;0.710989
6072.000000;0.710640
6071.000000;0.710336
6070.000000;0.710074
6069.000000;0.709861
6068.000000;0.709701
6067.000000;0.709572
6066.000000;0.709454
6065.000000;0.709339
6064.000000;0.709218
6063.000000;0.709075
6062.000000;0.708913
6061.000000;0.708761
6060.000000;0.708633
6059.000000;0.708503
6058.000000;0.708343
6057.000000;0.708157
6056.000000;0.707972
6055.000000;0.707800
6054.000000;0.707633
6053.000000;0.707458
6052.000000;0.707265
6051.000000;0.707051
6050.000000;0.706838
6049.000000;0.706653
6048.000000;0.706493
6047.000000;0.706323
6046.000000;0.706131
6045.000000;0.705953
6044.000000;0.705831
6043.000000;0.705767
6042.000000;0.705730
6041.000000;0.705703
6040.000000;0.705681
6039.000000;0.705644
6038.000000;0.705553
6037.000000;0.705381
6036.000000;0.705141
6035.000000;0.704875
6034.000000;0.704635
6033.000000;0.704457
6032.000000;0.704331
6031.000000;0.704216
6030.000000;0.704079
6029.000000;0.703929
6028.000000;0.703808
6027.000000;0.703742
6026.000000;0.703710
6025.000000;0.703659
6024.000000;0.703547
6023.000000;0.703382
6022.000000;0.703227
6021.000000;0.703147
6020.000000;0.703148
6019.000000;0.703170
6018.000000;0.703140
6017.000000;0.703028
6016.000000;0.702866
6015.000000;0.702723
6014.000000;0.702650
6013.000000;0.702634
6012.000000;0.702609
6011.000000;0.702525
6010.000000;0.702401
6009.000000;0.702292
6008.000000;0.702204
6007.000000;0.702097
6006.000000;0.701950
6005.000000;0.701792
6004.000000;0.701657
6003.000000;0.701551
6002.000000;0.701466
6001.000000;0.701410
6000.000000;0.701373
5999.000000;0.701313
5998.000000;0.701186
5997.000000;0.701002
5996.000000;0.700826
5995.000000;0.700720
5994.000000;0.700695
5993.000000;0.700705
5992.000000;0.700688
5991.000000;0.700627
5990.000000;0.700565
5989.000000;0.700549
5988.000000;0.700571
5987.000000;0.700578
5986.000000;0.700558
5985.000000;0.700562
5984.000000;0.700640
5983.000000;0.700763
5982.000000;0.700845
5981.000000;0.700816
5980.000000;0.700679
5979.000000;0.700495
5978.000000;0.700338
5977.000000;0.700248
5976.000000;0.700207
5975.000000;0.700163
5974.000000;0.700075
5973.000000;0.699946
5972.000000;0.699811
5971.000000;0.699712
5970.000000;0.699674
5969.000000;0.699705
5968.000000;0.699782
5967.000000;0.699872
5966.000000;0.699942
5965.000000;0.699966
5964.000000;0.699924
5963.000000;0.699826
5962.000000;0.699724
5961.000000;0.699685
5960.000000;0.699721
5959.000000;0.699780
5958.000000;0.699803
5957.000000;0.699782
5956.000000;0.699762
5955.000000;0.699789
5954.000000;0.699869
5953.000000;0.699970
5952.000000;0.700051
5951.000000;0.700094
5950.000000;0.700120
5949.000000;0.700149
5948.000000;0.700170
5947.000000;0.700146
5946.000000;0.700062
5945.000000;0.699943
5944.000000;0.699832
5943.000000;0.699762
5942.000000;0.699742
5941.000000;0.699763
5940.000000;0.699814
5939.000000;0.699890
5938.000000;0.699987
5937.000000;0.700083
5936.000000;0.700156
5935.000000;0.700211
5934.000000;0.700282
5933.000000;0.700378
5932.000000;0.700464
5931.000000;0.700503
5930.000000;0.700510
5929.000000;0.700519
5928.000000;0.700548
5927.000000;0.700603
5926.000000;0.700702
5925.000000;0.700839
5924.000000;0.700954
5923.000000;0.700985
5922.000000;0.700950
5921.000000;0.700935
5920.000000;0.701011
5919.000000;0.701180
5918.000000;0.701399
5917.000000;0.701606
5916.000000;0.701740
5915.000000;0.701767
5914.000000;0.701722
5913.000000;0.701675
5912.000000;0.701660
5911.000000;0.701677
5910.000000;0.701736
5909.000000;0.701869
5908.000000;0.702067
5907.000000;0.702266
5906.000000;0.702398
5905.000000;0.702451
5904.000000;0.702460
5903.000000;0.702471
5902.000000;0.702520
5901.000000;0.702617
5900.000000;0.702737
5899.000000;0.702847
5898.000000;0.702933
5897.000000;0.703002
5896.000000;0.703059
5895.000000;0.703127
5894.000000;0.703245
5893.000000;0.703422
5892.000000;0.703588
5891.000000;0.703669
5890.000000;0.703682
5889.000000;0.703726
5888.000000;0.703865
5887.000000;0.704068
5886.000000;0.704275
5885.000000;0.704457
5884.000000;0.704602
5883.000000;0.704703
5882.000000;0.704784
5881.000000;0.704907
5880.000000;0.705100
5879.000000;0.705326
5878.000000;0.705525
5877.000000;0.705671
5876.000000;0.705758
5875.000000;0.705796
5874.000000;0.705818
5873.000000;0.705872
5872.000000;0.705975
5871.000000;0.706104
5870.000000;0.706246
5869.000000;0.706427
5868.000000;0.706667
5867.000000;0.706943
5866.000000;0.707219
5865.000000;0.707483
5864.000000;0.707726
5863.000000;0.707930
5862.000000;0.708083
5861.000000;0.708202
5860.000000;0.708303
5859.000000;0.708385
5858.000000;0.708461
5857.000000;0.708578
5856.000000;0.708772
5855.000000;0.709029
5854.000000;0.709303
5853.000000;0.709571
5852.000000;0.709837
5851.000000;0.710101
5850.000000;0.710360
5849.000000;0.710614
5848.000000;0.710859
5847.000000;0.711093
5846.000000;0.711328
5845.000000;0.711590
5844.000000;0.711875
5843.000000;0.712141
5842.000000;0.712360
5841.000000;0.712560
5840.000000;0.712793
5839.000000;0.713071
5838.000000;0.713361
5837.000000;0.713627
5836.000000;0.713864
5835.000000;0.714098
5834.000000;0.714364
5833.000000;0.714675
5832.000000;0.715003
5831.000000;0.715295
5830.000000;0.715528
5829.000000;0.715737
5828.000000;0.715982
5827.000000;0.716297
5826.000000;0.716665
5825.000000;0.717040
5824.000000;0.717374
5823.000000;0.717649
5822.000000;0.717888
5821.000000;0.718137
5820.000000;0.718431
5819.000000;0.718772
5818.000000;0.719139
5817.000000;0.719509
5816.000000;0.719852
5815.000000;0.720153
5814.000000;0.720435
5813.000000;0.720752
5812.000000;0.721147
5811.000000;0.721600
5810.000000;0.722046
5809.000000;0.722424
5808.000000;0.722721
5807.000000;0.722980
5806.000000;0.723260
5805.000000;0.723598
5804.000000;0.723996
5803.000000;0.724437
5802.000000;0.724906
5801.000000;0.725371
5800.000000;0.725780
5799.000000;0.726102
5798.000000;0.726372
5797.000000;0.726668
5796.000000;0.727039
5795.000000;0.727472
5794.000000;0.727916
5793.000000;0.728336
5792.000000;0.728742
5791.000000;0.729181
5790.000000;0.729697
5789.000000;0.730270
5788.000000;0.730821
5787.000000;0.731293
5786.000000;0.731704
5785.000000;0.732110
5784.000000;0.732528
5783.000000;0.732938
5782.000000;0.733335
5781.000000;0.733733
5780.000000;0.734125
5779.000000;0.734498
5778.000000;0.734886
5777.000000;0.735358
5776.000000;0.735941
5775.000000;0.736593
5774.000000;0.737234
5773.000000;0.737807
5772.000000;0.738301
5771.000000;0.738750
5770.000000;0.739224
5769.000000;0.739766
5768.000000;0.740341
5767.000000;0.740879
5766.000000;0.741348
5765.000000;0.741775
5764.000000;0.742196
5763.000000;0.742635
5762.000000;0.743125
5761.000000;0.743681
5760.000000;0.744267
5759.000000;0.744821
5758.000000;0.745331
5757.000000;0.745856
5756.000000;0.746442
5755.000000;0.747076
5754.000000;0.747722
5753.000000;0.748353
5752.000000;0.748946
5751.000000;0.749498
5750.000000;0.750052
5749.000000;0.750672
5748.000000;0.751369
5747.000000;0.752092
5746.000000;0.752810
5745.000000;0.753543
5744.000000;0.754301
5743.000000;0.755027
5742.000000;0.755650
5741.000000;0.756164
5740.000000;0.756627
5739.000000;0.757107
5738.000000;0.757648
5737.000000;0.758264
5736.000000;0.758937
5735.000000;0.759643
5734.000000;0.760375
5733.000000;0.761137
5732.000000;0.761907
5731.000000;0.762630
5730.000000;0.763279
5729.000000;0.763885
5728.000000;0.764501
5727.000000;0.765152
5726.000000;0.765831
5725.000000;0.766527
5724.000000;0.767224
5723.000000;0.767918
5722.000000;0.768626
5721.000000;0.769364
5720.000000;0.770103
5719.000000;0.770805
5718.000000;0.771483
5717.000000;0.772211
5716.000000;0.773035
5715.000000;0.773906
5714.000000;0.774735
5713.000000;0.775468
5712.000000;0.776119
5711.000000;0.776732
5710.000000;0.777363
5709.000000;0.778058
5708.000000;0.778842
5707.000000;0.779723
5706.000000;0.780695
5705.000000;0.781734
5704.000000;0.782779
5703.000000;0.783763
5702.000000;0.784657
5701.000000;0.785469
5700.000000;0.786197
5699.000000;0.786845
5698.000000;0.787450
5697.000000;0.788137
5696.000000;0.788918
5695.000000;0.789763
5694.000000;0.790650
5693.000000;0.791531
5692.000000;0.792378
5691.000000;0.793163
5690.000000;0.793915
5689.000000;0.794693
5688.000000;0.795521
5687.000000;0.796359
5686.000000;0.797170
5685.000000;0.797970
5684.000000;0.798780
5683.000000;0.799576
5682.000000;0.800333
5681.000000;0.801083
5680.000000;0.801883
5679.000000;0.802751
5678.000000;0.803656
5677.000000;0.804572
5676.000000;0.805493
5675.000000;0.806400
5674.000000;0.807253
5673.000000;0.808023
5672.000000;0.808732
5671.000000;0.809441
5670.000000;0.810205
5669.000000;0.811031
5668.000000;0.811873
5667.000000;0.812681
5666.000000;0.813455
5665.000000;0.814230
5664.000000;0.815033
5663.000000;0.815862
5662.000000;0.816702
5661.000000;0.817535
5660.000000;0.818321
5659.000000;0.819021
5658.000000;0.819658
5657.000000;0.820333
5656.000000;0.821148
5655.000000;0.822116
5654.000000;0.823148
5653.000000;0.824120
5652.000000;0.824958
5651.000000;0.825674
5650.000000;0.826330
5649.000000;0.826957
5648.000000;0.827544
5647.000000;0.828100
5646.000000;0.828697
5645.000000;0.829410
5644.000000;0.830227
5643.000000;0.831067
5642.000000;0.831867
5641.000000;0.832622
5640.000000;0.833337
5639.000000;0.834008
5638.000000;0.834651
5637.000000;0.835307
5636.000000;0.835995
5635.000000;0.836691
5634.000000;0.837369
5633.000000;0.838031
5632.000000;0.838678
5631.000000;0.839297
5630.000000;0.839882
5629.000000;0.840447
5628.000000;0.840996
5627.000000;0.841524
5626.000000;0.842036
5625.000000;0.842558
5624.000000;0.843105
5623.000000;0.843668
5622.000000;0.844239
5621.000000;0.844814
5620.000000;0.845381
5619.000000;0.845940
5618.000000;0.846524
5617.000000;0.847158
5616.000000;0.847792
5615.000000;0.848330
5614.000000;0.848737
5613.000000;0.849075
5612.000000;0.849427
5611.000000;0.849824
5610.000000;0.850251
5609.000000;0.850677
5608.000000;0.851055
5607.000000;0.851360
5606.000000;0.851640
5605.000000;0.851987
5604.000000;0.852440
5603.000000;0.852940
5602.000000;0.853407
5601.000000;0.853813
5600.000000;0.854183
5599.000000;0.854547
5598.000000;0.854933
5597.000000;0.855338
5596.000000;0.855716
5595.000000;0.856023
5594.000000;0.856282
5593.000000;0.856554
5592.000000;0.856853
5591.000000;0.857127
5590.000000;0.857357
5589.000000;0.857599
5588.000000;0.857903
5587.000000;0.858229
5586.000000;0.858505
5585.000000;0.858707
5584.000000;0.858867
5583.000000;0.859014
5582.000000;0.859153
5581.000000;0.859288
5580.000000;0.859430
5579.000000;0.859587
5578.000000;0.859762
5577.000000;0.859951
5576.000000;0.860142
5575.000000;0.860349
5574.000000;0.860608
5573.000000;0.860940
5572.000000;0.861298
5571.000000;0.861618
5570.000000;0.861895
5569.000000;0.862145
5568.000000;0.862324
5567.000000;0.862355
5566.000000;0.862268
5565.000000;0.862203
5564.000000;0.862256
5563.000000;0.862387
5562.000000;0.862518
5561.000000;0.862628
5560.000000;0.862725
5559.000000;0.862799
5558.000000;0.862856
5557.000000;0.862951
5556.000000;0.863110
5555.000000;0.863263
5554.000000;0.863319
5553.000000;0.863277
5552.000000;0.863201
5551.000000;0.863135
5550.000000;0.863082
5549.000000;0.863058
5548.000000;0.863087
5547.000000;0.863158
5546.000000;0.863243
5545.000000;0.863335
5544.000000;0.863437
5543.000000;0.863524
5542.000000;0.863571
5541.000000;0.863607
5540.000000;0.863694
5539.000000;0.863845
5538.000000;0.864025
5537.000000;0.864204
5536.000000;0.864371
5535.000000;0.864495
5534.000000;0.864525
5533.000000;0.864463
5532.000000;0.864366
5531.000000;0.864291
5530.000000;0.864247
5529.000000;0.864222
5528.000000;0.864220
5527.000000;0.864267
5526.000000;0.864391
5525.000000;0.864576
5524.000000;0.864763
5523.000000;0.864925
5522.000000;0.865121
5521.000000;0.865422
5520.000000;0.865776
5519.000000;0.866009
5518.000000;0.866012
5517.000000;0.865863
5516.000000;0.865720
5515.000000;0.865650
5514.000000;0.865628
5513.000000;0.865647
5512.000000;0.865757
5511.000000;0.865964
5510.000000;0.866190
5509.000000;0.866380
5508.000000;0.866549
5507.000000;0.866717
5506.000000;0.866824
5505.000000;0.866796
5504.000000;0.866686
5503.000000;0.866674
5502.000000;0.866860
5501.000000;0.867133
5500.000000;0.867327
5499.000000;0.867462
5498.000000;0.867764
5497.000000;0.868350
5496.000000;0.868971
5495.000000;0.869288
5494.000000;0.869326
5493.000000;0.869455
5492.000000;0.869853
5491.000000;0.870198
5490.000000;0.870126
5489.000000;0.869791
5488.000000;0.869684
5487.000000;0.870011
5486.000000;0.870505
5485.000000;0.870831
5484.000000;0.870960
5483.000000;0.871084
5482.000000;0.871338
5481.000000;0.871742
5480.000000;0.872302
5479.000000;0.872925
5478.000000;0.873355
5477.000000;0.873438
5476.000000;0.873395
5475.000000;0.873675
5474.000000;0.874399
5473.000000;0.875138
5472.000000;0.875509
5471.000000;0.875692
5470.000000;0.876128
5469.000000;0.876966
5468.000000;0.877938
5467.000000;0.878700
5466.000000;0.879202
5465.000000;0.879624
5464.000000;0.880035
5463.000000;0.880357
5462.000000;0.880596
5461.000000;0.880933
5460.000000;0.881523
5459.000000;0.882285
5458.000000;0.883008
5457.000000;0.883643
5456.000000;0.884340
5455.000000;0.885236
5454.000000;0.886297
5453.000000;0.887307
5452.000000;0.888054
5451.000000;0.888594
5450.000000;0.889247
5449.000000;0.890184
5448.000000;0.891137
5447.000000;0.891780
5446.000000;0.892327
5445.000000;0.893292
5444.000000;0.894590
5443.000000;0.895551
5442.000000;0.895939
5441.000000;0.896383
5440.000000;0.897566
5439.000000;0.899296
5438.000000;0.900753
5437.000000;0.901559
5436.000000;0.902128
5435.000000;0.903132
5434.000000;0.904831
5433.000000;0.906782
5432.000000;0.908252
5431.000000;0.909025
5430.000000;0.909616
5429.000000;0.910727
5428.000000;0.912524
5427.000000;0.914472
5426.000000;0.916028
5425.000000;0.917259
5424.000000;0.918575
5423.000000;0.920208
5422.000000;0.922089
5421.000000;0.924001
5420.000000;0.925843
5419.000000;0.927783
5418.000000;0.930014
5417.000000;0.932349
5416.000000;0.934373
5415.000000;0.936036
5414.000000;0.937834
5413.000000;0.940142
5412.000000;0.942562
5411.000000;0.944500
5410.000000;0.946107
5409.000000;0.948032
5408.000000;0.950486
5407.000000;0.953101
5406.000000;0.955646
5405.000000;0.958311
5404.000000;0.961258
5403.000000;0.964318
5402.000000;0.967308
5401.000000;0.970317
5400.000000;0.973429
5399.000000;0.976578
5398.000000;0.979798
5397.000000;0.983152
5396.000000;0.986502
5395.000000;0.989670
5394.000000;0.992822
5393.000000;0.996361
5392.000000;1.000290
5391.000000;1.004189
5390.000000;1.007909
5389.000000;1.011759
5388.000000;1.015971
5387.000000;1.020394
5386.000000;1.024855
5385.000000;1.029459
5384.000000;1.034272
5383.000000;1.039109
5382.000000;1.043972
5381.000000;1.049214
5380.000000;1.054897
5379.000000;1.060579
5378.000000;1.065994
5377.000000;1.071519
5376.000000;1.077601
5375.000000;1.084024
5374.000000;1.090288
5373.000000;1.096460
5372.000000;1.103005
5371.000000;1.110074
5370.000000;1.117444
5369.000000;1.124971
5368.000000;1.132722
5367.000000;1.140677
5366.000000;1.148665
5365.000000;1.156702
5364.000000;1.165051
5363.000000;1.173839
5362.000000;1.182892
5361.000000;1.192015
5360.000000;1.201206
5359.000000;1.210637
5358.000000;1.220478
5357.000000;1.230733
5356.000000;1.241261
5355.000000;1.251994
5354.000000;1.263119
5353.000000;1.274860
5352.000000;1.287037
5351.000000;1.299214
5350.000000;1.311432
5349.000000;1.324234
5348.000000;1.337741
5347.000000;1.351368
5346.000000;1.364760
5345.000000;1.378563
5344.000000;1.393721
5343.000000;1.410022
5342.000000;1.426103
5341.000000;1.441194
5340.000000;1.456020
5339.000000;1.471942
5338.000000;1.489709
5337.000000;1.508792
5336.000000;1.527918
5335.000000;1.546392
5334.000000;1.564677
5333.000000;1.583733
5332.000000;1.604060
5331.000000;1.625318
5330.000000;1.646827
5329.000000;1.668354
5328.000000;1.690209
5327.000000;1.712811
5326.000000;1.736233
5325.000000;1.760108
5324.000000;1.784119
5323.000000;1.808507
5322.000000;1.833763
5321.000000;1.859834
5320.000000;1.885944
5319.000000;1.911520
5318.000000;1.936991
5317.000000;1.963154
5316.000000;1.990048
5315.000000;2.017175
5314.000000;2.044566
5313.000000;2.072713
5312.000000;2.101570
5311.000000;2.130451
5310.000000;2.158978
5309.000000;2.187341
5308.000000;2.215565
5307.000000;2.243409
5306.000000;2.270931
5305.000000;2.298287
5304.000000;2.325105
5303.000000;2.350726
5302.000000;2.374749
5301.000000;2.396749
5300.000000;2.416429
5299.000000;2.434989
5298.000000;2.454851
5297.000000;2.476660
5296.000000;2.498148
5295.000000;2.517446
5294.000000;2.535602
5293.000000;2.553752
5292.000000;2.570075
5291.000000;2.582345
5290.000000;2.591892
5289.000000;2.601754
5288.000000;2.612263
5287.000000;2.621715
5286.000000;2.629641
5285.000000;2.636670
5284.000000;2.642885
5283.000000;2.648502
5282.000000;2.654412
5281.000000;2.659993
5280.000000;2.662454
5279.000000;2.660705
5278.000000;2.657743
5277.000000;2.657032
5276.000000;2.658946
5275.000000;2.662126
5274.000000;2.665667
5273.000000;2.668498
5272.000000;2.669359
5271.000000;2.669451
5270.000000;2.672414
5269.000000;2.679394
5268.000000;2.686419
5267.000000;2.688874
5266.000000;2.686792
5265.000000;2.683117
5264.000000;2.679524
5263.000000;2.676762
5262.000000;2.675938
5261.000000;2.677033
5260.000000;2.678136
5259.000000;2.678000
5258.000000;2.677876
5257.000000;2.678644
5256.000000;2.678792
5255.000000;2.677856
5254.000000;2.678748
5253.000000;2.683323
5252.000000;2.688291
5251.000000;2.689065
5250.000000;2.685679
5249.000000;2.681866
5248.000000;2.680077
5247.000000;2.680085
5246.000000;2.681246
5245.000000;2.683338
5244.000000;2.685652
5243.000000;2.687196
5242.000000;2.687082
5241.000000;2.684081
5240.000000;2.677931
5239.000000;2.671680
5238.000000;2.669982
5237.000000;2.673607
5236.000000;2.678023
5235.000000;2.679373
5234.000000;2.679474
5233.000000;2.682165
5232.000000;2.687172
5231.000000;2.690582
5230.000000;2.689940
5229.000000;2.686261
5228.000000;2.682160
5227.000000;2.680649
5226.000000;2.684139
5225.000000;2.691539
5224.000000;2.697539
5223.000000;2.697716
5222.000000;2.693267
5221.000000;2.688397
5220.000000;2.685467
5219.000000;2.684652
5218.000000;2.685549
5217.000000;2.686927
5216.000000;2.686889
5215.000000;2.685325
5214.000000;2.684832
5213.000000;2.687127
5212.000000;2.689740
5211.000000;2.688921
5210.000000;2.684980
5209.000000;2.681552
5208.000000;2.680706
5207.000000;2.681978
5206.000000;2.684878
5205.000000;2.688929
5204.000000;2.691606
5203.000000;2.689941
5202.000000;2.684929
5201.000000;2.681260
5200.000000;2.682013
5199.000000;2.685592
5198.000000;2.688152
5197.000000;2.687752
5196.000000;2.685546
5195.000000;2.683821
5194.000000;2.683625
5193.000000;2.683944
5192.000000;2.683256
5191.000000;2.681996
5190.000000;2.682374
5189.000000;2.685140
5188.000000;2.687519
5187.000000;2.685819
5186.000000;2.679958
5185.000000;2.673834
5184.000000;2.671296
5183.000000;2.672840
5182.000000;2.675825
5181.000000;2.677030
5180.000000;2.675464
5179.000000;2.673466
5178.000000;2.674351
5177.000000;2.678745
5176.000000;2.684021
5175.000000;2.687283
5174.000000;2.688008
5173.000000;2.687292
5172.000000;2.685873
5171.000000;2.684212
5170.000000;2.683284
5169.000000;2.683607
5168.000000;2.683903
5167.000000;2.682080
5166.000000;2.677811
5165.000000;2.673517
5164.000000;2.672517
5163.000000;2.676152
5162.000000;2.682268
5161.000000;2.686689
5160.000000;2.686867
5159.000000;2.683953
5158.000000;2.680765
5157.000000;2.678587
5156.000000;2.676843
5155.000000;2.674914
5154.000000;2.672982
5153.000000;2.671584
5152.000000;2.671545
5151.000000;2.673881
5150.000000;2.678103
5149.000000;2.681155
5148.000000;2.680473
5147.000000;2.677559
5146.000000;2.676010
5145.000000;2.676970
5144.000000;2.678885
5143.000000;2.681089
5142.000000;2.684793
5141.000000;2.689995
5140.000000;2.694009
5139.000000;2.694327
5138.000000;2.691584
5137.000000;2.688449
5136.000000;2.686626
5135.000000;2.686110
5134.000000;2.686129
5133.000000;2.685618
5132.000000;2.683806
5131.000000;2.681226
5130.000000;2.679154
5129.000000;2.677752
5128.000000;2.676011
5127.000000;2.673660
5126.000000;2.671585
5125.000000;2.670300
5124.000000;2.669798
5123.000000;2.670884
5122.000000;2.674554
5121.000000;2.679547
5120.000000;2.682499
5119.000000;2.681701
5118.000000;2.678915
5117.000000;2.676730
5116.000000;2.676321
5115.000000;2.678213
5114.000000;2.682755
5113.000000;2.688429
5112.000000;2.691330
5111.000000;2.688769
5110.000000;2.682583
5109.000000;2.676996
5108.000000;2.674785
5107.000000;2.676406
5106.000000;2.680644
5105.000000;2.684993
5104.000000;2.686980
5103.000000;2.686328
5102.000000;2.684556
5101.000000;2.682136
5100.000000;2.678185
5099.000000;2.673344
5098.000000;2.670554
5097.000000;2.671943
5096.000000;2.676474
5095.000000;2.681566
5094.000000;2.685244
5093.000000;2.685474
5092.000000;2.680361
5091.000000;2.671617
5090.000000;2.665268
5089.000000;2.666279
5088.000000;2.673541
5087.000000;2.681239
5086.000000;2.684589
5085.000000;2.682999
5084.000000;2.678267
5083.000000;2.672466
5082.000000;2.667898
5081.000000;2.666738
5080.000000;2.669315
5079.000000;2.673167
5078.000000;2.674666
5077.000000;2.672095
5076.000000;2.667237
5075.000000;2.663746
5074.000000;2.663708
5073.000000;2.665713
5072.000000;2.666572
5071.000000;2.664918
5070.000000;2.662286
5069.000000;2.660666
5068.000000;2.660262
5067.000000;2.660026
5066.000000;2.659309
5065.000000;2.658432
5064.000000;2.658244
5063.000000;2.659406
5062.000000;2.661511
5061.000000;2.662940
5060.000000;2.662463
5059.000000;2.660494
5058.000000;2.657621
5057.000000;2.652710
5056.000000;2.644633
5055.000000;2.635730
5054.000000;2.631007
5053.000000;2.633388
5052.000000;2.641121
5051.000000;2.649859
5050.000000;2.656270
5049.000000;2.659505
5048.000000;2.660573
5047.000000;2.660948
5046.000000;2.660534
5045.000000;2.656776
5044.000000;2.647789
5043.000000;2.636817
5042.000000;2.630862
5041.000000;2.633966
5040.000000;2.643286
5039.000000;2.651881
5038.000000;2.654428
5037.000000;2.650108
5036.000000;2.641718
5035.000000;2.633746
5034.000000;2.630039
5033.000000;2.631242
5032.000000;2.634365
5031.000000;2.635783
5030.000000;2.634265
5029.000000;2.630369
5028.000000;2.624410
5027.000000;2.616897
5026.000000;2.610037
5025.000000;2.606796
5024.000000;2.608266
5023.000000;2.612655
5022.000000;2.616709
5021.000000;2.617804
5020.000000;2.615339
5019.000000;2.610893
5018.000000;2.607049
5017.000000;2.605591
5016.000000;2.606572
5015.000000;2.608754
5014.000000;2.610430
5013.000000;2.609990
5012.000000;2.606760
5011.000000;2.601664
5010.000000;2.596320
5009.000000;2.591622
5008.000000;2.588086
5007.000000;2.586868
5006.000000;2.588590
5005.000000;2.590951
5004.000000;2.589638
5003.000000;2.583106
5002.000000;2.574869
5001.000000;2.569525
5000.000000;2.568110
4999.000000;2.568142
4998.000000;2.567069
4997.000000;2.564316
4996.000000;2.560625
4995.000000;2.556795
4994.000000;2.553326
4993.000000;2.550688
4992.000000;2.549348
4991.000000;2.549375
4990.000000;2.549995
4989.000000;2.549879
4988.000000;2.548333
4987.000000;2.545799
4986.000000;2.542385
4985.000000;2.536526
4984.000000;2.526872
4983.000000;2.515594
4982.000000;2.507647
4981.000000;2.506057
4980.000000;2.509132
4979.000000;2.512340
4978.000000;2.512115
4977.000000;2.507821
4976.000000;2.501126
4975.000000;2.494514
4974.000000;2.489534
4973.000000;2.485409
4972.000000;2.479865
4971.000000;2.472080
4970.000000;2.464108
4969.000000;2.458520
4968.000000;2.455756
4967.000000;2.454260
4966.000000;2.452162
4965.000000;2.448267
4964.000000;2.442387
4963.000000;2.435744
4962.000000;2.430454
4961.000000;2.427673
4960.000000;2.426578
4959.000000;2.425511
4958.000000;2.423375
4957.000000;2.419553
4956.000000;2.413742
4955.000000;2.407010
4954.000000;2.401892
4953.000000;2.399883
4952.000000;2.399208
4951.000000;2.396318
4950.000000;2.389770
4949.000000;2.381554
4948.000000;2.374579
4947.000000;2.370048
4946.000000;2.367279
4945.000000;2.364927
4944.000000;2.362053
4943.000000;2.358560
4942.000000;2.354862
4941.000000;2.351067
4940.000000;2.346687
4939.000000;2.341351
4938.000000;2.335473
4937.000000;2.329921
4936.000000;2.325235
4935.000000;2.321357
4934.000000;2.317699
4933.000000;2.313189
4932.000000;2.306937
4931.000000;2.299464
4930.000000;2.292806
4929.000000;2.288686
4928.000000;2.286752
4927.000000;2.285052
4926.000000;2.282061
4925.000000;2.277633
4924.000000;2.272179
4923.000000;2.265900
4922.000000;2.259130
4921.000000;2.252679
4920.000000;2.247346
4919.000000;2.243238
4918.000000;2.239673
4917.000000;2.235597
4916.000000;2.230279
4915.000000;2.223972
4914.000000;2.217889
4913.000000;2.213105
4912.000000;2.209347
4911.000000;2.205204
4910.000000;2.199626
4909.000000;2.192849
4908.000000;2.185841
4907.000000;2.179410
4906.000000;2.174104
4905.000000;2.170411
4904.000000;2.168363
4903.000000;2.166923
4902.000000;2.164339
4901.000000;2.159540
4900.000000;2.153057
4899.000000;2.146261
4898.000000;2.139854
4897.000000;2.133482
4896.000000;2.126798
4895.000000;2.120436
4894.000000;2.115556
4893.000000;2.112500
4892.000000;2.110243
4891.000000;2.107284
4890.000000;2.103008
4889.000000;2.098086
4888.000000;2.093604
4887.000000;2.089871
4886.000000;2.086100
4885.000000;2.081303
4884.000000;2.075446
4883.000000;2.069460
4882.000000;2.064065
4881.000000;2.058993
4880.000000;2.053605
4879.000000;2.047973
4878.000000;2.042828
4877.000000;2.038509
4876.000000;2.034470
4875.000000;2.029939
4874.000000;2.024678
4873.000000;2.018966
4872.000000;2.013176
4871.000000;2.007639
4870.000000;2.002706
4869.000000;1.998656
4868.000000;1.995499
4867.000000;1.992895
4866.000000;1.990221
4865.000000;1.986836
4864.000000;1.982503
4863.000000;1.977543
4862.000000;1.972390
4861.000000;1.967113
4860.000000;1.961632
4859.000000;1.956217
4858.000000;1.951293
4857.000000;1.946713
4856.000000;1.941735
4855.000000;1.936022
4854.000000;1.930337
4853.000000;1.925820
4852.000000;1.922681
4851.000000;1.919912
4850.000000;1.916279
4849.000000;1.911431
4848.000000;1.906066
4847.000000;1.901207
4846.000000;1.897360
4845.000000;1.894187
4844.000000;1.890847
4843.000000;1.886681
4842.000000;1.881659
4841.000000;1.876270
4840.000000;1.871085
4839.000000;1.866412
4838.000000;1.862241
4837.000000;1.858396
4836.000000;1.854740
4835.000000;1.851204
4834.000000;1.847680
4833.000000;1.843992
4832.000000;1.840040
4831.000000;1.835854
4830.000000;1.831431
4829.000000;1.826710
4828.000000;1.821849
4827.000000;1.817321
4826.000000;1.813455
4825.000000;1.809948
4824.000000;1.806112
4823.000000;1.801617
4822.000000;1.796717
4821.000000;1.791822
4820.000000;1.787169
4819.000000;1.782900
4818.000000;1.779036
4817.000000;1.775272
4816.000000;1.771133
4815.000000;1.766540
4814.000000;1.761963
4813.000000;1.757842
4812.000000;1.754089
4811.000000;1.750314
4810.000000;1.746300
4809.000000;1.742032
4808.000000;1.737565
4807.000000;1.733128
4806.000000;1.729160
4805.000000;1.725918
4804.000000;1.723070
4803.000000;1.719962
4802.000000;1.716221
4801.000000;1.711954
4800.000000;1.707472
4799.000000;1.703080
4798.000000;1.699051
4797.000000;1.695471
4796.000000;1.692062
4795.000000;1.688383
4794.000000;1.684316
4793.000000;1.680216
4792.000000;1.676517
4791.000000;1.673303
4790.000000;1.670290
4789.000000;1.667127
4788.000000;1.663675
4787.000000;1.660035
4786.000000;1.656365
4785.000000;1.652677
4784.000000;1.648845
4783.000000;1.644832
4782.000000;1.640800
4781.000000;1.636945
4780.000000;1.633306
4779.000000;1.629843
4778.000000;1.626604
4777.000000;1.623620
4776.000000;1.620649
4775.000000;1.617244
4774.000000;1.613177
4773.000000;1.608689
4772.000000;1.604264
4771.000000;1.600219
4770.000000;1.596576
4769.000000;1.593244
4768.000000;1.590170
4767.000000;1.587306
4766.000000;1.584502
4765.000000;1.581557
4764.000000;1.578394
4763.000000;1.575146
4762.000000;1.571973
4761.000000;1.568826
4760.000000;1.565467
4759.000000;1.561758
4758.000000;1.557863
4757.000000;1.554129
4756.000000;1.550802
4755.000000;1.547856
4754.000000;1.544996
4753.000000;1.541848
4752.000000;1.538282
4751.000000;1.534619
4750.000000;1.531372
4749.000000;1.528696
4748.000000;1.526182
4747.000000;1.523314
4746.000000;1.520026
4745.000000;1.516674
4744.000000;1.513556
4743.000000;1.510679
4742.000000;1.507963
4741.000000;1.505386
4740.000000;1.502852
4739.000000;1.500098
4738.000000;1.496915
4737.000000;1.493393
4736.000000;1.489864
4735.000000;1.486644
4734.000000;1.483861
4733.000000;1.481413
4732.000000;1.479003
4731.000000;1.476309
4730.000000;1.473268
4729.000000;1.470165
4728.000000;1.467378
4727.000000;1.465031
4726.000000;1.462921
4725.000000;1.460738
4724.000000;1.458298
4723.000000;1.455623
4722.000000;1.452877
4721.000000;1.450249
4720.000000;1.447833
4719.000000;1.445588
4718.000000;1.443367
4717.000000;1.440962
4716.000000;1.438179
4715.000000;1.434990
4714.000000;1.431646
4713.000000;1.428554
4712.000000;1.425938
4711.000000;1.423660
4710.000000;1.421436
4709.000000;1.419155
4708.000000;1.416912
4707.000000;1.414751
4706.000000;1.412546
4705.000000;1.410172
4704.000000;1.407690
4703.000000;1.405268
4702.000000;1.402990
4701.000000;1.400799
4700.000000;1.398589
4699.000000;1.396294
4698.000000;1.393899
4697.000000;1.391425
4696.000000;1.388937
4695.000000;1.386545
4694.000000;1.384368
4693.000000;1.382486
4692.000000;1.380871
4691.000000;1.379364
4690.000000;1.377716
4689.000000;1.375731
4688.000000;1.373412
4687.000000;1.370961
4686.000000;1.368617
4685.000000;1.366469
4684.000000;1.364404
4683.000000;1.362246
4682.000000;1.359950
4681.000000;1.357646
4680.000000;1.355475
4679.000000;1.353421
4678.000000;1.351334
4677.000000;1.349123
4676.000000;1.346894
4675.000000;1.344859
4674.000000;1.343147
4673.000000;1.341707
4672.000000;1.340384
4671.000000;1.339030
4670.000000;1.337543
4669.000000;1.335841
4668.000000;1.333863
4667.000000;1.331648
4666.000000;1.329366
4665.000000;1.327258
4664.000000;1.325490
4663.000000;1.324061
4662.000000;1.322806
4661.000000;1.321468
4660.000000;1.319830
4659.000000;1.317872
4658.000000;1.315828
4657.000000;1.313992
4656.000000;1.312427
4655.000000;1.310911
4654.000000;1.309232
4653.000000;1.307472
4652.000000;1.305898
4651.000000;1.304609
4650.000000;1.303415
4649.000000;1.302075
4648.000000;1.300562
4647.000000;1.299017
4646.000000;1.297526
4645.000000;1.296030
4644.000000;1.294426
4643.000000;1.292700
4642.000000;1.290938
4641.000000;1.289236
4640.000000;1.287617
4639.000000;1.286036
4638.000000;1.284470
4637.000000;1.282985
4636.000000;1.281652
4635.000000;1.280406
4634.000000;1.279057
4633.000000;1.277477
4632.000000;1.275764
4631.000000;1.274186
4630.000000;1.272966
4629.000000;1.272097
4628.000000;1.271323
4627.000000;1.270297
4626.000000;1.268828
4625.000000;1.267052
4624.000000;1.265347
4623.000000;1.264061
4622.000000;1.263263
4621.000000;1.262695
4620.000000;1.261923
4619.000000;1.260626
4618.000000;1.258863
4617.000000;1.257067
4616.000000;1.255685
4615.000000;1.254777
4614.000000;1.254016
4613.000000;1.253056
4612.000000;1.251834
4611.000000;1.250497
4610.000000;1.249200
4609.000000;1.248034
4608.000000;1.247025
4607.000000;1.246068
4606.000000;1.244969
4605.000000;1.243681
4604.000000;1.242441
4603.000000;1.241510
4602.000000;1.240815
4601.000000;1.239986
4600.000000;1.238769
4599.000000;1.237257
4598.000000;1.235734
4597.000000;1.234422
4596.000000;1.233418
4595.000000;1.232698
4594.000000;1.232090
4593.000000;1.231327
4592.000000;1.230269
4591.000000;1.229046
4590.000000;1.227927
4589.000000;1.227078
4588.000000;1.226475
4587.000000;1.225999
4586.000000;1.225504
4585.000000;1.224834
4584.000000;1.223875
4583.000000;1.222645
4582.000000;1.221306
4581.000000;1.220075
4580.000000;1.219125
4579.000000;1.218518
4578.000000;1.218193
4577.000000;1.217986
4576.000000;1.217699
4575.000000;1.217195
4574.000000;1.216432
4573.000000;1.215439
4572.000000;1.214286
4571.000000;1.213098
4570.000000;1.212048
4569.000000;1.211267
4568.000000;1.210694
4567.000000;1.210052
4566.000000;1.209081
4565.000000;1.207828
4564.000000;1.206640
4563.000000;1.205813
4562.000000;1.205293
4561.000000;1.204770
4560.000000;1.204012
4559.000000;1.203046
4558.000000;1.202043
4557.000000;1.201153
4556.000000;1.200446
4555.000000;1.199910
4554.000000;1.199444
4553.000000;1.198921
4552.000000;1.198310
4551.000000;1.197694
4550.000000;1.197118
4549.000000;1.196505
4548.000000;1.195779
4547.000000;1.195018
4546.000000;1.194400
4545.000000;1.194002
4544.000000;1.193721
4543.000000;1.193364
4542.000000;1.192777
4541.000000;1.191917
4540.000000;1.190888
4539.000000;1.189911
4538.000000;1.189189
4537.000000;1.188762
4536.000000;1.188507
4535.000000;1.188299
4534.000000;1.188121
4533.000000;1.188029
4532.000000;1.188027
4531.000000;1.188026
4530.000000;1.187904
4529.000000;1.187611
4528.000000;1.187221
4527.000000;1.186850
4526.000000;1.186517
4525.000000;1.186093
4524.000000;1.185462
4523.000000;1.184715
4522.000000;1.184095
4521.000000;1.183761
4520.000000;1.183657
4519.000000;1.183648
4518.000000;1.183686
4517.000000;1.183766
4516.000000;1.183824
4515.000000;1.183774
4514.000000;1.183635
4513.000000;1.183517
4512.000000;1.183468
4511.000000;1.183416
4510.000000;1.183269
4509.000000;1.183014
4508.000000;1.182726
4507.000000;1.182519
4506.000000;1.182498
4505.000000;1.182660
4504.000000;1.182860
4503.000000;1.182929
4502.000000;1.182839
4501.000000;1.182700
4500.000000;1.182620
4499.000000;1.182674
4498.000000;1.182938
4497.000000;1.183417
4496.000000;1.183893
4495.000000;1.184046
4494.000000;1.183824
4493.000000;1.183593
4492.000000;1.183779
4491.000000;1.184456
4490.000000;1.185334
4489.000000;1.186017
4488.000000;1.186192
4487.000000;1.185739
4486.000000;1.184863
4485.000000;1.184066
4484.000000;1.183815
4483.000000;1.184217
4482.000000;1.185050
4481.000000;1.186027
4480.000000;1.186925
4479.000000;1.187580
4478.000000;1.187995
4477.000000;1.188405
4476.000000;1.189022
4475.000000;1.189707
4474.000000;1.190104
4473.000000;1.190113
4472.000000;1.190027
4471.000000;1.190185
4470.000000;1.190662
4469.000000;1.191351
4468.000000;1.192141
4467.000000;1.192929
4466.000000;1.193632
4465.000000;1.194289
4464.000000;1.195035
4463.000000;1.195892
4462.000000;1.196727
4461.000000;1.197464
4460.000000;1.198177
4459.000000;1.198889
4458.000000;1.199467
4457.000000;1.199849
4456.000000;1.200217
4455.000000;1.200781
4454.000000;1.201503
4453.000000;1.202206
4452.000000;1.202851
4451.000000;1.203543
4450.000000;1.204319
4449.000000;1.205111
4448.000000;1.205886
4447.000000;1.206685
4446.000000;1.207505
4445.000000;1.208256
4444.000000;1.208841
4443.000000;1.209240
4442.000000;1.209549
4441.000000;1.210006
4440.000000;1.210904
4439.000000;1.212320
4438.000000;1.213961
4437.000000;1.215360
4436.000000;1.216297
4435.000000;1.216956
4434.000000;1.217717
4433.000000;1.218827
4432.000000;1.220247
4431.000000;1.221732
4430.000000;1.223030
4429.000000;1.224024
4428.000000;1.224674
4427.000000;1.224948
4426.000000;1.224976
4425.000000;1.225202
4424.000000;1.226143
4423.000000;1.227844
4422.000000;1.229732
4421.000000;1.231184
4420.000000;1.232133
4419.000000;1.232976
4418.000000;1.234023
4417.000000;1.235246
4416.000000;1.236483
4415.000000;1.237661
4414.000000;1.238822
4413.000000;1.240098
4412.000000;1.241658
4411.000000;1.243530
4410.000000;1.245475
4409.000000;1.247155
4408.000000;1.248411
4407.000000;1.249295
4406.000000;1.249912
4405.000000;1.250423
4404.000000;1.251138
4403.000000;1.252396
4402.000000;1.254264
4401.000000;1.256477
4400.000000;1.258686
4399.000000;1.260628
4398.000000;1.262083
4397.000000;1.262895
4396.000000;1.263174
4395.000000;1.263383
4394.000000;1.264062
4393.000000;1.265431
4392.000000;1.267232
4391.000000;1.268914
4390.000000;1.270015
4389.000000;1.270492
4388.000000;1.270776
4387.000000;1.271467
4386.000000;1.272933
4385.000000;1.275102
4384.000000;1.277517
4383.000000;1.279580
4382.000000;1.280921
4381.000000;1.281684
4380.000000;1.282437
4379.000000;1.283708
4378.000000;1.285568
4377.000000;1.287666
4376.000000;1.289632
4375.000000;1.291385
4374.000000;1.293087
4373.000000;1.294860
4372.000000;1.296524
4371.000000;1.297648
4370.000000;1.297965
4369.000000;1.297810
4368.000000;1.297995
4367.000000;1.299128
4366.000000;1.301078
4365.000000;1.303148
4364.000000;1.304733
4363.000000;1.305771
4362.000000;1.306694
4361.000000;1.308021
4360.000000;1.309865
4359.000000;1.311806
4358.000000;1.313413
4357.000000;1.314863
4356.000000;1.316665
4355.000000;1.318674
4354.000000;1.319908
4353.000000;1.319806
4352.000000;1.319350
4351.000000;1.320256
4350.000000;1.323106
4349.000000;1.326747
4348.000000;1.329542
4347.000000;1.330797
4346.000000;1.330936
4345.000000;1.330851
4344.000000;1.331403
4343.000000;1.333087
4342.000000;1.335713
4341.000000;1.338557
4340.000000;1.341112
4339.000000;1.343486
4338.000000;1.345800
4337.000000;1.347516
4336.000000;1.347868
4335.000000;1.346987
4334.000000;1.346175
4333.000000;1.346841
4332.000000;1.349271
4331.000000;1.352446
4330.000000;1.354966
4329.000000;1.356186
4328.000000;1.356555
4327.000000;1.356993
4326.000000;1.358099
4325.000000;1.359979
4324.000000;1.362557
4323.000000;1.365650
4322.000000;1.368709
4321.000000;1.370935
4320.000000;1.371977
4319.000000;1.372348
4318.000000;1.372870
4317.000000;1.373842
4316.000000;1.374941
4315.000000;1.375837
4314.000000;1.376665
4313.000000;1.377860
4312.000000;1.379729
4311.000000;1.382233
4310.000000;1.385017
4309.000000;1.387616
4308.000000;1.389745
4307.000000;1.391444
4306.000000;1.392943
4305.000000;1.394260
4304.000000;1.395001
4303.000000;1.394802
4302.000000;1.394115
4301.000000;1.394393
4300.000000;1.397138
4299.000000;1.402399
4298.000000;1.408080
4297.000000;1.411130
4296.000000;1.409922
4295.000000;1.405569
4294.000000;1.400903
4293.000000;1.398419
4292.000000;1.399082
4291.000000;1.402424
4290.000000;1.407159
4289.000000;1.411741
4288.000000;1.414929
4287.000000;1.416172
4286.000000;1.415463
4285.000000;1.412991
4284.000000;1.409290
4283.000000;1.405727
4282.000000;1.404290
4281.000000;1.406326
4280.000000;1.411290
4279.000000;1.416840
4278.000000;1.420442
4277.000000;1.421048
4276.000000;1.419384
4275.000000;1.417150
4274.000000;1.416283
4273.000000;1.418271
4272.000000;1.423012
4271.000000;1.428217
4270.000000;1.430781
4269.000000;1.429085
4268.000000;1.423873
4267.000000;1.417416
4266.000000;1.412519
4265.000000;1.411564
4264.000000;1.414902
4263.000000;1.420056
4262.000000;1.423470
4261.000000;1.423578
4260.000000;1.422168
4259.000000;1.422224
4258.000000;1.424524
4257.000000;1.427126
4256.000000;1.427921
4255.000000;1.426761
4254.000000;1.424879
4253.000000;1.423258
4252.000000;1.422133
4251.000000;1.421266
4250.000000;1.419849
4249.000000;1.416298
4248.000000;1.409083
4247.000000;1.398456
4246.000000;1.387016
4245.000000;1.378414
4244.000000;1.374833
4243.000000;1.375544
4242.000000;1.377470
4241.000000;1.377635
4240.000000;1.375149
4239.000000;1.371054
4238.000000;1.367307
4237.000000;1.365832
4236.000000;1.367005
4235.000000;1.368327
4234.000000;1.365953
4233.000000;1.359001
4232.000000;1.351012
4231.000000;1.345601
4230.000000;1.341891
4229.000000;1.335846
4228.000000;1.325935
4227.000000;1.315726
4226.000000;1.310114
4225.000000;1.310262
4224.000000;1.312291
4223.000000;1.309523
4222.000000;1.296753
4221.000000;1.274791
4220.000000;1.250866
4219.000000;1.232820
4218.000000;1.223027
4217.000000;1.218689
4216.000000;1.216296
4215.000000;1.212165
4214.000000;1.199422
4213.000000;1.170971
4212.000000;1.127756
4211.000000;1.080513
4210.000000;1.041779
4209.000000;1.016427
4208.000000;0.998968
4207.000000;0.978530
4206.000000;0.947099
4205.000000;0.904388
4204.000000;0.855383
4203.000000;0.803565
4202.000000;0.747088
4201.000000;0.683347
4200.000000;0.618266
4199.000000;0.570094
4198.000000;0.559247
4197.000000;0.592166
4196.000000;0.656817
4195.000000;0.730056
4194.000000;0.794438
4193.000000;0.849567
4192.000000;0.905911
4191.000000;0.969909
4190.000000;1.036531
4189.000000;1.094655
4188.000000;1.139700
4187.000000;1.179267
4186.000000;1.223187
4185.000000;1.270351
4184.000000;1.307938
4183.000000;1.326154
4182.000000;1.330726
4181.000000;1.336065
4180.000000;1.352960
4179.000000;1.385008
4178.000000;1.428557
4177.000000;1.472506
4176.000000;1.508058
4175.000000;1.537125
4174.000000;1.562309
4173.000000;1.584247
4172.000000;1.607741
4171.000000;1.637255
4170.000000;1.671415
4169.000000;1.703991
4168.000000;1.728637
4167.000000;1.745555
4166.000000;1.763214
4165.000000;1.787858
4164.000000;1.813717
4163.000000;1.830357
4162.000000;1.835870
4161.000000;1.840261
4160.000000;1.858182
4159.000000;1.894799
4158.000000;1.937517
4157.000000;1.962002
4156.000000;1.953779
4155.000000;1.926129
4154.000000;1.906653
4153.000000;1.912185
4152.000000;1.942114
4151.000000;1.985327
4150.000000;2.031072
4149.000000;2.075798
4148.000000;2.116406
4147.000000;2.138248
4146.000000;2.130275
4145.000000;2.112158
4144.000000;2.107754
4143.000000;2.116860
4142.000000;2.123495
4141.000000;2.117110
4140.000000;2.106468
4139.000000;2.112112
4138.000000;2.147315
4137.000000;2.204441
4136.000000;2.248885
4135.000000;2.245675
4134.000000;2.212742
4133.000000;2.191421
4132.000000;2.197030
4131.000000;2.221627
4130.000000;2.244641
4129.000000;2.249231
4128.000000;2.238622
4127.000000;2.228943
4126.000000;2.239225
4125.000000;2.282176
4124.000000;2.353984
4123.000000;2.433794
4122.000000;2.492707
4121.000000;2.512817
4120.000000;2.498571
4119.000000;2.463899
4118.000000;2.424074
4117.000000;2.392731
4116.000000;2.374152
4115.000000;2.366268
4114.000000;2.363314
4113.000000;2.354473
4112.000000;2.343367
4111.000000;2.342489
4110.000000;2.347289
4109.000000;2.351543
4108.000000;2.360494
4107.000000;2.378831
4106.000000;2.413862
4105.000000;2.479184
4104.000000;2.574332
4103.000000;2.656079
4102.000000;2.660929
4101.000000;2.604394
4100.000000;2.556162
4099.000000;2.550234
4098.000000;2.576734
4097.000000;2.595836
4096.000000;2.574831
4095.000000;2.529292
4094.000000;2.494667
4093.000000;2.491010
4092.000000;2.515905
4091.000000;2.548074
4090.000000;2.569981
4089.000000;2.590205
4088.000000;2.624042
4087.000000;2.659817
4086.000000;2.665722
4085.000000;2.629826
4084.000000;2.571492
4083.000000;2.533956
4082.000000;2.548527
4081.000000;2.609715
4080.000000;2.666525
4079.000000;2.665403
4078.000000;2.621693
4077.000000;2.578213
4076.000000;2.565735
4075.000000;2.589199
4074.000000;2.620115
4073.000000;2.631325
4072.000000;2.636373
4071.000000;2.664529
4070.000000;2.721717
4069.000000;2.763555
4068.000000;2.764204
4067.000000;2.774528
4066.000000;2.799481
4065.000000;2.787722
4064.000000;2.753226
4063.000000;2.721319
4062.000000;2.696919
4061.000000;2.689969
4060.000000;2.677104
4059.000000;2.649414
4058.000000;2.662421
4057.000000;2.766054
4056.000000;2.991576
4055.000000;3.258244
4054.000000;3.118237
4053.000000;2.849591
4052.000000;2.691643
4051.000000;2.637665
4050.000000;2.674446
4049.000000;2.744985
4048.000000;2.750143
4047.000000;2.710965
4046.000000;2.700359
4045.000000;2.735234
4044.000000;2.816920
4043.000000;2.912976
4042.000000;2.960782
4041.000000;2.937206
4040.000000;2.890927
4039.000000;2.886624
4038.000000;2.946318
4037.000000;3.040499
4036.000000;3.113369
4035.000000;3.190855
4034.000000;3.387931
4033.000000;3.408119
4032.000000;3.126913
4031.000000;3.095746
4030.000000;3.384575
4029.000000;3.611601
4028.000000;3.190464
4027.000000;3.158161
4026.000000;3.081015
4025.000000;2.908423
4024.000000;2.739481
4023.000000;2.625654
4022.000000;2.565403
4021.000000;2.559064
4020.000000;2.600571
4019.000000;2.665186
4018.000000;2.718686
4017.000000;2.755149
4016.000000;2.797346
4015.000000;2.840220
4014.000000;2.856426
4013.000000;2.879609
4012.000000;2.941444
4011.000000;3.017098
4010.000000;3.110850
4009.000000;3.200597
4008.000000;3.164602
4007.000000;3.101129
4006.000000;3.070333
4005.000000;3.047349
4004.000000;2.978109
4003.000000;2.871419
4002.000000;2.826524
4001.000000;2.889595
4000.000000;3.118627
3999.000000;3.416379
3998.000000;3.327782
3997.000000;3.390094
3996.000000;3.594852
3995.000000;3.540366
3994.000000;3.398916
3993.000000;3.142211
3992.000000;2.918583
3991.000000;2.797085
3990.000000;2.757026
3989.000000;2.782424
3988.000000;2.830841
3987.000000;2.829574
3986.000000;2.772176
3985.000000;2.712071
3984.000000;2.693352
3983.000000;2.741581
3982.000000;2.848591
3981.000000;2.953798
3980.000000;3.018741
3979.000000;3.109455
3978.000000;3.183369
3977.000000;3.114756
3976.000000;3.071264
3975.000000;3.096232
3974.000000;3.153375
3973.000000;3.191243
3972.000000;3.113721
3971.000000;3.022458
3970.000000;3.033199
3969.000000;3.188026
3968.000000;3.486177
3967.000000;3.391253
3966.000000;3.229751
3965.000000;3.303931
3964.000000;3.229416
3963.000000;3.055037
3962.000000;3.000413
3961.000000;3.028294
3960.000000;3.086919
3959.000000;3.197019
3958.000000;3.419939
3957.000000;3.353302
3956.000000;3.126763
3955.000000;3.003576
3954.000000;2.992652
3953.000000;3.144961
3952.000000;3.560323
3951.000000;4.111424
3950.000000;4.385396
3949.000000;3.274501
3948.000000;2.993563
3947.000000;2.894808
3946.000000;2.933298
3945.000000;3.192566
3944.000000;3.744079
3943.000000;3.521089
3942.000000;3.494749
3941.000000;3.917653
3940.000000;3.410873
3939.000000;3.041518
3938.000000;2.987087
3937.000000;3.089288
3936.000000;3.439044
3935.000000;3.191947
3934.000000;2.903605
3933.000000;2.843062
3932.000000;2.872448
3931.000000;2.915106
3930.000000;2.961810
3929.000000;2.954517
3928.000000;2.874611
3927.000000;2.855297
3926.000000;2.982904
3925.000000;3.190714
3924.000000;3.086259
3923.000000;2.961952
3922.000000;2.921965
3921.000000;3.101290
3920.000000;3.413436
3919.000000;2.879140
3918.000000;2.672798
3917.000000;2.680054
3916.000000;2.812309
3915.000000;2.883099
3914.000000;2.879288
3913.000000;2.938165
3912.000000;3.084525
3911.000000;3.296076
3910.000000;3.167942
3909.000000;2.926850
3908.000000;2.807835
3907.000000;2.800832
3906.000000;2.921844
3905.000000;3.136912
3904.000000;3.077782
3903.000000;2.850549
3902.000000;2.693149
3901.000000;2.751496
3900.000000;4.109823
3899.000000;3.450655
3898.000000;3.212837
3897.000000;3.113434
3896.000000;3.173862
3895.000000;3.311471
3894.000000;3.201768
3893.000000;3.079109
3892.000000;3.004132
3891.000000;2.960029
3890.000000;2.866334
3889.000000;2.725417
3888.000000;2.619611
3887.000000;2.596977
3886.000000;2.666815
3885.000000;2.813425
3884.000000;2.964958
3883.000000;2.917569
3882.000000;2.763495
3881.000000;2.782954
3880.000000;3.058770
3879.000000;3.199488
3878.000000;2.921456
3877.000000;2.870023
3876.000000;3.241334
3875.000000;3.436996
3874.000000;3.114817
3873.000000;3.175397
3872.000000;3.143327
3871.000000;2.850773
3870.000000;2.841118
3869.000000;3.011639
3868.000000;3.381579
3867.000000;3.097880
3866.000000;2.765773
3865.000000;3.066311
3864.000000;3.381618
3863.000000;2.981017
3862.000000;2.799034
3861.000000;2.768976
3860.000000;2.802135
3859.000000;2.783417
3858.000000;2.764810
3857.000000;2.761763
3856.000000;2.740241
3855.000000;2.774907
3854.000000;2.953432
3853.000000;3.282403
3852.000000;3.626746
3851.000000;3.778962
3850.000000;3.680353
3849.000000;3.566812
3848.000000;3.442438
3847.000000;3.369878
3846.000000;3.580218
3845.000000;3.799271
3844.000000;3.203592
3843.000000;3.122869
3842.000000;3.395803
3841.000000;3.790574
3840.000000;3.309466
3839.000000;3.517076
3838.000000;3.555506
3837.000000;3.445521
3836.000000;3.245051
3835.000000;3.033335
3834.000000;3.091217
3833.000000;3.261513
3832.000000;2.919126
3831.000000;2.863647
3830.000000;2.856737
3829.000000;2.867807
3828.000000;3.095656
3827.000000;3.319443
3826.000000;3.070388
3825.000000;2.891547
3824.000000;2.718248
3823.000000;2.556045
3822.000000;2.520535
3821.000000;2.642243
3820.000000;2.797255
3819.000000;2.799487
3818.000000;2.736081
3817.000000;2.933294
3816.000000;3.405926
3815.000000;3.752909
3814.000000;3.573199
3813.000000;3.433866
3812.000000;3.737627
3811.000000;3.935931
3810.000000;3.443689
3809.000000;3.280030
3808.000000;3.099043
3807.000000;3.150796
3806.000000;3.329387
3805.000000;3.582308
3804.000000;3.721080
3803.000000;3.928802
3802.000000;3.694699
3801.000000;3.642825
3800.000000;3.611154
3799.000000;3.470164
3798.000000;3.424559
3797.000000;3.781548
3796.000000;3.803847
3795.000000;3.283753
3794.000000;2.992568
3793.000000;2.834360
3792.000000;2.814731
3791.000000;2.926543
3790.000000;3.199130
3789.000000;3.357555
3788.000000;3.160134
3787.000000;3.197822
3786.000000;3.604003
3785.000000;3.966419
3784.000000;3.292747
3783.000000;3.103560
3782.000000;2.999850
3781.000000;3.037145
3780.000000;3.108088
3779.000000;3.080308
3778.000000;3.064730
3777.000000;3.157276
3776.000000;3.389030
3775.000000;3.800621
3774.000000;3.738722
3773.000000;3.479941
3772.000000;3.548294
3771.000000;3.597173
3770.000000;3.552773
3769.000000;3.405997
3768.000000;2.964929
3767.000000;2.765787
3766.000000;2.796676
3765.000000;3.004466
3764.000000;3.311348
3763.000000;3.442086
3762.000000;3.154009
3761.000000;3.012185
3760.000000;3.045672
3759.000000;2.974575
3758.000000;2.817201
3757.000000;2.772223
3756.000000;3.069653
3755.000000;3.403626
3754.000000;2.936070
3753.000000;3.131910
3752.000000;3.666890
3751.000000;3.375131
3750.000000;3.200703
3749.000000;3.175963
3748.000000;3.217821
3747.000000;3.469387
3746.000000;3.043914
3745.000000;2.805316
3744.000000;2.858461
3743.000000;2.974243
3742.000000;3.135417
3741.000000;2.811172
3740.000000;2.653948
3739.000000;2.720938
3738.000000;2.937422
3737.000000;3.130546
3736.000000;2.838220
3735.000000;2.597750
3734.000000;2.416040
3733.000000;2.352973
3732.000000;2.499850
3731.000000;2.823075
3730.000000;3.065674
3729.000000;3.181572
3728.000000;3.307686
3727.000000;3.210668
3726.000000;3.151928
3725.000000;3.207261
3724.000000;3.440749
3723.000000;3.527621
3722.000000;3.179451
3721.000000;2.995732
3720.000000;2.969826
3719.000000;3.100087
3718.000000;3.343412
3717.000000;3.353925
3716.000000;3.055236
3715.000000;2.791562
3714.000000;2.665776
3713.000000;2.690028
3712.000000;2.825915
3711.000000;2.959461
3710.000000;2.863253
3709.000000;2.652863
3708.000000;2.573400
3707.000000;2.707230
3706.000000;3.085469
3705.000000;3.411110
3704.000000;3.091908
3703.000000;2.903357
3702.000000;2.841299
3701.000000;2.928133
3700.000000;3.345431
3699.000000;3.749947
3698.000000;3.367158
3697.000000;3.402552
3696.000000;3.349526
3695.000000;3.142357
3694.000000;2.878574
3693.000000;2.657027
3692.000000;2.549740
3691.000000;2.646560
3690.000000;3.083742
3689.000000;3.687859
3688.000000;3.461934
3687.000000;3.336943
3686.000000;3.192248
3685.000000;3.117087
3684.000000;3.238378
3683.000000;3.411008
3682.000000;3.301801
3681.000000;3.071164
3680.000000;2.810972
3679.000000;2.654681
3678.000000;2.614787
3677.000000;2.776057
3676.000000;3.300455
3675.000000;3.377876
3674.000000;3.085468
3673.000000;3.028426
3672.000000;3.014506
3671.000000;3.026874
3670.000000;3.182013
3669.000000;3.327382
3668.000000;3.336414
3667.000000;3.025578
3666.000000;2.818978
3665.000000;2.837513
3664.000000;2.897797
3663.000000;2.907905
3662.000000;2.965373
3661.000000;3.207623
3660.000000;3.806113
3659.000000;2.982199
3658.000000;2.667516
3657.000000;2.565324
3656.000000;2.608484
3655.000000;2.657185
3654.000000;2.554117
3653.000000;2.405715
3652.000000;2.393054
3651.000000;2.466266
3650.000000;2.438840
3649.000000;2.496688
3648.000000;2.570623
3647.000000;2.573001
3646.000000;2.550003
3645.000000;2.561480
3644.000000;2.593489
3643.000000;2.661278
3642.000000;2.810561
3641.000000;3.101939
3640.000000;3.734710
3639.000000;3.335518
3638.000000;3.171119
3637.000000;3.375655
3636.000000;3.645358
3635.000000;3.042263
3634.000000;2.819302
3633.000000;2.821558
3632.000000;2.873476
3631.000000;2.674625
3630.000000;2.504636
3629.000000;2.570840
3628.000000;2.755570
3627.000000;2.838133
3626.000000;2.814351
3625.000000;2.833005
3624.000000;2.920682
3623.000000;2.990421
3622.000000;2.995367
3621.000000;2.965637
3620.000000;2.917457
3619.000000;2.841273
3618.000000;2.764586
3617.000000;2.719332
3616.000000;2.763983
3615.000000;2.920550
3614.000000;2.953291
3613.000000;2.886331
3612.000000;2.905231
3611.000000;3.587341
3610.000000;2.951300
3609.000000;2.546109
3608.000000;2.504679
3607.000000;2.621890
3606.000000;2.943872
3605.000000;3.101635
3604.000000;2.866702
3603.000000;2.856710
3602.000000;2.969444
3601.000000;3.130073
3600.000000;3.231955
3599.000000;3.230842
3598.000000;3.182525
3597.000000;3.222705
3596.000000;3.476640
3595.000000;3.310196
3594.000000;3.001028
3593.000000;2.945969
3592.000000;2.966243
3591.000000;2.838428
3590.000000;2.638844
3589.000000;2.573029
3588.000000;2.597824
3587.000000;2.625504
3586.000000;2.639470
3585.000000;2.619097
3584.000000;2.608987
3583.000000;2.648784
3582.000000;2.727836
3581.000000;2.835837
3580.000000;2.971326
3579.000000;3.079774
3578.000000;3.070975
3577.000000;2.992462
3576.000000;2.944266
3575.000000;2.983157
3574.000000;3.068804
3573.000000;3.075980
3572.000000;3.023783
3571.000000;3.288029
3570.000000;3.743175
3569.000000;2.983827
3568.000000;2.942763
3567.000000;3.016813
3566.000000;2.977060
3565.000000;2.895672
3564.000000;2.881997
3563.000000;2.963856
3562.000000;2.908521
3561.000000;2.779801
3560.000000;2.764496
3559.000000;2.873057
3558.000000;3.049684
3557.000000;3.077186
3556.000000;2.961645
3555.000000;2.893155
3554.000000;2.957559
3553.000000;3.314222
3552.000000;3.488867
3551.000000;3.011531
3550.000000;2.844836
3549.000000;2.809374
3548.000000;2.830650
3547.000000;2.839231
3546.000000;2.819457
3545.000000;2.799635
3544.000000;2.832826
3543.000000;3.007370
3542.000000;3.347884
3541.000000;3.331872
3540.000000;3.146054
3539.000000;3.012138
3538.000000;2.904540
3537.000000;2.938494
3536.000000;3.187135
3535.000000;3.320221
3534.000000;3.056764
3533.000000;2.934847
3532.000000;2.971427
3531.000000;3.187233
3530.000000;3.896188
3529.000000;3.325444
3528.000000;3.062346
3527.000000;3.005361
3526.000000;3.059691
3525.000000;3.305918
3524.000000;3.352924
3523.000000;3.165254
3522.000000;3.284053
3521.000000;3.830612
3520.000000;3.421920
3519.000000;3.108524
3518.000000;2.890198
3517.000000;2.768540
3516.000000;2.783895
3515.000000;3.093621
3514.000000;3.573973
3513.000000;3.156687
3512.000000;3.110307
3511.000000;3.079519
3510.000000;3.041512
3509.000000;3.114153
3508.000000;3.204792
3507.000000;3.188650
3506.000000;3.185618
3505.000000;3.273127
3504.000000;3.429707
3503.000000;3.277200
3502.000000;3.038166
3501.000000;2.946426
3500.000000;3.076892
3499.000000;3.198235
3498.000000;2.843854
3497.000000;2.715197
3496.000000;2.766987
3495.000000;2.932067
3494.000000;2.998970
3493.000000;2.883430
3492.000000;2.872783
3491.000000;2.888116
3490.000000;2.752436
3489.000000;2.619281
3488.000000;2.576471
3487.000000;2.617915
3486.000000;2.749540
3485.000000;2.948957
3484.000000;2.972299
3483.000000;2.892057
3482.000000;2.957891
3481.000000;3.127820
3480.000000;3.502015
3479.000000;3.648730
3478.000000;3.140072
3477.000000;2.974041
3476.000000;3.221260
3475.000000;3.271553
3474.000000;2.844953
3473.000000;2.721087
3472.000000;2.839740
3471.000000;3.314983
3470.000000;2.950977
3469.000000;2.684586
3468.000000;2.638827
3467.000000;2.720805
3466.000000;2.956871
3465.000000;3.192860
3464.000000;2.985074
3463.000000;2.854312
3462.000000;2.811434
3461.000000;2.794180
3460.000000;2.792464
3459.000000;2.814380
3458.000000;2.885052
3457.000000;3.056245
3456.000000;3.578210
3455.000000;3.391597
3454.000000;3.081722
3453.000000;3.018228
3452.000000;2.892854
3451.000000;2.857688
3450.000000;2.901186
3449.000000;2.833196
3448.000000;2.718534
3447.000000;2.682213
3446.000000;2.742740
3445.000000;2.961565
3444.000000;3.592339
3443.000000;3.390988
3442.000000;3.306780
3441.000000;3.629962
3440.000000;3.129491
3439.000000;2.811690
3438.000000;2.754020
3437.000000;2.955707
3436.000000;3.373517
3435.000000;3.176525
3434.000000;3.149083
3433.000000;3.228913
3432.000000;3.045118
3431.000000;2.930687
3430.000000;2.941675
3429.000000;3.046868
3428.000000;3.196347
3427.000000;3.209499
3426.000000;3.163941
3425.000000;3.384927
3424.000000;3.581492
3423.000000;3.087103
3422.000000;2.840577
3421.000000;2.758249
3420.000000;2.779010
3419.000000;2.932117
3418.000000;3.392284
3417.000000;3.396239
3416.000000;3.054745
3415.000000;2.907981
3414.000000;2.789871
3413.000000;2.777036
3412.000000;3.037977
3411.000000;3.461193
3410.000000;3.031831
3409.000000;2.995180
3408.000000;2.982213
3407.000000;3.069108
3406.000000;3.439339
3405.000000;3.141548
3404.000000;2.900997
3403.000000;3.160167
3402.000000;3.448221
3401.000000;2.983287
3400.000000;2.824966
3399.000000;2.883301
3398.000000;3.301761
3397.000000;3.349222
3396.000000;2.982795
3395.000000;2.998796
3394.000000;3.142754
3393.000000;2.894787
3392.000000;2.738951
3391.000000;2.826589
3390.000000;3.294133
3389.000000;2.908430
3388.000000;2.645407
3387.000000;2.639703
3386.000000;2.864427
3385.000000;3.462737
3384.000000;3.184622
3383.000000;2.987671
3382.000000;2.979784
3381.000000;2.969299
3380.000000;2.983836
3379.000000;3.078629
3378.000000;3.380320
3377.000000;3.819752
3376.000000;3.402961
3375.000000;3.272435
3374.000000;3.362465
3373.000000;2.938550
3372.000000;2.644318
3371.000000;2.563043
3370.000000;2.634224
3369.000000;2.962017
3368.000000;3.060247
3367.000000;2.743008
3366.000000;2.638404
3365.000000;2.678267
3364.000000;2.818744
3363.000000;2.870244
3362.000000;2.773065
3361.000000;2.762049
3360.000000;2.830747
3359.000000;2.837463
3358.000000;2.791339
3357.000000;2.859690
3356.000000;2.974084
3355.000000;2.858439
3354.000000;2.699901
3353.000000;2.583060
3352.000000;2.511755
3351.000000;2.534940
3350.000000;2.716382
3349.000000;2.863698
3348.000000;2.690383
3347.000000;2.584115
3346.000000;2.610491
3345.000000;2.717202
3344.000000;2.722441
3343.000000;2.637214
3342.000000;2.652501
3341.000000;2.839508
3340.000000;3.205882
3339.000000;3.055525
3338.000000;2.929039
3337.000000;2.959227
3336.000000;2.916120
3335.000000;2.738627
3334.000000;2.566264
3333.000000;2.495574
3332.000000;2.547283
3331.000000;2.709797
3330.000000;2.877359
3329.000000;2.876634
3328.000000;2.794820
3327.000000;2.768950
3326.000000;2.823981
3325.000000;2.897282
3324.000000;2.894291
3323.000000;2.756214
3322.000000;2.598453
3321.000000;2.540403
3320.000000;2.619144
3319.000000;3.016326
3318.000000;3.364074
3317.000000;3.025169
3316.000000;2.992564
3315.000000;2.959082
3314.000000;2.977510
3313.000000;3.144164
3312.000000;2.923014
3311.000000;2.689913
3310.000000;2.616618
3309.000000;2.658166
3308.000000;2.774342
3307.000000;2.907916
3306.000000;3.014459
3305.000000;2.984500
3304.000000;2.833745
3303.000000;2.685769
3302.000000;2.614294
3301.000000;2.673353
3300.000000;2.845813
3299.000000;2.877203
3298.000000;2.828286
3297.000000;2.976837
3296.000000;3.037532
3295.000000;2.875745
3294.000000;2.902492
3293.000000;3.246087
3292.000000;3.275918
3291.000000;3.329961
3290.000000;3.277295
3289.000000;2.791236
3288.000000;2.586837
3287.000000;2.536679
3286.000000;2.565886
3285.000000;2.644697
3284.000000;2.737009
3283.000000;2.779426
3282.000000;2.706899
3281.000000;2.575533
3280.000000;2.464076
3279.000000;2.397208
3278.000000;2.366674
3277.000000;2.358435
3276.000000;2.379713
3275.000000;2.457678
3274.000000;2.651192
3273.000000;3.020690
3272.000000;2.957089
3271.000000;2.704183
3270.000000;2.674398
3269.000000;2.741874
3268.000000;2.994397
3267.000000;2.982703
3266.000000;2.663366
3265.000000;2.544440
3264.000000;2.570853
3263.000000;2.730374
3262.000000;2.949277
3261.000000;2.837341
3260.000000;2.663542
3259.000000;2.631310
3258.000000;2.671252
3257.000000;2.631213
3256.000000;2.579498
3255.000000;2.651422
3254.000000;2.980421
3253.000000;3.248511
3252.000000;2.783058
3251.000000;2.682367
3250.000000;2.749432
3249.000000;2.973624
3248.000000;3.344619
3247.000000;3.215576
3246.000000;2.992261
3245.000000;2.936289
3244.000000;2.978230
3243.000000;2.982145
3242.000000;2.833742
3241.000000;2.677482
3240.000000;2.582385
3239.000000;2.540661
3238.000000;2.550389
3237.000000;2.607654
3236.000000;2.669738
3235.000000;2.688982
3234.000000;2.724495
3233.000000;2.847944
3232.000000;2.959775
3231.000000;2.894613
3230.000000;2.823493
3229.000000;2.780341
3228.000000;2.726687
3227.000000;2.678251
3226.000000;2.652203
3225.000000;2.691529
3224.000000;2.844816
3223.000000;2.994912
3222.000000;2.941042
3221.000000;2.950118
3220.000000;3.094733
3219.000000;3.014831
3218.000000;2.784421
3217.000000;2.744853
3216.000000;2.823354
3215.000000;2.765142
3214.000000;2.670909
3213.000000;2.863453
3212.000000;3.233514
3211.000000;2.815040
3210.000000;2.651809
3209.000000;2.865753
3208.000000;3.153726
3207.000000;2.807818
3206.000000;2.655788
3205.000000;2.672634
3204.000000;2.710657
3203.000000;2.662006
3202.000000;2.538993
3201.000000;2.479765
3200.000000;2.501673
3199.000000;2.558358
3198.000000;2.587516
3197.000000;2.567176
3196.000000;2.526801
3195.000000;2.520003
3194.000000;2.586087
3193.000000;2.699729
3192.000000;2.791121
3191.000000;2.858398
3190.000000;2.893492
3189.000000;2.801513
3188.000000;2.609713
3187.000000;2.487411
3186.000000;2.501456
3185.000000;2.656647
3184.000000;2.977659
3183.000000;3.154720
3182.000000;2.960159
3181.000000;2.864848
3180.000000;2.935414
3179.000000;3.315009
3178.000000;3.573163
3177.000000;3.129955
3176.000000;2.969431
3175.000000;2.968238
3174.000000;3.193032
3173.000000;3.603542
3172.000000;3.232297
3171.000000;2.899079
3170.000000;2.689747
3169.000000;2.608792
3168.000000;2.642318
3167.000000;2.772034
3166.000000;2.906457
3165.000000;2.845269
3164.000000;2.719565
3163.000000;2.679287
3162.000000;2.754100
3161.000000;3.015539
3160.000000;3.360455
3159.000000;3.459691
3158.000000;3.304543
3157.000000;2.840529
3156.000000;2.587431
3155.000000;2.518982
3154.000000;2.533414
3153.000000;2.534228
3152.000000;2.556956
3151.000000;2.774264
3150.000000;2.897347
3149.000000;2.614347
3148.000000;2.538436
3147.000000;2.623077
3146.000000;2.689263
3145.000000;2.634121
3144.000000;2.611377
3143.000000;2.720820
3142.000000;3.074851
3141.000000;3.177109
3140.000000;2.802905
3139.000000;2.826179
3138.000000;2.935328
3137.000000;2.705704
3136.000000;2.529367
3135.000000;2.527779
3134.000000;2.745158
3133.000000;2.973765
3132.000000;2.686187
3131.000000;2.510505
3130.000000;2.477091
3129.000000;2.495105
3128.000000;2.547515
3127.000000;2.617865
3126.000000;2.680055
3125.000000;2.678462
3124.000000;2.633363
3123.000000;2.642901
3122.000000;2.704670
3121.000000;2.654427
3120.000000;2.560035
3119.000000;2.564239
3118.000000;2.619162
3117.000000;2.575060
3116.000000;2.515351
3115.000000;2.552843
3114.000000;2.857331
3113.000000;3.420531
3112.000000;2.920947
3111.000000;2.873484
3110.000000;2.878026
3109.000000;2.642594
3108.000000;2.510385
3107.000000;2.551914
3106.000000;2.816771
3105.000000;3.210195
3104.000000;3.139641
3103.000000;3.064738
3102.000000;2.975286
3101.000000;2.808372
3100.000000;2.740987
3099.000000;2.789450
3098.000000;2.850177
3097.000000;2.774905
3096.000000;2.630533
3095.000000;2.530307
3094.000000;2.521084
3093.000000;2.653360
3092.000000;2.921243
3091.000000;2.802126
3090.000000;2.579445
3089.000000;2.530634
3088.000000;2.611112
3087.000000;2.812952
3086.000000;3.047340
3085.000000;3.130915
3084.000000;3.097363
3083.000000;2.903704
3082.000000;2.660163
3081.000000;2.496690
3080.000000;2.426277
3079.000000;2.435351
3078.000000;2.467339
3077.000000;2.465160
3076.000000;2.493538
3075.000000;2.626747
3074.000000;2.889275
3073.000000;3.238945
3072.000000;2.992256
3071.000000;2.690439
3070.000000;2.567567
3069.000000;2.565992
3068.000000;2.681863
3067.000000;2.964840
3066.000000;3.625321
3065.000000;4.208354
3064.000000;3.266428
3063.000000;2.877678
3062.000000;2.773872
3061.000000;2.837196
3060.000000;2.956836
3059.000000;3.066418
3058.000000;2.958562
3057.000000;2.715178
3056.000000;2.599331
3055.000000;2.586117
3054.000000;2.603750
3053.000000;2.634065
3052.000000;2.742237
3051.000000;2.996078
3050.000000;3.309054
3049.000000;3.331240
3048.000000;3.274566
3047.000000;3.172709
3046.000000;3.150412
3045.000000;3.545951
3044.000000;3.143853
3043.000000;2.960282
3042.000000;3.162172
3041.000000;2.775787
3040.000000;2.522912
3039.000000;2.503625
3038.000000;2.704238
3037.000000;3.128538
3036.000000;3.138748
3035.000000;3.002982
3034.000000;2.781974
3033.000000;2.659461
3032.000000;2.669042
3031.000000;2.964008
3030.000000;3.283249
3029.000000;2.675559
3028.000000;2.456517
3027.000000;2.464929
3026.000000;2.705570
3025.000000;3.067199
3024.000000;3.194994
3023.000000;3.008313
3022.000000;2.707828
3021.000000;2.620407
3020.000000;2.700180
3019.000000;3.061787
3018.000000;3.160063
3017.000000;2.683937
3016.000000;2.511724
3015.000000;2.502325
3014.000000;2.576127
3013.000000;2.648796
3012.000000;2.645370
3011.000000;2.633464
3010.000000;2.722331
3009.000000;2.936919
3008.000000;3.436882
3007.000000;3.815691
3006.000000;2.975136
3005.000000;2.751663
3004.000000;2.735144
3003.000000;2.803123
3002.000000;2.729630
3001.000000;2.622865
3000.000000;2.597715
2999.000000;2.518070
2998.000000;2.448488
2997.000000;2.478266
2996.000000;2.679289
2995.000000;3.060889
2994.000000;2.923856
2993.000000;2.702934
2992.000000;2.649793
2991.000000;2.661507
2990.000000;2.884170
2989.000000;3.555658
2988.000000;2.794896
2987.000000;2.457533
2986.000000;2.329346
2985.000000;2.302518
2984.000000;2.361851
2983.000000;2.444649
2982.000000;2.510753
2981.000000;2.563114
2980.000000;2.696938
2979.000000;3.121547
2978.000000;3.062556
2977.000000;2.647082
2976.000000;2.599091
2975.000000;2.625012
2974.000000;2.545724
2973.000000;2.439582
2972.000000;2.395464
2971.000000;2.395603
2970.000000;2.438576
2969.000000;2.528335
2968.000000;2.552170
2967.000000;2.512842
2966.000000;2.553481
2965.000000;2.736957
2964.000000;3.129412
2963.000000;3.387864
2962.000000;3.008607
2961.000000;2.811175
2960.000000;2.758867
2959.000000;2.764163
2958.000000;2.795826
2957.000000;2.859855
2956.000000;3.088472
2955.000000;3.278983
2954.000000;2.904461
2953.000000;2.878929
2952.000000;2.982299
2951.000000;2.619763
2950.000000;2.360502
2949.000000;2.285389
2948.000000;2.342796
2947.000000;2.525024
2946.000000;2.760662
2945.000000;2.810464
2944.000000;2.640239
2943.000000;2.498730
2942.000000;2.491270
2941.000000;2.654323
2940.000000;2.935950
2939.000000;2.923960
2938.000000;2.799184
2937.000000;2.736965
2936.000000;2.653707
2935.000000;2.578015
2934.000000;2.550036
2933.000000;2.577238
2932.000000;2.612433
2931.000000;2.613540
2930.000000;2.599779
2929.000000;2.603761
2928.000000;2.627474
2927.000000;2.688729
2926.000000;2.784455
2925.000000;2.807671
2924.000000;2.752489
2923.000000;2.739414
2922.000000;3.058403
2921.000000;3.331400
2920.000000;2.775594
2919.000000;2.596236
2918.000000;2.557135
2917.000000;2.584125
2916.000000;2.655629
2915.000000;2.739472
2914.000000;2.897852
2913.000000;3.191645
2912.000000;3.542318
2911.000000;3.681057
2910.000000;3.097702
2909.000000;2.770848
2908.000000;2.676454
2907.000000;2.670144
2906.000000;2.676468
2905.000000;2.705769
2904.000000;2.988770
2903.000000;3.301931
2902.000000;2.810066
2901.000000;2.703890
2900.000000;2.704643
2899.000000;2.653325
2898.000000;2.555424
2897.000000;2.480688
2896.000000;2.501674
2895.000000;2.672034
2894.000000;3.109806
2893.000000;3.142130
2892.000000;3.115568
2891.000000;3.282051
2890.000000;2.869618
2889.000000;2.723167
2888.000000;2.785029
2887.000000;2.829205
2886.000000;2.859168
2885.000000;3.007710
2884.000000;3.147359
2883.000000;3.187311
2882.000000;3.064864
2881.000000;2.846656
2880.000000;2.743835
2879.000000;2.694929
2878.000000;2.646610
2877.000000;2.556833
2876.000000;2.444798
2875.000000;2.403428
2874.000000;2.526770
2873.000000;2.754804
2872.000000;2.659238
2871.000000;2.535432
2870.000000;2.861060
2869.000000;3.074304
2868.000000;2.504807
2867.000000;2.382204
2866.000000;2.418775
2865.000000;2.714885
2864.000000;3.013173
2863.000000;2.653854
2862.000000;2.603812
2861.000000;2.766542
2860.000000;2.768426
2859.000000;2.645272
2858.000000;2.609763
2857.000000;2.577686
2856.000000;2.581300
2855.000000;2.669362
2854.000000;2.825830
2853.000000;3.064371
2852.000000;3.033149
2851.000000;2.836500
2850.000000;2.782521
2849.000000;2.809622
2848.000000;2.887828
2847.000000;3.141446
2846.000000;3.404857
2845.000000;3.064625
2844.000000;2.968425
2843.000000;2.968266
2842.000000;2.832552
2841.000000;2.919861
2840.000000;3.100022
2839.000000;2.758791
2838.000000;2.594929
2837.000000;2.613608
2836.000000;2.633770
2835.000000;2.593779
2834.000000;2.541205
2833.000000;2.442717
2832.000000;2.372796
2831.000000;2.381334
2830.000000;2.610396
2829.000000;3.174476
2828.000000;2.647253
2827.000000;2.478547
2826.000000;2.656856
2825.000000;2.857204
2824.000000;2.673024
2823.000000;2.609378
2822.000000;2.862288
2821.000000;3.051494
2820.000000;2.745549
2819.000000;2.691486
2818.000000;2.847473
2817.000000;2.943612
2816.000000;2.826780
2815.000000;2.800697
2814.000000;3.151155
2813.000000;3.204433
2812.000000;2.755171
2811.000000;2.620640
2810.000000;2.577990
2809.000000;2.561989
2808.000000;2.609041
2807.000000;2.749157
2806.000000;2.870069
2805.000000;2.803140
2804.000000;2.727848
2803.000000;2.766901
2802.000000;2.807295
2801.000000;2.712031
2800.000000;2.683236
2799.000000;2.845197
2798.000000;3.123759
2797.000000;3.237125
2796.000000;3.175903
2795.000000;2.814434
2794.000000;2.588655
2793.000000;2.571666
2792.000000;2.753622
2791.000000;2.948579
2790.000000;2.867840
2789.000000;3.037716
2788.000000;3.367148
2787.000000;2.741883
2786.000000;2.386409
2785.000000;2.269708
2784.000000;2.316361
2783.000000;2.575947
2782.000000;2.921035
2781.000000;2.771459
2780.000000;2.693303
2779.000000;2.679204
2778.000000;2.816855
2777.000000;3.232642
2776.000000;2.693586
2775.000000;2.434761
2774.000000;2.401886
2773.000000;2.476751
2772.000000;2.627429
2771.000000;2.706186
2770.000000;2.848184
2769.000000;2.895186
2768.000000;3.037791
2767.000000;3.281703
2766.000000;2.738743
2765.000000;2.589922
2764.000000;2.851665
2763.000000;3.068903
2762.000000;2.611486
2761.000000;2.496557
2760.000000;2.551518
2759.000000;2.574695
2758.000000;2.471820
2757.000000;2.356290
2756.000000;2.327951
2755.000000;2.380573
2754.000000;2.529487
2753.000000;2.713889
2752.000000;2.849713
2751.000000;2.944958
2750.000000;2.945049
2749.000000;2.933575
2748.000000;3.187943
2747.000000;3.491367
2746.000000;3.123074
2745.000000;3.215287
2744.000000;3.156423
2743.000000;2.728737
2742.000000;2.678856
2741.000000;2.976926
2740.000000;2.918886
2739.000000;2.565569
2738.000000;2.426728
2737.000000;2.357095
2736.000000;2.368559
2735.000000;2.484942
2734.000000;2.497644
2733.000000;2.372041
2732.000000;2.343748
2731.000000;2.415331
2730.000000;2.471578
2729.000000;2.556901
2728.000000;2.717358
2727.000000;2.699967
2726.000000;2.814292
2725.000000;3.006568
2724.000000;2.644967
2723.000000;2.520989
2722.000000;2.656826
2721.000000;2.955753
2720.000000;3.113330
2719.000000;2.853432
2718.000000;2.575266
2717.000000;2.432572
2716.000000;2.426302
2715.000000;2.521722
2714.000000;2.657608
2713.000000;2.687270
2712.000000;2.618527
2711.000000;2.596460
2710.000000;2.709255
2709.000000;2.912417
2708.000000;2.897176
2707.000000;2.787032
2706.000000;2.754690
2705.000000;2.839504
2704.000000;2.912922
2703.000000;2.840281
2702.000000;2.837827
2701.000000;2.754483
2700.000000;2.634623
2699.000000;2.681253
2698.000000;2.931024
2697.000000;3.135581
2696.000000;3.057466
2695.000000;3.108094
2694.000000;3.097643
2693.000000;2.810196
2692.000000;2.562658
2691.000000;2.439650
2690.000000;2.440275
2689.000000;2.535973
2688.000000;2.640425
2687.000000;2.643363
2686.000000;2.575378
2685.000000;2.528297
2684.000000;2.609170
2683.000000;2.804136
2682.000000;2.684403
2681.000000;2.488081
2680.000000;2.472910
2679.000000;2.603203
2678.000000;2.755543
2677.000000;2.732802
2676.000000;2.766016
2675.000000;2.948265
2674.000000;2.940573
2673.000000;2.774911
2672.000000;2.661149
2671.000000;2.538967
2670.000000;2.451823
2669.000000;2.429872
2668.000000;2.536970
2667.000000;2.767050
2666.000000;2.586188
2665.000000;2.376854
2664.000000;2.329128
2663.000000;2.399882
2662.000000;2.642206
2661.000000;2.716847
2660.000000;2.564440
2659.000000;2.621998
2658.000000;2.647221
2657.000000;2.546800
2656.000000;2.593933
2655.000000;2.825888
2654.000000;3.080671
2653.000000;3.033379
2652.000000;2.833279
2651.000000;2.639497
2650.000000;2.599895
2649.000000;2.747163
2648.000000;2.828085
2647.000000;2.667183
2646.000000;2.556147
2645.000000;2.500306
2644.000000;2.440641
2643.000000;2.375887
2642.000000;2.356115
2641.000000;2.410710
2640.000000;2.593871
2639.000000;2.835590
2638.000000;2.654870
2637.000000;2.445266
2636.000000;2.319051
2635.000000;2.255108
2634.000000;2.285691
2633.000000;2.427630
2632.000000;2.570364
2631.000000;2.490790
2630.000000;2.398633
2629.000000;2.376011
2628.000000;2.378575
2627.000000;2.382284
2626.000000;2.387944
2625.000000;2.423001
2624.000000;2.506313
2623.000000;2.631110
2622.000000;2.817714
2621.000000;3.001063
2620.000000;3.108959
2619.000000;3.136423
2618.000000;2.719867
2617.000000;2.408719
2616.000000;2.274246
2615.000000;2.265761
2614.000000;2.375974
2613.000000;2.585177
2612.000000;2.681317
2611.000000;2.634303
2610.000000;2.619386
2609.000000;2.830890
2608.000000;3.289999
2607.000000;2.735420
2606.000000;2.499134
2605.000000;2.444152
2604.000000;2.448535
2603.000000;2.498091
2602.000000;2.532571
2601.000000;2.569615
2600.000000;2.637687
2599.000000;2.746342
2598.000000;2.789141
2597.000000;2.801403
2596.000000;2.885393
2595.000000;3.021571
2594.000000;3.142618
2593.000000;3.316272
2592.000000;3.106293
2591.000000;2.686548
2590.000000;2.438979
2589.000000;2.360592
2588.000000;2.434965
2587.000000;2.713987
2586.000000;3.166992
2585.000000;3.160933
2584.000000;3.106773
2583.000000;3.011842
2582.000000;2.990063
2581.000000;2.934257
2580.000000;2.706012
2579.000000;2.580820
2578.000000;2.560072
2577.000000;2.609772
2576.000000;2.669389
2575.000000;2.701774
2574.000000;2.739337
2573.000000;2.875574
2572.000000;3.128765
2571.000000;2.926073
2570.000000;2.676612
2569.000000;2.635181
2568.000000;2.822775
2567.000000;3.333031
2566.000000;2.959447
2565.000000;2.746559
2564.000000;2.799073
2563.000000;2.934203
2562.000000;3.507906
2561.000000;3.105835
2560.000000;2.730774
2559.000000;2.658325
2558.000000;2.744265
2557.000000;2.892498
2556.000000;2.764604
2555.000000;2.652615
2554.000000;2.647575
2553.000000;2.672378
2552.000000;2.669170
2551.000000;2.592156
2550.000000;2.499852
2549.000000;2.470226
2548.000000;2.531986
2547.000000;2.680782
2546.000000;2.918444
2545.000000;3.157386
2544.000000;2.996312
2543.000000;2.798949
2542.000000;2.991580
2541.000000;3.172370
2540.000000;2.678122
2539.000000;2.458483
2538.000000;2.429203
2537.000000;2.499646
2536.000000;2.633921
2535.000000;2.761339
2534.000000;2.794430
2533.000000;2.678974
2532.000000;2.524882
2531.000000;2.440038
2530.000000;2.466381
2529.000000;2.591922
2528.000000;2.666900
2527.000000;2.592119
2526.000000;2.494137
2525.000000;2.445221
2524.000000;2.498684
2523.000000;2.689651
2522.000000;2.891652
2521.000000;2.944774
2520.000000;3.032920
2519.000000;2.997913
2518.000000;2.849128
2517.000000;2.784903
2516.000000;2.820664
2515.000000;2.979959
2514.000000;3.150902
2513.000000;3.059743
2512.000000;3.086307
2511.000000;3.136294
2510.000000;3.131673
2509.000000;3.401745
2508.000000;2.929247
2507.000000;2.618668
2506.000000;2.530463
2505.000000;2.470516
2504.000000;2.444835
2503.000000;2.481777
2502.000000;2.587957
2501.000000;2.667437
2500.000000;2.545860
2499.000000;2.374298
2498.000000;2.298143
2497.000000;2.320059
2496.000000;2.417151
2495.000000;2.546852
2494.000000;2.669055
2493.000000;2.743221
2492.000000;2.795425
2491.000000;2.856641
2490.000000;2.876918
2489.000000;2.808809
2488.000000;2.778338
2487.000000;3.119912
2486.000000;3.111703
2485.000000;2.653869
2484.000000;2.505829
2483.000000;2.577032
2482.000000;2.755431
2481.000000;2.651026
2480.000000;2.548650
2479.000000;2.788311
2478.000000;3.319525
2477.000000;2.823315
2476.000000;2.793140
2475.000000;3.224058
2474.000000;3.038546
2473.000000;2.653719
2472.000000;2.472292
2471.000000;2.450491
2470.000000;2.682268
2469.000000;3.173312
2468.000000;3.204441
2467.000000;3.289870
2466.000000;2.887918
2465.000000;2.647193
2464.000000;2.707610
2463.000000;3.092212
2462.000000;3.283623
2461.000000;3.023357
2460.000000;3.175883
2459.000000;2.951533
2458.000000;2.808802
2457.000000;2.846909
2456.000000;2.688323
2455.000000;2.545746
2454.000000;2.525574
2453.000000;2.599269
2452.000000;2.754754
2451.000000;2.879046
2450.000000;2.786592
2449.000000;2.658385
2448.000000;2.649381
2447.000000;2.781242
2446.000000;2.801295
2445.000000;2.628736
2444.000000;2.568251
2443.000000;2.660581
2442.000000;2.841772
2441.000000;2.854923
2440.000000;2.747048
2439.000000;2.682272
2438.000000;2.619415
2437.000000;2.579112
2436.000000;2.577905
2435.000000;2.636791
2434.000000;2.733424
2433.000000;2.697788
2432.000000;2.560389
2431.000000;2.507588
2430.000000;2.569664
2429.000000;2.781948
2428.000000;3.041803
2427.000000;2.875950
2426.000000;2.750119
2425.000000;2.763578
2424.000000;2.764628
2423.000000;2.746105
2422.000000;2.586204
2421.000000;2.362448
2420.000000;2.239487
2419.000000;2.236314
2418.000000;2.350573
2417.000000;2.566845
2416.000000;2.724059
2415.000000;2.813602
2414.000000;2.957278
2413.000000;2.872834
2412.000000;2.724054
2411.000000;2.686412
2410.000000;2.684735
2409.000000;2.545160
2408.000000;2.368511
2407.000000;2.308278
2406.000000;2.369376
2405.000000;2.529172
2404.000000;2.719311
2403.000000;2.792066
2402.000000;2.705429
2401.000000;2.654825
2400.000000;2.852077
2399.000000;3.004830
2398.000000;2.692346
2397.000000;2.584811
2396.000000;2.648575
2395.000000;2.717655
2394.000000;2.725034
2393.000000;2.713896
2392.000000;2.712720
2391.000000;2.710262
2390.000000;2.745782
2389.000000;2.835645
2388.000000;2.942335
2387.000000;2.998302
2386.000000;3.078262
2385.000000;3.282206
2384.000000;3.184811
2383.000000;2.895104
2382.000000;2.774477
2381.000000;2.765315
2380.000000;2.790808
2379.000000;2.875169
2378.000000;2.967428
2377.000000;2.815292
2376.000000;2.654384
2375.000000;2.616915
2374.000000;2.665115
2373.000000;2.783954
2372.000000;2.949778
2371.000000;3.116194
2370.000000;3.161710
2369.000000;3.163830
2368.000000;3.218791
2367.000000;3.069816
2366.000000;2.847592
2365.000000;2.727498
2364.000000;2.706750
2363.000000;2.752592
2362.000000;2.813362
2361.000000;2.904625
2360.000000;3.140498
2359.000000;3.157492
2358.000000;2.978069
2357.000000;3.309289
2356.000000;3.446822
2355.000000;2.971389
2354.000000;2.919058
2353.000000;2.974395
2352.000000;3.036060
2351.000000;2.961824
2350.000000;2.774045
2349.000000;2.647655
2348.000000;2.712441
2347.000000;2.954173
2346.000000;3.072684
2345.000000;3.051879
2344.000000;2.987309
2343.000000;2.899376
2342.000000;2.790488
2341.000000;2.707889
2340.000000;2.729638
2339.000000;3.013415
2338.000000;3.066497
2337.000000;2.661908
2336.000000;2.567405
2335.000000;2.640325
2334.000000;2.832821
2333.000000;3.008998
2332.000000;2.914280
2331.000000;2.873927
2330.000000;2.956498
2329.000000;3.431751
2328.000000;3.675321
2327.000000;3.341454
2326.000000;3.613669
2325.000000;3.169035
2324.000000;2.831730
2323.000000;2.750314
2322.000000;2.783651
2321.000000;2.922520
2320.000000;3.158425
2319.000000;3.146635
2318.000000;2.890209
2317.000000;2.816098
2316.000000;2.982460
2315.000000;3.085130
2314.000000;2.880479
2313.000000;2.815203
2312.000000;2.801624
2311.000000;2.712504
2310.000000;2.656406
2309.000000;2.692532
2308.000000;2.795266
2307.000000;2.856788
2306.000000;2.816556
2305.000000;2.765201
2304.000000;2.781857
2303.000000;2.838585
2302.000000;2.946381
2301.000000;3.007503
2300.000000;2.819358
2299.000000;2.675260
2298.000000;2.695358
2297.000000;2.889854
2296.000000;3.035459
2295.000000;2.889942
2294.000000;2.800830
2293.000000;2.927731
2292.000000;2.957205
2291.000000;2.625240
2290.000000;2.476536
2289.000000;2.506545
2288.000000;2.599014
2287.000000;2.680390
2286.000000;2.871466
2285.000000;3.160828
2284.000000;3.012532
2283.000000;2.992723
2282.000000;3.220469
2281.000000;3.182921
2280.000000;3.003538
2279.000000;3.142408
2278.000000;3.198777
2277.000000;2.853441
2276.000000;2.635967
2275.000000;2.540433
2274.000000;2.568122
2273.000000;2.730604
2272.000000;3.044593
2271.000000;2.999434
2270.000000;2.743163
2269.000000;2.703537
2268.000000;2.784128
2267.000000;2.822405
2266.000000;2.832470
2265.000000;2.918777
2264.000000;2.919192
2263.000000;2.844685
2262.000000;2.724442
2261.000000;2.543565
2260.000000;2.426095
2259.000000;2.403034
2258.000000;2.458002
2257.000000;2.558076
2256.000000;2.666185
2255.000000;2.768378
2254.000000;2.867983
2253.000000;2.938159
2252.000000;2.863559
2251.000000;2.723609
2250.000000;2.648565
2249.000000;2.649356
2248.000000;2.653487
2247.000000;2.593185
2246.000000;2.500950
2245.000000;2.478962
2244.000000;2.547689
2243.000000;2.774403
2242.000000;3.320233
2241.000000;3.147185
2240.000000;2.983131
2239.000000;3.219915
2238.000000;3.394607
2237.000000;3.202436
2236.000000;2.889419
2235.000000;2.717876
2234.000000;2.643008
2233.000000;2.679209
2232.000000;2.764319
2231.000000;2.632726
2230.000000;2.497446
2229.000000;2.503892
2228.000000;2.633754
2227.000000;2.717348
2226.000000;2.693304
2225.000000;2.789510
2224.000000;2.669129
2223.000000;2.433052
2222.000000;2.366966
2221.000000;2.428775
2220.000000;2.597429
2219.000000;2.793859
2218.000000;2.825323
2217.000000;2.816857
2216.000000;2.738064
2215.000000;2.682543
2214.000000;2.691558
2213.000000;2.861352
2212.000000;3.505869
2211.000000;3.041645
2210.000000;2.746616
2209.000000;2.831119
2208.000000;3.266795
2207.000000;3.393609
2206.000000;3.188240
2205.000000;3.364885
2204.000000;3.050404
2203.000000;2.913988
2202.000000;2.863590
2201.000000;2.740525
2200.000000;2.703721
2199.000000;2.664558
2198.000000;2.587046
2197.000000;2.644985
2196.000000;2.709286
2195.000000;2.546810
2194.000000;2.461523
2193.000000;2.511853
2192.000000;2.652140
2191.000000;2.884273
2190.000000;2.874759
2189.000000;2.662570
2188.000000;2.575325
2187.000000;2.579181
2186.000000;2.624391
2185.000000;2.610655
2184.000000;2.511878
2183.000000;2.443788
2182.000000;2.491779
2181.000000;2.605412
2180.000000;2.542575
2179.000000;2.436775
2178.000000;2.446853
2177.000000;2.535573
2176.000000;2.636862
2175.000000;2.703376
2174.000000;2.771927
2173.000000;3.120568
2172.000000;3.090064
2171.000000;2.632355
2170.000000;2.559251
2169.000000;2.634674
2168.000000;2.776882
2167.000000;2.865289
2166.000000;2.630969
2165.000000;2.426600
2164.000000;2.364347
2163.000000;2.402486
2162.000000;2.483430
2161.000000;2.561340
2160.000000;2.636131
2159.000000;2.718497
2158.000000;2.737515
2157.000000;2.630913
2156.000000;2.494269
2155.000000;2.424690
2154.000000;2.469989
2153.000000;2.619983
2152.000000;2.974159
2151.000000;3.184804
2150.000000;2.720035
2149.000000;2.560947
2148.000000;2.511561
2147.000000;2.456100
2146.000000;2.433319
2145.000000;2.582457
2144.000000;2.634814
2143.000000;2.340263
2142.000000;2.216307
2141.000000;2.260508
2140.000000;2.459767
2139.000000;2.682804
2138.000000;2.580257
2137.000000;2.498510
2136.000000;2.519338
2135.000000;2.691969
2134.000000;3.173854
2133.000000;2.863635
2132.000000;2.563708
2131.000000;2.541277
2130.000000;2.656821
2129.000000;3.068125
2128.000000;3.678176
2127.000000;3.608650
2126.000000;3.384346
2125.000000;2.954983
2124.000000;2.876711
2123.000000;3.068193
2122.000000;2.904544
2121.000000;2.555196
2120.000000;2.370607
2119.000000;2.305138
2118.000000;2.328859
2117.000000;2.440187
2116.000000;2.723109
2115.000000;2.999331
2114.000000;2.776787
2113.000000;2.731164
2112.000000;3.008248
2111.000000;3.238167
2110.000000;2.954666
2109.000000;2.906136
2108.000000;3.035503
2107.000000;3.058086
2106.000000;2.919299
2105.000000;2.823411
2104.000000;2.814892
2103.000000;2.910361
2102.000000;3.142897
2101.000000;2.940685
2100.000000;2.663543
2099.000000;2.555132
2098.000000;2.591869
2097.000000;2.698589
2096.000000;2.633537
2095.000000;2.546669
2094.000000;2.634139
2093.000000;3.067256
2092.000000;3.070253
2091.000000;2.655613
2090.000000;2.625570
2089.000000;2.743786
2088.000000;2.780421
2087.000000;2.659385
2086.000000;2.564657
2085.000000;2.509290
2084.000000;2.473738
2083.000000;2.478313
2082.000000;2.470535
2081.000000;2.438840
2080.000000;2.425402
2079.000000;2.491653
2078.000000;2.563579
2077.000000;2.470296
2076.000000;2.366715
2075.000000;2.371446
2074.000000;2.501504
2073.000000;2.914073
2072.000000;3.202194
2071.000000;2.785723
2070.000000;2.699252
2069.000000;2.754323
2068.000000;2.819058
2067.000000;3.194792
2066.000000;3.340305
2065.000000;2.715430
2064.000000;2.573414
2063.000000;2.672512
2062.000000;2.877101
2061.000000;3.075693
2060.000000;2.956433
2059.000000;2.687659
2058.000000;2.520613
2057.000000;2.555138
2056.000000;2.919507
2055.000000;2.773665
2054.000000;2.387904
2053.000000;2.279994
2052.000000;2.302773
2051.000000;2.457036
2050.000000;2.691487
2049.000000;2.784529
2048.000000;2.717434
2047.000000;2.741474
2046.000000;2.765990
2045.000000;2.711883
2044.000000;2.804779
2043.000000;2.732953
2042.000000;2.540013
2041.000000;2.533992
2040.000000;2.664256
2039.000000;2.848728
2038.000000;2.911227
2037.000000;2.669215
2036.000000;2.422612
2035.000000;2.311680
2034.000000;2.334562
2033.000000;2.489877
2032.000000;2.684439
2031.000000;2.659799
2030.000000;2.577920
2029.000000;2.583076
2028.000000;2.664512
2027.000000;2.835396
2026.000000;3.076009
2025.000000;3.527789
2024.000000;3.382718
2023.000000;2.922570
2022.000000;2.790194
2021.000000;2.841293
2020.000000;3.026765
2019.000000;3.148984
2018.000000;2.953273
2017.000000;2.709524
2016.000000;2.518419
2015.000000;2.430072
2014.000000;2.455188
2013.000000;2.657915
2012.000000;3.090909
2011.000000;3.025937
2010.000000;2.869444
2009.000000;2.808799
2008.000000;2.671942
2007.000000;2.596382
2006.000000;2.656939
2005.000000;2.667955
2004.000000;2.578047
2003.000000;2.548028
2002.000000;2.667081
2001.000000;3.344037
2000.000000;2.950334
1999.000000;2.478061
1998.000000;2.378060
1997.000000;2.364338
1996.000000;2.412822
1995.000000;2.457882
1994.000000;2.598127
1993.000000;2.793080
1992.000000;2.619844
1991.000000;2.478043
1990.000000;2.558771
1989.000000;2.978796
1988.000000;2.875750
1987.000000;2.471622
1986.000000;2.370093
1985.000000;2.393024
1984.000000;2.482185
1983.000000;2.564524
1982.000000;2.611161
1981.000000;2.692880
1980.000000;3.022246
1979.000000;3.399584
1978.000000;2.886405
1977.000000;2.746505
1976.000000;3.054931
1975.000000;3.031300
1974.000000;2.579773
1973.000000;2.420420
1972.000000;2.411343
1971.000000;2.464629
1970.000000;2.403601
1969.000000;2.270816
1968.000000;2.214237
1967.000000;2.233524
1966.000000;2.283489
1965.000000;2.298921
1964.000000;2.308538
1963.000000;2.383030
1962.000000;2.571400
1961.000000;2.693528
1960.000000;2.622812
1959.000000;2.662716
1958.000000;2.607642
1957.000000;2.432684
1956.000000;2.371977
1955.000000;2.417938
1954.000000;2.536564
1953.000000;2.647092
1952.000000;2.720217
1951.000000;2.834627
1950.000000;2.850689
1949.000000;2.691103
1948.000000;2.481187
1947.000000;2.381283
1946.000000;2.415746
1945.000000;2.673686
1944.000000;3.254875
1943.000000;2.823158
1942.000000;2.607387
1941.000000;2.649293
1940.000000;2.689573
1939.000000;2.808314
1938.000000;3.196643
1937.000000;3.029662
1936.000000;2.589040
1935.000000;2.440559
1934.000000;2.432219
1933.000000;2.520940
1932.000000;2.677485
1931.000000;2.878759
1930.000000;2.941094
1929.000000;2.688198
1928.000000;2.473079
1927.000000;2.387157
1926.000000;2.418467
1925.000000;2.681677
1924.000000;3.112447
1923.000000;2.769619
1922.000000;2.651179
1921.000000;2.822648
1920.000000;2.938490
1919.000000;3.008602
1918.000000;3.256307
1917.000000;3.387690
1916.000000;3.161402
1915.000000;2.999996
1914.000000;2.905795
1913.000000;2.850379
1912.000000;2.773690
1911.000000;2.732707
1910.000000;2.802157
1909.000000;2.987591
1908.000000;3.169466
1907.000000;2.914157
1906.000000;2.643017
1905.000000;2.562796
1904.000000;2.617771
1903.000000;2.741825
1902.000000;2.803059
1901.000000;2.742173
1900.000000;2.693642
1899.000000;2.837385
1898.000000;3.037632
1897.000000;2.762583
1896.000000;2.536582
1895.000000;2.440431
1894.000000;2.415437
1893.000000;2.471031
1892.000000;2.571368
1891.000000;2.641392
1890.000000;2.596553
1889.000000;2.480138
1888.000000;2.430173
1887.000000;2.502490
1886.000000;2.675142
1885.000000;2.824565
1884.000000;2.790245
1883.000000;2.607895
1882.000000;2.513185
1881.000000;2.542776
1880.000000;2.859179
1879.000000;3.382159
1878.000000;2.839663
1877.000000;2.796519
1876.000000;3.130307
1875.000000;3.213409
1874.000000;2.944804
1873.000000;3.002574
1872.000000;3.282948
1871.000000;3.401459
1870.000000;3.232712
1869.000000;2.927384
1868.000000;2.730276
1867.000000;2.610353
1866.000000;2.593620
1865.000000;2.707060
1864.000000;2.924590
1863.000000;2.919744
1862.000000;2.807239
1861.000000;2.786653
1860.000000;2.909168
1859.000000;3.084131
1858.000000;2.845543
1857.000000;2.657437
1856.000000;2.674681
1855.000000;3.028881
1854.000000;3.055936
1853.000000;2.598667
1852.000000;2.473902
1851.000000;2.471511
1850.000000;2.548110
1849.000000;2.674248
1848.000000;2.649160
1847.000000;2.561933
1846.000000;2.535018
1845.000000;2.628449
1844.000000;2.944991
1843.000000;2.744750
1842.000000;2.472869
1841.000000;2.474979
1840.000000;2.617959
1839.000000;2.814926
1838.000000;2.738500
1837.000000;2.597158
1836.000000;2.519439
1835.000000;2.458767
1834.000000;2.412099
1833.000000;2.367557
1832.000000;2.341315
1831.000000;2.323150
1830.000000;2.337526
1829.000000;2.467167
1828.000000;2.781172
1827.000000;2.908876
1826.000000;2.656455
1825.000000;2.536272
1824.000000;2.555545
1823.000000;2.735274
1822.000000;2.980726
1821.000000;2.981899
1820.000000;2.975398
1819.000000;3.090051
1818.000000;3.272737
1817.000000;3.218500
1816.000000;2.944150
1815.000000;2.779403
1814.000000;2.815591
1813.000000;2.955561
1812.000000;2.836624
1811.000000;2.720240
1810.000000;2.703242
1809.000000;2.656396
1808.000000;2.634292
1807.000000;2.611124
1806.000000;2.584986
1805.000000;2.599797
1804.000000;2.731543
1803.000000;2.927714
1802.000000;2.799538
1801.000000;2.629712
1800.000000;2.699711
1799.000000;2.838834
1798.000000;2.574593
1797.000000;2.386427
1796.000000;2.359917
1795.000000;2.424645
1794.000000;2.529401
1793.000000;2.550577
1792.000000;2.469315
1791.000000;2.381144
1790.000000;2.366257
1789.000000;2.392062
1788.000000;2.433855
1787.000000;2.510452
1786.000000;2.656170
1785.000000;2.712654
1784.000000;2.813139
1783.000000;3.470533
1782.000000;3.058169
1781.000000;2.763444
1780.000000;2.839221
1779.000000;2.939618
1778.000000;2.968076
1777.000000;2.853140
1776.000000;2.764361
1775.000000;2.766940
1774.000000;2.866101
1773.000000;2.903438
1772.000000;2.710282
1771.000000;2.576259
1770.000000;2.578256
1769.000000;2.776972
1768.000000;3.111620
1767.000000;2.744739
1766.000000;2.436936
1765.000000;2.329601
1764.000000;2.330823
1763.000000;2.423762
1762.000000;2.611972
1761.000000;2.920693
1760.000000;3.310857
1759.000000;3.287049
1758.000000;3.046182
1757.000000;2.991036
1756.000000;3.031987
1755.000000;2.863256
1754.000000;2.584063
1753.000000;2.395556
1752.000000;2.317486
1751.000000;2.344935
1750.000000;2.503091
1749.000000;2.645746
1748.000000;2.513764
1747.000000;2.416291
1746.000000;2.470743
1745.000000;2.630119
1744.000000;2.669041
1743.000000;2.600085
1742.000000;2.637103
1741.000000;2.655421
1740.000000;2.742985
1739.000000;2.944840
1738.000000;2.669093
1737.000000;2.458578
1736.000000;2.421764
1735.000000;2.438980
1734.000000;2.496502
1733.000000;2.631086
1732.000000;2.781942
1731.000000;2.805436
1730.000000;3.086186
1729.000000;2.936732
1728.000000;2.560856
1727.000000;2.547966
1726.000000;2.837626
1725.000000;3.221061
1724.000000;3.174095
1723.000000;3.175748
1722.000000;2.940325
1721.000000;2.773526
1720.000000;2.711116
1719.000000;2.665847
1718.000000;2.662416
1717.000000;2.658929
1716.000000;2.639130
1715.000000;2.663893
1714.000000;2.737901
1713.000000;2.822082
1712.000000;2.939779
1711.000000;2.891150
1710.000000;2.766604
1709.000000;2.882460
1708.000000;3.368483
1707.000000;3.091926
1706.000000;2.806242
1705.000000;3.012641
1704.000000;3.061709
1703.000000;2.787503
1702.000000;2.705209
1701.000000;2.703511
1700.000000;2.620507
1699.000000;2.528324
1698.000000;2.579563
1697.000000;2.704086
1696.000000;2.643068
1695.000000;2.433193
1694.000000;2.335027
1693.000000;2.359698
1692.000000;2.492950
1691.000000;2.816135
1690.000000;3.010182
1689.000000;2.830204
1688.000000;2.839303
1687.000000;2.811022
1686.000000;2.757370
1685.000000;3.194169
1684.000000;3.215494
1683.000000;2.614250
1682.000000;2.635328
1681.000000;2.944174
1680.000000;2.904398
1679.000000;2.599835
1678.000000;2.532129
1677.000000;2.647299
1676.000000;2.981833
1675.000000;3.444393
1674.000000;3.154738
1673.000000;3.004744
1672.000000;2.628770
1671.000000;2.377831
1670.000000;2.324799
1669.000000;2.462340
1668.000000;2.810005
1667.000000;3.078358
1666.000000;2.873385
1665.000000;2.707318
1664.000000;2.652049
1663.000000;2.549394
1662.000000;2.411531
1661.000000;2.363950
1660.000000;2.389138
1659.000000;2.432100
1658.000000;2.495751
1657.000000;2.614517
1656.000000;2.857655
1655.000000;2.978942
1654.000000;2.737620
1653.000000;2.513748
1652.000000;2.536243
1651.000000;2.628687
1650.000000;2.558756
1649.000000;2.456182
1648.000000;2.498512
1647.000000;3.077028
1646.000000;2.840451
1645.000000;2.528318
1644.000000;2.576768
1643.000000;2.647604
1642.000000;2.733075
1641.000000;2.666790
1640.000000;2.521287
1639.000000;2.405003
1638.000000;2.380136
1637.000000;2.456859
1636.000000;2.655057
1635.000000;2.875191
1634.000000;2.674846
1633.000000;2.440397
1632.000000;2.364582
1631.000000;2.538300
1630.000000;2.908229
1629.000000;2.582421
1628.000000;2.373815
1627.000000;2.431757
1626.000000;2.578887
1625.000000;2.736318
1624.000000;2.765412
1623.000000;2.826614
1622.000000;3.197537
1621.000000;2.860758
1620.000000;2.586554
1619.000000;2.566103
1618.000000;2.666034
1617.000000;2.861816
1616.000000;3.021250
1615.000000;3.314457
1614.000000;3.109000
1613.000000;2.789851
1612.000000;2.742088
1611.000000;2.833293
1610.000000;2.805334
1609.000000;2.638675
1608.000000;2.501635
1607.000000;2.399651
1606.000000;2.379683
1605.000000;2.468101
1604.000000;2.573144
1603.000000;2.537102
1602.000000;2.461597
1601.000000;2.431445
1600.000000;2.447657
1599.000000;2.475203
1598.000000;2.468761
1597.000000;2.483252
1596.000000;2.605763
1595.000000;2.900913
1594.000000;2.873278
1593.000000;2.577464
1592.000000;2.449421
1591.000000;2.449397
1590.000000;2.541224
1589.000000;2.653284
1588.000000;2.702473
1587.000000;2.694860
1586.000000;2.671060
1585.000000;2.621848
1584.000000;2.598484
1583.000000;2.669487
1582.000000;2.981724
1581.000000;3.233691
1580.000000;2.767394
1579.000000;2.639724
1578.000000;2.697158
1577.000000;2.571087
1576.000000;2.356697
1575.000000;2.315050
1574.000000;2.411426
1573.000000;2.498854
1572.000000;2.562019
1571.000000;2.588363
1570.000000;2.463567
1569.000000;2.358637
1568.000000;2.507352
1567.000000;2.693442
1566.000000;2.621653
1565.000000;2.831333
1564.000000;2.622218
1563.000000;2.339494
1562.000000;2.364844
1561.000000;2.509179
1560.000000;2.546256
1559.000000;2.259391
1558.000000;2.136040
1557.000000;2.226414
1556.000000;2.292833
1555.000000;2.253889
1554.000000;2.217701
1553.000000;2.223168
1552.000000;2.252780
1551.000000;2.317038
1550.000000;2.447592
1549.000000;2.683822
1548.000000;3.267210
1547.000000;3.352109
1546.000000;3.092736
1545.000000;3.140601
1544.000000;2.845002
1543.000000;2.770696
1542.000000;2.766759
1541.000000;2.626556
1540.000000;2.620925
1539.000000;2.596992
1538.000000;2.464042
1537.000000;2.411446
1536.000000;2.417285
1535.000000;2.418687
1534.000000;2.434476
1533.000000;2.544432
1532.000000;2.822390
1531.000000;2.973144
1530.000000;2.748803
1529.000000;2.651860
1528.000000;2.964528
1527.000000;3.034442
1526.000000;2.492514
1525.000000;2.381545
1524.000000;2.426047
1523.000000;2.610407
1522.000000;2.883207
1521.000000;2.681496
1520.000000;2.555543
1519.000000;2.625878
1518.000000;2.831766
1517.000000;3.326454
1516.000000;3.066092
1515.000000;2.699507
1514.000000;2.590658
1513.000000;2.551701
1512.000000;2.546346
1511.000000;2.544907
1510.000000;2.559375
1509.000000;2.577834
1508.000000;2.545932
1507.000000;2.491994
1506.000000;2.549344
1505.000000;2.607069
1504.000000;2.565126
1503.000000;2.631655
1502.000000;2.757421
1501.000000;2.594762
1500.000000;2.573607
1499.000000;2.834466
1498.000000;2.566014
1497.000000;2.299637
1496.000000;2.328800
1495.000000;2.607030
1494.000000;2.860219
1493.000000;2.744533
1492.000000;2.888725
1491.000000;3.252711
1490.000000;3.105778
1489.000000;2.709107
1488.000000;2.529926
1487.000000;2.503224
1486.000000;2.627887
1485.000000;3.168922
1484.000000;2.983201
1483.000000;2.545815
1482.000000;2.380984
1481.000000;2.316133
1480.000000;2.320800
1479.000000;2.373123
1478.000000;2.469577
1477.000000;2.715222
1476.000000;3.179868
1475.000000;3.296995
1474.000000;3.055980
1473.000000;2.594950
1472.000000;2.391498
1471.000000;2.417349
1470.000000;2.665312
1469.000000;2.914165
1468.000000;2.705703
1467.000000;2.767777
1466.000000;3.089106
1465.000000;2.673906
1464.000000;2.472205
1463.000000;2.628100
1462.000000;2.913558
1461.000000;3.179782
1460.000000;3.347094
1459.000000;2.964343
1458.000000;2.798927
1457.000000;2.771550
1456.000000;2.706630
1455.000000;2.628013
1454.000000;2.543919
1453.000000;2.498000
1452.000000;2.534011
1451.000000;2.646403
1450.000000;2.731197
1449.000000;2.675586
1448.000000;2.535972
1447.000000;2.410731
1446.000000;2.373768
1445.000000;2.433529
1444.000000;2.519877
1443.000000;2.538597
1442.000000;2.509847
1441.000000;2.481561
1440.000000;2.433347
1439.000000;2.348177
1438.000000;2.259408
1437.000000;2.206011
1436.000000;2.238978
1435.000000;2.396904
1434.000000;2.723264
1433.000000;3.059171
1432.000000;2.880327
1431.000000;2.768533
1430.000000;2.779078
1429.000000;2.783932
1428.000000;2.736395
1427.000000;2.611673
1426.000000;2.477358
1425.000000;2.408961
1424.000000;2.450574
1423.000000;2.626667
1422.000000;2.865434
1421.000000;2.846546
1420.000000;2.704247
1419.000000;2.681632
1418.000000;3.028610
1417.000000;3.247875
1416.000000;2.692801
1415.000000;2.529634
1414.000000;2.464938
1413.000000;2.420018
1412.000000;2.370321
1411.000000;2.348014
1410.000000;2.388695
1409.000000;2.447585
1408.000000;2.463989
1407.000000;2.429113
1406.000000;2.413643
1405.000000;2.454693
1404.000000;2.491381
1403.000000;2.433281
1402.000000;2.341830
1401.000000;2.283234
1400.000000;2.271170
1399.000000;2.344799
1398.000000;2.529232
1397.000000;2.918148
1396.000000;3.335490
1395.000000;2.905991
1394.000000;2.981794
1393.000000;3.007115
1392.000000;2.672947
1391.000000;2.593784
1390.000000;2.656911
1389.000000;2.909119
1388.000000;3.277688
1387.000000;2.784605
1386.000000;2.466752
1385.000000;2.372013
1384.000000;2.387348
1383.000000;2.500247
1382.000000;2.733563
1381.000000;2.831010
1380.000000;2.639398
1379.000000;2.534959
1378.000000;2.568693
1377.000000;2.672887
1376.000000;2.694256
1375.000000;2.718260
1374.000000;2.726770
1373.000000;2.597376
1372.000000;2.548047
1371.000000;2.710534
1370.000000;2.758367
1369.000000;2.456283
1368.000000;2.328517
1367.000000;2.463010
1366.000000;2.809453
1365.000000;2.611308
1364.000000;2.417727
1363.000000;2.470265
1362.000000;2.660806
1361.000000;2.840025
1360.000000;3.008527
1359.000000;3.096213
1358.000000;2.956755
1357.000000;2.919406
1356.000000;2.587727
1355.000000;2.298677
1354.000000;2.159260
1353.000000;2.108291
1352.000000;2.131180
1351.000000;2.213293
1350.000000;2.357408
1349.000000;2.470928
1348.000000;2.407240
1347.000000;2.357440
1346.000000;2.423120
1345.000000;2.517459
1344.000000;2.625118
1343.000000;2.879483
1342.000000;2.789591
1341.000000;2.531769
1340.000000;2.499544
1339.000000;2.606193
1338.000000;2.786598
1337.000000;2.931414
1336.000000;2.804366
1335.000000;2.737090
1334.000000;2.993602
1333.000000;2.674753
1332.000000;2.271889
1331.000000;2.116045
1330.000000;2.062351
1329.000000;2.087407
1328.000000;2.126589
1327.000000;2.150959
1326.000000;2.196215
1325.000000;2.334178
1324.000000;2.820998
1323.000000;2.826685
1322.000000;2.462046
1321.000000;2.418340
1320.000000;2.510184
1319.000000;2.718877
1318.000000;3.011848
1317.000000;3.091705
1316.000000;2.823312
1315.000000;2.536470
1314.000000;2.315922
1313.000000;2.156249
1312.000000;2.050925
1311.000000;2.002709
1310.000000;2.029244
1309.000000;2.146986
1308.000000;2.407116
1307.000000;2.825463
1306.000000;2.993809
1305.000000;3.189148
1304.000000;2.871659
1303.000000;2.471701
1302.000000;2.342871
1301.000000;2.330207
1300.000000;2.420146
1299.000000;2.533389
1298.000000;2.504187
1297.000000;2.441988
1296.000000;2.451521
1295.000000;2.485891
1294.000000;2.455857
1293.000000;2.388581
1292.000000;2.348550
1291.000000;2.370795
1290.000000;2.435015
1289.000000;2.650372
1288.000000;3.048385
1287.000000;2.706453
1286.000000;2.507835
1285.000000;2.430971
1284.000000;2.321635
1283.000000;2.209966
1282.000000;2.158359
1281.000000;2.207429
1280.000000;2.356457
1279.000000;2.537955
1278.000000;2.622516
1277.000000;2.682834
1276.000000;2.784573
1275.000000;2.813379
1274.000000;2.706602
1273.000000;2.545838
1272.000000;2.435739
1271.000000;2.416171
1270.000000;2.519799
1269.000000;2.707336
1268.000000;2.645115
1267.000000;2.503124
1266.000000;2.424466
1265.000000;2.357379
1264.000000;2.360298
1263.000000;2.421636
1262.000000;2.394769
1261.000000;2.336507
1260.000000;2.389959
1259.000000;2.536609
1258.000000;2.526123
1257.000000;2.375866
1256.000000;2.271151
1255.000000;2.215180
1254.000000;2.217467
1253.000000;2.309302
1252.000000;2.610719
1251.000000;2.664885
1250.000000;2.366439
1249.000000;2.268250
1248.000000;2.244383
1247.000000;2.273298
1246.000000;2.404189
1245.000000;2.627477
1244.000000;2.677068
1243.000000;2.483245
1242.000000;2.327893
1241.000000;2.282150
1240.000000;2.421958
1239.000000;2.645397
1238.000000;2.431929
1237.000000;2.288475
1236.000000;2.357452
1235.000000;2.656450
1234.000000;2.619420
1233.000000;2.342039
1232.000000;2.274736
1231.000000;2.579336
1230.000000;3.101105
1229.000000;2.366166
1228.000000;2.250208
1227.000000;2.328639
1226.000000;2.505226
1225.000000;2.621695
1224.000000;2.610990
1223.000000;2.790029
1222.000000;3.045933
1221.000000;2.823878
1220.000000;2.634550
1219.000000;2.751645
1218.000000;2.706040
1217.000000;2.395087
1216.000000;2.259769
1215.000000;2.290109
1214.000000;2.438683
1213.000000;2.673284
1212.000000;3.061380
1211.000000;3.399167
1210.000000;3.011602
1209.000000;2.896712
1208.000000;2.884944
1207.000000;2.692520
1206.000000;2.448536
1205.000000;2.345757
1204.000000;2.388542
1203.000000;2.426532
1202.000000;2.397553
1201.000000;2.457586
1200.000000;2.580467
