Criado como novo conjunto de dados;"1909daniel.spp","-4208740.7 Secs"
cm-1;Abs
10000.000000;1.214426
9999.000000;1.214083
9998.000000;1.213740
9997.000000;1.213398
9996.000000;1.213055
9995.000000;1.212715
9994.000000;1.212370
9993.000000;1.212034
9992.000000;1.211675
9991.000000;1.211843
9990.000000;1.211837
9989.000000;1.211322
9988.000000;1.210495
9987.000000;1.209379
9986.000000;1.207884
9985.000000;1.206420
9984.000000;1.205692
9983.000000;1.205723
9982.000000;1.205755
9981.000000;1.205314
9980.000000;1.204758
9979.000000;1.204527
9978.000000;1.204437
9977.000000;1.204039
9976.000000;1.203191
9975.000000;1.202000
9974.000000;1.200602
9973.000000;1.199220
9972.000000;1.198128
9971.000000;1.197344
9970.000000;1.196656
9969.000000;1.196086
9968.000000;1.195944
9967.000000;1.196250
9966.000000;1.196452
9965.000000;1.195956
9964.000000;1.194692
9963.000000;1.193036
9962.000000;1.191456
9961.000000;1.190375
9960.000000;1.189988
9959.000000;1.190008
9958.000000;1.189855
9957.000000;1.189249
9956.000000;1.188380
9955.000000;1.187506
9954.000000;1.186754
9953.000000;1.186352
9952.000000;1.186494
9951.000000;1.186773
9950.000000;1.186293
9949.000000;1.184692
9948.000000;1.182680
9947.000000;1.181192
9946.000000;1.180373
9945.000000;1.179731
9944.000000;1.178932
9943.000000;1.177984
9942.000000;1.176888
9941.000000;1.175630
9940.000000;1.174477
9939.000000;1.173890
9938.000000;1.174073
9937.000000;1.174722
9936.000000;1.175202
9935.000000;1.174925
9934.000000;1.173792
9933.000000;1.172381
9932.000000;1.171470
9931.000000;1.171199
9930.000000;1.170911
9929.000000;1.170041
9928.000000;1.168892
9927.000000;1.168170
9926.000000;1.167987
9925.000000;1.167759
9924.000000;1.167022
9923.000000;1.165953
9922.000000;1.164993
9921.000000;1.164268
9920.000000;1.163584
9919.000000;1.162796
9918.000000;1.162040
9917.000000;1.161584
9916.000000;1.161480
9915.000000;1.161376
9914.000000;1.160759
9913.000000;1.159420
9912.000000;1.157612
9911.000000;1.155776
9910.000000;1.154301
9909.000000;1.153476
9908.000000;1.153299
9907.000000;1.153229
9906.000000;1.152513
9905.000000;1.151049
9904.000000;1.149652
9903.000000;1.149162
9902.000000;1.149457
9901.000000;1.149632
9900.000000;1.148986
9899.000000;1.147544
9898.000000;1.145766
9897.000000;1.144157
9896.000000;1.143099
9895.000000;1.142631
9894.000000;1.142309
9893.000000;1.141612
9892.000000;1.140612
9891.000000;1.139979
9890.000000;1.140181
9889.000000;1.140857
9888.000000;1.141113
9887.000000;1.140352
9886.000000;1.138750
9885.000000;1.137066
9884.000000;1.136011
9883.000000;1.135643
9882.000000;1.135313
9881.000000;1.134341
9880.000000;1.132796
9879.000000;1.131415
9878.000000;1.130722
9877.000000;1.130462
9876.000000;1.130051
9875.000000;1.129366
9874.000000;1.128780
9873.000000;1.128469
9872.000000;1.128064
9871.000000;1.127154
9870.000000;1.125920
9869.000000;1.124997
9868.000000;1.124712
9867.000000;1.124691
9866.000000;1.124301
9865.000000;1.123359
9864.000000;1.122259
9863.000000;1.121516
9862.000000;1.121343
9861.000000;1.121586
9860.000000;1.121822
9859.000000;1.121504
9858.000000;1.120288
9857.000000;1.118420
9856.000000;1.116630
9855.000000;1.115461
9854.000000;1.114820
9853.000000;1.114324
9852.000000;1.113869
9851.000000;1.113581
9850.000000;1.113345
9849.000000;1.112825
9848.000000;1.112003
9847.000000;1.111272
9846.000000;1.110843
9845.000000;1.110420
9844.000000;1.109691
9843.000000;1.108793
9842.000000;1.107958
9841.000000;1.107003
9840.000000;1.105621
9839.000000;1.104016
9838.000000;1.102694
9837.000000;1.101675
9836.000000;1.100448
9835.000000;1.098838
9834.000000;1.097393
9833.000000;1.096642
9832.000000;1.096443
9831.000000;1.096393
9830.000000;1.096494
9829.000000;1.096933
9828.000000;1.097427
9827.000000;1.097363
9826.000000;1.096582
9825.000000;1.095619
9824.000000;1.095049
9823.000000;1.094889
9822.000000;1.094705
9821.000000;1.094038
9820.000000;1.092705
9819.000000;1.090966
9818.000000;1.089469
9817.000000;1.088771
9816.000000;1.088782
9815.000000;1.088878
9814.000000;1.088590
9813.000000;1.087961
9812.000000;1.087216
9811.000000;1.086405
9810.000000;1.085498
9809.000000;1.084583
9808.000000;1.083759
9807.000000;1.082955
9806.000000;1.081999
9805.000000;1.080753
9804.000000;1.079172
9803.000000;1.077402
9802.000000;1.075874
9801.000000;1.075026
9800.000000;1.074829
9799.000000;1.074847
9798.000000;1.074802
9797.000000;1.074806
9796.000000;1.074923
9795.000000;1.074877
9794.000000;1.074444
9793.000000;1.073833
9792.000000;1.073338
9791.000000;1.072859
9790.000000;1.072134
9789.000000;1.071255
9788.000000;1.070585
9787.000000;1.070253
9786.000000;1.070029
9785.000000;1.069616
9784.000000;1.068786
9783.000000;1.067345
9782.000000;1.065357
9781.000000;1.063393
9780.000000;1.062200
9779.000000;1.061985
9778.000000;1.062203
9777.000000;1.062090
9776.000000;1.061248
9775.000000;1.059762
9774.000000;1.058014
9773.000000;1.056498
9772.000000;1.055602
9771.000000;1.055391
9770.000000;1.055577
9769.000000;1.055713
9768.000000;1.055397
9767.000000;1.054413
9766.000000;1.052873
9765.000000;1.051214
9764.000000;1.049922
9763.000000;1.049203
9762.000000;1.048928
9761.000000;1.048766
9760.000000;1.048316
9759.000000;1.047303
9758.000000;1.045870
9757.000000;1.044587
9756.000000;1.043927
9755.000000;1.043771
9754.000000;1.043613
9753.000000;1.043215
9752.000000;1.042799
9751.000000;1.042607
9750.000000;1.042533
9749.000000;1.042329
9748.000000;1.041937
9747.000000;1.041457
9746.000000;1.040916
9745.000000;1.040236
9744.000000;1.039369
9743.000000;1.038311
9742.000000;1.036984
9741.000000;1.035277
9740.000000;1.033310
9739.000000;1.031601
9738.000000;1.030770
9737.000000;1.030941
9736.000000;1.031502
9735.000000;1.031613
9734.000000;1.030947
9733.000000;1.029823
9732.000000;1.028681
9731.000000;1.027671
9730.000000;1.026796
9729.000000;1.026155
9728.000000;1.025851
9727.000000;1.025835
9726.000000;1.025951
9725.000000;1.025997
9724.000000;1.025655
9723.000000;1.024614
9722.000000;1.022966
9721.000000;1.021287
9720.000000;1.020068
9719.000000;1.019230
9718.000000;1.018443
9717.000000;1.017806
9716.000000;1.017805
9715.000000;1.018579
9714.000000;1.019513
9713.000000;1.019750
9712.000000;1.018947
9711.000000;1.017432
9710.000000;1.015780
9709.000000;1.014375
9708.000000;1.013273
9707.000000;1.012330
9706.000000;1.011385
9705.000000;1.010364
9704.000000;1.009300
9703.000000;1.008330
9702.000000;1.007612
9701.000000;1.007167
9700.000000;1.006820
9699.000000;1.006447
9698.000000;1.006229
9697.000000;1.006413
9696.000000;1.006764
9695.000000;1.006590
9694.000000;1.005543
9693.000000;1.004163
9692.000000;1.003302
9691.000000;1.003147
9690.000000;1.003108
9689.000000;1.002583
9688.000000;1.001526
9687.000000;1.000269
9686.000000;0.999129
9685.000000;0.998285
9684.000000;0.997764
9683.000000;0.997353
9682.000000;0.996661
9681.000000;0.995423
9680.000000;0.993739
9679.000000;0.991987
9678.000000;0.990536
9677.000000;0.989531
9676.000000;0.988883
9675.000000;0.988372
9674.000000;0.987811
9673.000000;0.987189
9672.000000;0.986712
9671.000000;0.986636
9670.000000;0.986949
9669.000000;0.987211
9668.000000;0.986839
9667.000000;0.985687
9666.000000;0.984259
9665.000000;0.983229
9664.000000;0.982802
9663.000000;0.982668
9662.000000;0.982456
9661.000000;0.982034
9660.000000;0.981443
9659.000000;0.980786
9658.000000;0.980191
9657.000000;0.979652
9656.000000;0.978885
9655.000000;0.977574
9654.000000;0.975804
9653.000000;0.974068
9652.000000;0.972844
9651.000000;0.972355
9650.000000;0.972600
9649.000000;0.973246
9648.000000;0.973547
9647.000000;0.972889
9646.000000;0.971514
9645.000000;0.970236
9644.000000;0.969363
9643.000000;0.968443
9642.000000;0.967221
9641.000000;0.966245
9640.000000;0.966073
9639.000000;0.966372
9638.000000;0.966329
9637.000000;0.965661
9636.000000;0.964689
9635.000000;0.963682
9634.000000;0.962710
9633.000000;0.961970
9632.000000;0.961685
9631.000000;0.961681
9630.000000;0.961526
9629.000000;0.961080
9628.000000;0.960546
9627.000000;0.960025
9626.000000;0.959401
9625.000000;0.958636
9624.000000;0.957796
9623.000000;0.956775
9622.000000;0.955376
9621.000000;0.953692
9620.000000;0.952139
9619.000000;0.951055
9618.000000;0.950505
9617.000000;0.950396
9616.000000;0.950510
9615.000000;0.950508
9614.000000;0.950183
9613.000000;0.949693
9612.000000;0.949252
9611.000000;0.948718
9610.000000;0.947849
9609.000000;0.946872
9608.000000;0.946344
9607.000000;0.946378
9606.000000;0.946427
9605.000000;0.945938
9604.000000;0.944891
9603.000000;0.943592
9602.000000;0.942347
9601.000000;0.941495
9600.000000;0.941358
9599.000000;0.941813
9598.000000;0.942127
9597.000000;0.941558
9596.000000;0.940104
9595.000000;0.938487
9594.000000;0.937453
9593.000000;0.937199
9592.000000;0.937347
9591.000000;0.937301
9590.000000;0.936674
9589.000000;0.935516
9588.000000;0.934242
9587.000000;0.933315
9586.000000;0.932893
9585.000000;0.932684
9584.000000;0.932160
9583.000000;0.931050
9582.000000;0.929648
9581.000000;0.928504
9580.000000;0.927834
9579.000000;0.927403
9578.000000;0.927017
9577.000000;0.926788
9576.000000;0.926795
9575.000000;0.926775
9574.000000;0.926393
9573.000000;0.925557
9572.000000;0.924246
9571.000000;0.922392
9570.000000;0.920320
9569.000000;0.918956
9568.000000;0.919001
9567.000000;0.919958
9566.000000;0.920488
9565.000000;0.919817
9564.000000;0.918374
9563.000000;0.917004
9562.000000;0.916050
9561.000000;0.915393
9560.000000;0.914946
9559.000000;0.914748
9558.000000;0.914738
9557.000000;0.914661
9556.000000;0.914212
9555.000000;0.913248
9554.000000;0.911943
9553.000000;0.910705
9552.000000;0.909808
9551.000000;0.909148
9550.000000;0.908540
9549.000000;0.908165
9548.000000;0.908418
9547.000000;0.909266
9546.000000;0.910047
9545.000000;0.910013
9544.000000;0.908917
9543.000000;0.907055
9542.000000;0.904989
9541.000000;0.903323
9540.000000;0.902459
9539.000000;0.902341
9538.000000;0.902498
9537.000000;0.902446
9536.000000;0.902028
9535.000000;0.901391
9534.000000;0.900781
9533.000000;0.900354
9532.000000;0.900051
9531.000000;0.899582
9530.000000;0.898687
9529.000000;0.897393
9528.000000;0.895967
9527.000000;0.894659
9526.000000;0.893593
9525.000000;0.892854
9524.000000;0.892488
9523.000000;0.892439
9522.000000;0.892591
9521.000000;0.892845
9520.000000;0.893010
9519.000000;0.892750
9518.000000;0.891863
9517.000000;0.890578
9516.000000;0.889392
9515.000000;0.888640
9514.000000;0.888331
9513.000000;0.888284
9512.000000;0.888200
9511.000000;0.887725
9510.000000;0.886720
9509.000000;0.885459
9508.000000;0.884327
9507.000000;0.883356
9506.000000;0.882321
9505.000000;0.881240
9504.000000;0.880478
9503.000000;0.880304
9502.000000;0.880599
9501.000000;0.881021
9500.000000;0.881231
9499.000000;0.880947
9498.000000;0.880041
9497.000000;0.878729
9496.000000;0.877481
9495.000000;0.876662
9494.000000;0.876370
9493.000000;0.876539
9492.000000;0.876950
9491.000000;0.877152
9490.000000;0.876682
9489.000000;0.875480
9488.000000;0.873868
9487.000000;0.872112
9486.000000;0.870267
9485.000000;0.868527
9484.000000;0.867398
9483.000000;0.867247
9482.000000;0.867789
9481.000000;0.868254
9480.000000;0.868074
9479.000000;0.867348
9478.000000;0.866641
9477.000000;0.866386
9476.000000;0.866451
9475.000000;0.866280
9474.000000;0.865508
9473.000000;0.864368
9472.000000;0.863439
9471.000000;0.863006
9470.000000;0.862835
9469.000000;0.862508
9468.000000;0.861879
9467.000000;0.861149
9466.000000;0.860615
9465.000000;0.860349
9464.000000;0.860070
9463.000000;0.859377
9462.000000;0.858168
9461.000000;0.856781
9460.000000;0.855638
9459.000000;0.854884
9458.000000;0.854475
9457.000000;0.854458
9456.000000;0.854911
9455.000000;0.855634
9454.000000;0.856152
9453.000000;0.856075
9452.000000;0.855390
9451.000000;0.854396
9450.000000;0.853463
9449.000000;0.852763
9448.000000;0.852137
9447.000000;0.851272
9446.000000;0.850122
9445.000000;0.849028
9444.000000;0.848343
9443.000000;0.848081
9442.000000;0.848065
9441.000000;0.848194
9440.000000;0.848329
9439.000000;0.848101
9438.000000;0.847189
9437.000000;0.845768
9436.000000;0.844404
9435.000000;0.843507
9434.000000;0.843077
9433.000000;0.842886
9432.000000;0.842654
9431.000000;0.842092
9430.000000;0.841051
9429.000000;0.839661
9428.000000;0.838194
9427.000000;0.836865
9426.000000;0.835889
9425.000000;0.835541
9424.000000;0.835853
9423.000000;0.836359
9422.000000;0.836456
9421.000000;0.836018
9420.000000;0.835371
9419.000000;0.834770
9418.000000;0.834244
9417.000000;0.833903
9416.000000;0.833918
9415.000000;0.834090
9414.000000;0.833828
9413.000000;0.832778
9412.000000;0.831245
9411.000000;0.829810
9410.000000;0.828741
9409.000000;0.827939
9408.000000;0.827302
9407.000000;0.826927
9406.000000;0.826935
9405.000000;0.827202
9404.000000;0.827331
9403.000000;0.826966
9402.000000;0.826166
9401.000000;0.825313
9400.000000;0.824574
9399.000000;0.823648
9398.000000;0.822250
9397.000000;0.820696
9396.000000;0.819727
9395.000000;0.819777
9394.000000;0.820606
9393.000000;0.821544
9392.000000;0.821889
9391.000000;0.821252
9390.000000;0.819867
9389.000000;0.818506
9388.000000;0.817816
9387.000000;0.817736
9386.000000;0.817755
9385.000000;0.817613
9384.000000;0.817428
9383.000000;0.817253
9382.000000;0.816899
9381.000000;0.816234
9380.000000;0.815346
9379.000000;0.814353
9378.000000;0.813341
9377.000000;0.812515
9376.000000;0.812092
9375.000000;0.811977
9374.000000;0.811804
9373.000000;0.811360
9372.000000;0.810720
9371.000000;0.809958
9370.000000;0.809063
9369.000000;0.808198
9368.000000;0.807695
9367.000000;0.807610
9366.000000;0.807519
9365.000000;0.806932
9364.000000;0.805788
9363.000000;0.804457
9362.000000;0.803401
9361.000000;0.802892
9360.000000;0.802870
9359.000000;0.802998
9358.000000;0.802964
9357.000000;0.802772
9356.000000;0.802589
9355.000000;0.802393
9354.000000;0.801990
9353.000000;0.801364
9352.000000;0.800738
9351.000000;0.800272
9350.000000;0.799925
9349.000000;0.799607
9348.000000;0.799242
9347.000000;0.798664
9346.000000;0.797719
9345.000000;0.796512
9344.000000;0.795350
9343.000000;0.794451
9342.000000;0.793909
9341.000000;0.793863
9340.000000;0.794341
9339.000000;0.794959
9338.000000;0.795177
9337.000000;0.794953
9336.000000;0.794733
9335.000000;0.794637
9334.000000;0.794075
9333.000000;0.792516
9332.000000;0.790362
9331.000000;0.788677
9330.000000;0.788124
9329.000000;0.788423
9328.000000;0.788817
9327.000000;0.788839
9326.000000;0.788556
9325.000000;0.788224
9324.000000;0.787900
9323.000000;0.787443
9322.000000;0.786811
9321.000000;0.786177
9320.000000;0.785701
9319.000000;0.785354
9318.000000;0.785065
9317.000000;0.784869
9316.000000;0.784743
9315.000000;0.784454
9314.000000;0.783812
9313.000000;0.782924
9312.000000;0.781981
9311.000000;0.780974
9310.000000;0.779916
9309.000000;0.779175
9308.000000;0.779149
9307.000000;0.779628
9306.000000;0.779883
9305.000000;0.779484
9304.000000;0.778727
9303.000000;0.778153
9302.000000;0.777912
9301.000000;0.777712
9300.000000;0.777177
9299.000000;0.776199
9298.000000;0.775102
9297.000000;0.774417
9296.000000;0.774321
9295.000000;0.774357
9294.000000;0.773979
9293.000000;0.773229
9292.000000;0.772549
9291.000000;0.772042
9290.000000;0.771407
9289.000000;0.770583
9288.000000;0.769947
9287.000000;0.769766
9286.000000;0.769878
9285.000000;0.770067
9284.000000;0.770353
9283.000000;0.770711
9282.000000;0.770855
9281.000000;0.770555
9280.000000;0.769890
9279.000000;0.769052
9278.000000;0.768144
9277.000000;0.767300
9276.000000;0.766658
9275.000000;0.766112
9274.000000;0.765423
9273.000000;0.764742
9272.000000;0.764608
9271.000000;0.765179
9270.000000;0.765830
9269.000000;0.765849
9268.000000;0.765204
9267.000000;0.764303
9266.000000;0.763304
9265.000000;0.762106
9264.000000;0.760867
9263.000000;0.760033
9262.000000;0.759831
9261.000000;0.760022
9260.000000;0.760205
9259.000000;0.760155
9258.000000;0.759833
9257.000000;0.759234
9256.000000;0.758304
9255.000000;0.757024
9254.000000;0.755653
9253.000000;0.754773
9252.000000;0.754866
9251.000000;0.755743
9250.000000;0.756630
9249.000000;0.756936
9248.000000;0.756713
9247.000000;0.756279
9246.000000;0.755699
9245.000000;0.754905
9244.000000;0.754053
9243.000000;0.753414
9242.000000;0.752977
9241.000000;0.752468
9240.000000;0.751749
9239.000000;0.751005
9238.000000;0.750555
9237.000000;0.750560
9236.000000;0.750856
9235.000000;0.750997
9234.000000;0.750607
9233.000000;0.749783
9232.000000;0.749005
9231.000000;0.748550
9230.000000;0.748196
9229.000000;0.747625
9228.000000;0.746863
9227.000000;0.746104
9226.000000;0.745362
9225.000000;0.744624
9224.000000;0.744154
9223.000000;0.744227
9222.000000;0.744624
9221.000000;0.744767
9220.000000;0.744423
9219.000000;0.743952
9218.000000;0.743807
9217.000000;0.744032
9216.000000;0.744347
9215.000000;0.744467
9214.000000;0.744216
9213.000000;0.743537
9212.000000;0.742571
9211.000000;0.741620
9210.000000;0.740913
9209.000000;0.740456
9208.000000;0.740131
9207.000000;0.739836
9206.000000;0.739477
9205.000000;0.738978
9204.000000;0.738413
9203.000000;0.737999
9202.000000;0.737840
9201.000000;0.737755
9200.000000;0.737533
9199.000000;0.737262
9198.000000;0.737179
9197.000000;0.737201
9196.000000;0.736868
9195.000000;0.735927
9194.000000;0.734753
9193.000000;0.733988
9192.000000;0.733814
9191.000000;0.733803
9190.000000;0.733460
9189.000000;0.732735
9188.000000;0.731921
9187.000000;0.731302
9186.000000;0.731001
9185.000000;0.731009
9184.000000;0.731213
9183.000000;0.731464
9182.000000;0.731720
9181.000000;0.732031
9180.000000;0.732303
9179.000000;0.732244
9178.000000;0.731668
9177.000000;0.730740
9176.000000;0.729786
9175.000000;0.728970
9174.000000;0.728312
9173.000000;0.727863
9172.000000;0.727655
9171.000000;0.727547
9170.000000;0.727331
9169.000000;0.726971
9168.000000;0.726569
9167.000000;0.726173
9166.000000;0.725795
9165.000000;0.725492
9164.000000;0.725204
9163.000000;0.724633
9162.000000;0.723566
9161.000000;0.722324
9160.000000;0.721568
9159.000000;0.721595
9158.000000;0.722057
9157.000000;0.722414
9156.000000;0.722440
9155.000000;0.722243
9154.000000;0.722028
9153.000000;0.721952
9152.000000;0.721990
9151.000000;0.721851
9150.000000;0.721223
9149.000000;0.720183
9148.000000;0.719180
9147.000000;0.718514
9146.000000;0.718039
9145.000000;0.717503
9144.000000;0.716938
9143.000000;0.716540
9142.000000;0.716334
9141.000000;0.716201
9140.000000;0.716130
9139.000000;0.716247
9138.000000;0.716582
9137.000000;0.716966
9136.000000;0.717150
9135.000000;0.716964
9134.000000;0.716384
9133.000000;0.715576
9132.000000;0.714838
9131.000000;0.714429
9130.000000;0.714395
9129.000000;0.714564
9128.000000;0.714661
9127.000000;0.714460
9126.000000;0.713932
9125.000000;0.713309
9124.000000;0.712920
9123.000000;0.712864
9122.000000;0.712886
9121.000000;0.712682
9120.000000;0.712279
9119.000000;0.712007
9118.000000;0.712075
9117.000000;0.712251
9116.000000;0.712071
9115.000000;0.711362
9114.000000;0.710459
9113.000000;0.709875
9112.000000;0.709783
9111.000000;0.709892
9110.000000;0.709778
9109.000000;0.709273
9108.000000;0.708558
9107.000000;0.708009
9106.000000;0.707916
9105.000000;0.708215
9104.000000;0.708444
9103.000000;0.708154
9102.000000;0.707408
9101.000000;0.706733
9100.000000;0.706485
9099.000000;0.706471
9098.000000;0.706318
9097.000000;0.706009
9096.000000;0.705809
9095.000000;0.705810
9094.000000;0.705853
9093.000000;0.705830
9092.000000;0.705774
9091.000000;0.705609
9090.000000;0.705080
9089.000000;0.704072
9088.000000;0.702846
9087.000000;0.701842
9086.000000;0.701295
9085.000000;0.701081
9084.000000;0.700882
9083.000000;0.700467
9082.000000;0.699886
9081.000000;0.699404
9080.000000;0.699224
9079.000000;0.699283
9078.000000;0.699363
9077.000000;0.699309
9076.000000;0.699096
9075.000000;0.698742
9074.000000;0.698296
9073.000000;0.697887
9072.000000;0.697707
9071.000000;0.697884
9070.000000;0.698359
9069.000000;0.698812
9068.000000;0.698818
9067.000000;0.698222
9066.000000;0.697378
9065.000000;0.696796
9064.000000;0.696518
9063.000000;0.696094
9062.000000;0.695272
9061.000000;0.694405
9060.000000;0.693957
9059.000000;0.693897
9058.000000;0.693904
9057.000000;0.693922
9056.000000;0.694136
9055.000000;0.694465
9054.000000;0.694520
9053.000000;0.694084
9052.000000;0.693358
9051.000000;0.692682
9050.000000;0.692262
9049.000000;0.692166
9048.000000;0.692343
9047.000000;0.692584
9046.000000;0.692654
9045.000000;0.692515
9044.000000;0.692275
9043.000000;0.691965
9042.000000;0.691549
9041.000000;0.691093
9040.000000;0.690702
9039.000000;0.690308
9038.000000;0.689748
9037.000000;0.689043
9036.000000;0.688416
9035.000000;0.688044
9034.000000;0.687988
9033.000000;0.688281
9032.000000;0.688816
9031.000000;0.689165
9030.000000;0.688850
9029.000000;0.687904
9028.000000;0.686941
9027.000000;0.686584
9026.000000;0.686956
9025.000000;0.687725
9024.000000;0.688424
9023.000000;0.688685
9022.000000;0.688383
9021.000000;0.687682
9020.000000;0.686846
9019.000000;0.685962
9018.000000;0.684991
9017.000000;0.684032
9016.000000;0.683342
9015.000000;0.683068
9014.000000;0.683123
9013.000000;0.683330
9012.000000;0.683539
9011.000000;0.683617
9010.000000;0.683530
9009.000000;0.683434
9008.000000;0.683469
9007.000000;0.683505
9006.000000;0.683298
9005.000000;0.682873
9004.000000;0.682498
9003.000000;0.682288
9002.000000;0.682127
9001.000000;0.681996
9000.000000;0.682087
8999.000000;0.682459
8998.000000;0.682862
8997.000000;0.683005
8996.000000;0.682787
8995.000000;0.682190
8994.000000;0.681240
8993.000000;0.680174
8992.000000;0.679405
8991.000000;0.679115
8990.000000;0.679042
8989.000000;0.678829
8988.000000;0.678434
8987.000000;0.678095
8986.000000;0.678017
8985.000000;0.678232
8984.000000;0.678608
8983.000000;0.678889
8982.000000;0.678842
8981.000000;0.678466
8980.000000;0.677965
8979.000000;0.677499
8978.000000;0.677136
8977.000000;0.677011
8976.000000;0.677257
8975.000000;0.677701
8974.000000;0.677904
8973.000000;0.677658
8972.000000;0.677178
8971.000000;0.676660
8970.000000;0.675980
8969.000000;0.675085
8968.000000;0.674399
8967.000000;0.674404
8966.000000;0.674897
8965.000000;0.675102
8964.000000;0.674571
8963.000000;0.673716
8962.000000;0.673326
8961.000000;0.673728
8960.000000;0.674529
8959.000000;0.675021
8958.000000;0.674776
8957.000000;0.673955
8956.000000;0.673152
8955.000000;0.672887
8954.000000;0.673193
8953.000000;0.673665
8952.000000;0.673863
8951.000000;0.673641
8950.000000;0.673138
8949.000000;0.672603
8948.000000;0.672260
8947.000000;0.672242
8946.000000;0.672503
8945.000000;0.672799
8944.000000;0.672824
8943.000000;0.672453
8942.000000;0.671843
8941.000000;0.671269
8940.000000;0.670858
8939.000000;0.670525
8938.000000;0.670177
8937.000000;0.669870
8936.000000;0.669736
8935.000000;0.669835
8934.000000;0.670104
8933.000000;0.670377
8932.000000;0.670397
8931.000000;0.669956
8930.000000;0.669172
8929.000000;0.668524
8928.000000;0.668422
8927.000000;0.668753
8926.000000;0.669027
8925.000000;0.668936
8924.000000;0.668590
8923.000000;0.668205
8922.000000;0.667844
8921.000000;0.667583
8920.000000;0.667694
8919.000000;0.668396
8918.000000;0.669413
8917.000000;0.670008
8916.000000;0.669571
8915.000000;0.668202
8914.000000;0.666660
8913.000000;0.665726
8912.000000;0.665625
8911.000000;0.665999
8910.000000;0.666350
8909.000000;0.666427
8908.000000;0.666273
8907.000000;0.666091
8906.000000;0.666100
8905.000000;0.666370
8904.000000;0.666674
8903.000000;0.666642
8902.000000;0.666147
8901.000000;0.665433
8900.000000;0.664789
8899.000000;0.664257
8898.000000;0.663782
8897.000000;0.663441
8896.000000;0.663302
8895.000000;0.663212
8894.000000;0.663031
8893.000000;0.662973
8892.000000;0.663379
8891.000000;0.664154
8890.000000;0.664754
8889.000000;0.664801
8888.000000;0.664404
8887.000000;0.663791
8886.000000;0.662975
8885.000000;0.661984
8884.000000;0.661155
8883.000000;0.660880
8882.000000;0.661137
8881.000000;0.661530
8880.000000;0.661773
8879.000000;0.661930
8878.000000;0.662181
8877.000000;0.662549
8876.000000;0.662916
8875.000000;0.663168
8874.000000;0.663224
8873.000000;0.662973
8872.000000;0.662329
8871.000000;0.661399
8870.000000;0.660518
8869.000000;0.660027
8868.000000;0.659996
8867.000000;0.660227
8866.000000;0.660538
8865.000000;0.660942
8864.000000;0.661466
8863.000000;0.661918
8862.000000;0.662017
8861.000000;0.661726
8860.000000;0.661291
8859.000000;0.660927
8858.000000;0.660588
8857.000000;0.660127
8856.000000;0.659587
8855.000000;0.659226
8854.000000;0.659272
8853.000000;0.659664
8852.000000;0.660062
8851.000000;0.660137
8850.000000;0.659868
8849.000000;0.659544
8848.000000;0.659447
8847.000000;0.659585
8846.000000;0.659788
8845.000000;0.659953
8844.000000;0.660088
8843.000000;0.660151
8842.000000;0.659993
8841.000000;0.659523
8840.000000;0.658884
8839.000000;0.658390
8838.000000;0.658291
8837.000000;0.658573
8836.000000;0.658964
8835.000000;0.659161
8834.000000;0.659067
8833.000000;0.658807
8832.000000;0.658547
8831.000000;0.658419
8830.000000;0.658574
8829.000000;0.659151
8828.000000;0.660068
8827.000000;0.660947
8826.000000;0.661357
8825.000000;0.661118
8824.000000;0.660377
8823.000000;0.659504
8822.000000;0.658953
8821.000000;0.658989
8820.000000;0.659436
8819.000000;0.659792
8818.000000;0.659745
8817.000000;0.659448
8816.000000;0.659181
8815.000000;0.658913
8814.000000;0.658418
8813.000000;0.657711
8812.000000;0.657126
8811.000000;0.656973
8810.000000;0.657316
8809.000000;0.658025
8808.000000;0.658852
8807.000000;0.659483
8806.000000;0.659727
8805.000000;0.659707
8804.000000;0.659697
8803.000000;0.659776
8802.000000;0.659811
8801.000000;0.659759
8800.000000;0.659790
8799.000000;0.660046
8798.000000;0.660461
8797.000000;0.660893
8796.000000;0.661283
8795.000000;0.661612
8794.000000;0.661805
8793.000000;0.661775
8792.000000;0.661497
8791.000000;0.660999
8790.000000;0.660395
8789.000000;0.659968
8788.000000;0.660071
8787.000000;0.660796
8786.000000;0.661761
8785.000000;0.662334
8784.000000;0.662143
8783.000000;0.661382
8782.000000;0.660642
8781.000000;0.660424
8780.000000;0.660775
8779.000000;0.661338
8778.000000;0.661699
8777.000000;0.661707
8776.000000;0.661516
8775.000000;0.661384
8774.000000;0.661435
8773.000000;0.661556
8772.000000;0.661561
8771.000000;0.661485
8770.000000;0.661611
8769.000000;0.662085
8768.000000;0.662600
8767.000000;0.662691
8766.000000;0.662338
8765.000000;0.662025
8764.000000;0.662133
8763.000000;0.662562
8762.000000;0.663045
8761.000000;0.663546
8760.000000;0.664128
8759.000000;0.664649
8758.000000;0.664899
8757.000000;0.664932
8756.000000;0.664985
8755.000000;0.665146
8754.000000;0.665327
8753.000000;0.665521
8752.000000;0.665826
8751.000000;0.666195
8750.000000;0.666370
8749.000000;0.666149
8748.000000;0.665619
8747.000000;0.665114
8746.000000;0.664975
8745.000000;0.665306
8744.000000;0.665847
8743.000000;0.666179
8742.000000;0.666121
8741.000000;0.665856
8740.000000;0.665612
8739.000000;0.665402
8738.000000;0.665234
8737.000000;0.665361
8736.000000;0.666033
8735.000000;0.667041
8734.000000;0.667783
8733.000000;0.667852
8732.000000;0.667418
8731.000000;0.667019
8730.000000;0.667071
8729.000000;0.667543
8728.000000;0.667999
8727.000000;0.668000
8726.000000;0.667589
8725.000000;0.667283
8724.000000;0.667485
8723.000000;0.668041
8722.000000;0.668521
8721.000000;0.668795
8720.000000;0.669047
8719.000000;0.669327
8718.000000;0.669420
8717.000000;0.669220
8716.000000;0.668979
8715.000000;0.669042
8714.000000;0.669499
8713.000000;0.670168
8712.000000;0.670799
8711.000000;0.671205
8710.000000;0.671292
8709.000000;0.671091
8708.000000;0.670784
8707.000000;0.670630
8706.000000;0.670795
8705.000000;0.671164
8704.000000;0.671379
8703.000000;0.671187
8702.000000;0.670766
8701.000000;0.670546
8700.000000;0.670682
8699.000000;0.670914
8698.000000;0.670973
8697.000000;0.670910
8696.000000;0.670888
8695.000000;0.670938
8694.000000;0.671094
8693.000000;0.671507
8692.000000;0.672162
8691.000000;0.672681
8690.000000;0.672716
8689.000000;0.672376
8688.000000;0.672017
8687.000000;0.671776
8686.000000;0.671626
8685.000000;0.671692
8684.000000;0.672103
8683.000000;0.672586
8682.000000;0.672668
8681.000000;0.672319
8680.000000;0.672031
8679.000000;0.672195
8678.000000;0.672708
8677.000000;0.673280
8676.000000;0.673798
8675.000000;0.674239
8674.000000;0.674489
8673.000000;0.674455
8672.000000;0.674218
8671.000000;0.673966
8670.000000;0.673872
8669.000000;0.674039
8668.000000;0.674388
8667.000000;0.674581
8666.000000;0.674283
8665.000000;0.673572
8664.000000;0.672940
8663.000000;0.672803
8662.000000;0.673146
8661.000000;0.673644
8660.000000;0.673959
8659.000000;0.673906
8658.000000;0.673522
8657.000000;0.673070
8656.000000;0.672841
8655.000000;0.672873
8654.000000;0.672963
8653.000000;0.672947
8652.000000;0.672838
8651.000000;0.672702
8650.000000;0.672546
8649.000000;0.672384
8648.000000;0.672250
8647.000000;0.672130
8646.000000;0.671978
8645.000000;0.671836
8644.000000;0.671812
8643.000000;0.671939
8642.000000;0.672143
8641.000000;0.672333
8640.000000;0.672382
8639.000000;0.672103
8638.000000;0.671470
8637.000000;0.670871
8636.000000;0.670885
8635.000000;0.671667
8634.000000;0.672697
8633.000000;0.673231
8632.000000;0.672951
8631.000000;0.672147
8630.000000;0.671385
8629.000000;0.671063
8628.000000;0.671203
8627.000000;0.671569
8626.000000;0.671943
8625.000000;0.672250
8624.000000;0.672409
8623.000000;0.672237
8622.000000;0.671654
8621.000000;0.670889
8620.000000;0.670315
8619.000000;0.670100
8618.000000;0.670164
8617.000000;0.670385
8616.000000;0.670669
8615.000000;0.670881
8614.000000;0.670925
8613.000000;0.670898
8612.000000;0.670965
8611.000000;0.671097
8610.000000;0.671102
8609.000000;0.670936
8608.000000;0.670760
8607.000000;0.670692
8606.000000;0.670680
8605.000000;0.670659
8604.000000;0.670627
8603.000000;0.670515
8602.000000;0.670154
8601.000000;0.669484
8600.000000;0.668692
8599.000000;0.668097
8598.000000;0.667954
8597.000000;0.668334
8596.000000;0.669055
8595.000000;0.669756
8594.000000;0.670177
8593.000000;0.670377
8592.000000;0.670556
8591.000000;0.670678
8590.000000;0.670484
8589.000000;0.669873
8588.000000;0.669092
8587.000000;0.668480
8586.000000;0.668173
8585.000000;0.668080
8584.000000;0.668017
8583.000000;0.667839
8582.000000;0.667569
8581.000000;0.667405
8580.000000;0.667507
8579.000000;0.667757
8578.000000;0.667886
8577.000000;0.667806
8576.000000;0.667668
8575.000000;0.667588
8574.000000;0.667513
8573.000000;0.667370
8572.000000;0.667192
8571.000000;0.667040
8570.000000;0.666929
8569.000000;0.666864
8568.000000;0.666829
8567.000000;0.666729
8566.000000;0.666492
8565.000000;0.666238
8564.000000;0.666181
8563.000000;0.666344
8562.000000;0.666514
8561.000000;0.666506
8560.000000;0.666328
8559.000000;0.666044
8558.000000;0.665673
8557.000000;0.665295
8556.000000;0.665108
8555.000000;0.665246
8554.000000;0.665611
8553.000000;0.665949
8552.000000;0.666037
8551.000000;0.665791
8550.000000;0.665307
8549.000000;0.664832
8548.000000;0.664599
8547.000000;0.664638
8546.000000;0.664808
8545.000000;0.664985
8544.000000;0.665121
8543.000000;0.665123
8542.000000;0.664869
8541.000000;0.664369
8540.000000;0.663821
8539.000000;0.663433
8538.000000;0.663277
8537.000000;0.663303
8536.000000;0.663393
8535.000000;0.663380
8534.000000;0.663143
8533.000000;0.662754
8532.000000;0.662475
8531.000000;0.662566
8530.000000;0.663079
8529.000000;0.663778
8528.000000;0.664227
8527.000000;0.664055
8526.000000;0.663305
8525.000000;0.662489
8524.000000;0.662124
8523.000000;0.662231
8522.000000;0.662401
8521.000000;0.662330
8520.000000;0.662104
8519.000000;0.661966
8518.000000;0.662012
8517.000000;0.662156
8516.000000;0.662238
8515.000000;0.662099
8514.000000;0.661697
8513.000000;0.661205
8512.000000;0.660905
8511.000000;0.660912
8510.000000;0.661076
8509.000000;0.661163
8508.000000;0.661055
8507.000000;0.660747
8506.000000;0.660295
8505.000000;0.659835
8504.000000;0.659567
8503.000000;0.659641
8502.000000;0.660032
8501.000000;0.660523
8500.000000;0.660801
8499.000000;0.660671
8498.000000;0.660227
8497.000000;0.659774
8496.000000;0.659499
8495.000000;0.659317
8494.000000;0.659094
8493.000000;0.658880
8492.000000;0.658773
8491.000000;0.658696
8490.000000;0.658527
8489.000000;0.658386
8488.000000;0.658529
8487.000000;0.658986
8486.000000;0.659482
8485.000000;0.659755
8484.000000;0.659737
8483.000000;0.659487
8482.000000;0.659132
8481.000000;0.658903
8480.000000;0.658971
8479.000000;0.659191
8478.000000;0.659215
8477.000000;0.658916
8476.000000;0.658549
8475.000000;0.658390
8474.000000;0.658415
8473.000000;0.658393
8472.000000;0.658164
8471.000000;0.657755
8470.000000;0.657368
8469.000000;0.657283
8468.000000;0.657603
8467.000000;0.658047
8466.000000;0.658185
8465.000000;0.657927
8464.000000;0.657588
8463.000000;0.657406
8462.000000;0.657248
8461.000000;0.656924
8460.000000;0.656569
8459.000000;0.656467
8458.000000;0.656651
8457.000000;0.656877
8456.000000;0.656952
8455.000000;0.656875
8454.000000;0.656737
8453.000000;0.656645
8452.000000;0.656713
8451.000000;0.656937
8450.000000;0.657105
8449.000000;0.656971
8448.000000;0.656563
8447.000000;0.656167
8446.000000;0.655991
8445.000000;0.655969
8444.000000;0.655934
8443.000000;0.655836
8442.000000;0.655725
8441.000000;0.655609
8440.000000;0.655457
8439.000000;0.655301
8438.000000;0.655231
8437.000000;0.655281
8436.000000;0.655390
8435.000000;0.655503
8434.000000;0.655626
8433.000000;0.655761
8432.000000;0.655855
8431.000000;0.655864
8430.000000;0.655804
8429.000000;0.655670
8428.000000;0.655373
8427.000000;0.654862
8426.000000;0.654286
8425.000000;0.653909
8424.000000;0.653858
8423.000000;0.654040
8422.000000;0.654288
8421.000000;0.654475
8420.000000;0.654457
8419.000000;0.654117
8418.000000;0.653545
8417.000000;0.653070
8416.000000;0.652980
8415.000000;0.653256
8414.000000;0.653637
8413.000000;0.653859
8412.000000;0.653795
8411.000000;0.653467
8410.000000;0.653045
8409.000000;0.652785
8408.000000;0.652838
8407.000000;0.653142
8406.000000;0.653507
8405.000000;0.653772
8404.000000;0.653847
8403.000000;0.653727
8402.000000;0.653535
8401.000000;0.653451
8400.000000;0.653526
8399.000000;0.653648
8398.000000;0.653732
8397.000000;0.653801
8396.000000;0.653823
8395.000000;0.653662
8394.000000;0.653315
8393.000000;0.653032
8392.000000;0.652997
8391.000000;0.653038
8390.000000;0.652848
8389.000000;0.652427
8388.000000;0.652062
8387.000000;0.651937
8386.000000;0.651955
8385.000000;0.651954
8384.000000;0.651914
8383.000000;0.651913
8382.000000;0.652001
8381.000000;0.652153
8380.000000;0.652271
8379.000000;0.652259
8378.000000;0.652135
8377.000000;0.652008
8376.000000;0.651878
8375.000000;0.651577
8374.000000;0.651029
8373.000000;0.650456
8372.000000;0.650189
8371.000000;0.650323
8370.000000;0.650670
8369.000000;0.650970
8368.000000;0.651036
8367.000000;0.650806
8366.000000;0.650434
8365.000000;0.650242
8364.000000;0.650401
8363.000000;0.650734
8362.000000;0.650962
8361.000000;0.651046
8360.000000;0.651099
8359.000000;0.651080
8358.000000;0.650829
8357.000000;0.650358
8356.000000;0.649876
8355.000000;0.649519
8354.000000;0.649252
8353.000000;0.649032
8352.000000;0.648876
8351.000000;0.648778
8350.000000;0.648724
8349.000000;0.648771
8348.000000;0.648918
8347.000000;0.648947
8346.000000;0.648625
8345.000000;0.648060
8344.000000;0.647620
8343.000000;0.647493
8342.000000;0.647550
8341.000000;0.647646
8340.000000;0.647814
8339.000000;0.648083
8338.000000;0.648342
8337.000000;0.648497
8336.000000;0.648605
8335.000000;0.648720
8334.000000;0.648758
8333.000000;0.648603
8332.000000;0.648261
8331.000000;0.647824
8330.000000;0.647376
8329.000000;0.646990
8328.000000;0.646740
8327.000000;0.646668
8326.000000;0.646778
8325.000000;0.647071
8324.000000;0.647467
8323.000000;0.647747
8322.000000;0.647717
8321.000000;0.647453
8320.000000;0.647232
8319.000000;0.647185
8318.000000;0.647161
8317.000000;0.646970
8316.000000;0.646629
8315.000000;0.646320
8314.000000;0.646199
8313.000000;0.646293
8312.000000;0.646482
8311.000000;0.646558
8310.000000;0.646373
8309.000000;0.646001
8308.000000;0.645664
8307.000000;0.645498
8306.000000;0.645477
8305.000000;0.645548
8304.000000;0.645708
8303.000000;0.645925
8302.000000;0.646097
8301.000000;0.646129
8300.000000;0.645986
8299.000000;0.645681
8298.000000;0.645284
8297.000000;0.644949
8296.000000;0.644831
8295.000000;0.644933
8294.000000;0.645102
8293.000000;0.645152
8292.000000;0.644959
8291.000000;0.644509
8290.000000;0.643952
8289.000000;0.643563
8288.000000;0.643496
8287.000000;0.643621
8286.000000;0.643702
8285.000000;0.643674
8284.000000;0.643614
8283.000000;0.643534
8282.000000;0.643406
8281.000000;0.643334
8280.000000;0.643463
8279.000000;0.643714
8278.000000;0.643822
8277.000000;0.643651
8276.000000;0.643316
8275.000000;0.642976
8274.000000;0.642708
8273.000000;0.642602
8272.000000;0.642764
8271.000000;0.643098
8270.000000;0.643293
8269.000000;0.643114
8268.000000;0.642620
8267.000000;0.642019
8266.000000;0.641455
8265.000000;0.641006
8264.000000;0.640756
8263.000000;0.640763
8262.000000;0.641015
8261.000000;0.641453
8260.000000;0.641966
8259.000000;0.642368
8258.000000;0.642523
8257.000000;0.642504
8256.000000;0.642492
8255.000000;0.642511
8254.000000;0.642408
8253.000000;0.642122
8252.000000;0.641792
8251.000000;0.641555
8250.000000;0.641402
8249.000000;0.641311
8248.000000;0.641343
8247.000000;0.641492
8246.000000;0.641594
8245.000000;0.641496
8244.000000;0.641232
8243.000000;0.640934
8242.000000;0.640695
8241.000000;0.640582
8240.000000;0.640664
8239.000000;0.640881
8238.000000;0.641013
8237.000000;0.640901
8236.000000;0.640655
8235.000000;0.640517
8234.000000;0.640552
8233.000000;0.640579
8232.000000;0.640388
8231.000000;0.639962
8230.000000;0.639497
8229.000000;0.639232
8228.000000;0.639234
8227.000000;0.639341
8226.000000;0.639366
8225.000000;0.639314
8224.000000;0.639318
8223.000000;0.639362
8222.000000;0.639237
8221.000000;0.638845
8220.000000;0.638387
8219.000000;0.638163
8218.000000;0.638264
8217.000000;0.638527
8216.000000;0.638712
8215.000000;0.638657
8214.000000;0.638349
8213.000000;0.637931
8212.000000;0.637573
8211.000000;0.637295
8210.000000;0.637003
8209.000000;0.636727
8208.000000;0.636669
8207.000000;0.636930
8206.000000;0.637342
8205.000000;0.637685
8204.000000;0.637945
8203.000000;0.638207
8202.000000;0.638409
8201.000000;0.638386
8200.000000;0.638088
8199.000000;0.637616
8198.000000;0.637077
8197.000000;0.636589
8196.000000;0.636350
8195.000000;0.636512
8194.000000;0.636950
8193.000000;0.637342
8192.000000;0.637497
8191.000000;0.637481
8190.000000;0.637400
8189.000000;0.637259
8188.000000;0.637086
8187.000000;0.637016
8186.000000;0.637106
8185.000000;0.637175
8184.000000;0.636992
8183.000000;0.636568
8182.000000;0.636119
8181.000000;0.635793
8180.000000;0.635573
8179.000000;0.635426
8178.000000;0.635415
8177.000000;0.635588
8176.000000;0.635862
8175.000000;0.636094
8174.000000;0.636217
8173.000000;0.636253
8172.000000;0.636245
8171.000000;0.636211
8170.000000;0.636140
8169.000000;0.635988
8168.000000;0.635713
8167.000000;0.635364
8166.000000;0.635101
8165.000000;0.635039
8164.000000;0.635105
8163.000000;0.635128
8162.000000;0.635066
8161.000000;0.635042
8160.000000;0.635150
8159.000000;0.635314
8158.000000;0.635389
8157.000000;0.635318
8156.000000;0.635122
8155.000000;0.634803
8154.000000;0.634362
8153.000000;0.633894
8152.000000;0.633577
8151.000000;0.633525
8150.000000;0.633672
8149.000000;0.633817
8148.000000;0.633801
8147.000000;0.633649
8146.000000;0.633526
8145.000000;0.633560
8144.000000;0.633699
8143.000000;0.633761
8142.000000;0.633609
8141.000000;0.633254
8140.000000;0.632808
8139.000000;0.632416
8138.000000;0.632209
8137.000000;0.632245
8136.000000;0.632462
8135.000000;0.632703
8134.000000;0.632843
8133.000000;0.632850
8132.000000;0.632755
8131.000000;0.632606
8130.000000;0.632468
8129.000000;0.632397
8128.000000;0.632400
8127.000000;0.632432
8126.000000;0.632467
8125.000000;0.632508
8124.000000;0.632545
8123.000000;0.632533
8122.000000;0.632429
8121.000000;0.632217
8120.000000;0.631917
8119.000000;0.631623
8118.000000;0.631482
8117.000000;0.631567
8116.000000;0.631805
8115.000000;0.632069
8114.000000;0.632300
8113.000000;0.632431
8112.000000;0.632300
8111.000000;0.631824
8110.000000;0.631228
8109.000000;0.630904
8108.000000;0.630976
8107.000000;0.631191
8106.000000;0.631279
8105.000000;0.631226
8104.000000;0.631132
8103.000000;0.631018
8102.000000;0.630899
8101.000000;0.630866
8100.000000;0.630907
8099.000000;0.630808
8098.000000;0.630423
8097.000000;0.629946
8096.000000;0.629730
8095.000000;0.629873
8094.000000;0.630144
8093.000000;0.630295
8092.000000;0.630287
8091.000000;0.630214
8090.000000;0.630163
8089.000000;0.630175
8088.000000;0.630252
8087.000000;0.630337
8086.000000;0.630349
8085.000000;0.630238
8084.000000;0.629999
8083.000000;0.629664
8082.000000;0.629324
8081.000000;0.629097
8080.000000;0.629050
8079.000000;0.629156
8078.000000;0.629363
8077.000000;0.629622
8076.000000;0.629866
8075.000000;0.630058
8074.000000;0.630252
8073.000000;0.630495
8072.000000;0.630634
8071.000000;0.630401
8070.000000;0.629771
8069.000000;0.629091
8068.000000;0.628727
8067.000000;0.628715
8066.000000;0.628844
8065.000000;0.628937
8064.000000;0.628930
8063.000000;0.628794
8062.000000;0.628556
8061.000000;0.628332
8060.000000;0.628206
8059.000000;0.628125
8058.000000;0.628046
8057.000000;0.628053
8056.000000;0.628222
8055.000000;0.628464
8054.000000;0.628651
8053.000000;0.628788
8052.000000;0.628897
8051.000000;0.628831
8050.000000;0.628434
8049.000000;0.627825
8048.000000;0.627335
8047.000000;0.627160
8046.000000;0.627250
8045.000000;0.627490
8044.000000;0.627808
8043.000000;0.628098
8042.000000;0.628224
8041.000000;0.628135
8040.000000;0.627881
8039.000000;0.627504
8038.000000;0.627044
8037.000000;0.626617
8036.000000;0.626349
8035.000000;0.626238
8034.000000;0.626227
8033.000000;0.626353
8032.000000;0.626689
8031.000000;0.627129
8030.000000;0.627416
8029.000000;0.627425
8028.000000;0.627281
8027.000000;0.627163
8026.000000;0.627113
8025.000000;0.627061
8024.000000;0.626934
8023.000000;0.626686
8022.000000;0.626348
8021.000000;0.626047
8020.000000;0.625915
8019.000000;0.625929
8018.000000;0.625944
8017.000000;0.625882
8016.000000;0.625812
8015.000000;0.625822
8014.000000;0.625927
8013.000000;0.626109
8012.000000;0.626359
8011.000000;0.626615
8010.000000;0.626760
8009.000000;0.626726
8008.000000;0.626586
8007.000000;0.626485
8006.000000;0.626504
8005.000000;0.626565
8004.000000;0.626490
8003.000000;0.626182
8002.000000;0.625755
8001.000000;0.625443
8000.000000;0.625350
7999.000000;0.625387
7998.000000;0.625458
7997.000000;0.625592
7996.000000;0.625798
7995.000000;0.625943
7994.000000;0.625902
7993.000000;0.625733
7992.000000;0.625574
7991.000000;0.625436
7990.000000;0.625271
7989.000000;0.625157
7988.000000;0.625232
7987.000000;0.625465
7986.000000;0.625664
7985.000000;0.625700
7984.000000;0.625593
7983.000000;0.625392
7982.000000;0.625152
7981.000000;0.624983
7980.000000;0.624979
7979.000000;0.625069
7978.000000;0.625084
7977.000000;0.624981
7976.000000;0.624862
7975.000000;0.624774
7974.000000;0.624663
7973.000000;0.624524
7972.000000;0.624463
7971.000000;0.624548
7970.000000;0.624728
7969.000000;0.624927
7968.000000;0.625086
7967.000000;0.625119
7966.000000;0.624952
7965.000000;0.624682
7964.000000;0.624531
7963.000000;0.624593
7962.000000;0.624733
7961.000000;0.624799
7960.000000;0.624812
7959.000000;0.624864
7958.000000;0.624946
7957.000000;0.624966
7956.000000;0.624879
7955.000000;0.624718
7954.000000;0.624543
7953.000000;0.624408
7952.000000;0.624339
7951.000000;0.624323
7950.000000;0.624346
7949.000000;0.624432
7948.000000;0.624570
7947.000000;0.624615
7946.000000;0.624397
7945.000000;0.623979
7944.000000;0.623663
7943.000000;0.623675
7942.000000;0.623899
7941.000000;0.624028
7940.000000;0.623914
7939.000000;0.623695
7938.000000;0.623585
7937.000000;0.623642
7936.000000;0.623754
7935.000000;0.623788
7934.000000;0.623722
7933.000000;0.623631
7932.000000;0.623589
7931.000000;0.623601
7930.000000;0.623642
7929.000000;0.623719
7928.000000;0.623848
7927.000000;0.623999
7926.000000;0.624112
7925.000000;0.624174
7924.000000;0.624233
7923.000000;0.624329
7922.000000;0.624434
7921.000000;0.624476
7920.000000;0.624395
7919.000000;0.624196
7918.000000;0.623956
7917.000000;0.623769
7916.000000;0.623687
7915.000000;0.623709
7914.000000;0.623811
7913.000000;0.623936
7912.000000;0.623981
7911.000000;0.623877
7910.000000;0.623688
7909.000000;0.623559
7908.000000;0.623550
7907.000000;0.623605
7906.000000;0.623709
7905.000000;0.623939
7904.000000;0.624292
7903.000000;0.624581
7902.000000;0.624599
7901.000000;0.624347
7900.000000;0.624017
7899.000000;0.623802
7898.000000;0.623794
7897.000000;0.623960
7896.000000;0.624133
7895.000000;0.624102
7894.000000;0.623825
7893.000000;0.623492
7892.000000;0.623305
7891.000000;0.623257
7890.000000;0.623244
7889.000000;0.623271
7888.000000;0.623415
7887.000000;0.623636
7886.000000;0.623800
7885.000000;0.623855
7884.000000;0.623839
7883.000000;0.623744
7882.000000;0.623546
7881.000000;0.623347
7880.000000;0.623343
7879.000000;0.623595
7878.000000;0.623940
7877.000000;0.624174
7876.000000;0.624237
7875.000000;0.624210
7874.000000;0.624193
7873.000000;0.624237
7872.000000;0.624307
7871.000000;0.624322
7870.000000;0.624243
7869.000000;0.624107
7868.000000;0.623961
7867.000000;0.623811
7866.000000;0.623693
7865.000000;0.623700
7864.000000;0.623852
7863.000000;0.624007
7862.000000;0.624022
7861.000000;0.623939
7860.000000;0.623908
7859.000000;0.623981
7858.000000;0.624101
7857.000000;0.624239
7856.000000;0.624407
7855.000000;0.624553
7854.000000;0.624590
7853.000000;0.624515
7852.000000;0.624374
7851.000000;0.624142
7850.000000;0.623791
7849.000000;0.623459
7848.000000;0.623397
7847.000000;0.623690
7846.000000;0.624151
7845.000000;0.624496
7844.000000;0.624565
7843.000000;0.624360
7842.000000;0.624000
7841.000000;0.623671
7840.000000;0.623518
7839.000000;0.623549
7838.000000;0.623672
7837.000000;0.623801
7836.000000;0.623897
7835.000000;0.623934
7834.000000;0.623961
7833.000000;0.624104
7832.000000;0.624408
7831.000000;0.624693
7830.000000;0.624736
7829.000000;0.624558
7828.000000;0.624394
7827.000000;0.624382
7826.000000;0.624433
7825.000000;0.624432
7824.000000;0.624404
7823.000000;0.624425
7822.000000;0.624514
7821.000000;0.624664
7820.000000;0.624866
7819.000000;0.625039
7818.000000;0.625048
7817.000000;0.624861
7816.000000;0.624628
7815.000000;0.624532
7814.000000;0.624629
7813.000000;0.624843
7812.000000;0.625046
7811.000000;0.625130
7810.000000;0.625064
7809.000000;0.624933
7808.000000;0.624882
7807.000000;0.624981
7806.000000;0.625172
7805.000000;0.625350
7804.000000;0.625427
7803.000000;0.625354
7802.000000;0.625159
7801.000000;0.624965
7800.000000;0.624894
7799.000000;0.624953
7798.000000;0.625073
7797.000000;0.625234
7796.000000;0.625463
7795.000000;0.625717
7794.000000;0.625873
7793.000000;0.625862
7792.000000;0.625726
7791.000000;0.625565
7790.000000;0.625476
7789.000000;0.625552
7788.000000;0.625819
7787.000000;0.626171
7786.000000;0.626436
7785.000000;0.626542
7784.000000;0.626538
7783.000000;0.626468
7782.000000;0.626335
7781.000000;0.626183
7780.000000;0.626110
7779.000000;0.626166
7778.000000;0.626310
7777.000000;0.626491
7776.000000;0.626677
7775.000000;0.626812
7774.000000;0.626836
7773.000000;0.626792
7772.000000;0.626818
7771.000000;0.626982
7770.000000;0.627200
7769.000000;0.627320
7768.000000;0.627265
7767.000000;0.627072
7766.000000;0.626867
7765.000000;0.626806
7764.000000;0.626966
7763.000000;0.627257
7762.000000;0.627485
7761.000000;0.627535
7760.000000;0.627447
7759.000000;0.627335
7758.000000;0.627296
7757.000000;0.627383
7756.000000;0.627603
7755.000000;0.627896
7754.000000;0.628168
7753.000000;0.628354
7752.000000;0.628433
7751.000000;0.628421
7750.000000;0.628391
7749.000000;0.628450
7748.000000;0.628602
7747.000000;0.628688
7746.000000;0.628553
7745.000000;0.628274
7744.000000;0.628100
7743.000000;0.628190
7742.000000;0.628479
7741.000000;0.628803
7740.000000;0.629035
7739.000000;0.629107
7738.000000;0.629034
7737.000000;0.628934
7736.000000;0.628944
7735.000000;0.629074
7734.000000;0.629212
7733.000000;0.629271
7732.000000;0.629259
7731.000000;0.629223
7730.000000;0.629219
7729.000000;0.629313
7728.000000;0.629518
7727.000000;0.629711
7726.000000;0.629737
7725.000000;0.629607
7724.000000;0.629504
7723.000000;0.629567
7722.000000;0.629778
7721.000000;0.630064
7720.000000;0.630378
7719.000000;0.630658
7718.000000;0.630820
7717.000000;0.630852
7716.000000;0.630840
7715.000000;0.630856
7714.000000;0.630910
7713.000000;0.631013
7712.000000;0.631194
7711.000000;0.631406
7710.000000;0.631524
7709.000000;0.631491
7708.000000;0.631383
7707.000000;0.631295
7706.000000;0.631244
7705.000000;0.631214
7704.000000;0.631234
7703.000000;0.631330
7702.000000;0.631483
7701.000000;0.631667
7700.000000;0.631873
7699.000000;0.632070
7698.000000;0.632204
7697.000000;0.632279
7696.000000;0.632374
7695.000000;0.632540
7694.000000;0.632751
7693.000000;0.632980
7692.000000;0.633238
7691.000000;0.633490
7690.000000;0.633617
7689.000000;0.633556
7688.000000;0.633406
7687.000000;0.633343
7686.000000;0.633447
7685.000000;0.633674
7684.000000;0.633948
7683.000000;0.634224
7682.000000;0.634485
7681.000000;0.634709
7680.000000;0.634868
7679.000000;0.634936
7678.000000;0.634940
7677.000000;0.634975
7676.000000;0.635118
7675.000000;0.635320
7674.000000;0.635442
7673.000000;0.635430
7672.000000;0.635390
7671.000000;0.635469
7670.000000;0.635694
7669.000000;0.635955
7668.000000;0.636113
7667.000000;0.636100
7666.000000;0.635973
7665.000000;0.635874
7664.000000;0.635926
7663.000000;0.636131
7662.000000;0.636405
7661.000000;0.636688
7660.000000;0.636972
7659.000000;0.637226
7658.000000;0.637380
7657.000000;0.637399
7656.000000;0.637340
7655.000000;0.637318
7654.000000;0.637433
7653.000000;0.637707
7652.000000;0.638055
7651.000000;0.638313
7650.000000;0.638378
7649.000000;0.638315
7648.000000;0.638278
7647.000000;0.638326
7646.000000;0.638409
7645.000000;0.638513
7644.000000;0.638731
7643.000000;0.639140
7642.000000;0.639685
7641.000000;0.640231
7640.000000;0.640670
7639.000000;0.640953
7638.000000;0.641075
7637.000000;0.641081
7636.000000;0.641063
7635.000000;0.641105
7634.000000;0.641231
7633.000000;0.641403
7632.000000;0.641548
7631.000000;0.641598
7630.000000;0.641570
7629.000000;0.641583
7628.000000;0.641751
7627.000000;0.642042
7626.000000;0.642310
7625.000000;0.642467
7624.000000;0.642551
7623.000000;0.642626
7622.000000;0.642687
7621.000000;0.642705
7620.000000;0.642690
7619.000000;0.642698
7618.000000;0.642789
7617.000000;0.643024
7616.000000;0.643432
7615.000000;0.643958
7614.000000;0.644488
7613.000000;0.644930
7612.000000;0.645254
7611.000000;0.645435
7610.000000;0.645469
7609.000000;0.645453
7608.000000;0.645571
7607.000000;0.645921
7606.000000;0.646398
7605.000000;0.646808
7604.000000;0.647068
7603.000000;0.647250
7602.000000;0.647433
7601.000000;0.647608
7600.000000;0.647740
7599.000000;0.647874
7598.000000;0.648125
7597.000000;0.648531
7596.000000;0.648971
7595.000000;0.649261
7594.000000;0.649337
7593.000000;0.649321
7592.000000;0.649398
7591.000000;0.649669
7590.000000;0.650102
7589.000000;0.650589
7588.000000;0.650994
7587.000000;0.651222
7586.000000;0.651284
7585.000000;0.651281
7584.000000;0.651311
7583.000000;0.651413
7582.000000;0.651623
7581.000000;0.651984
7580.000000;0.652462
7579.000000;0.652916
7578.000000;0.653241
7577.000000;0.653489
7576.000000;0.653766
7575.000000;0.654058
7574.000000;0.654258
7573.000000;0.654339
7572.000000;0.654397
7571.000000;0.654526
7570.000000;0.654743
7569.000000;0.655028
7568.000000;0.655375
7567.000000;0.655768
7566.000000;0.656182
7565.000000;0.656607
7564.000000;0.657015
7563.000000;0.657329
7562.000000;0.657494
7561.000000;0.657586
7560.000000;0.657771
7559.000000;0.658145
7558.000000;0.658651
7557.000000;0.659143
7556.000000;0.659507
7555.000000;0.659718
7554.000000;0.659844
7553.000000;0.659993
7552.000000;0.660217
7551.000000;0.660475
7550.000000;0.660726
7549.000000;0.660998
7548.000000;0.661336
7547.000000;0.661719
7546.000000;0.662113
7545.000000;0.662559
7544.000000;0.663108
7543.000000;0.663698
7542.000000;0.664172
7541.000000;0.664438
7540.000000;0.664542
7539.000000;0.664610
7538.000000;0.664769
7537.000000;0.665107
7536.000000;0.665599
7535.000000;0.666093
7534.000000;0.666455
7533.000000;0.666711
7532.000000;0.666975
7531.000000;0.667264
7530.000000;0.667485
7529.000000;0.667622
7528.000000;0.667795
7527.000000;0.668115
7526.000000;0.668561
7525.000000;0.669031
7524.000000;0.669454
7523.000000;0.669821
7522.000000;0.670164
7521.000000;0.670537
7520.000000;0.670978
7519.000000;0.671452
7518.000000;0.671881
7517.000000;0.672220
7516.000000;0.672487
7515.000000;0.672719
7514.000000;0.672947
7513.000000;0.673194
7512.000000;0.673467
7511.000000;0.673757
7510.000000;0.674091
7509.000000;0.674523
7508.000000;0.675053
7507.000000;0.675587
7506.000000;0.676042
7505.000000;0.676426
7504.000000;0.676769
7503.000000;0.677055
7502.000000;0.677288
7501.000000;0.677551
7500.000000;0.677891
7499.000000;0.678236
7498.000000;0.678536
7497.000000;0.678905
7496.000000;0.679462
7495.000000;0.680089
7494.000000;0.680556
7493.000000;0.680835
7492.000000;0.681112
7491.000000;0.681469
7490.000000;0.681785
7489.000000;0.681989
7488.000000;0.682218
7487.000000;0.682634
7486.000000;0.683216
7485.000000;0.683822
7484.000000;0.684361
7483.000000;0.684805
7482.000000;0.685141
7481.000000;0.685397
7480.000000;0.685660
7479.000000;0.685991
7478.000000;0.686372
7477.000000;0.686768
7476.000000;0.687183
7475.000000;0.687619
7474.000000;0.688048
7473.000000;0.688476
7472.000000;0.688966
7471.000000;0.689541
7470.000000;0.690123
7469.000000;0.690596
7468.000000;0.690893
7467.000000;0.691031
7466.000000;0.691119
7465.000000;0.691329
7464.000000;0.691768
7463.000000;0.692341
7462.000000;0.692810
7461.000000;0.693050
7460.000000;0.693180
7459.000000;0.693428
7458.000000;0.693914
7457.000000;0.694587
7456.000000;0.695292
7455.000000;0.695874
7454.000000;0.696266
7453.000000;0.696520
7452.000000;0.696739
7451.000000;0.696988
7450.000000;0.697295
7449.000000;0.697693
7448.000000;0.698172
7447.000000;0.698634
7446.000000;0.698992
7445.000000;0.699298
7444.000000;0.699656
7443.000000;0.700036
7442.000000;0.700303
7441.000000;0.700451
7440.000000;0.700656
7439.000000;0.701062
7438.000000;0.701619
7437.000000;0.702184
7436.000000;0.702685
7435.000000;0.703130
7434.000000;0.703553
7433.000000;0.703991
7432.000000;0.704447
7431.000000;0.704843
7430.000000;0.705076
7429.000000;0.705161
7428.000000;0.705240
7427.000000;0.705442
7426.000000;0.705810
7425.000000;0.706349
7424.000000;0.707006
7423.000000;0.707585
7422.000000;0.707840
7421.000000;0.707728
7420.000000;0.707498
7419.000000;0.707484
7418.000000;0.707831
7417.000000;0.708448
7416.000000;0.709144
7415.000000;0.709776
7414.000000;0.710328
7413.000000;0.710873
7412.000000;0.711464
7411.000000;0.712046
7410.000000;0.712507
7409.000000;0.712788
7408.000000;0.712906
7407.000000;0.712904
7406.000000;0.712890
7405.000000;0.713044
7404.000000;0.713472
7403.000000;0.714076
7402.000000;0.714653
7401.000000;0.715101
7400.000000;0.715425
7399.000000;0.715627
7398.000000;0.715713
7397.000000;0.715786
7396.000000;0.715971
7395.000000;0.716227
7394.000000;0.716445
7393.000000;0.716711
7392.000000;0.717231
7391.000000;0.717979
7390.000000;0.718688
7389.000000;0.719229
7388.000000;0.719718
7387.000000;0.720187
7386.000000;0.720452
7385.000000;0.720398
7384.000000;0.720128
7383.000000;0.719744
7382.000000;0.719311
7381.000000;0.719086
7380.000000;0.719394
7379.000000;0.720104
7378.000000;0.720608
7377.000000;0.720570
7376.000000;0.720389
7375.000000;0.720751
7374.000000;0.721883
7373.000000;0.723402
7372.000000;0.724703
7371.000000;0.725322
7370.000000;0.725137
7369.000000;0.724526
7368.000000;0.724224
7367.000000;0.724664
7366.000000;0.725560
7365.000000;0.726402
7364.000000;0.727025
7363.000000;0.727477
7362.000000;0.727774
7361.000000;0.728034
7360.000000;0.728483
7359.000000;0.729049
7358.000000;0.729266
7357.000000;0.728872
7356.000000;0.728279
7355.000000;0.728231
7354.000000;0.729032
7353.000000;0.730321
7352.000000;0.731528
7351.000000;0.732227
7350.000000;0.732220
7349.000000;0.731690
7348.000000;0.731208
7347.000000;0.731199
7346.000000;0.731483
7345.000000;0.731615
7344.000000;0.731437
7343.000000;0.730966
7342.000000;0.730099
7341.000000;0.728989
7340.000000;0.728549
7339.000000;0.729830
7338.000000;0.732705
7337.000000;0.735886
7336.000000;0.738338
7335.000000;0.739964
7334.000000;0.741116
7333.000000;0.741978
7332.000000;0.742411
7331.000000;0.742159
7330.000000;0.741128
7329.000000;0.739635
7328.000000;0.738530
7327.000000;0.738726
7326.000000;0.740258
7325.000000;0.742177
7324.000000;0.743725
7323.000000;0.745039
7322.000000;0.746536
7321.000000;0.748105
7320.000000;0.749269
7319.000000;0.749892
7318.000000;0.750238
7317.000000;0.750553
7316.000000;0.750949
7315.000000;0.751481
7314.000000;0.752034
7313.000000;0.752291
7312.000000;0.752081
7311.000000;0.751752
7310.000000;0.751838
7309.000000;0.752353
7308.000000;0.752903
7307.000000;0.753488
7306.000000;0.754675
7305.000000;0.756726
7304.000000;0.759020
7303.000000;0.760795
7302.000000;0.761897
7301.000000;0.762607
7300.000000;0.763231
7299.000000;0.763957
7298.000000;0.764793
7297.000000;0.765421
7296.000000;0.765463
7295.000000;0.765061
7294.000000;0.765031
7293.000000;0.766182
7292.000000;0.768355
7291.000000;0.770563
7290.000000;0.772068
7289.000000;0.772867
7288.000000;0.773374
7287.000000;0.774039
7286.000000;0.775186
7285.000000;0.776861
7284.000000;0.778754
7283.000000;0.780507
7282.000000;0.782059
7281.000000;0.783529
7280.000000;0.784897
7279.000000;0.786010
7278.000000;0.786886
7277.000000;0.787777
7276.000000;0.788838
7275.000000;0.789957
7274.000000;0.791037
7273.000000;0.792196
7272.000000;0.793597
7271.000000;0.795228
7270.000000;0.796940
7269.000000;0.798599
7268.000000;0.800164
7267.000000;0.801694
7266.000000;0.803260
7265.000000;0.804766
7264.000000;0.805958
7263.000000;0.806764
7262.000000;0.807589
7261.000000;0.809012
7260.000000;0.811170
7259.000000;0.813642
7258.000000;0.815910
7257.000000;0.817723
7256.000000;0.819059
7255.000000;0.819997
7254.000000;0.820781
7253.000000;0.821843
7252.000000;0.823592
7251.000000;0.826092
7250.000000;0.829025
7249.000000;0.832002
7248.000000;0.834717
7247.000000;0.836842
7246.000000;0.838073
7245.000000;0.838347
7244.000000;0.838024
7243.000000;0.837997
7242.000000;0.839387
7241.000000;0.842646
7240.000000;0.847058
7239.000000;0.851523
7238.000000;0.855476
7237.000000;0.858793
7236.000000;0.861232
7235.000000;0.862389
7234.000000;0.862325
7233.000000;0.862063
7232.000000;0.863239
7231.000000;0.866782
7230.000000;0.871939
7229.000000;0.877122
7228.000000;0.881348
7227.000000;0.884644
7226.000000;0.887727
7225.000000;0.891325
7224.000000;0.895433
7223.000000;0.899338
7222.000000;0.902475
7221.000000;0.905058
7220.000000;0.907834
7219.000000;0.911386
7218.000000;0.915693
7217.000000;0.920228
7216.000000;0.924430
7215.000000;0.928129
7214.000000;0.931612
7213.000000;0.935288
7212.000000;0.939311
7211.000000;0.943559
7210.000000;0.947857
7209.000000;0.952046
7208.000000;0.955853
7207.000000;0.958977
7206.000000;0.961534
7205.000000;0.964227
7204.000000;0.967856
7203.000000;0.972658
7202.000000;0.978213
7201.000000;0.983870
7200.000000;0.989171
7199.000000;0.994023
7198.000000;0.998646
7197.000000;1.003306
7196.000000;1.008063
7195.000000;1.012856
7194.000000;1.017750
7193.000000;1.022866
7192.000000;1.028102
7191.000000;1.033196
7190.000000;1.038108
7189.000000;1.043088
7188.000000;1.048262
7187.000000;1.053438
7186.000000;1.058408
7185.000000;1.063191
7184.000000;1.067850
7183.000000;1.072324
7182.000000;1.076711
7181.000000;1.081504
7180.000000;1.087128
7179.000000;1.093361
7178.000000;1.099671
7177.000000;1.105850
7176.000000;1.111959
7175.000000;1.117986
7174.000000;1.123822
7173.000000;1.129406
7172.000000;1.134727
7171.000000;1.139730
7170.000000;1.144464
7169.000000;1.149248
7168.000000;1.154496
7167.000000;1.160396
7166.000000;1.166787
7165.000000;1.173323
7164.000000;1.179675
7163.000000;1.185656
7162.000000;1.191376
7161.000000;1.197267
7160.000000;1.203679
7159.000000;1.210453
7158.000000;1.217230
7157.000000;1.224054
7156.000000;1.231171
7155.000000;1.238382
7154.000000;1.245116
7153.000000;1.251125
7152.000000;1.256798
7151.000000;1.262653
7150.000000;1.268797
7149.000000;1.275073
7148.000000;1.281388
7147.000000;1.287591
7146.000000;1.293382
7145.000000;1.298756
7144.000000;1.304193
7143.000000;1.310061
7142.000000;1.316105
7141.000000;1.321872
7140.000000;1.327346
7139.000000;1.332882
7138.000000;1.338709
7137.000000;1.344866
7136.000000;1.351506
7135.000000;1.358794
7134.000000;1.366456
7133.000000;1.373816
7132.000000;1.380399
7131.000000;1.386291
7130.000000;1.391819
7129.000000;1.397158
7128.000000;1.402425
7127.000000;1.407905
7126.000000;1.413911
7125.000000;1.420336
7124.000000;1.426549
7123.000000;1.431998
7122.000000;1.436840
7121.000000;1.441744
7120.000000;1.447012
7119.000000;1.452260
7118.000000;1.457170
7117.000000;1.462183
7116.000000;1.467949
7115.000000;1.474361
7114.000000;1.480783
7113.000000;1.486936
7112.000000;1.492973
7111.000000;1.498877
7110.000000;1.504307
7109.000000;1.509088
7108.000000;1.513454
7107.000000;1.517695
7106.000000;1.521884
7105.000000;1.526070
7104.000000;1.530490
7103.000000;1.535381
7102.000000;1.540734
7101.000000;1.546331
7100.000000;1.551772
7099.000000;1.556537
7098.000000;1.560435
7097.000000;1.563960
7096.000000;1.567869
7095.000000;1.572466
7094.000000;1.577548
7093.000000;1.582841
7092.000000;1.588095
7091.000000;1.592929
7090.000000;1.597146
7089.000000;1.601141
7088.000000;1.605457
7087.000000;1.610071
7086.000000;1.614618
7085.000000;1.619123
7084.000000;1.623817
7083.000000;1.628372
7082.000000;1.632156
7081.000000;1.635292
7080.000000;1.638597
7079.000000;1.642363
7078.000000;1.646079
7077.000000;1.649475
7076.000000;1.652904
7075.000000;1.656493
7074.000000;1.659772
7073.000000;1.662506
7072.000000;1.665202
7071.000000;1.668413
7070.000000;1.672070
7069.000000;1.675793
7068.000000;1.679324
7067.000000;1.682476
7066.000000;1.685199
7065.000000;1.687901
7064.000000;1.691102
7063.000000;1.694552
7062.000000;1.697328
7061.000000;1.699077
7060.000000;1.700529
7059.000000;1.702452
7058.000000;1.704777
7057.000000;1.707160
7056.000000;1.709773
7055.000000;1.713038
7054.000000;1.716869
7053.000000;1.720553
7052.000000;1.723231
7051.000000;1.724453
7050.000000;1.724585
7049.000000;1.724775
7048.000000;1.726173
7047.000000;1.728968
7046.000000;1.732351
7045.000000;1.735448
7044.000000;1.738014
7043.000000;1.740299
7042.000000;1.742766
7041.000000;1.745904
7040.000000;1.749749
7039.000000;1.753461
7038.000000;1.755863
7037.000000;1.756577
7036.000000;1.756286
7035.000000;1.756018
7034.000000;1.756554
7033.000000;1.758232
7032.000000;1.760646
7031.000000;1.762665
7030.000000;1.763446
7029.000000;1.763439
7028.000000;1.763828
7027.000000;1.765082
7026.000000;1.766656
7025.000000;1.767967
7024.000000;1.768954
7023.000000;1.769708
7022.000000;1.770316
7021.000000;1.771153
7020.000000;1.772702
7019.000000;1.775026
7018.000000;1.777825
7017.000000;1.780843
7016.000000;1.783684
7015.000000;1.785566
7014.000000;1.786068
7013.000000;1.785939
7012.000000;1.786241
7011.000000;1.786847
7010.000000;1.786773
7009.000000;1.785987
7008.000000;1.785804
7007.000000;1.787191
7006.000000;1.789582
7005.000000;1.791655
7004.000000;1.792658
7003.000000;1.792734
7002.000000;1.792547
7001.000000;1.792897
7000.000000;1.794135
6999.000000;1.795713
6998.000000;1.796759
6997.000000;1.797205
6996.000000;1.797854
6995.000000;1.799206
6994.000000;1.800766
6993.000000;1.801653
6992.000000;1.801526
6991.000000;1.800874
6990.000000;1.800647
6989.000000;1.801553
6988.000000;1.803396
6987.000000;1.805255
6986.000000;1.806594
6985.000000;1.807819
6984.000000;1.809319
6983.000000;1.810574
6982.000000;1.810877
6981.000000;1.810440
6980.000000;1.810021
6979.000000;1.809856
6978.000000;1.809808
6977.000000;1.810173
6976.000000;1.811366
6975.000000;1.812949
6974.000000;1.813897
6973.000000;1.813797
6972.000000;1.813018
6971.000000;1.811886
6970.000000;1.810533
6969.000000;1.809420
6968.000000;1.809151
6967.000000;1.809809
6966.000000;1.811063
6965.000000;1.812705
6964.000000;1.814372
6963.000000;1.815097
6962.000000;1.814138
6961.000000;1.812086
6960.000000;1.810196
6959.000000;1.808875
6958.000000;1.807733
6957.000000;1.806794
6956.000000;1.806564
6955.000000;1.807002
6954.000000;1.807428
6953.000000;1.807546
6952.000000;1.807676
6951.000000;1.807977
6950.000000;1.808274
6949.000000;1.808601
6948.000000;1.809106
6947.000000;1.809490
6946.000000;1.809382
6945.000000;1.809122
6944.000000;1.809240
6943.000000;1.809351
6942.000000;1.808680
6941.000000;1.807594
6940.000000;1.807390
6939.000000;1.808438
6938.000000;1.809591
6937.000000;1.809699
6936.000000;1.808857
6935.000000;1.807894
6934.000000;1.807460
6933.000000;1.807891
6932.000000;1.809190
6931.000000;1.810780
6930.000000;1.811831
6929.000000;1.811980
6928.000000;1.811322
6927.000000;1.809902
6926.000000;1.807879
6925.000000;1.805972
6924.000000;1.804932
6923.000000;1.804686
6922.000000;1.804699
6921.000000;1.804928
6920.000000;1.805497
6919.000000;1.805689
6918.000000;1.804439
6917.000000;1.801950
6916.000000;1.799737
6915.000000;1.798891
6914.000000;1.799222
6913.000000;1.800118
6912.000000;1.801141
6911.000000;1.801655
6910.000000;1.800980
6909.000000;1.799364
6908.000000;1.798005
6907.000000;1.797709
6906.000000;1.798127
6905.000000;1.798458
6904.000000;1.798194
6903.000000;1.796960
6902.000000;1.794539
6901.000000;1.791484
6900.000000;1.789033
6899.000000;1.788008
6898.000000;1.788138
6897.000000;1.788658
6896.000000;1.789155
6895.000000;1.789695
6894.000000;1.790490
6893.000000;1.791537
6892.000000;1.792290
6891.000000;1.791790
6890.000000;1.789592
6889.000000;1.786487
6888.000000;1.783864
6887.000000;1.782449
6886.000000;1.782041
6885.000000;1.782210
6884.000000;1.782711
6883.000000;1.783321
6882.000000;1.783800
6881.000000;1.784058
6880.000000;1.784050
6879.000000;1.783665
6878.000000;1.783004
6877.000000;1.782382
6876.000000;1.781746
6875.000000;1.780649
6874.000000;1.779248
6873.000000;1.778545
6872.000000;1.778946
6871.000000;1.779342
6870.000000;1.778573
6869.000000;1.777161
6868.000000;1.776400
6867.000000;1.776286
6866.000000;1.775701
6865.000000;1.774299
6864.000000;1.772869
6863.000000;1.771885
6862.000000;1.770990
6861.000000;1.770003
6860.000000;1.769299
6859.000000;1.769024
6858.000000;1.768863
6857.000000;1.768642
6856.000000;1.768285
6855.000000;1.767270
6854.000000;1.765089
6853.000000;1.762252
6852.000000;1.759863
6851.000000;1.758285
6850.000000;1.757074
6849.000000;1.756065
6848.000000;1.755472
6847.000000;1.755008
6846.000000;1.754079
6845.000000;1.752930
6844.000000;1.752424
6843.000000;1.752505
6842.000000;1.752017
6841.000000;1.750313
6840.000000;1.748017
6839.000000;1.745867
6838.000000;1.743882
6837.000000;1.742062
6836.000000;1.740872
6835.000000;1.740431
6834.000000;1.739984
6833.000000;1.738801
6832.000000;1.737124
6831.000000;1.735720
6830.000000;1.734848
6829.000000;1.734001
6828.000000;1.732399
6827.000000;1.729677
6826.000000;1.726380
6825.000000;1.723685
6824.000000;1.722195
6823.000000;1.721205
6822.000000;1.719619
6821.000000;1.717322
6820.000000;1.714963
6819.000000;1.712693
6818.000000;1.710105
6817.000000;1.707341
6816.000000;1.705173
6815.000000;1.703804
6814.000000;1.702496
6813.000000;1.700657
6812.000000;1.698525
6811.000000;1.696534
6810.000000;1.694693
6809.000000;1.692813
6808.000000;1.690769
6807.000000;1.688367
6806.000000;1.685549
6805.000000;1.682818
6804.000000;1.680795
6803.000000;1.679294
6802.000000;1.677515
6801.000000;1.675254
6800.000000;1.673125
6799.000000;1.671405
6798.000000;1.669456
6797.000000;1.666650
6796.000000;1.663247
6795.000000;1.659990
6794.000000;1.657364
6793.000000;1.655444
6792.000000;1.653940
6791.000000;1.652181
6790.000000;1.649604
6789.000000;1.646469
6788.000000;1.643620
6787.000000;1.641432
6786.000000;1.639517
6785.000000;1.637518
6784.000000;1.635547
6783.000000;1.633602
6782.000000;1.631201
6781.000000;1.627984
6780.000000;1.624253
6779.000000;1.620621
6778.000000;1.617483
6777.000000;1.614976
6776.000000;1.613049
6775.000000;1.611380
6774.000000;1.609597
6773.000000;1.607721
6772.000000;1.606032
6771.000000;1.604431
6770.000000;1.602394
6769.000000;1.599713
6768.000000;1.596807
6767.000000;1.594116
6766.000000;1.591607
6765.000000;1.589048
6764.000000;1.586370
6763.000000;1.583580
6762.000000;1.580681
6761.000000;1.577819
6760.000000;1.575164
6759.000000;1.572558
6758.000000;1.569659
6757.000000;1.566491
6756.000000;1.563485
6755.000000;1.560866
6754.000000;1.558433
6753.000000;1.556024
6752.000000;1.553725
6751.000000;1.551470
6750.000000;1.548881
6749.000000;1.545777
6748.000000;1.542480
6747.000000;1.539407
6746.000000;1.536664
6745.000000;1.534190
6744.000000;1.531962
6743.000000;1.529898
6742.000000;1.527836
6741.000000;1.525753
6740.000000;1.523707
6739.000000;1.521480
6738.000000;1.518655
6737.000000;1.515240
6736.000000;1.511859
6735.000000;1.509108
6734.000000;1.506963
6733.000000;1.504980
6732.000000;1.502809
6731.000000;1.500327
6730.000000;1.497506
6729.000000;1.494428
6728.000000;1.491335
6727.000000;1.488478
6726.000000;1.485949
6725.000000;1.483684
6724.000000;1.481511
6723.000000;1.479199
6722.000000;1.476622
6721.000000;1.473912
6720.000000;1.471300
6719.000000;1.468830
6718.000000;1.466364
6717.000000;1.463806
6716.000000;1.461131
6715.000000;1.458294
6714.000000;1.455347
6713.000000;1.452577
6712.000000;1.450259
6711.000000;1.448278
6710.000000;1.446280
6709.000000;1.444112
6708.000000;1.441886
6707.000000;1.439696
6706.000000;1.437466
6705.000000;1.435119
6704.000000;1.432609
6703.000000;1.429757
6702.000000;1.426462
6701.000000;1.423095
6700.000000;1.420269
6699.000000;1.418157
6698.000000;1.416299
6697.000000;1.414176
6696.000000;1.411763
6695.000000;1.409324
6694.000000;1.407016
6693.000000;1.404806
6692.000000;1.402599
6691.000000;1.400314
6690.000000;1.397936
6689.000000;1.395556
6688.000000;1.393242
6687.000000;1.390867
6686.000000;1.388237
6685.000000;1.385381
6684.000000;1.382536
6683.000000;1.379861
6682.000000;1.377344
6681.000000;1.374960
6680.000000;1.372717
6679.000000;1.370570
6678.000000;1.368469
6677.000000;1.366478
6676.000000;1.364625
6675.000000;1.362675
6674.000000;1.360296
6673.000000;1.357475
6672.000000;1.354537
6671.000000;1.351764
6670.000000;1.349220
6669.000000;1.346901
6668.000000;1.344791
6667.000000;1.342749
6666.000000;1.340598
6665.000000;1.338385
6664.000000;1.336320
6663.000000;1.334437
6662.000000;1.332521
6661.000000;1.330424
6660.000000;1.328219
6659.000000;1.326004
6658.000000;1.323767
6657.000000;1.321481
6656.000000;1.319139
6655.000000;1.316651
6654.000000;1.313938
6653.000000;1.311175
6652.000000;1.308726
6651.000000;1.306762
6650.000000;1.305096
6649.000000;1.303411
6648.000000;1.301524
6647.000000;1.299398
6646.000000;1.297104
6645.000000;1.294796
6644.000000;1.292589
6643.000000;1.290441
6642.000000;1.288277
6641.000000;1.286170
6640.000000;1.284206
6639.000000;1.282231
6638.000000;1.279992
6637.000000;1.277522
6636.000000;1.275138
6635.000000;1.273018
6634.000000;1.271043
6633.000000;1.269087
6632.000000;1.267180
6631.000000;1.265319
6630.000000;1.263371
6629.000000;1.261282
6628.000000;1.259178
6627.000000;1.257156
6626.000000;1.255138
6625.000000;1.253062
6624.000000;1.251007
6623.000000;1.249023
6622.000000;1.247004
6621.000000;1.244846
6620.000000;1.242620
6619.000000;1.240467
6618.000000;1.238433
6617.000000;1.236491
6616.000000;1.234616
6615.000000;1.232752
6614.000000;1.230799
6613.000000;1.228722
6612.000000;1.226580
6611.000000;1.224437
6610.000000;1.222334
6609.000000;1.220366
6608.000000;1.218622
6607.000000;1.216999
6606.000000;1.215229
6605.000000;1.213188
6604.000000;1.211058
6603.000000;1.209098
6602.000000;1.207371
6601.000000;1.205755
6600.000000;1.204123
6599.000000;1.202416
6598.000000;1.200622
6597.000000;1.198781
6596.000000;1.196951
6595.000000;1.195124
6594.000000;1.193232
6593.000000;1.191287
6592.000000;1.189420
6591.000000;1.187718
6590.000000;1.186066
6589.000000;1.184247
6588.000000;1.182176
6587.000000;1.180007
6586.000000;1.178002
6585.000000;1.176295
6584.000000;1.174779
6583.000000;1.173204
6582.000000;1.171414
6581.000000;1.169474
6580.000000;1.167557
6579.000000;1.165766
6578.000000;1.164105
6577.000000;1.162535
6576.000000;1.160982
6575.000000;1.159328
6574.000000;1.157513
6573.000000;1.155643
6572.000000;1.153886
6571.000000;1.152298
6570.000000;1.150787
6569.000000;1.149234
6568.000000;1.147553
6567.000000;1.145708
6566.000000;1.143769
6565.000000;1.141928
6564.000000;1.140326
6563.000000;1.138884
6562.000000;1.137396
6561.000000;1.135776
6560.000000;1.134111
6559.000000;1.132489
6558.000000;1.130885
6557.000000;1.129231
6556.000000;1.127499
6555.000000;1.125703
6554.000000;1.123894
6553.000000;1.122143
6552.000000;1.120472
6551.000000;1.118829
6550.000000;1.117182
6549.000000;1.115612
6548.000000;1.114224
6547.000000;1.112999
6546.000000;1.111804
6545.000000;1.110520
6544.000000;1.109093
6543.000000;1.107513
6542.000000;1.105833
6541.000000;1.104155
6540.000000;1.102517
6539.000000;1.100852
6538.000000;1.099152
6537.000000;1.097581
6536.000000;1.096274
6535.000000;1.095088
6534.000000;1.093730
6533.000000;1.092108
6532.000000;1.090399
6531.000000;1.088782
6530.000000;1.087274
6529.000000;1.085829
6528.000000;1.084433
6527.000000;1.083056
6526.000000;1.081647
6525.000000;1.080238
6524.000000;1.078911
6523.000000;1.077629
6522.000000;1.076216
6521.000000;1.074593
6520.000000;1.072911
6519.000000;1.071389
6518.000000;1.070067
6517.000000;1.068803
6516.000000;1.067435
6515.000000;1.065924
6514.000000;1.064347
6513.000000;1.062828
6512.000000;1.061427
6511.000000;1.060093
6510.000000;1.058728
6509.000000;1.057299
6508.000000;1.055859
6507.000000;1.054482
6506.000000;1.053219
6505.000000;1.052092
6504.000000;1.051070
6503.000000;1.050057
6502.000000;1.048952
6501.000000;1.047731
6500.000000;1.046432
6499.000000;1.045080
6498.000000;1.043680
6497.000000;1.042252
6496.000000;1.040834
6495.000000;1.039458
6494.000000;1.038159
6493.000000;1.036957
6492.000000;1.035789
6491.000000;1.034533
6490.000000;1.033146
6489.000000;1.031728
6488.000000;1.030381
6487.000000;1.029071
6486.000000;1.027736
6485.000000;1.026430
6484.000000;1.025259
6483.000000;1.024209
6482.000000;1.023168
6481.000000;1.022085
6480.000000;1.020973
6479.000000;1.019805
6478.000000;1.018532
6477.000000;1.017207
6476.000000;1.015958
6475.000000;1.014820
6474.000000;1.013708
6473.000000;1.012561
6472.000000;1.011411
6471.000000;1.010275
6470.000000;1.009108
6469.000000;1.007898
6468.000000;1.006709
6467.000000;1.005589
6466.000000;1.004486
6465.000000;1.003319
6464.000000;1.002066
6463.000000;1.000771
6462.000000;0.999509
6461.000000;0.998336
6460.000000;0.997245
6459.000000;0.996144
6458.000000;0.994958
6457.000000;0.993737
6456.000000;0.992609
6455.000000;0.991624
6454.000000;0.990691
6453.000000;0.989682
6452.000000;0.988560
6451.000000;0.987399
6450.000000;0.986309
6449.000000;0.985342
6448.000000;0.984434
6447.000000;0.983437
6446.000000;0.982262
6445.000000;0.980959
6444.000000;0.979669
6443.000000;0.978487
6442.000000;0.977435
6441.000000;0.976488
6440.000000;0.975597
6439.000000;0.974696
6438.000000;0.973758
6437.000000;0.972815
6436.000000;0.971890
6435.000000;0.970947
6434.000000;0.969954
6433.000000;0.968945
6432.000000;0.967965
6431.000000;0.966999
6430.000000;0.966007
6429.000000;0.965002
6428.000000;0.964014
6427.000000;0.963013
6426.000000;0.961951
6425.000000;0.960842
6424.000000;0.959742
6423.000000;0.958683
6422.000000;0.957689
6421.000000;0.956797
6420.000000;0.955996
6419.000000;0.955169
6418.000000;0.954208
6417.000000;0.953149
6416.000000;0.952122
6415.000000;0.951202
6414.000000;0.950374
6413.000000;0.949593
6412.000000;0.948810
6411.000000;0.947952
6410.000000;0.946994
6409.000000;0.946009
6408.000000;0.945079
6407.000000;0.944171
6406.000000;0.943194
6405.000000;0.942152
6404.000000;0.941140
6403.000000;0.940215
6402.000000;0.939351
6401.000000;0.938524
6400.000000;0.937722
6399.000000;0.936892
6398.000000;0.935973
6397.000000;0.934986
6396.000000;0.934030
6395.000000;0.933158
6394.000000;0.932347
6393.000000;0.931565
6392.000000;0.930803
6391.000000;0.930034
6390.000000;0.929216
6389.000000;0.928340
6388.000000;0.927420
6387.000000;0.926455
6386.000000;0.925467
6385.000000;0.924549
6384.000000;0.923790
6383.000000;0.923145
6382.000000;0.922482
6381.000000;0.921752
6380.000000;0.921012
6379.000000;0.920292
6378.000000;0.919527
6377.000000;0.918657
6376.000000;0.917714
6375.000000;0.916765
6374.000000;0.915851
6373.000000;0.915002
6372.000000;0.914253
6371.000000;0.913594
6370.000000;0.912958
6369.000000;0.912283
6368.000000;0.911563
6367.000000;0.910827
6366.000000;0.910098
6365.000000;0.909384
6364.000000;0.908678
6363.000000;0.907954
6362.000000;0.907206
6361.000000;0.906466
6360.000000;0.905757
6359.000000;0.905033
6358.000000;0.904232
6357.000000;0.903370
6356.000000;0.902531
6355.000000;0.901758
6354.000000;0.901024
6353.000000;0.900303
6352.000000;0.899598
6351.000000;0.898903
6350.000000;0.898189
6349.000000;0.897465
6348.000000;0.896793
6347.000000;0.896216
6346.000000;0.895690
6345.000000;0.895119
6344.000000;0.894425
6343.000000;0.893607
6342.000000;0.892737
6341.000000;0.891907
6340.000000;0.891161
6339.000000;0.890471
6338.000000;0.889787
6337.000000;0.889090
6336.000000;0.888377
6335.000000;0.887647
6334.000000;0.886927
6333.000000;0.886270
6332.000000;0.885684
6331.000000;0.885107
6330.000000;0.884490
6329.000000;0.883869
6328.000000;0.883309
6327.000000;0.882801
6326.000000;0.882279
6325.000000;0.881708
6324.000000;0.881088
6323.000000;0.880408
6322.000000;0.879666
6321.000000;0.878903
6320.000000;0.878161
6319.000000;0.877421
6318.000000;0.876660
6317.000000;0.875941
6316.000000;0.875356
6315.000000;0.874894
6314.000000;0.874440
6313.000000;0.873907
6312.000000;0.873303
6311.000000;0.872677
6310.000000;0.872059
6309.000000;0.871467
6308.000000;0.870912
6307.000000;0.870362
6306.000000;0.869764
6305.000000;0.869109
6304.000000;0.868444
6303.000000;0.867801
6302.000000;0.867167
6301.000000;0.866535
6300.000000;0.865927
6299.000000;0.865364
6298.000000;0.864837
6297.000000;0.864316
6296.000000;0.863788
6295.000000;0.863255
6294.000000;0.862732
6293.000000;0.862226
6292.000000;0.861713
6291.000000;0.861159
6290.000000;0.860578
6289.000000;0.860043
6288.000000;0.859598
6287.000000;0.859193
6286.000000;0.858735
6285.000000;0.858193
6284.000000;0.857607
6283.000000;0.857017
6282.000000;0.856448
6281.000000;0.855922
6280.000000;0.855438
6279.000000;0.854945
6278.000000;0.854386
6277.000000;0.853773
6276.000000;0.853169
6275.000000;0.852596
6274.000000;0.852022
6273.000000;0.851449
6272.000000;0.850932
6271.000000;0.850514
6270.000000;0.850148
6269.000000;0.849743
6268.000000;0.849255
6267.000000;0.848713
6266.000000;0.848185
6265.000000;0.847700
6264.000000;0.847234
6263.000000;0.846741
6262.000000;0.846215
6261.000000;0.845685
6260.000000;0.845165
6259.000000;0.844644
6258.000000;0.844124
6257.000000;0.843639
6256.000000;0.843199
6255.000000;0.842775
6254.000000;0.842344
6253.000000;0.841914
6252.000000;0.841480
6251.000000;0.841012
6250.000000;0.840512
6249.000000;0.840044
6248.000000;0.839648
6247.000000;0.839271
6246.000000;0.838830
6245.000000;0.838315
6244.000000;0.837787
6243.000000;0.837299
6242.000000;0.836860
6241.000000;0.836451
6240.000000;0.836032
6239.000000;0.835554
6238.000000;0.835025
6237.000000;0.834515
6236.000000;0.834082
6235.000000;0.833697
6234.000000;0.833302
6233.000000;0.832888
6232.000000;0.832481
6231.000000;0.832079
6230.000000;0.831652
6229.000000;0.831198
6228.000000;0.830736
6227.000000;0.830276
6226.000000;0.829833
6225.000000;0.829436
6224.000000;0.829075
6223.000000;0.828676
6222.000000;0.828181
6221.000000;0.827641
6220.000000;0.827153
6219.000000;0.826741
6218.000000;0.826362
6217.000000;0.826006
6216.000000;0.825710
6215.000000;0.825462
6214.000000;0.825175
6213.000000;0.824776
6212.000000;0.824282
6211.000000;0.823763
6210.000000;0.823279
6209.000000;0.822858
6208.000000;0.822504
6207.000000;0.822192
6206.000000;0.821883
6205.000000;0.821550
6204.000000;0.821187
6203.000000;0.820809
6202.000000;0.820438
6201.000000;0.820097
6200.000000;0.819778
6199.000000;0.819456
6198.000000;0.819121
6197.000000;0.818781
6196.000000;0.818425
6195.000000;0.818028
6194.000000;0.817599
6193.000000;0.817190
6192.000000;0.816812
6191.000000;0.816407
6190.000000;0.815924
6189.000000;0.815400
6188.000000;0.814907
6187.000000;0.814469
6186.000000;0.814066
6185.000000;0.813684
6184.000000;0.813313
6183.000000;0.812936
6182.000000;0.812567
6181.000000;0.812256
6180.000000;0.812028
6179.000000;0.811819
6178.000000;0.811546
6177.000000;0.811197
6176.000000;0.810811
6175.000000;0.810420
6174.000000;0.810048
6173.000000;0.809751
6172.000000;0.809573
6171.000000;0.809467
6170.000000;0.809325
6169.000000;0.809072
6168.000000;0.808710
6167.000000;0.808292
6166.000000;0.807891
6165.000000;0.807568
6164.000000;0.807327
6163.000000;0.807104
6162.000000;0.806837
6161.000000;0.806529
6160.000000;0.806199
6159.000000;0.805830
6158.000000;0.805412
6157.000000;0.805004
6156.000000;0.804667
6155.000000;0.804361
6154.000000;0.803997
6153.000000;0.803568
6152.000000;0.803162
6151.000000;0.802840
6150.000000;0.802576
6149.000000;0.802318
6148.000000;0.802058
6147.000000;0.801811
6146.000000;0.801585
6145.000000;0.801384
6144.000000;0.801196
6143.000000;0.800973
6142.000000;0.800668
6141.000000;0.800296
6140.000000;0.799919
6139.000000;0.799576
6138.000000;0.799263
6137.000000;0.798980
6136.000000;0.798735
6135.000000;0.798514
6134.000000;0.798273
6133.000000;0.797987
6132.000000;0.797675
6131.000000;0.797365
6130.000000;0.797063
6129.000000;0.796771
6128.000000;0.796489
6127.000000;0.796214
6126.000000;0.795949
6125.000000;0.795709
6124.000000;0.795504
6123.000000;0.795306
6122.000000;0.795073
6121.000000;0.794801
6120.000000;0.794517
6119.000000;0.794233
6118.000000;0.793928
6117.000000;0.793593
6116.000000;0.793252
6115.000000;0.792936
6114.000000;0.792657
6113.000000;0.792399
6112.000000;0.792150
6111.000000;0.791909
6110.000000;0.791680
6109.000000;0.791450
6108.000000;0.791200
6107.000000;0.790942
6106.000000;0.790718
6105.000000;0.790540
6104.000000;0.790341
6103.000000;0.790048
6102.000000;0.789688
6101.000000;0.789368
6100.000000;0.789143
6099.000000;0.788966
6098.000000;0.788777
6097.000000;0.788593
6096.000000;0.788449
6095.000000;0.788313
6094.000000;0.788113
6093.000000;0.787837
6092.000000;0.787537
6091.000000;0.787271
6090.000000;0.787058
6089.000000;0.786890
6088.000000;0.786732
6087.000000;0.786527
6086.000000;0.786234
6085.000000;0.785870
6084.000000;0.785498
6083.000000;0.785193
6082.000000;0.785005
6081.000000;0.784936
6080.000000;0.784924
6079.000000;0.784881
6078.000000;0.784763
6077.000000;0.784573
6076.000000;0.784312
6075.000000;0.783969
6074.000000;0.783593
6073.000000;0.783282
6072.000000;0.783076
6071.000000;0.782911
6070.000000;0.782705
6069.000000;0.782464
6068.000000;0.782244
6067.000000;0.782074
6066.000000;0.781955
6065.000000;0.781890
6064.000000;0.781853
6063.000000;0.781765
6062.000000;0.781576
6061.000000;0.781332
6060.000000;0.781116
6059.000000;0.780946
6058.000000;0.780786
6057.000000;0.780631
6056.000000;0.780505
6055.000000;0.780387
6054.000000;0.780215
6053.000000;0.779953
6052.000000;0.779626
6051.000000;0.779287
6050.000000;0.778985
6049.000000;0.778748
6048.000000;0.778559
6047.000000;0.778364
6046.000000;0.778134
6045.000000;0.777907
6044.000000;0.777733
6043.000000;0.777616
6042.000000;0.777541
6041.000000;0.777511
6040.000000;0.777517
6039.000000;0.777499
6038.000000;0.777400
6037.000000;0.777238
6036.000000;0.777076
6035.000000;0.776942
6034.000000;0.776825
6033.000000;0.776721
6032.000000;0.776622
6031.000000;0.776482
6030.000000;0.776267
6029.000000;0.776010
6028.000000;0.775787
6027.000000;0.775638
6026.000000;0.775549
6025.000000;0.775506
6024.000000;0.775488
6023.000000;0.775440
6022.000000;0.775320
6021.000000;0.775165
6020.000000;0.775063
6019.000000;0.775040
6018.000000;0.775034
6017.000000;0.774978
6016.000000;0.774860
6015.000000;0.774707
6014.000000;0.774542
6013.000000;0.774387
6012.000000;0.774258
6011.000000;0.774146
6010.000000;0.774036
6009.000000;0.773929
6008.000000;0.773829
6007.000000;0.773709
6006.000000;0.773534
6005.000000;0.773319
6004.000000;0.773121
6003.000000;0.772971
6002.000000;0.772847
6001.000000;0.772723
6000.000000;0.772614
5999.000000;0.772553
5998.000000;0.772540
5997.000000;0.772543
5996.000000;0.772529
5995.000000;0.772489
5994.000000;0.772427
5993.000000;0.772350
5992.000000;0.772271
5991.000000;0.772213
5990.000000;0.772203
5989.000000;0.772227
5988.000000;0.772223
5987.000000;0.772141
5986.000000;0.772010
5985.000000;0.771917
5984.000000;0.771897
5983.000000;0.771906
5982.000000;0.771896
5981.000000;0.771868
5980.000000;0.771835
5979.000000;0.771771
5978.000000;0.771651
5977.000000;0.771498
5976.000000;0.771349
5975.000000;0.771215
5974.000000;0.771114
5973.000000;0.771095
5972.000000;0.771168
5971.000000;0.771262
5970.000000;0.771289
5969.000000;0.771255
5968.000000;0.771242
5967.000000;0.771305
5966.000000;0.771420
5965.000000;0.771531
5964.000000;0.771595
5963.000000;0.771599
5962.000000;0.771559
5961.000000;0.771512
5960.000000;0.771466
5959.000000;0.771388
5958.000000;0.771255
5957.000000;0.771113
5956.000000;0.771034
5955.000000;0.771031
5954.000000;0.771064
5953.000000;0.771104
5952.000000;0.771156
5951.000000;0.771220
5950.000000;0.771269
5949.000000;0.771286
5948.000000;0.771285
5947.000000;0.771283
5946.000000;0.771274
5945.000000;0.771246
5944.000000;0.771208
5943.000000;0.771183
5942.000000;0.771189
5941.000000;0.771225
5940.000000;0.771274
5939.000000;0.771321
5938.000000;0.771358
5937.000000;0.771378
5936.000000;0.771370
5935.000000;0.771335
5934.000000;0.771287
5933.000000;0.771243
5932.000000;0.771207
5931.000000;0.771191
5930.000000;0.771224
5929.000000;0.771319
5928.000000;0.771439
5927.000000;0.771533
5926.000000;0.771601
5925.000000;0.771670
5924.000000;0.771721
5923.000000;0.771720
5922.000000;0.771698
5921.000000;0.771740
5920.000000;0.771869
5919.000000;0.772015
5918.000000;0.772113
5917.000000;0.772175
5916.000000;0.772220
5915.000000;0.772222
5914.000000;0.772161
5913.000000;0.772076
5912.000000;0.772021
5911.000000;0.772001
5910.000000;0.772026
5909.000000;0.772141
5908.000000;0.772349
5907.000000;0.772551
5906.000000;0.772633
5905.000000;0.772609
5904.000000;0.772591
5903.000000;0.772649
5902.000000;0.772747
5901.000000;0.772824
5900.000000;0.772870
5899.000000;0.772923
5898.000000;0.773017
5897.000000;0.773159
5896.000000;0.773320
5895.000000;0.773466
5894.000000;0.773580
5893.000000;0.773673
5892.000000;0.773750
5891.000000;0.773808
5890.000000;0.773865
5889.000000;0.773943
5888.000000;0.774027
5887.000000;0.774094
5886.000000;0.774174
5885.000000;0.774338
5884.000000;0.774585
5883.000000;0.774824
5882.000000;0.774989
5881.000000;0.775123
5880.000000;0.775291
5879.000000;0.775475
5878.000000;0.775613
5877.000000;0.775687
5876.000000;0.775721
5875.000000;0.775718
5874.000000;0.775679
5873.000000;0.775662
5872.000000;0.775732
5871.000000;0.775886
5870.000000;0.776070
5869.000000;0.776263
5868.000000;0.776495
5867.000000;0.776779
5866.000000;0.777089
5865.000000;0.777385
5864.000000;0.777646
5863.000000;0.777856
5862.000000;0.778028
5861.000000;0.778203
5860.000000;0.778408
5859.000000;0.778620
5858.000000;0.778795
5857.000000;0.778925
5856.000000;0.779040
5855.000000;0.779179
5854.000000;0.779372
5853.000000;0.779637
5852.000000;0.779937
5851.000000;0.780189
5850.000000;0.780355
5849.000000;0.780486
5848.000000;0.780648
5847.000000;0.780834
5846.000000;0.781003
5845.000000;0.781162
5844.000000;0.781359
5843.000000;0.781609
5842.000000;0.781890
5841.000000;0.782189
5840.000000;0.782503
5839.000000;0.782812
5838.000000;0.783098
5837.000000;0.783390
5836.000000;0.783721
5835.000000;0.784073
5834.000000;0.784391
5833.000000;0.784657
5832.000000;0.784892
5831.000000;0.785109
5830.000000;0.785315
5829.000000;0.785537
5828.000000;0.785789
5827.000000;0.786038
5826.000000;0.786245
5825.000000;0.786445
5824.000000;0.786714
5823.000000;0.787064
5822.000000;0.787422
5821.000000;0.787735
5820.000000;0.788029
5819.000000;0.788348
5818.000000;0.788694
5817.000000;0.789046
5816.000000;0.789396
5815.000000;0.789745
5814.000000;0.790083
5813.000000;0.790414
5812.000000;0.790757
5811.000000;0.791118
5810.000000;0.791467
5809.000000;0.791777
5808.000000;0.792070
5807.000000;0.792397
5806.000000;0.792771
5805.000000;0.793149
5804.000000;0.793476
5803.000000;0.793747
5802.000000;0.794026
5801.000000;0.794385
5800.000000;0.794834
5799.000000;0.795305
5798.000000;0.795715
5797.000000;0.796040
5796.000000;0.796330
5795.000000;0.796655
5794.000000;0.797049
5793.000000;0.797498
5792.000000;0.797976
5791.000000;0.798478
5790.000000;0.799010
5789.000000;0.799545
5788.000000;0.800026
5787.000000;0.800415
5786.000000;0.800744
5785.000000;0.801089
5784.000000;0.801498
5783.000000;0.801968
5782.000000;0.802470
5781.000000;0.802961
5780.000000;0.803399
5779.000000;0.803768
5778.000000;0.804111
5777.000000;0.804486
5776.000000;0.804903
5775.000000;0.805336
5774.000000;0.805781
5773.000000;0.806261
5772.000000;0.806766
5771.000000;0.807249
5770.000000;0.807682
5769.000000;0.808087
5768.000000;0.808499
5767.000000;0.808948
5766.000000;0.809472
5765.000000;0.810093
5764.000000;0.810766
5763.000000;0.811393
5762.000000;0.811916
5761.000000;0.812362
5760.000000;0.812783
5759.000000;0.813210
5758.000000;0.813680
5757.000000;0.814246
5756.000000;0.814927
5755.000000;0.815672
5754.000000;0.816402
5753.000000;0.817060
5752.000000;0.817626
5751.000000;0.818122
5750.000000;0.818625
5749.000000;0.819215
5748.000000;0.819896
5747.000000;0.820592
5746.000000;0.821244
5745.000000;0.821857
5744.000000;0.822464
5743.000000;0.823076
5742.000000;0.823693
5741.000000;0.824312
5740.000000;0.824909
5739.000000;0.825456
5738.000000;0.825971
5737.000000;0.826502
5736.000000;0.827063
5735.000000;0.827635
5734.000000;0.828233
5733.000000;0.828907
5732.000000;0.829672
5731.000000;0.830471
5730.000000;0.831243
5729.000000;0.831952
5728.000000;0.832563
5727.000000;0.833067
5726.000000;0.833553
5725.000000;0.834161
5724.000000;0.834913
5723.000000;0.835670
5722.000000;0.836315
5721.000000;0.836894
5720.000000;0.837539
5719.000000;0.838306
5718.000000;0.839152
5717.000000;0.840014
5716.000000;0.840844
5715.000000;0.841612
5714.000000;0.842314
5713.000000;0.842987
5712.000000;0.843661
5711.000000;0.844342
5710.000000;0.845050
5709.000000;0.845818
5708.000000;0.846636
5707.000000;0.847448
5706.000000;0.848254
5705.000000;0.849122
5704.000000;0.850064
5703.000000;0.850970
5702.000000;0.851738
5701.000000;0.852403
5700.000000;0.853080
5699.000000;0.853831
5698.000000;0.854649
5697.000000;0.855512
5696.000000;0.856388
5695.000000;0.857212
5694.000000;0.857959
5693.000000;0.858680
5692.000000;0.859455
5691.000000;0.860283
5690.000000;0.861118
5689.000000;0.861944
5688.000000;0.862763
5687.000000;0.863557
5686.000000;0.864307
5685.000000;0.865048
5684.000000;0.865825
5683.000000;0.866627
5682.000000;0.867417
5681.000000;0.868197
5680.000000;0.868985
5679.000000;0.869768
5678.000000;0.870524
5677.000000;0.871271
5676.000000;0.872044
5675.000000;0.872838
5674.000000;0.873634
5673.000000;0.874437
5672.000000;0.875265
5671.000000;0.876102
5670.000000;0.876936
5669.000000;0.877788
5668.000000;0.878672
5667.000000;0.879549
5666.000000;0.880373
5665.000000;0.881146
5664.000000;0.881892
5663.000000;0.882609
5662.000000;0.883312
5661.000000;0.884064
5660.000000;0.884895
5659.000000;0.885734
5658.000000;0.886495
5657.000000;0.887207
5656.000000;0.887971
5655.000000;0.888804
5654.000000;0.889613
5653.000000;0.890331
5652.000000;0.891005
5651.000000;0.891714
5650.000000;0.892470
5649.000000;0.893225
5648.000000;0.893929
5647.000000;0.894567
5646.000000;0.895152
5645.000000;0.895715
5644.000000;0.896299
5643.000000;0.896938
5642.000000;0.897643
5641.000000;0.898389
5640.000000;0.899120
5639.000000;0.899791
5638.000000;0.900418
5637.000000;0.901051
5636.000000;0.901712
5635.000000;0.902391
5634.000000;0.903089
5633.000000;0.903820
5632.000000;0.904551
5631.000000;0.905201
5630.000000;0.905742
5629.000000;0.906231
5628.000000;0.906730
5627.000000;0.907237
5626.000000;0.907727
5625.000000;0.908223
5624.000000;0.908765
5623.000000;0.909354
5622.000000;0.909952
5621.000000;0.910534
5620.000000;0.911087
5619.000000;0.911599
5618.000000;0.912063
5617.000000;0.912483
5616.000000;0.912873
5615.000000;0.913261
5614.000000;0.913704
5613.000000;0.914227
5612.000000;0.914775
5611.000000;0.915270
5610.000000;0.915704
5609.000000;0.916129
5608.000000;0.916546
5607.000000;0.916910
5606.000000;0.917233
5605.000000;0.917590
5604.000000;0.917982
5603.000000;0.918325
5602.000000;0.918601
5601.000000;0.918917
5600.000000;0.919340
5599.000000;0.919780
5598.000000;0.920129
5597.000000;0.920409
5596.000000;0.920701
5595.000000;0.921005
5594.000000;0.921275
5593.000000;0.921526
5592.000000;0.921803
5591.000000;0.922078
5590.000000;0.922295
5589.000000;0.922478
5588.000000;0.922710
5587.000000;0.923014
5586.000000;0.923325
5585.000000;0.923567
5584.000000;0.923702
5583.000000;0.923745
5582.000000;0.923778
5581.000000;0.923917
5580.000000;0.924200
5579.000000;0.924532
5578.000000;0.924780
5577.000000;0.924897
5576.000000;0.924938
5575.000000;0.924992
5574.000000;0.925148
5573.000000;0.925438
5572.000000;0.925790
5571.000000;0.926076
5570.000000;0.926243
5569.000000;0.926340
5568.000000;0.926400
5567.000000;0.926385
5566.000000;0.926302
5565.000000;0.926250
5564.000000;0.926294
5563.000000;0.926390
5562.000000;0.926494
5561.000000;0.926637
5560.000000;0.926816
5559.000000;0.926922
5558.000000;0.926898
5557.000000;0.926862
5556.000000;0.926949
5555.000000;0.927105
5554.000000;0.927169
5553.000000;0.927103
5552.000000;0.927001
5551.000000;0.926936
5550.000000;0.926905
5549.000000;0.926907
5548.000000;0.926955
5547.000000;0.927027
5546.000000;0.927095
5545.000000;0.927179
5544.000000;0.927280
5543.000000;0.927331
5542.000000;0.927289
5541.000000;0.927216
5540.000000;0.927193
5539.000000;0.927197
5538.000000;0.927173
5537.000000;0.927147
5536.000000;0.927183
5535.000000;0.927273
5534.000000;0.927365
5533.000000;0.927447
5532.000000;0.927534
5531.000000;0.927589
5530.000000;0.927576
5529.000000;0.927551
5528.000000;0.927615
5527.000000;0.927788
5526.000000;0.927989
5525.000000;0.928143
5524.000000;0.928219
5523.000000;0.928201
5522.000000;0.928114
5521.000000;0.928039
5520.000000;0.928054
5519.000000;0.928166
5518.000000;0.928323
5517.000000;0.928469
5516.000000;0.928556
5515.000000;0.928556
5514.000000;0.928509
5513.000000;0.928508
5512.000000;0.928585
5511.000000;0.928677
5510.000000;0.928748
5509.000000;0.928857
5508.000000;0.929047
5507.000000;0.929245
5506.000000;0.929368
5505.000000;0.929455
5504.000000;0.929605
5503.000000;0.929831
5502.000000;0.930077
5501.000000;0.930304
5500.000000;0.930487
5499.000000;0.930628
5498.000000;0.930741
5497.000000;0.930853
5496.000000;0.930961
5495.000000;0.931008
5494.000000;0.930963
5493.000000;0.930884
5492.000000;0.930871
5491.000000;0.930960
5490.000000;0.931148
5489.000000;0.931449
5488.000000;0.931853
5487.000000;0.932301
5486.000000;0.932736
5485.000000;0.933145
5484.000000;0.933518
5483.000000;0.933805
5482.000000;0.934037
5481.000000;0.934321
5480.000000;0.934636
5479.000000;0.934853
5478.000000;0.934928
5477.000000;0.934977
5476.000000;0.935149
5475.000000;0.935509
5474.000000;0.936059
5473.000000;0.936750
5472.000000;0.937504
5471.000000;0.938197
5470.000000;0.938718
5469.000000;0.939053
5468.000000;0.939279
5467.000000;0.939495
5466.000000;0.939790
5465.000000;0.940193
5464.000000;0.940644
5463.000000;0.941076
5462.000000;0.941559
5461.000000;0.942199
5460.000000;0.942906
5459.000000;0.943543
5458.000000;0.944192
5457.000000;0.945012
5456.000000;0.945941
5455.000000;0.946803
5454.000000;0.947556
5453.000000;0.948253
5452.000000;0.948905
5451.000000;0.949502
5450.000000;0.950121
5449.000000;0.950786
5448.000000;0.951387
5447.000000;0.951947
5446.000000;0.952655
5445.000000;0.953555
5444.000000;0.954445
5443.000000;0.955176
5442.000000;0.955890
5441.000000;0.956804
5440.000000;0.957869
5439.000000;0.958875
5438.000000;0.959826
5437.000000;0.960907
5436.000000;0.962129
5435.000000;0.963386
5434.000000;0.964664
5433.000000;0.965943
5432.000000;0.967185
5431.000000;0.968440
5430.000000;0.969726
5429.000000;0.970988
5428.000000;0.972267
5427.000000;0.973666
5426.000000;0.975239
5425.000000;0.976987
5424.000000;0.978824
5423.000000;0.980641
5422.000000;0.982395
5421.000000;0.984121
5420.000000;0.985852
5419.000000;0.987544
5418.000000;0.989154
5417.000000;0.990718
5416.000000;0.992293
5415.000000;0.993923
5414.000000;0.995668
5413.000000;0.997600
5412.000000;0.999682
5411.000000;1.001861
5410.000000;1.004213
5409.000000;1.006774
5408.000000;1.009413
5407.000000;1.012031
5406.000000;1.014735
5405.000000;1.017622
5404.000000;1.020549
5403.000000;1.023369
5402.000000;1.026131
5401.000000;1.028957
5400.000000;1.031929
5399.000000;1.034998
5398.000000;1.038075
5397.000000;1.041183
5396.000000;1.044360
5395.000000;1.047600
5394.000000;1.050946
5393.000000;1.054515
5392.000000;1.058319
5391.000000;1.062180
5390.000000;1.066010
5389.000000;1.069946
5388.000000;1.074139
5387.000000;1.078579
5386.000000;1.083198
5385.000000;1.087919
5384.000000;1.092629
5383.000000;1.097337
5382.000000;1.102203
5381.000000;1.107315
5380.000000;1.112597
5379.000000;1.117919
5378.000000;1.123269
5377.000000;1.128825
5376.000000;1.134729
5375.000000;1.140847
5374.000000;1.146983
5373.000000;1.153251
5372.000000;1.159914
5371.000000;1.166971
5370.000000;1.174216
5369.000000;1.181548
5368.000000;1.188999
5367.000000;1.196579
5366.000000;1.204300
5365.000000;1.212215
5364.000000;1.220374
5363.000000;1.228806
5362.000000;1.237524
5361.000000;1.246591
5360.000000;1.256083
5359.000000;1.265919
5358.000000;1.275895
5357.000000;1.285853
5356.000000;1.295786
5355.000000;1.305860
5354.000000;1.316425
5353.000000;1.327742
5352.000000;1.339603
5351.000000;1.351598
5350.000000;1.363701
5349.000000;1.376144
5348.000000;1.388959
5347.000000;1.402021
5346.000000;1.415467
5345.000000;1.429782
5344.000000;1.445137
5343.000000;1.460840
5342.000000;1.476120
5341.000000;1.491302
5340.000000;1.507305
5339.000000;1.524422
5338.000000;1.542243
5337.000000;1.560174
5336.000000;1.577819
5335.000000;1.595336
5334.000000;1.613497
5333.000000;1.632989
5332.000000;1.653645
5331.000000;1.674646
5330.000000;1.695475
5329.000000;1.716433
5328.000000;1.738062
5327.000000;1.760377
5326.000000;1.783077
5325.000000;1.806243
5324.000000;1.830216
5323.000000;1.854951
5322.000000;1.880085
5321.000000;1.905489
5320.000000;1.931236
5319.000000;1.957240
5318.000000;1.983466
5317.000000;2.010229
5316.000000;2.037742
5315.000000;2.065514
5314.000000;2.092824
5313.000000;2.119588
5312.000000;2.146247
5311.000000;2.173140
5310.000000;2.200369
5309.000000;2.227942
5308.000000;2.255646
5307.000000;2.283011
5306.000000;2.309684
5305.000000;2.335500
5304.000000;2.360165
5303.000000;2.383418
5302.000000;2.405654
5301.000000;2.427861
5300.000000;2.450741
5299.000000;2.474044
5298.000000;2.496457
5297.000000;2.516027
5296.000000;2.531401
5295.000000;2.543360
5294.000000;2.554689
5293.000000;2.567609
5292.000000;2.581870
5291.000000;2.595763
5290.000000;2.607861
5289.000000;2.617214
5288.000000;2.623658
5287.000000;2.629197
5286.000000;2.636860
5285.000000;2.647117
5284.000000;2.657123
5283.000000;2.664619
5282.000000;2.670704
5281.000000;2.676436
5280.000000;2.679613
5279.000000;2.678310
5278.000000;2.675186
5277.000000;2.674619
5276.000000;2.677529
5275.000000;2.681956
5274.000000;2.686650
5273.000000;2.690942
5272.000000;2.692687
5271.000000;2.690049
5270.000000;2.684774
5269.000000;2.680561
5268.000000;2.679185
5267.000000;2.680664
5266.000000;2.685221
5265.000000;2.691808
5264.000000;2.696048
5263.000000;2.693786
5262.000000;2.686724
5261.000000;2.680488
5260.000000;2.677675
5259.000000;2.676755
5258.000000;2.676578
5257.000000;2.677629
5256.000000;2.679215
5255.000000;2.679539
5254.000000;2.679520
5253.000000;2.682664
5252.000000;2.689610
5251.000000;2.696570
5250.000000;2.700251
5249.000000;2.701340
5248.000000;2.701812
5247.000000;2.701534
5246.000000;2.699700
5245.000000;2.697751
5244.000000;2.697824
5243.000000;2.698759
5242.000000;2.696791
5241.000000;2.690570
5240.000000;2.682855
5239.000000;2.677108
5238.000000;2.674489
5237.000000;2.674109
5236.000000;2.674989
5235.000000;2.677243
5234.000000;2.680850
5233.000000;2.683655
5232.000000;2.682948
5231.000000;2.679858
5230.000000;2.679686
5229.000000;2.686219
5228.000000;2.697168
5227.000000;2.706445
5226.000000;2.710444
5225.000000;2.710350
5224.000000;2.708193
5223.000000;2.703923
5222.000000;2.697437
5221.000000;2.690682
5220.000000;2.686178
5219.000000;2.684575
5218.000000;2.684541
5217.000000;2.684449
5216.000000;2.683652
5215.000000;2.682616
5214.000000;2.682254
5213.000000;2.683021
5212.000000;2.684689
5211.000000;2.686994
5210.000000;2.689886
5209.000000;2.692751
5208.000000;2.694431
5207.000000;2.694927
5206.000000;2.695859
5205.000000;2.697663
5204.000000;2.697838
5203.000000;2.694560
5202.000000;2.690542
5201.000000;2.690244
5200.000000;2.694055
5199.000000;2.697401
5198.000000;2.696122
5197.000000;2.691208
5196.000000;2.686952
5195.000000;2.686115
5194.000000;2.688005
5193.000000;2.690047
5192.000000;2.690587
5191.000000;2.690620
5190.000000;2.692278
5189.000000;2.694898
5188.000000;2.694097
5187.000000;2.687201
5186.000000;2.678352
5185.000000;2.674815
5184.000000;2.678870
5183.000000;2.685467
5182.000000;2.687892
5181.000000;2.684338
5180.000000;2.678036
5179.000000;2.673336
5178.000000;2.673135
5177.000000;2.677803
5176.000000;2.684693
5175.000000;2.689854
5174.000000;2.691673
5173.000000;2.691854
5172.000000;2.692265
5171.000000;2.692677
5170.000000;2.692311
5169.000000;2.691723
5168.000000;2.691846
5167.000000;2.692563
5166.000000;2.693279
5165.000000;2.693774
5164.000000;2.693915
5163.000000;2.693652
5162.000000;2.693659
5161.000000;2.694704
5160.000000;2.696131
5159.000000;2.696355
5158.000000;2.695057
5157.000000;2.693235
5156.000000;2.690802
5155.000000;2.686397
5154.000000;2.680560
5153.000000;2.676753
5152.000000;2.677649
5151.000000;2.681992
5150.000000;2.686322
5149.000000;2.688825
5148.000000;2.690255
5147.000000;2.691776
5146.000000;2.693765
5145.000000;2.696701
5144.000000;2.701413
5143.000000;2.707437
5142.000000;2.711981
5141.000000;2.712189
5140.000000;2.708880
5139.000000;2.706428
5138.000000;2.707718
5137.000000;2.710037
5136.000000;2.707908
5135.000000;2.700497
5134.000000;2.692789
5133.000000;2.688493
5132.000000;2.685895
5131.000000;2.682617
5130.000000;2.680926
5129.000000;2.684015
5128.000000;2.689585
5127.000000;2.691797
5126.000000;2.689158
5125.000000;2.685873
5124.000000;2.684807
5123.000000;2.683760
5122.000000;2.679898
5121.000000;2.674532
5120.000000;2.671151
5119.000000;2.671471
5118.000000;2.675436
5117.000000;2.682440
5116.000000;2.690781
5115.000000;2.697845
5114.000000;2.702201
5113.000000;2.704054
5112.000000;2.703479
5111.000000;2.700785
5110.000000;2.698458
5109.000000;2.699126
5108.000000;2.700967
5107.000000;2.698848
5106.000000;2.691921
5105.000000;2.685868
5104.000000;2.685230
5103.000000;2.687822
5102.000000;2.688822
5101.000000;2.687161
5100.000000;2.684738
5099.000000;2.681952
5098.000000;2.677961
5097.000000;2.673724
5096.000000;2.671227
5095.000000;2.670557
5094.000000;2.670550
5093.000000;2.671320
5092.000000;2.673507
5091.000000;2.675948
5090.000000;2.676475
5089.000000;2.674987
5088.000000;2.674079
5087.000000;2.676111
5086.000000;2.680770
5085.000000;2.685607
5084.000000;2.688103
5083.000000;2.687712
5082.000000;2.686467
5081.000000;2.686636
5080.000000;2.687756
5079.000000;2.687376
5078.000000;2.684931
5077.000000;2.682805
5076.000000;2.682801
5075.000000;2.683781
5074.000000;2.683846
5073.000000;2.682878
5072.000000;2.681492
5071.000000;2.679392
5070.000000;2.676301
5069.000000;2.672907
5068.000000;2.669717
5067.000000;2.666455
5066.000000;2.663540
5065.000000;2.662428
5064.000000;2.663323
5063.000000;2.664574
5062.000000;2.665668
5061.000000;2.668668
5060.000000;2.674950
5059.000000;2.682362
5058.000000;2.687612
5057.000000;2.689290
5056.000000;2.686578
5055.000000;2.678632
5054.000000;2.667771
5053.000000;2.660022
5052.000000;2.659582
5051.000000;2.664172
5050.000000;2.668061
5049.000000;2.668787
5048.000000;2.668169
5047.000000;2.667868
5046.000000;2.667199
5045.000000;2.664852
5044.000000;2.660658
5043.000000;2.655572
5042.000000;2.651268
5041.000000;2.649482
5040.000000;2.650494
5039.000000;2.652663
5038.000000;2.654454
5037.000000;2.655846
5036.000000;2.656561
5035.000000;2.654734
5034.000000;2.649634
5033.000000;2.644031
5032.000000;2.641210
5031.000000;2.640976
5030.000000;2.640733
5029.000000;2.639302
5028.000000;2.637572
5027.000000;2.636391
5026.000000;2.636142
5025.000000;2.637357
5024.000000;2.639362
5023.000000;2.639226
5022.000000;2.634567
5021.000000;2.626955
5020.000000;2.620391
5019.000000;2.616972
5018.000000;2.615785
5017.000000;2.615189
5016.000000;2.614096
5015.000000;2.611852
5014.000000;2.609036
5013.000000;2.607545
5012.000000;2.608117
5011.000000;2.608522
5010.000000;2.605989
5009.000000;2.600920
5008.000000;2.596197
5007.000000;2.593648
5006.000000;2.593279
5005.000000;2.594829
5004.000000;2.597482
5003.000000;2.598508
5002.000000;2.595127
5001.000000;2.588466
5000.000000;2.583302
4999.000000;2.582873
4998.000000;2.585508
4997.000000;2.586773
4996.000000;2.583971
4995.000000;2.578232
4994.000000;2.572771
4993.000000;2.569624
4992.000000;2.568110
4991.000000;2.566518
4990.000000;2.564832
4989.000000;2.564404
4988.000000;2.564914
4987.000000;2.563577
4986.000000;2.558442
4985.000000;2.550884
4984.000000;2.543432
4983.000000;2.537062
4982.000000;2.531995
4981.000000;2.528874
4980.000000;2.527156
4979.000000;2.524306
4978.000000;2.518877
4977.000000;2.512915
4976.000000;2.509020
4975.000000;2.506420
4974.000000;2.502457
4973.000000;2.496957
4972.000000;2.492399
4971.000000;2.490178
4970.000000;2.489257
4969.000000;2.488267
4968.000000;2.486686
4967.000000;2.484055
4966.000000;2.480022
4965.000000;2.475329
4964.000000;2.471301
4963.000000;2.468519
4962.000000;2.467222
4961.000000;2.467933
4960.000000;2.469774
4959.000000;2.469186
4958.000000;2.463109
4957.000000;2.453246
4956.000000;2.444199
4955.000000;2.437775
4954.000000;2.431896
4953.000000;2.424774
4952.000000;2.417418
4951.000000;2.411248
4950.000000;2.405809
4949.000000;2.400264
4948.000000;2.395318
4947.000000;2.392095
4946.000000;2.390213
4945.000000;2.388227
4944.000000;2.385374
4943.000000;2.381918
4942.000000;2.378199
4941.000000;2.374226
4940.000000;2.370105
4939.000000;2.366291
4938.000000;2.363229
4937.000000;2.360788
4936.000000;2.358199
4935.000000;2.354874
4934.000000;2.351273
4933.000000;2.348367
4932.000000;2.346068
4931.000000;2.342985
4930.000000;2.338098
4929.000000;2.331707
4928.000000;2.324299
4927.000000;2.315837
4926.000000;2.306996
4925.000000;2.299660
4924.000000;2.294917
4923.000000;2.291509
4922.000000;2.287492
4921.000000;2.282668
4920.000000;2.278077
4919.000000;2.273954
4918.000000;2.269757
4917.000000;2.265494
4916.000000;2.261414
4915.000000;2.256998
4914.000000;2.251924
4913.000000;2.247467
4912.000000;2.245031
4911.000000;2.243622
4910.000000;2.240743
4909.000000;2.235766
4908.000000;2.230357
4907.000000;2.225480
4906.000000;2.220361
4905.000000;2.214778
4904.000000;2.209983
4903.000000;2.206315
4902.000000;2.201931
4901.000000;2.195283
4900.000000;2.187408
4899.000000;2.180317
4898.000000;2.174337
4897.000000;2.168588
4896.000000;2.163173
4895.000000;2.159195
4894.000000;2.156760
4893.000000;2.154296
4892.000000;2.150168
4891.000000;2.144383
4890.000000;2.138360
4889.000000;2.133396
4888.000000;2.129683
4887.000000;2.126521
4886.000000;2.123158
4885.000000;2.119353
4884.000000;2.115210
4883.000000;2.110832
4882.000000;2.106456
4881.000000;2.102537
4880.000000;2.099066
4879.000000;2.095026
4878.000000;2.089363
4877.000000;2.082486
4876.000000;2.076049
4875.000000;2.071108
4874.000000;2.067182
4873.000000;2.063226
4872.000000;2.058840
4871.000000;2.054160
4870.000000;2.049210
4869.000000;2.043984
4868.000000;2.038786
4867.000000;2.033942
4866.000000;2.029274
4865.000000;2.024289
4864.000000;2.018873
4863.000000;2.013547
4862.000000;2.008959
4861.000000;2.005291
4860.000000;2.002161
4859.000000;1.999045
4858.000000;1.995720
4857.000000;1.992227
4856.000000;1.988486
4855.000000;1.984191
4854.000000;1.979217
4853.000000;1.973917
4852.000000;1.968856
4851.000000;1.964411
4850.000000;1.960663
4849.000000;1.957354
4848.000000;1.953852
4847.000000;1.949563
4846.000000;1.944627
4845.000000;1.939793
4844.000000;1.935394
4843.000000;1.930921
4842.000000;1.925980
4841.000000;1.921080
4840.000000;1.916847
4839.000000;1.912961
4838.000000;1.908652
4837.000000;1.903986
4836.000000;1.899775
4835.000000;1.896387
4834.000000;1.893413
4833.000000;1.890408
4832.000000;1.887204
4831.000000;1.883550
4830.000000;1.879327
4829.000000;1.875151
4828.000000;1.871863
4827.000000;1.869213
4826.000000;1.865932
4825.000000;1.861486
4824.000000;1.856899
4823.000000;1.853251
4822.000000;1.850114
4821.000000;1.846210
4820.000000;1.841170
4819.000000;1.835840
4818.000000;1.831010
4817.000000;1.826558
4816.000000;1.821929
4815.000000;1.816983
4814.000000;1.812138
4813.000000;1.807862
4812.000000;1.804173
4811.000000;1.800630
4810.000000;1.796771
4809.000000;1.792548
4808.000000;1.788230
4807.000000;1.783998
4806.000000;1.779905
4805.000000;1.776137
4804.000000;1.772935
4803.000000;1.770136
4802.000000;1.767165
4801.000000;1.763709
4800.000000;1.760116
4799.000000;1.756886
4798.000000;1.753981
4797.000000;1.750949
4796.000000;1.747596
4795.000000;1.744159
4794.000000;1.740794
4793.000000;1.737220
4792.000000;1.733068
4791.000000;1.728424
4790.000000;1.723861
4789.000000;1.719890
4788.000000;1.716509
4787.000000;1.713294
4786.000000;1.709832
4785.000000;1.705927
4784.000000;1.701520
4783.000000;1.696727
4782.000000;1.692015
4781.000000;1.687999
4780.000000;1.684834
4779.000000;1.681974
4778.000000;1.678795
4777.000000;1.675301
4776.000000;1.671960
4775.000000;1.668996
4774.000000;1.666223
4773.000000;1.663489
4772.000000;1.660883
4771.000000;1.658398
4770.000000;1.655732
4769.000000;1.652569
4768.000000;1.648894
4767.000000;1.644919
4766.000000;1.640844
4765.000000;1.636783
4764.000000;1.632802
4763.000000;1.628958
4762.000000;1.625347
4761.000000;1.622042
4760.000000;1.618934
4759.000000;1.615751
4758.000000;1.612406
4757.000000;1.609148
4756.000000;1.606155
4755.000000;1.603153
4754.000000;1.599760
4753.000000;1.596127
4752.000000;1.592819
4751.000000;1.590086
4750.000000;1.587602
4749.000000;1.584981
4748.000000;1.582180
4747.000000;1.579298
4746.000000;1.576312
4745.000000;1.573225
4744.000000;1.570211
4743.000000;1.567439
4742.000000;1.564880
4741.000000;1.562404
4740.000000;1.559871
4739.000000;1.557061
4738.000000;1.553746
4737.000000;1.549992
4736.000000;1.546197
4735.000000;1.542728
4734.000000;1.539653
4733.000000;1.536888
4732.000000;1.534369
4731.000000;1.531955
4730.000000;1.529389
4729.000000;1.526573
4728.000000;1.523716
4727.000000;1.521041
4726.000000;1.518472
4725.000000;1.515800
4724.000000;1.513057
4723.000000;1.510489
4722.000000;1.508196
4721.000000;1.505970
4720.000000;1.503540
4719.000000;1.500858
4718.000000;1.498084
4717.000000;1.495365
4716.000000;1.492691
4715.000000;1.489984
4714.000000;1.487275
4713.000000;1.484725
4712.000000;1.482436
4711.000000;1.480316
4710.000000;1.478173
4709.000000;1.475877
4708.000000;1.473370
4707.000000;1.470671
4706.000000;1.467975
4705.000000;1.465610
4704.000000;1.463645
4703.000000;1.461666
4702.000000;1.459188
4701.000000;1.456270
4700.000000;1.453453
4699.000000;1.451100
4698.000000;1.449084
4697.000000;1.447162
4696.000000;1.445304
4695.000000;1.443515
4694.000000;1.441590
4693.000000;1.439305
4692.000000;1.436723
4691.000000;1.434142
4690.000000;1.431829
4689.000000;1.429885
4688.000000;1.428247
4687.000000;1.426695
4686.000000;1.424992
4685.000000;1.423095
4684.000000;1.421132
4683.000000;1.419108
4682.000000;1.416855
4681.000000;1.414379
4680.000000;1.412053
4679.000000;1.410220
4678.000000;1.408739
4677.000000;1.407137
4676.000000;1.405131
4675.000000;1.402801
4674.000000;1.400338
4673.000000;1.397904
4672.000000;1.395708
4671.000000;1.393943
4670.000000;1.392553
4669.000000;1.391245
4668.000000;1.389809
4667.000000;1.388240
4666.000000;1.386512
4665.000000;1.384479
4664.000000;1.382185
4663.000000;1.380046
4662.000000;1.378447
4661.000000;1.377193
4660.000000;1.375678
4659.000000;1.373611
4658.000000;1.371331
4657.000000;1.369300
4656.000000;1.367600
4655.000000;1.366073
4654.000000;1.364705
4653.000000;1.363540
4652.000000;1.362356
4651.000000;1.360836
4650.000000;1.359032
4649.000000;1.357342
4648.000000;1.355956
4647.000000;1.354658
4646.000000;1.353266
4645.000000;1.351892
4644.000000;1.350598
4643.000000;1.349122
4642.000000;1.347282
4641.000000;1.345368
4640.000000;1.343796
4639.000000;1.342542
4638.000000;1.341255
4637.000000;1.339823
4636.000000;1.338434
4635.000000;1.337160
4634.000000;1.335846
4633.000000;1.334464
4632.000000;1.333205
4631.000000;1.332133
4630.000000;1.331009
4629.000000;1.329609
4628.000000;1.327992
4627.000000;1.326322
4626.000000;1.324637
4625.000000;1.322906
4624.000000;1.321194
4623.000000;1.319620
4622.000000;1.318243
4621.000000;1.317023
4620.000000;1.315849
4619.000000;1.314584
4618.000000;1.313196
4617.000000;1.311850
4616.000000;1.310734
4615.000000;1.309809
4614.000000;1.308862
4613.000000;1.307794
4612.000000;1.306698
4611.000000;1.305679
4610.000000;1.304771
4609.000000;1.304013
4608.000000;1.303381
4607.000000;1.302621
4606.000000;1.301407
4605.000000;1.299768
4604.000000;1.298139
4603.000000;1.296877
4602.000000;1.295888
4601.000000;1.294844
4600.000000;1.293599
4599.000000;1.292270
4598.000000;1.291051
4597.000000;1.290071
4596.000000;1.289340
4595.000000;1.288718
4594.000000;1.287970
4593.000000;1.286943
4592.000000;1.285648
4591.000000;1.284201
4590.000000;1.282788
4589.000000;1.281648
4588.000000;1.280895
4587.000000;1.280325
4586.000000;1.279587
4585.000000;1.278582
4584.000000;1.277509
4583.000000;1.276500
4582.000000;1.275448
4581.000000;1.274283
4580.000000;1.273175
4579.000000;1.272285
4578.000000;1.271528
4577.000000;1.270744
4576.000000;1.269943
4575.000000;1.269195
4574.000000;1.268465
4573.000000;1.267737
4572.000000;1.267165
4571.000000;1.266849
4570.000000;1.266606
4569.000000;1.266168
4568.000000;1.265528
4567.000000;1.264848
4566.000000;1.264101
4565.000000;1.263085
4564.000000;1.261799
4563.000000;1.260516
4562.000000;1.259429
4561.000000;1.258445
4560.000000;1.257427
4559.000000;1.256458
4558.000000;1.255703
4557.000000;1.255154
4556.000000;1.254652
4555.000000;1.254096
4554.000000;1.253471
4553.000000;1.252722
4552.000000;1.251760
4551.000000;1.250663
4550.000000;1.249745
4549.000000;1.249282
4548.000000;1.249189
4547.000000;1.249057
4546.000000;1.248555
4545.000000;1.247716
4544.000000;1.246805
4543.000000;1.246001
4542.000000;1.245329
4541.000000;1.244814
4540.000000;1.244518
4539.000000;1.244396
4538.000000;1.244251
4537.000000;1.243904
4536.000000;1.243322
4535.000000;1.242560
4534.000000;1.241683
4533.000000;1.240800
4532.000000;1.240067
4531.000000;1.239561
4530.000000;1.239212
4529.000000;1.238922
4528.000000;1.238705
4527.000000;1.238606
4526.000000;1.238566
4525.000000;1.238446
4524.000000;1.238200
4523.000000;1.237907
4522.000000;1.237624
4521.000000;1.237309
4520.000000;1.236928
4519.000000;1.236566
4518.000000;1.236350
4517.000000;1.236281
4516.000000;1.236211
4515.000000;1.236026
4514.000000;1.235766
4513.000000;1.235532
4512.000000;1.235311
4511.000000;1.235021
4510.000000;1.234688
4509.000000;1.234440
4508.000000;1.234295
4507.000000;1.234097
4506.000000;1.233775
4505.000000;1.233516
4504.000000;1.233550
4503.000000;1.233820
4502.000000;1.234058
4501.000000;1.234158
4500.000000;1.234314
4499.000000;1.234723
4498.000000;1.235294
4497.000000;1.235736
4496.000000;1.235902
4495.000000;1.235950
4494.000000;1.236169
4493.000000;1.236685
4492.000000;1.237380
4491.000000;1.238051
4490.000000;1.238549
4489.000000;1.238767
4488.000000;1.238617
4487.000000;1.238177
4486.000000;1.237757
4485.000000;1.237641
4484.000000;1.237744
4483.000000;1.237733
4482.000000;1.237500
4481.000000;1.237313
4480.000000;1.237418
4479.000000;1.237746
4478.000000;1.238132
4477.000000;1.238588
4476.000000;1.239160
4475.000000;1.239706
4474.000000;1.240066
4473.000000;1.240338
4472.000000;1.240754
4471.000000;1.241373
4470.000000;1.242105
4469.000000;1.242923
4468.000000;1.243841
4467.000000;1.244743
4466.000000;1.245481
4465.000000;1.246083
4464.000000;1.246660
4463.000000;1.247189
4462.000000;1.247582
4461.000000;1.247928
4460.000000;1.248418
4459.000000;1.249087
4458.000000;1.249791
4457.000000;1.250404
4456.000000;1.250870
4455.000000;1.251162
4454.000000;1.251385
4453.000000;1.251803
4452.000000;1.252555
4451.000000;1.253445
4450.000000;1.254249
4449.000000;1.255057
4448.000000;1.256004
4447.000000;1.256840
4446.000000;1.257238
4445.000000;1.257433
4444.000000;1.258033
4443.000000;1.259160
4442.000000;1.260271
4441.000000;1.261026
4440.000000;1.261811
4439.000000;1.263112
4438.000000;1.264753
4437.000000;1.266152
4436.000000;1.267098
4435.000000;1.267942
4434.000000;1.269114
4433.000000;1.270737
4432.000000;1.272618
4431.000000;1.274361
4430.000000;1.275535
4429.000000;1.275969
4428.000000;1.275938
4427.000000;1.275929
4426.000000;1.276263
4425.000000;1.276986
4424.000000;1.278050
4423.000000;1.279399
4422.000000;1.280915
4421.000000;1.282428
4420.000000;1.283883
4419.000000;1.285406
4418.000000;1.287102
4417.000000;1.288810
4416.000000;1.290189
4415.000000;1.291142
4414.000000;1.292009
4413.000000;1.293164
4412.000000;1.294477
4411.000000;1.295464
4410.000000;1.296011
4409.000000;1.296591
4408.000000;1.297605
4407.000000;1.298858
4406.000000;1.300008
4405.000000;1.301224
4404.000000;1.302927
4403.000000;1.305044
4402.000000;1.306999
4401.000000;1.308470
4400.000000;1.309723
4399.000000;1.311026
4398.000000;1.312163
4397.000000;1.312816
4396.000000;1.313174
4395.000000;1.313838
4394.000000;1.315106
4393.000000;1.316615
4392.000000;1.317819
4391.000000;1.318693
4390.000000;1.319740
4389.000000;1.321258
4388.000000;1.322871
4387.000000;1.324098
4386.000000;1.325183
4385.000000;1.326832
4384.000000;1.329108
4383.000000;1.331199
4382.000000;1.332551
4381.000000;1.333666
4380.000000;1.335253
4379.000000;1.337113
4378.000000;1.338501
4377.000000;1.339281
4376.000000;1.340045
4375.000000;1.341197
4374.000000;1.342543
4373.000000;1.343767
4372.000000;1.344767
4371.000000;1.345550
4370.000000;1.346264
4369.000000;1.347277
4368.000000;1.348736
4367.000000;1.350088
4366.000000;1.350609
4365.000000;1.350456
4364.000000;1.350674
4363.000000;1.352061
4362.000000;1.354484
4361.000000;1.357324
4360.000000;1.360095
4359.000000;1.362462
4358.000000;1.364203
4357.000000;1.365513
4356.000000;1.367004
4355.000000;1.369066
4354.000000;1.371363
4353.000000;1.373147
4352.000000;1.374017
4351.000000;1.374262
4350.000000;1.374546
4349.000000;1.375327
4348.000000;1.376565
4347.000000;1.377934
4346.000000;1.379237
4345.000000;1.380452
4344.000000;1.381572
4343.000000;1.382773
4342.000000;1.384695
4341.000000;1.387880
4340.000000;1.391711
4339.000000;1.394561
4338.000000;1.395469
4337.000000;1.395227
4336.000000;1.395386
4335.000000;1.396730
4334.000000;1.399094
4333.000000;1.401961
4332.000000;1.404603
4331.000000;1.406290
4330.000000;1.407072
4329.000000;1.407894
4328.000000;1.409339
4327.000000;1.410865
4326.000000;1.411899
4325.000000;1.412911
4324.000000;1.414518
4323.000000;1.416386
4322.000000;1.418134
4321.000000;1.420448
4320.000000;1.423844
4319.000000;1.426951
4318.000000;1.427766
4317.000000;1.426420
4316.000000;1.424953
4315.000000;1.424601
4314.000000;1.424975
4313.000000;1.425712
4312.000000;1.427102
4311.000000;1.428756
4310.000000;1.429370
4309.000000;1.428535
4308.000000;1.427571
4307.000000;1.427878
4306.000000;1.429504
4305.000000;1.431781
4304.000000;1.434437
4303.000000;1.437653
4302.000000;1.441552
4301.000000;1.445766
4300.000000;1.449097
4299.000000;1.450027
4298.000000;1.448437
4297.000000;1.446294
4296.000000;1.445521
4295.000000;1.445858
4294.000000;1.446136
4293.000000;1.446869
4292.000000;1.449619
4291.000000;1.454073
4290.000000;1.457737
4289.000000;1.458873
4288.000000;1.458122
4287.000000;1.456913
4286.000000;1.456107
4285.000000;1.456461
4284.000000;1.458381
4283.000000;1.460750
4282.000000;1.461867
4281.000000;1.461801
4280.000000;1.461943
4279.000000;1.462407
4278.000000;1.462324
4277.000000;1.462595
4276.000000;1.465401
4275.000000;1.470370
4274.000000;1.474093
4273.000000;1.474906
4272.000000;1.475126
4271.000000;1.476646
4270.000000;1.477753
4269.000000;1.476608
4268.000000;1.474568
4267.000000;1.473065
4266.000000;1.470188
4265.000000;1.464141
4264.000000;1.458081
4263.000000;1.457065
4262.000000;1.460968
4261.000000;1.463958
4260.000000;1.461679
4259.000000;1.455895
4258.000000;1.450742
4257.000000;1.447808
4256.000000;1.446590
4255.000000;1.447556
4254.000000;1.451489
4253.000000;1.455922
4252.000000;1.455350
4251.000000;1.447243
4250.000000;1.436213
4249.000000;1.429065
4248.000000;1.427448
4247.000000;1.427817
4246.000000;1.427845
4245.000000;1.429040
4244.000000;1.431659
4243.000000;1.431484
4242.000000;1.425710
4241.000000;1.418763
4240.000000;1.416247
4239.000000;1.416254
4238.000000;1.412264
4237.000000;1.404278
4236.000000;1.399494
4235.000000;1.401101
4234.000000;1.404114
4233.000000;1.403607
4232.000000;1.401361
4231.000000;1.399989
4230.000000;1.396769
4229.000000;1.388960
4228.000000;1.379505
4227.000000;1.371588
4226.000000;1.362922
4225.000000;1.350908
4224.000000;1.338620
4223.000000;1.329307
4222.000000;1.318785
4221.000000;1.300508
4220.000000;1.276489
4219.000000;1.254907
4218.000000;1.238286
4217.000000;1.222036
4216.000000;1.203276
4215.000000;1.184069
4214.000000;1.164887
4213.000000;1.141615
4212.000000;1.112528
4211.000000;1.083437
4210.000000;1.061419
4209.000000;1.045861
4208.000000;1.028384
4207.000000;1.002632
4206.000000;0.971416
4205.000000;0.939830
4204.000000;0.905412
4203.000000;0.859934
4202.000000;0.801612
4201.000000;0.737920
4200.000000;0.678958
4199.000000;0.636444
4198.000000;0.623655
4197.000000;0.650101
4196.000000;0.711886
4195.000000;0.786332
4194.000000;0.852285
4193.000000;0.912127
4192.000000;0.978551
4191.000000;1.051739
4190.000000;1.118480
4189.000000;1.172963
4188.000000;1.225278
4187.000000;1.280039
4186.000000;1.323898
4185.000000;1.346293
4184.000000;1.358869
4183.000000;1.378854
4182.000000;1.408841
4181.000000;1.441118
4180.000000;1.473302
4179.000000;1.509025
4178.000000;1.544458
4177.000000;1.568870
4176.000000;1.582075
4175.000000;1.595746
4174.000000;1.616402
4173.000000;1.639542
4172.000000;1.658257
4171.000000;1.672542
4170.000000;1.688517
4169.000000;1.709171
4168.000000;1.732288
4167.000000;1.758268
4166.000000;1.793067
4165.000000;1.836994
4164.000000;1.875467
4163.000000;1.892237
4162.000000;1.891651
4161.000000;1.890687
4160.000000;1.895972
4159.000000;1.907536
4158.000000;1.933737
4157.000000;1.984873
4156.000000;2.050568
4155.000000;2.082892
4154.000000;2.052141
4153.000000;1.999431
4152.000000;1.971155
4151.000000;1.977028
4150.000000;1.997490
4149.000000;2.010816
4148.000000;2.014968
4147.000000;2.018676
4146.000000;2.029434
4145.000000;2.057314
4144.000000;2.110404
4143.000000;2.175721
4142.000000;2.217967
4141.000000;2.220004
4140.000000;2.211508
4139.000000;2.233406
4138.000000;2.291206
4137.000000;2.337320
4136.000000;2.330453
4135.000000;2.307990
4134.000000;2.298352
4133.000000;2.294760
4132.000000;2.287331
4131.000000;2.287825
4130.000000;2.323532
4129.000000;2.394521
4128.000000;2.449874
4127.000000;2.429779
4126.000000;2.354857
4125.000000;2.286258
4124.000000;2.259326
4123.000000;2.270596
4122.000000;2.299530
4121.000000;2.351614
4120.000000;2.446425
4119.000000;2.569326
4118.000000;2.672831
4117.000000;2.719146
4116.000000;2.714741
4115.000000;2.702426
4114.000000;2.661956
4113.000000;2.572596
4112.000000;2.498430
4111.000000;2.470293
4110.000000;2.464910
4109.000000;2.459786
4108.000000;2.461486
4107.000000;2.482107
4106.000000;2.510723
4105.000000;2.524135
4104.000000;2.514132
4103.000000;2.496306
4102.000000;2.480038
4101.000000;2.448702
4100.000000;2.405713
4099.000000;2.386595
4098.000000;2.417286
4097.000000;2.496539
4096.000000;2.592245
4095.000000;2.658438
4094.000000;2.677253
4093.000000;2.671916
4092.000000;2.680449
4091.000000;2.705685
4090.000000;2.699421
4089.000000;2.646075
4088.000000;2.588021
4087.000000;2.542734
4086.000000;2.508200
4085.000000;2.488476
4084.000000;2.487272
4083.000000;2.501680
4082.000000;2.527812
4081.000000;2.566663
4080.000000;2.619702
4079.000000;2.669071
4078.000000;2.678366
4077.000000;2.638747
4076.000000;2.589917
4075.000000;2.578260
4074.000000;2.625503
4073.000000;2.729974
4072.000000;2.864411
4071.000000;2.968812
4070.000000;2.994273
4069.000000;2.959380
4068.000000;2.899114
4067.000000;2.827481
4066.000000;2.765218
4065.000000;2.735261
4064.000000;2.734356
4063.000000;2.736956
4062.000000;2.726457
4061.000000;2.706458
4060.000000;2.681593
4059.000000;2.659114
4058.000000;2.662465
4057.000000;2.721848
4056.000000;2.840823
4055.000000;2.944180
4054.000000;2.922151
4053.000000;2.830021
4052.000000;2.766340
4051.000000;2.745678
4050.000000;2.748058
4049.000000;2.758406
4048.000000;2.776529
4047.000000;2.801410
4046.000000;2.826379
4045.000000;2.863719
4044.000000;2.927899
4043.000000;2.990974
4042.000000;3.014175
4041.000000;3.027413
4040.000000;3.082231
4039.000000;3.156878
4038.000000;3.171561
4037.000000;3.099605
4036.000000;3.048991
4035.000000;3.090504
4034.000000;3.204974
4033.000000;3.326801
4032.000000;3.383801
4031.000000;3.381202
4030.000000;3.293833
4029.000000;3.122658
4028.000000;2.966752
4027.000000;2.865492
4026.000000;2.800390
4025.000000;2.742093
4024.000000;2.684824
4023.000000;2.655413
4022.000000;2.679875
4021.000000;2.758733
4020.000000;2.861861
4019.000000;2.937618
4018.000000;2.960030
4017.000000;2.960773
4016.000000;2.971098
4015.000000;2.956691
4014.000000;2.890933
4013.000000;2.823484
4012.000000;2.796021
4011.000000;2.808817
4010.000000;2.847448
4009.000000;2.920248
4008.000000;3.053123
4007.000000;3.255308
4006.000000;3.497726
4005.000000;3.707222
4004.000000;3.738892
4003.000000;3.680859
4002.000000;3.945682
4001.000000;3.720133
4000.000000;3.207823
3999.000000;3.002228
3998.000000;2.905276
3997.000000;2.908288
3996.000000;3.020748
3995.000000;3.279336
3994.000000;3.379627
3993.000000;3.254149
3992.000000;3.375868
3991.000000;3.590186
3990.000000;3.411669
3989.000000;3.365957
3988.000000;3.348934
3987.000000;3.150063
3986.000000;3.011997
3985.000000;2.968791
3984.000000;3.000839
3983.000000;3.039654
3982.000000;2.961715
3981.000000;2.872523
3980.000000;2.831026
3979.000000;2.800216
3978.000000;2.790902
3977.000000;2.827221
3976.000000;2.899592
3975.000000;2.967759
3974.000000;2.970313
3973.000000;2.926208
3972.000000;2.916642
3971.000000;2.951675
3970.000000;2.991652
3969.000000;3.008789
3968.000000;3.029444
3967.000000;3.117311
3966.000000;3.249302
3965.000000;3.201688
3964.000000;3.127836
3963.000000;3.188618
3962.000000;3.313380
3961.000000;3.434989
3960.000000;3.387895
3959.000000;3.258500
3958.000000;3.196985
3957.000000;3.196000
3956.000000;3.228825
3955.000000;3.403762
3954.000000;3.902093
3953.000000;3.526787
3952.000000;3.297169
3951.000000;3.277921
3950.000000;3.352741
3949.000000;3.395631
3948.000000;3.295491
3947.000000;3.177545
3946.000000;3.091498
3945.000000;3.022478
3944.000000;2.975346
3943.000000;2.973840
3942.000000;3.028505
3941.000000;3.134973
3940.000000;3.263799
3939.000000;3.305643
3938.000000;3.185163
3937.000000;3.020320
3936.000000;2.904019
3935.000000;2.870634
3934.000000;2.936480
3933.000000;3.116085
3932.000000;3.407917
3931.000000;3.549750
3930.000000;3.522562
3929.000000;3.555661
3928.000000;3.603294
3927.000000;3.664288
3926.000000;3.973929
3925.000000;4.046021
3924.000000;3.475515
3923.000000;3.252261
3922.000000;3.140320
3921.000000;3.121585
3920.000000;3.182267
3919.000000;3.248505
3918.000000;3.226823
3917.000000;3.150126
3916.000000;3.122714
3915.000000;3.151763
3914.000000;3.198635
3913.000000;3.218009
3912.000000;3.178799
3911.000000;3.104017
3910.000000;3.032543
3909.000000;2.983503
3908.000000;2.956286
3907.000000;2.961701
3906.000000;3.044394
3905.000000;3.229233
3904.000000;3.388995
3903.000000;3.344617
3902.000000;3.274894
3901.000000;3.286695
3900.000000;3.373890
3899.000000;3.485601
3898.000000;3.579567
3897.000000;3.644518
3896.000000;3.632144
3895.000000;3.523387
3894.000000;3.378689
3893.000000;3.245758
3892.000000;3.166337
3891.000000;3.159875
3890.000000;3.207064
3889.000000;3.225726
3888.000000;3.205650
3887.000000;3.233154
3886.000000;3.294785
3885.000000;3.341337
3884.000000;3.404400
3883.000000;3.651857
3882.000000;4.027681
3881.000000;3.824046
3880.000000;3.736188
3879.000000;3.760708
3878.000000;3.719511
3877.000000;3.518979
3876.000000;3.448620
3875.000000;3.468999
3874.000000;3.427920
3873.000000;3.352095
3872.000000;3.327364
3871.000000;3.389533
3870.000000;3.470555
3869.000000;3.521528
3868.000000;3.564214
3867.000000;3.903409
3866.000000;4.646013
3865.000000;3.920590
3864.000000;3.707420
3863.000000;3.492116
3862.000000;3.401585
3861.000000;3.557231
3860.000000;3.954063
3859.000000;3.782178
3858.000000;3.473145
3857.000000;3.355999
3856.000000;3.368061
3855.000000;3.523323
3854.000000;3.735889
3853.000000;3.799234
3852.000000;3.674477
3851.000000;3.331716
3850.000000;3.227977
3849.000000;3.423781
3848.000000;3.646981
3847.000000;3.722193
3846.000000;3.570869
3845.000000;3.410620
3844.000000;3.471525
3843.000000;3.743270
3842.000000;3.960260
3841.000000;3.956137
3840.000000;3.646550
3839.000000;3.646573
3838.000000;3.918026
3837.000000;4.160155
3836.000000;3.861782
3835.000000;3.571806
3834.000000;3.446423
3833.000000;3.515691
3832.000000;3.675974
3831.000000;3.791958
3830.000000;3.860243
3829.000000;3.619652
3828.000000;3.355280
3827.000000;3.212249
3826.000000;3.101923
3825.000000;3.017885
3824.000000;3.024866
3823.000000;3.212209
3822.000000;3.563560
3821.000000;3.592490
3820.000000;3.459806
3819.000000;3.436449
3818.000000;3.438410
3817.000000;3.507638
3816.000000;3.626677
3815.000000;3.466700
3814.000000;3.228329
3813.000000;3.186929
3812.000000;3.313217
3811.000000;3.328554
3810.000000;3.263971
3809.000000;3.154143
3808.000000;3.073497
3807.000000;3.062617
3806.000000;3.124744
3805.000000;3.338467
3804.000000;3.470659
3803.000000;3.400040
3802.000000;3.455311
3801.000000;3.378999
3800.000000;3.126254
3799.000000;2.912310
3798.000000;2.973734
3797.000000;3.276226
3796.000000;3.394509
3795.000000;3.283478
3794.000000;3.189871
3793.000000;3.274771
3792.000000;3.576135
3791.000000;3.872618
3790.000000;3.850852
3789.000000;3.747528
3788.000000;3.502075
3787.000000;3.320927
3786.000000;3.302377
3785.000000;3.372428
3784.000000;3.321285
3783.000000;3.158637
3782.000000;3.124043
3781.000000;3.247451
3780.000000;3.313456
3779.000000;3.231507
3778.000000;3.296861
3777.000000;3.651495
3776.000000;3.535406
3775.000000;3.392022
3774.000000;3.459473
3773.000000;3.301692
3772.000000;3.075194
3771.000000;2.971604
3770.000000;2.978408
3769.000000;3.134160
3768.000000;3.661850
3767.000000;3.494168
3766.000000;3.280171
3765.000000;3.373268
3764.000000;3.490192
3763.000000;3.741508
3762.000000;3.765619
3761.000000;3.684531
3760.000000;3.628181
3759.000000;3.246637
3758.000000;3.041480
3757.000000;3.056759
3756.000000;3.224197
3755.000000;3.653195
3754.000000;3.727259
3753.000000;3.306052
3752.000000;3.179874
3751.000000;3.134044
3750.000000;3.151035
3749.000000;3.254384
3748.000000;3.251557
3747.000000;3.211637
3746.000000;3.334303
3745.000000;3.559675
3744.000000;3.723135
3743.000000;3.770521
3742.000000;3.643323
3741.000000;3.510073
3740.000000;3.492637
3739.000000;3.467293
3738.000000;3.384997
3737.000000;3.396903
3736.000000;3.700950
3735.000000;4.029119
3734.000000;3.745066
3733.000000;3.710757
3732.000000;3.721654
3731.000000;3.702105
3730.000000;3.704646
3729.000000;3.769915
3728.000000;3.813092
3727.000000;4.005685
3726.000000;4.111899
3725.000000;3.785444
3724.000000;3.654406
3723.000000;3.659914
3722.000000;3.743486
3721.000000;3.846625
3720.000000;3.778582
3719.000000;3.658148
3718.000000;3.747441
3717.000000;3.822941
3716.000000;3.599149
3715.000000;3.389630
3714.000000;3.281490
3713.000000;3.310216
3712.000000;3.440922
3711.000000;3.655119
3710.000000;4.065872
3709.000000;4.560367
3708.000000;4.306092
3707.000000;3.811754
3706.000000;3.536840
3705.000000;3.449776
3704.000000;3.376374
3703.000000;3.289919
3702.000000;3.305504
3701.000000;3.486392
3700.000000;3.682768
3699.000000;3.677837
3698.000000;3.915069
3697.000000;4.174768
3696.000000;3.931915
3695.000000;3.606044
3694.000000;3.292395
3693.000000;3.227549
3692.000000;3.267153
3691.000000;3.274311
3690.000000;3.377935
3689.000000;3.527107
3688.000000;3.272422
3687.000000;3.288856
3686.000000;3.688210
3685.000000;3.360656
3684.000000;3.231367
3683.000000;3.213712
3682.000000;3.114464
3681.000000;3.065193
3680.000000;3.068867
3679.000000;3.063262
3678.000000;3.075575
3677.000000;3.135343
3676.000000;3.191260
3675.000000;3.275226
3674.000000;3.443696
3673.000000;3.561255
3672.000000;3.482144
3671.000000;3.491339
3670.000000;3.533944
3669.000000;3.452702
3668.000000;3.371200
3667.000000;3.366578
3666.000000;3.361807
3665.000000;3.335970
3664.000000;3.262613
3663.000000;3.159057
3662.000000;3.135230
3661.000000;3.411232
3660.000000;3.640241
3659.000000;3.243721
3658.000000;3.138998
3657.000000;3.257632
3656.000000;3.477339
3655.000000;3.283454
3654.000000;3.051336
3653.000000;3.055895
3652.000000;3.256247
3651.000000;3.619529
3650.000000;3.652512
3649.000000;3.351498
3648.000000;3.217396
3647.000000;3.262540
3646.000000;3.435170
3645.000000;3.647686
3644.000000;3.883882
3643.000000;3.791752
3642.000000;3.411612
3641.000000;3.151956
3640.000000;2.978985
3639.000000;2.901013
3638.000000;2.908669
3637.000000;2.964667
3636.000000;3.031386
3635.000000;3.171561
3634.000000;3.607896
3633.000000;3.874675
3632.000000;3.804891
3631.000000;3.735863
3630.000000;3.451628
3629.000000;3.460040
3628.000000;3.583059
3627.000000;3.752338
3626.000000;4.114153
3625.000000;4.837215
3624.000000;4.277384
3623.000000;3.625720
3622.000000;3.256079
3621.000000;3.150820
3620.000000;3.318846
3619.000000;3.521311
3618.000000;3.491839
3617.000000;3.481143
3616.000000;3.509271
3615.000000;3.609294
3614.000000;3.730048
3613.000000;3.707494
3612.000000;3.565120
3611.000000;3.422196
3610.000000;3.361293
3609.000000;3.398030
3608.000000;3.482950
3607.000000;3.534504
3606.000000;3.510802
3605.000000;3.437176
3604.000000;3.334998
3603.000000;3.226253
3602.000000;3.128973
3601.000000;3.080650
3600.000000;3.072381
3599.000000;3.193561
3598.000000;3.430140
3597.000000;3.496291
3596.000000;3.663839
3595.000000;3.396668
3594.000000;3.112390
3593.000000;3.098280
3592.000000;3.122459
3591.000000;3.108660
3590.000000;3.121732
3589.000000;3.204322
3588.000000;3.312920
3587.000000;3.409379
3586.000000;3.516621
3585.000000;3.560553
3584.000000;3.507474
3583.000000;3.371930
3582.000000;3.181225
3581.000000;3.007346
3580.000000;2.937224
3579.000000;3.020138
3578.000000;3.201851
3577.000000;3.161768
3576.000000;2.965673
3575.000000;2.862188
3574.000000;2.856772
3573.000000;2.908789
3572.000000;2.966649
3571.000000;3.244709
3570.000000;3.599183
3569.000000;3.316473
3568.000000;3.305328
3567.000000;3.322336
3566.000000;3.305248
3565.000000;3.388029
3564.000000;3.482659
3563.000000;3.501130
3562.000000;3.431111
3561.000000;3.330645
3560.000000;3.186606
3559.000000;3.084102
3558.000000;3.049719
3557.000000;3.036262
3556.000000;3.074312
3555.000000;3.159898
3554.000000;3.146059
3553.000000;3.126018
3552.000000;3.183247
3551.000000;3.311001
3550.000000;3.719137
3549.000000;3.664484
3548.000000;3.233462
3547.000000;3.036811
3546.000000;2.903346
3545.000000;2.896582
3544.000000;3.055669
3543.000000;3.314958
3542.000000;3.363027
3541.000000;3.295289
3540.000000;3.787288
3539.000000;3.786352
3538.000000;3.139752
3537.000000;2.932718
3536.000000;2.784615
3535.000000;2.720716
3534.000000;2.741618
3533.000000;2.847009
3532.000000;2.930959
3531.000000;2.796413
3530.000000;2.655172
3529.000000;2.590143
3528.000000;2.586216
3527.000000;2.640089
3526.000000;2.755118
3525.000000;2.871784
3524.000000;2.881310
3523.000000;2.842702
3522.000000;2.809857
3521.000000;2.776373
3520.000000;2.750459
3519.000000;2.735775
3518.000000;2.717551
3517.000000;2.693422
3516.000000;2.693811
3515.000000;2.725801
3514.000000;2.755745
3513.000000;2.768174
3512.000000;2.788800
3511.000000;2.817805
3510.000000;2.889083
3509.000000;2.978100
3508.000000;2.930978
3507.000000;2.854129
3506.000000;2.868071
3505.000000;2.995848
3504.000000;3.175615
3503.000000;3.175766
3502.000000;3.089502
3501.000000;3.095960
3500.000000;3.188159
3499.000000;3.244226
3498.000000;3.229677
3497.000000;3.290684
3496.000000;3.342969
3495.000000;3.471429
3494.000000;3.874014
3493.000000;4.034665
3492.000000;4.027478
3491.000000;3.566631
3490.000000;3.237845
3489.000000;3.191669
3488.000000;3.272831
3487.000000;3.235912
3486.000000;3.070063
3485.000000;3.139066
3484.000000;3.538502
3483.000000;3.101470
3482.000000;2.774961
3481.000000;2.691572
3480.000000;2.700351
3479.000000;2.783876
3478.000000;3.039956
3477.000000;3.606836
3476.000000;3.245658
3475.000000;3.195530
3474.000000;3.235956
3473.000000;2.914160
3472.000000;2.820884
3471.000000;2.866653
3470.000000;2.924740
3469.000000;3.026187
3468.000000;3.317139
3467.000000;3.373211
3466.000000;3.137313
3465.000000;3.418571
3464.000000;3.696829
3463.000000;3.107420
3462.000000;2.969095
3461.000000;3.012108
3460.000000;3.082688
3459.000000;3.028828
3458.000000;2.977101
3457.000000;3.072559
3456.000000;3.182271
3455.000000;3.334360
3454.000000;3.554366
3453.000000;3.506320
3452.000000;3.638421
3451.000000;3.586051
3450.000000;3.135612
3449.000000;3.183487
3448.000000;4.023923
3447.000000;3.497078
3446.000000;3.418485
3445.000000;3.982211
3444.000000;4.091206
3443.000000;4.492830
3442.000000;3.684651
3441.000000;3.539972
3440.000000;3.497293
3439.000000;3.290797
3438.000000;3.381514
3437.000000;3.566751
3436.000000;3.154413
3435.000000;2.893196
3434.000000;2.800446
3433.000000;2.832363
3432.000000;3.018826
3431.000000;3.354317
3430.000000;3.511263
3429.000000;3.146828
3428.000000;2.853033
3427.000000;2.735327
3426.000000;2.748091
3425.000000;2.841763
3424.000000;2.972539
3423.000000;3.240419
3422.000000;3.486623
3421.000000;3.085938
3420.000000;2.900949
3419.000000;2.836698
3418.000000;2.736358
3417.000000;2.684889
3416.000000;2.745800
3415.000000;2.902890
3414.000000;3.038188
3413.000000;3.098334
3412.000000;3.213794
3411.000000;3.402531
3410.000000;3.389492
3409.000000;3.170508
3408.000000;2.976541
3407.000000;2.868352
3406.000000;2.837478
3405.000000;2.891407
3404.000000;3.016222
3403.000000;3.340446
3402.000000;3.647903
3401.000000;3.122370
3400.000000;2.868933
3399.000000;2.821257
3398.000000;2.861466
3397.000000;2.819850
3396.000000;2.722137
3395.000000;2.721654
3394.000000;2.816762
3393.000000;2.941569
3392.000000;2.964131
3391.000000;2.842013
3390.000000;2.711199
3389.000000;2.651970
3388.000000;2.691022
3387.000000;2.823303
3386.000000;2.912430
3385.000000;2.857924
3384.000000;2.783571
3383.000000;2.741299
3382.000000;2.771059
3381.000000;2.936333
3380.000000;3.266171
3379.000000;3.368860
3378.000000;3.161217
3377.000000;3.069634
3376.000000;3.081831
3375.000000;3.119752
3374.000000;3.074238
3373.000000;2.987758
3372.000000;2.944059
3371.000000;2.930527
3370.000000;2.903101
3369.000000;2.865521
3368.000000;2.851958
3367.000000;2.878233
3366.000000;2.978182
3365.000000;3.110845
3364.000000;3.012365
3363.000000;2.852439
3362.000000;2.824533
3361.000000;2.948573
3360.000000;3.271257
3359.000000;3.400414
3358.000000;3.381502
3357.000000;3.467301
3356.000000;3.189830
3355.000000;3.111749
3354.000000;3.214990
3353.000000;3.401238
3352.000000;3.375800
3351.000000;3.056743
3350.000000;2.867748
3349.000000;2.823156
3348.000000;2.781252
3347.000000;2.708940
3346.000000;2.685328
3345.000000;2.785944
3344.000000;3.097267
3343.000000;3.008075
3342.000000;2.761132
3341.000000;2.750696
3340.000000;2.799406
3339.000000;2.732322
3338.000000;2.652559
3337.000000;2.690339
3336.000000;2.813827
3335.000000;2.862889
3334.000000;2.867110
3333.000000;2.957230
3332.000000;3.053268
3331.000000;3.008862
3330.000000;2.878706
3329.000000;2.763611
3328.000000;2.702912
3327.000000;2.730806
3326.000000;2.822712
3325.000000;2.887974
3324.000000;2.820531
3323.000000;2.671540
3322.000000;2.595554
3321.000000;2.602176
3320.000000;2.654209
3319.000000;2.731981
3318.000000;2.724588
3317.000000;2.626251
3316.000000;2.535557
3315.000000;2.481496
3314.000000;2.509389
3313.000000;2.691338
3312.000000;2.857351
3311.000000;2.699858
3310.000000;2.614043
3309.000000;2.605139
3308.000000;2.581038
3307.000000;2.584713
3306.000000;2.699282
3305.000000;2.801203
3304.000000;2.617361
3303.000000;2.486162
3302.000000;2.486613
3301.000000;2.575583
3300.000000;2.719068
3299.000000;2.849171
3298.000000;2.890718
3297.000000;2.868994
3296.000000;2.893906
3295.000000;3.008776
3294.000000;3.310637
3293.000000;3.321270
3292.000000;3.250084
3291.000000;3.820155
3290.000000;3.262542
3289.000000;2.919322
3288.000000;2.903030
3287.000000;2.987930
3286.000000;2.961003
3285.000000;2.712783
3284.000000;2.575805
3283.000000;2.563403
3282.000000;2.762245
3281.000000;3.155792
3280.000000;2.818994
3279.000000;2.688759
3278.000000;2.963326
3277.000000;3.280454
3276.000000;2.800679
3275.000000;2.697691
3274.000000;2.751696
3273.000000;2.930163
3272.000000;3.092128
3271.000000;3.143688
3270.000000;3.423764
3269.000000;3.016454
3268.000000;2.798070
3267.000000;2.874386
3266.000000;3.177801
3265.000000;3.458810
3264.000000;3.054634
3263.000000;2.914718
3262.000000;3.084733
3261.000000;3.081209
3260.000000;2.916930
3259.000000;2.955231
3258.000000;3.215531
3257.000000;3.725244
3256.000000;3.583871
3255.000000;3.290165
3254.000000;3.352986
3253.000000;3.707377
3252.000000;3.515507
3251.000000;3.399236
3250.000000;3.372561
3249.000000;3.199480
3248.000000;3.022844
3247.000000;2.970768
3246.000000;3.042661
3245.000000;3.122766
3244.000000;3.070087
3243.000000;2.879732
3242.000000;2.713241
3241.000000;2.654958
3240.000000;2.675630
3239.000000;2.747170
3238.000000;2.841219
3237.000000;2.844780
3236.000000;2.836916
3235.000000;2.825127
3234.000000;2.739538
3233.000000;2.682771
3232.000000;2.679715
3231.000000;2.697978
3230.000000;2.697366
3229.000000;2.651194
3228.000000;2.579014
3227.000000;2.526650
3226.000000;2.522762
3225.000000;2.526638
3224.000000;2.503151
3223.000000;2.473603
3222.000000;2.450816
3221.000000;2.442528
3220.000000;2.482325
3219.000000;2.575073
3218.000000;2.699230
3217.000000;2.984764
3216.000000;2.885131
3215.000000;2.537831
3214.000000;2.436714
3213.000000;2.472090
3212.000000;2.639835
3211.000000;2.906698
3210.000000;3.073504
3209.000000;3.056778
3208.000000;2.906984
3207.000000;2.734678
3206.000000;2.649762
3205.000000;2.680036
3204.000000;2.789114
3203.000000;2.869346
3202.000000;2.802650
3201.000000;2.732101
3200.000000;2.814977
3199.000000;3.041316
3198.000000;3.090947
3197.000000;2.915796
3196.000000;2.788429
3195.000000;2.800764
3194.000000;3.180211
3193.000000;3.408618
3192.000000;2.868745
3191.000000;2.770035
3190.000000;2.771982
3189.000000;2.879411
3188.000000;3.109797
3187.000000;3.291878
3186.000000;3.186784
3185.000000;3.042608
3184.000000;2.997453
3183.000000;2.916199
3182.000000;2.797430
3181.000000;2.783383
3180.000000;3.020621
3179.000000;3.443272
3178.000000;3.148246
3177.000000;3.205809
3176.000000;3.651419
3175.000000;3.072139
3174.000000;2.814212
3173.000000;2.760451
3172.000000;2.867671
3171.000000;3.102138
3170.000000;3.174494
3169.000000;3.047896
3168.000000;2.986714
3167.000000;3.285164
3166.000000;3.204524
3165.000000;2.658924
3164.000000;2.486313
3163.000000;2.461992
3162.000000;2.513579
3161.000000;2.590247
3160.000000;2.717600
3159.000000;2.934327
3158.000000;3.185748
3157.000000;3.346966
3156.000000;3.259810
3155.000000;2.968898
3154.000000;2.857621
3153.000000;2.902204
3152.000000;2.989646
3151.000000;3.626916
3150.000000;2.981521
3149.000000;2.649048
3148.000000;2.630872
3147.000000;2.733484
3146.000000;2.811950
3145.000000;2.836717
3144.000000;2.849229
3143.000000;2.766927
3142.000000;2.640753
3141.000000;2.579175
3140.000000;2.614837
3139.000000;2.697217
3138.000000;2.718183
3137.000000;2.680265
3136.000000;2.700319
3135.000000;2.841206
3134.000000;3.017597
3133.000000;2.895134
3132.000000;2.650933
3131.000000;2.541194
3130.000000;2.578080
3129.000000;2.662792
3128.000000;2.658948
3127.000000;2.639133
3126.000000;2.594387
3125.000000;2.515475
3124.000000;2.494840
3123.000000;2.582268
3122.000000;2.817588
3121.000000;2.746356
3120.000000;2.490507
3119.000000;2.397381
3118.000000;2.409912
3117.000000;2.491291
3116.000000;2.628839
3115.000000;2.770351
3114.000000;2.738030
3113.000000;2.567032
3112.000000;2.455371
3111.000000;2.446335
3110.000000;2.532878
3109.000000;2.662288
3108.000000;2.702969
3107.000000;2.647254
3106.000000;2.604467
3105.000000;2.615995
3104.000000;2.668635
3103.000000;2.724997
3102.000000;2.769787
3101.000000;2.807056
3100.000000;2.884574
3099.000000;2.757081
3098.000000;2.513263
3097.000000;2.391238
3096.000000;2.378988
3095.000000;2.446717
3094.000000;2.573431
3093.000000;2.682147
3092.000000;2.657072
3091.000000;2.534916
3090.000000;2.415822
3089.000000;2.362644
3088.000000;2.400571
3087.000000;2.581826
3086.000000;2.739305
3085.000000;2.553943
3084.000000;2.459670
3083.000000;2.484937
3082.000000;2.551975
3081.000000;2.621661
3080.000000;2.825489
3079.000000;2.905401
3078.000000;2.691383
3077.000000;2.663846
3076.000000;2.838137
3075.000000;3.155584
3074.000000;3.234119
3073.000000;3.819170
3072.000000;3.319498
3071.000000;2.955006
3070.000000;2.885002
3069.000000;2.839571
3068.000000;2.913062
3067.000000;3.354700
3066.000000;2.947214
3065.000000;2.647124
3064.000000;2.592519
3063.000000;2.657779
3062.000000;2.758897
3061.000000;2.878953
3060.000000;3.085160
3059.000000;3.297965
3058.000000;3.202927
3057.000000;3.062212
3056.000000;3.038038
3055.000000;2.943604
3054.000000;2.771229
3053.000000;2.688629
3052.000000;2.654815
3051.000000;2.578326
3050.000000;2.517529
3049.000000;2.548157
3048.000000;2.685252
3047.000000;2.864050
3046.000000;3.289967
3045.000000;3.111246
3044.000000;2.668968
3043.000000;2.507670
3042.000000;2.493070
3041.000000;2.560517
3040.000000;2.640609
3039.000000;2.762677
3038.000000;3.010390
3037.000000;2.956479
3036.000000;2.762114
3035.000000;2.740667
3034.000000;2.770421
3033.000000;2.756019
3032.000000;2.773464
3031.000000;2.911562
3030.000000;2.920983
3029.000000;2.726017
3028.000000;2.571948
3027.000000;2.455307
3026.000000;2.414515
3025.000000;2.463675
3024.000000;2.592893
3023.000000;2.750215
3022.000000;3.027588
3021.000000;2.775908
3020.000000;2.500466
3019.000000;2.453006
3018.000000;2.541402
3017.000000;2.678453
3016.000000;2.663698
3015.000000;2.584201
3014.000000;2.588712
3013.000000;2.708477
3012.000000;2.794218
3011.000000;2.744791
3010.000000;2.680954
3009.000000;2.664153
3008.000000;2.739178
3007.000000;2.781400
3006.000000;2.698830
3005.000000;2.604393
3004.000000;2.554705
3003.000000;2.541909
3002.000000;2.574110
3001.000000;2.639310
3000.000000;2.609786
2999.000000;2.559378
2998.000000;2.597756
2997.000000;2.640685
2996.000000;2.582260
2995.000000;2.491913
2994.000000;2.484165
2993.000000;2.572255
2992.000000;2.673405
2991.000000;2.700526
2990.000000;2.685310
2989.000000;2.616418
2988.000000;2.604299
2987.000000;2.681529
2986.000000;2.715140
2985.000000;2.639868
2984.000000;2.576713
2983.000000;2.524677
2982.000000;2.481473
2981.000000;2.497515
2980.000000;2.557720
2979.000000;2.648213
2978.000000;2.639660
2977.000000;2.492996
2976.000000;2.409040
2975.000000;2.397690
2974.000000;2.445001
2973.000000;2.562102
2972.000000;2.683606
2971.000000;2.701610
2970.000000;2.690479
2969.000000;2.633071
2968.000000;2.562235
2967.000000;2.566508
2966.000000;2.591474
2965.000000;2.631805
2964.000000;2.741946
2963.000000;3.795444
2962.000000;2.754164
2961.000000;2.463539
2960.000000;2.432409
2959.000000;2.582322
2958.000000;2.996183
2957.000000;2.751417
2956.000000;2.516243
2955.000000;2.491137
2954.000000;2.573426
2953.000000;2.596834
2952.000000;2.545168
2951.000000;2.544320
2950.000000;2.536087
2949.000000;2.515289
2948.000000;2.565507
2947.000000;2.697520
2946.000000;2.750851
2945.000000;2.613404
2944.000000;2.502300
2943.000000;2.484424
2942.000000;2.525695
2941.000000;2.563048
2940.000000;2.887646
2939.000000;2.973197
2938.000000;2.495515
2937.000000;2.359018
2936.000000;2.433154
2935.000000;2.680186
2934.000000;3.579828
2933.000000;2.900571
2932.000000;2.669080
2931.000000;2.699449
2930.000000;2.876614
2929.000000;2.814997
2928.000000;2.778501
2927.000000;2.940908
2926.000000;3.091853
2925.000000;2.941591
2924.000000;2.775591
2923.000000;2.714530
2922.000000;2.753225
2921.000000;2.909439
2920.000000;3.110530
2919.000000;3.149148
2918.000000;2.930885
2917.000000;2.681767
2916.000000;2.532625
2915.000000;2.453337
2914.000000;2.438754
2913.000000;2.528044
2912.000000;2.639831
2911.000000;2.533124
2910.000000;2.492739
2909.000000;2.639464
2908.000000;2.959147
2907.000000;2.840650
2906.000000;2.715104
2905.000000;2.836507
2904.000000;3.507062
2903.000000;2.933652
2902.000000;2.656246
2901.000000;2.491104
2900.000000;2.444924
2899.000000;2.514143
2898.000000;2.632481
2897.000000;2.684142
2896.000000;2.653885
2895.000000;2.596168
2894.000000;2.537937
2893.000000;2.489581
2892.000000;2.447046
2891.000000;2.421760
2890.000000;2.443130
2889.000000;2.528746
2888.000000;2.655697
2887.000000;2.737015
2886.000000;2.706995
2885.000000;2.634691
2884.000000;2.599469
2883.000000;2.622916
2882.000000;2.665338
2881.000000;2.661094
2880.000000;2.698586
2879.000000;2.912181
2878.000000;3.533406
2877.000000;3.103750
2876.000000;3.183581
2875.000000;3.497647
2874.000000;2.895690
2873.000000;2.777306
2872.000000;2.818603
2871.000000;3.159804
2870.000000;3.374883
2869.000000;2.815942
2868.000000;2.723423
2867.000000;2.888908
2866.000000;3.361141
2865.000000;3.149640
2864.000000;2.935522
2863.000000;3.599695
2862.000000;3.279110
2861.000000;2.764620
2860.000000;2.672822
2859.000000;2.690344
2858.000000;2.725357
2857.000000;2.728517
2856.000000;2.770026
2855.000000;2.734192
2854.000000;2.710479
2853.000000;2.954149
2852.000000;3.099895
2851.000000;2.676991
2850.000000;2.639688
2849.000000;2.803146
2848.000000;2.921174
2847.000000;2.807559
2846.000000;2.737531
2845.000000;2.766913
2844.000000;2.850484
2843.000000;2.753843
2842.000000;2.693054
2841.000000;2.754336
2840.000000;2.784083
2839.000000;2.683733
2838.000000;2.572927
2837.000000;2.764251
2836.000000;3.017088
2835.000000;2.579262
2834.000000;2.468547
2833.000000;2.653102
2832.000000;2.606367
2831.000000;2.497640
2830.000000;2.607041
2829.000000;2.959962
2828.000000;2.903793
2827.000000;2.633296
2826.000000;2.538341
2825.000000;2.636559
2824.000000;2.972361
2823.000000;2.857305
2822.000000;2.429605
2821.000000;2.234350
2820.000000;2.213140
2819.000000;2.455351
2818.000000;3.042680
2817.000000;2.580858
2816.000000;2.474577
2815.000000;2.644250
2814.000000;2.801456
2813.000000;2.511105
2812.000000;2.405232
2811.000000;2.452104
2810.000000;2.493100
2809.000000;2.420844
2808.000000;2.431594
2807.000000;2.576422
2806.000000;3.206485
2805.000000;2.970098
2804.000000;2.635283
2803.000000;2.571374
2802.000000;2.561561
2801.000000;2.630322
2800.000000;2.844368
2799.000000;3.107974
2798.000000;2.717537
2797.000000;2.582282
2796.000000;2.627947
2795.000000;2.713187
2794.000000;2.613145
2793.000000;2.559792
2792.000000;2.697528
2791.000000;3.041547
2790.000000;2.922801
2789.000000;2.747107
2788.000000;2.955157
2787.000000;3.050521
2786.000000;2.663789
2785.000000;2.579761
2784.000000;2.656860
2783.000000;3.181072
2782.000000;2.936470
2781.000000;2.541797
2780.000000;2.484686
2779.000000;2.565263
2778.000000;2.813140
2777.000000;3.052032
2776.000000;2.937106
2775.000000;2.742088
2774.000000;2.688149
2773.000000;2.805130
2772.000000;3.125893
2771.000000;3.727336
2770.000000;3.397125
2769.000000;2.986834
2768.000000;2.813564
2767.000000;2.782208
2766.000000;2.995456
2765.000000;3.382418
2764.000000;2.759453
2763.000000;2.568557
2762.000000;2.563460
2761.000000;2.820590
2760.000000;3.331072
2759.000000;3.021835
2758.000000;2.821876
2757.000000;2.946167
2756.000000;2.908444
2755.000000;2.676305
2754.000000;2.645366
2753.000000;2.812607
2752.000000;2.999400
2751.000000;2.833668
2750.000000;2.723878
2749.000000;2.854367
2748.000000;3.031536
2747.000000;2.661682
2746.000000;2.532267
2745.000000;2.571403
2744.000000;2.595802
2743.000000;2.492465
2742.000000;2.413149
2741.000000;2.449405
2740.000000;2.712761
2739.000000;3.033257
2738.000000;2.629098
2737.000000;2.563251
2736.000000;2.795903
2735.000000;3.317129
2734.000000;2.873733
2733.000000;2.863477
2732.000000;2.794170
2731.000000;2.586159
2730.000000;2.487049
2729.000000;2.536887
2728.000000;2.719993
2727.000000;3.062725
2726.000000;2.981187
2725.000000;2.669477
2724.000000;2.568937
2723.000000;2.677762
2722.000000;2.810355
2721.000000;2.623490
2720.000000;2.539971
2719.000000;2.573645
2718.000000;2.628437
2717.000000;2.626539
2716.000000;2.509791
2715.000000;2.412229
2714.000000;2.416532
2713.000000;2.509028
2712.000000;2.636676
2711.000000;2.716788
2710.000000;2.671245
2709.000000;2.546810
2708.000000;2.447776
2707.000000;2.411871
2706.000000;2.433432
2705.000000;2.504040
2704.000000;2.611242
2703.000000;2.707994
2702.000000;2.818020
2701.000000;2.877745
2700.000000;2.702615
2699.000000;2.585275
2698.000000;2.642058
2697.000000;2.783766
2696.000000;2.703585
2695.000000;2.599408
2694.000000;2.590812
2693.000000;2.624012
2692.000000;2.658600
2691.000000;2.656131
2690.000000;2.658034
2689.000000;2.762033
2688.000000;2.912278
2687.000000;2.785603
2686.000000;2.713861
2685.000000;2.750409
2684.000000;2.759077
2683.000000;2.697227
2682.000000;2.637695
2681.000000;2.664794
2680.000000;2.786995
2679.000000;2.754134
2678.000000;2.655571
2677.000000;2.740496
2676.000000;2.843735
2675.000000;2.725114
2674.000000;2.620148
2673.000000;2.639702
2672.000000;2.833577
2671.000000;3.164595
2670.000000;2.861457
2669.000000;2.626278
2668.000000;2.528377
2667.000000;2.499545
2666.000000;2.525937
2665.000000;2.557144
2664.000000;2.561464
2663.000000;2.547887
2662.000000;2.483936
2661.000000;2.362467
2660.000000;2.263421
2659.000000;2.241915
2658.000000;2.293770
2657.000000;2.379712
2656.000000;2.462294
2655.000000;2.518729
2654.000000;2.534729
2653.000000;2.517425
2652.000000;2.515794
2651.000000;2.579910
2650.000000;2.708061
2649.000000;2.979995
2648.000000;2.993825
2647.000000;2.696420
2646.000000;2.568493
2645.000000;2.543709
2644.000000;2.572190
2643.000000;2.645017
2642.000000;2.727290
2641.000000;2.676963
2640.000000;2.613656
2639.000000;2.674206
2638.000000;2.851893
2637.000000;3.042500
2636.000000;2.977105
2635.000000;2.685047
2634.000000;2.441323
2633.000000;2.315145
2632.000000;2.277435
2631.000000;2.276440
2630.000000;2.282874
2629.000000;2.309953
2628.000000;2.382964
2627.000000;2.500762
2626.000000;2.611302
2625.000000;2.658305
2624.000000;2.566204
2623.000000;2.398799
2622.000000;2.307775
2621.000000;2.329872
2620.000000;2.467694
2619.000000;2.755043
2618.000000;3.127423
2617.000000;2.956697
2616.000000;2.752190
2615.000000;2.629840
2614.000000;2.561725
2613.000000;2.575819
2612.000000;2.670569
2611.000000;2.858915
2610.000000;2.898890
2609.000000;2.736606
2608.000000;2.752858
2607.000000;3.023189
2606.000000;2.929310
2605.000000;2.801000
2604.000000;2.826072
2603.000000;2.692099
2602.000000;2.597891
2601.000000;2.613497
2600.000000;2.738090
2599.000000;2.770480
2598.000000;2.623614
2597.000000;2.616881
2596.000000;2.814043
2595.000000;2.978992
2594.000000;2.864956
2593.000000;2.733472
2592.000000;2.658613
2591.000000;2.697468
2590.000000;2.731669
2589.000000;2.646011
2588.000000;2.598428
2587.000000;2.634389
2586.000000;2.796774
2585.000000;3.349013
2584.000000;2.778952
2583.000000;2.448838
2582.000000;2.302623
2581.000000;2.254207
2580.000000;2.297223
2579.000000;2.426931
2578.000000;2.709607
2577.000000;3.116397
2576.000000;2.917042
2575.000000;2.818952
2574.000000;2.746366
2573.000000;2.638796
2572.000000;2.691483
2571.000000;2.803938
2570.000000;2.609373
2569.000000;2.405323
2568.000000;2.314821
2567.000000;2.311453
2566.000000;2.409319
2565.000000;2.710018
2564.000000;2.989177
2563.000000;2.566179
2562.000000;2.320345
2561.000000;2.233864
2560.000000;2.261821
2559.000000;2.416413
2558.000000;2.616852
2557.000000;2.652560
2556.000000;2.751723
2555.000000;2.760513
2554.000000;2.471363
2553.000000;2.366255
2552.000000;2.443947
2551.000000;2.732827
2550.000000;2.863154
2549.000000;2.581381
2548.000000;2.470655
2547.000000;2.423997
2546.000000;2.427130
2545.000000;2.455950
2544.000000;2.505139
2543.000000;2.619493
2542.000000;2.806583
2541.000000;2.787256
2540.000000;2.653370
2539.000000;2.650409
2538.000000;2.760321
2537.000000;3.245236
2536.000000;3.260206
2535.000000;2.835831
2534.000000;2.749014
2533.000000;2.988635
2532.000000;3.118641
2531.000000;2.601035
2530.000000;2.447371
2529.000000;2.524044
2528.000000;2.861379
2527.000000;2.890619
2526.000000;2.570424
2525.000000;2.539502
2524.000000;2.711258
2523.000000;3.159648
2522.000000;3.684164
2521.000000;3.281114
2520.000000;2.936366
2519.000000;2.708055
2518.000000;2.579399
2517.000000;2.503309
2516.000000;2.482673
2515.000000;2.471245
2514.000000;2.397060
2513.000000;2.298620
2512.000000;2.236176
2511.000000;2.224095
2510.000000;2.246808
2509.000000;2.275668
2508.000000;2.310937
2507.000000;2.365005
2506.000000;2.414408
2505.000000;2.443350
2504.000000;2.455838
2503.000000;2.433172
2502.000000;2.379492
2501.000000;2.328756
2500.000000;2.299169
2499.000000;2.291013
2498.000000;2.309341
2497.000000;2.363926
2496.000000;2.435694
2495.000000;2.463285
2494.000000;2.434171
2493.000000;2.417016
2492.000000;2.457993
2491.000000;2.537844
2490.000000;2.581119
2489.000000;2.536568
2488.000000;2.469579
2487.000000;2.438288
2486.000000;2.462804
2485.000000;2.539683
2484.000000;2.712792
2483.000000;3.087863
2482.000000;2.921714
2481.000000;2.738635
2480.000000;2.830118
2479.000000;3.022494
2478.000000;2.993880
2477.000000;2.857018
2476.000000;2.855032
2475.000000;2.987902
2474.000000;3.251708
2473.000000;3.119482
2472.000000;2.808532
2471.000000;2.715379
2470.000000;2.729405
2469.000000;2.640247
2468.000000;2.521855
2467.000000;2.501281
2466.000000;2.570790
2465.000000;2.726415
2464.000000;2.927907
2463.000000;3.035324
2462.000000;3.100322
2461.000000;3.279272
2460.000000;3.419322
2459.000000;3.156852
2458.000000;2.751520
2457.000000;2.481766
2456.000000;2.369617
2455.000000;2.394902
2454.000000;2.544670
2453.000000;2.743474
2452.000000;2.740109
2451.000000;2.587628
2450.000000;2.518219
2449.000000;2.555136
2448.000000;2.668940
2447.000000;2.851466
2446.000000;2.714110
2445.000000;2.466586
2444.000000;2.412140
2443.000000;2.594625
2442.000000;2.926381
2441.000000;2.735875
2440.000000;2.943243
2439.000000;3.274378
2438.000000;2.587482
2437.000000;2.399209
2436.000000;2.340622
2435.000000;2.347752
2434.000000;2.398154
2433.000000;2.465376
2432.000000;2.535530
2431.000000;2.590747
2430.000000;2.616566
2429.000000;2.574031
2428.000000;2.506499
2427.000000;2.487703
2426.000000;2.547519
2425.000000;2.699212
2424.000000;2.849264
2423.000000;2.656929
2422.000000;2.462843
2421.000000;2.405472
2420.000000;2.420678
2419.000000;2.467459
2418.000000;2.564276
2417.000000;2.687352
2416.000000;2.772634
2415.000000;2.821128
2414.000000;2.807354
2413.000000;2.731694
2412.000000;2.737863
2411.000000;2.745252
2410.000000;2.578245
2409.000000;2.457328
2408.000000;2.551925
2407.000000;3.066503
2406.000000;3.124525
2405.000000;3.067488
2404.000000;3.154759
2403.000000;2.619377
2402.000000;2.414978
2401.000000;2.348313
2400.000000;2.349902
2399.000000;2.444103
2398.000000;2.659910
2397.000000;3.066823
2396.000000;3.273210
2395.000000;2.965958
2394.000000;2.736422
2393.000000;2.716088
2392.000000;2.878633
2391.000000;3.065676
2390.000000;3.017461
2389.000000;2.862255
2388.000000;2.755612
2387.000000;2.738953
2386.000000;2.813883
2385.000000;2.830832
2384.000000;2.768295
2383.000000;2.708989
2382.000000;2.685404
2381.000000;2.751545
2380.000000;2.873071
2379.000000;3.011940
2378.000000;3.025692
2377.000000;2.863181
2376.000000;2.804129
2375.000000;2.719938
2374.000000;2.610368
2373.000000;2.597666
2372.000000;2.808912
2371.000000;3.732826
2370.000000;3.133587
2369.000000;2.866260
2368.000000;2.851961
2367.000000;2.977660
2366.000000;3.261802
2365.000000;3.049960
2364.000000;2.868062
2363.000000;2.823348
2362.000000;2.863756
2361.000000;2.964545
2360.000000;3.067975
2359.000000;3.098885
2358.000000;3.032409
2357.000000;2.956799
2356.000000;2.928968
2355.000000;2.953273
2354.000000;3.031486
2353.000000;3.215868
2352.000000;3.539266
2351.000000;3.839554
2350.000000;3.506323
2349.000000;3.123857
2348.000000;2.948355
2347.000000;3.037290
2346.000000;3.218407
2345.000000;3.013888
2344.000000;2.874569
2343.000000;3.094738
2342.000000;3.367133
2341.000000;2.852952
2340.000000;2.702333
2339.000000;2.757629
2338.000000;2.947783
2337.000000;3.079993
2336.000000;3.058905
2335.000000;3.317599
2334.000000;3.261257
2333.000000;2.929078
2332.000000;2.880485
2331.000000;2.951764
2330.000000;3.069809
2329.000000;3.126887
2328.000000;3.001971
2327.000000;2.844800
2326.000000;2.735203
2325.000000;2.710896
2324.000000;2.773942
2323.000000;3.033972
2322.000000;3.551264
2321.000000;3.178175
2320.000000;2.964411
2319.000000;2.895786
2318.000000;2.803017
2317.000000;2.797407
2316.000000;2.769001
2315.000000;2.660112
2314.000000;2.578195
2313.000000;2.648755
2312.000000;2.882618
2311.000000;2.847808
2310.000000;2.725772
2309.000000;2.740189
2308.000000;2.741534
2307.000000;2.796265
2306.000000;2.789863
2305.000000;2.635299
2304.000000;2.564319
2303.000000;2.669737
2302.000000;2.918053
2301.000000;2.799174
2300.000000;2.587235
2299.000000;2.569117
2298.000000;2.684973
2297.000000;2.859354
2296.000000;3.007499
2295.000000;2.962707
2294.000000;2.674298
2293.000000;2.542503
2292.000000;2.606627
2291.000000;2.877054
2290.000000;3.293188
2289.000000;3.093169
2288.000000;2.838025
2287.000000;2.602947
2286.000000;2.412012
2285.000000;2.327771
2284.000000;2.371284
2283.000000;2.506058
2282.000000;2.501278
2281.000000;2.400926
2280.000000;2.375573
2279.000000;2.414606
2278.000000;2.519209
2277.000000;2.697277
2276.000000;2.809437
2275.000000;2.640698
2274.000000;2.425122
2273.000000;2.307475
2272.000000;2.277286
2271.000000;2.290525
2270.000000;2.293825
2269.000000;2.270120
2268.000000;2.243934
2267.000000;2.250347
2266.000000;2.302405
2265.000000;2.373893
2264.000000;2.378196
2263.000000;2.296703
2262.000000;2.244982
2261.000000;2.275018
2260.000000;2.348710
2259.000000;2.376187
2258.000000;2.333914
2257.000000;2.298052
2256.000000;2.323923
2255.000000;2.467130
2254.000000;2.685763
2253.000000;2.964640
2252.000000;3.292432
2251.000000;2.826681
2250.000000;2.552109
2249.000000;2.470740
2248.000000;2.457625
2247.000000;2.497240
2246.000000;2.552788
2245.000000;2.607808
2244.000000;2.630748
2243.000000;2.569563
2242.000000;2.503600
2241.000000;2.507246
2240.000000;2.530569
2239.000000;2.545518
2238.000000;2.576789
2237.000000;2.681852
2236.000000;2.753362
2235.000000;2.588610
2234.000000;2.500243
2233.000000;2.594577
2232.000000;2.905349
2231.000000;3.297496
2230.000000;3.113489
2229.000000;2.902585
2228.000000;2.700072
2227.000000;2.616247
2226.000000;2.687521
2225.000000;2.749446
2224.000000;2.663522
2223.000000;2.562838
2222.000000;2.536266
2221.000000;2.580219
2220.000000;2.730029
2219.000000;3.000497
2218.000000;2.826690
2217.000000;2.559401
2216.000000;2.476844
2215.000000;2.550904
2214.000000;2.604508
2213.000000;2.533044
2212.000000;2.483679
2211.000000;2.690202
2210.000000;3.367475
2209.000000;2.767906
2208.000000;2.571860
2207.000000;2.731146
2206.000000;3.176393
2205.000000;3.213475
2204.000000;2.852474
2203.000000;2.757098
2202.000000;2.826165
2201.000000;3.244822
2200.000000;3.088646
2199.000000;2.834969
2198.000000;2.784622
2197.000000;2.675003
2196.000000;2.607213
2195.000000;2.640833
2194.000000;2.618137
2193.000000;2.516276
2192.000000;2.422854
2191.000000;2.463698
2190.000000;2.848704
2189.000000;2.862052
2188.000000;2.510697
2187.000000;2.601605
2186.000000;2.830447
2185.000000;2.512168
2184.000000;2.287604
2183.000000;2.274973
2182.000000;2.364817
2181.000000;2.683191
2180.000000;3.387356
2179.000000;2.976954
2178.000000;2.894967
2177.000000;2.712403
2176.000000;2.535573
2175.000000;2.554606
2174.000000;2.581364
2173.000000;2.568374
2172.000000;2.586635
2171.000000;2.684557
2170.000000;2.718734
2169.000000;2.677289
2168.000000;2.671749
2167.000000;2.717328
2166.000000;2.758950
2165.000000;2.718438
2164.000000;2.756613
2163.000000;2.829934
2162.000000;2.675558
2161.000000;2.526482
2160.000000;2.486128
2159.000000;2.474064
2158.000000;2.556807
2157.000000;3.055554
2156.000000;2.999962
2155.000000;2.839694
2154.000000;3.100087
2153.000000;2.611409
2152.000000;2.404065
2151.000000;2.420495
2150.000000;2.523678
2149.000000;2.762584
2148.000000;2.983395
2147.000000;2.779326
2146.000000;2.648280
2145.000000;2.715210
2144.000000;2.783963
2143.000000;2.736920
2142.000000;2.713031
2141.000000;2.814950
2140.000000;3.000275
2139.000000;2.898011
2138.000000;2.603581
2137.000000;2.455917
2136.000000;2.459072
2135.000000;2.584542
2134.000000;2.891837
2133.000000;3.286468
2132.000000;2.874409
2131.000000;2.757777
2130.000000;2.959493
2129.000000;2.817354
2128.000000;2.698090
2127.000000;2.667932
2126.000000;2.543968
2125.000000;2.459306
2124.000000;2.582845
2123.000000;3.041856
2122.000000;2.847797
2121.000000;2.555943
2120.000000;2.728625
2119.000000;2.977610
2118.000000;2.614219
2117.000000;2.523271
2116.000000;2.629165
2115.000000;2.630622
2114.000000;2.542868
2113.000000;2.565104
2112.000000;2.782064
2111.000000;2.842239
2110.000000;2.594002
2109.000000;2.468721
2108.000000;2.474214
2107.000000;2.590490
2106.000000;2.757753
2105.000000;2.661390
2104.000000;2.484507
2103.000000;2.436314
2102.000000;2.503785
2101.000000;2.642945
2100.000000;2.777688
2099.000000;2.911146
2098.000000;3.028506
2097.000000;2.826387
2096.000000;2.585591
2095.000000;2.451533
2094.000000;2.387162
2093.000000;2.402504
2092.000000;2.533788
2091.000000;2.808032
2090.000000;3.138890
2089.000000;3.187731
2088.000000;3.175486
2087.000000;3.262321
2086.000000;3.122352
2085.000000;2.936190
2084.000000;2.912786
2083.000000;3.021064
2082.000000;2.846658
2081.000000;2.579838
2080.000000;2.497124
2079.000000;2.580775
2078.000000;2.834515
2077.000000;3.189917
2076.000000;3.064912
2075.000000;2.750910
2074.000000;2.615977
2073.000000;2.641212
2072.000000;2.709935
2071.000000;2.783014
2070.000000;2.812820
2069.000000;2.981457
2068.000000;3.168751
2067.000000;2.693032
2066.000000;2.501412
2065.000000;2.545855
2064.000000;2.660213
2063.000000;2.658596
2062.000000;2.635215
2061.000000;2.624307
2060.000000;2.488053
2059.000000;2.377835
2058.000000;2.329023
2057.000000;2.315162
2056.000000;2.342916
2055.000000;2.411627
2054.000000;2.571664
2053.000000;2.632472
2052.000000;2.364718
2051.000000;2.169742
2050.000000;2.107824
2049.000000;2.138809
2048.000000;2.243138
2047.000000;2.379727
2046.000000;2.545532
2045.000000;2.649511
2044.000000;2.511870
2043.000000;2.370511
2042.000000;2.329248
2041.000000;2.354611
2040.000000;2.415603
2039.000000;2.511245
2038.000000;2.668720
2037.000000;3.079411
2036.000000;3.334308
2035.000000;2.726380
2034.000000;2.520108
2033.000000;2.462495
2032.000000;2.543206
2031.000000;2.994138
2030.000000;3.139472
2029.000000;2.746447
2028.000000;2.654903
2027.000000;2.582221
2026.000000;2.565148
2025.000000;2.638868
2024.000000;2.649286
2023.000000;2.528529
2022.000000;2.367904
2021.000000;2.322647
2020.000000;2.379641
2019.000000;2.652506
2018.000000;3.215262
2017.000000;2.801993
2016.000000;2.665495
2015.000000;2.990993
2014.000000;3.284467
2013.000000;2.696997
2012.000000;2.566042
2011.000000;2.682443
2010.000000;2.924169
2009.000000;2.998365
2008.000000;2.886958
2007.000000;2.835669
2006.000000;2.636235
2005.000000;2.512018
2004.000000;2.507348
2003.000000;2.657280
2002.000000;2.899915
2001.000000;2.919614
2000.000000;2.884188
1999.000000;2.780839
1998.000000;2.574574
1997.000000;2.451328
1996.000000;2.445838
1995.000000;2.551825
1994.000000;2.679981
1993.000000;2.733359
1992.000000;2.675223
1991.000000;2.561423
1990.000000;2.535068
1989.000000;2.631459
1988.000000;2.838872
1987.000000;3.108637
1986.000000;3.153122
1985.000000;2.855861
1984.000000;2.636300
1983.000000;2.591399
1982.000000;2.671253
1981.000000;2.879435
1980.000000;3.050204
1979.000000;2.744842
1978.000000;2.503999
1977.000000;2.449576
1976.000000;2.512357
1975.000000;2.486028
1974.000000;2.335955
1973.000000;2.258699
1972.000000;2.268699
1971.000000;2.330283
1970.000000;2.433187
1969.000000;2.581561
1968.000000;2.689537
1967.000000;2.639554
1966.000000;2.550858
1965.000000;2.507630
1964.000000;2.534467
1963.000000;2.601671
1962.000000;2.600539
1961.000000;2.543216
1960.000000;2.531923
1959.000000;2.589748
1958.000000;2.650301
1957.000000;3.009843
1956.000000;3.234966
1955.000000;2.612958
1954.000000;2.472265
1953.000000;2.501277
1952.000000;2.639621
1951.000000;2.741015
1950.000000;2.714356
1949.000000;2.663860
1948.000000;2.539792
1947.000000;2.501573
1946.000000;2.590889
1945.000000;2.875418
1944.000000;2.867792
1943.000000;2.826440
1942.000000;3.226710
1941.000000;2.727218
1940.000000;2.416129
1939.000000;2.352177
1938.000000;2.433695
1937.000000;2.545996
1936.000000;2.486144
1935.000000;2.548449
1934.000000;2.670626
1933.000000;2.513563
1932.000000;2.383887
1931.000000;2.364321
1930.000000;2.394838
1929.000000;2.716940
1928.000000;3.161141
1927.000000;2.554902
1926.000000;2.402277
1925.000000;2.414183
1924.000000;2.549621
1923.000000;2.749055
1922.000000;2.703712
1921.000000;2.652198
1920.000000;2.776458
1919.000000;2.792158
1918.000000;2.766346
1917.000000;3.302533
1916.000000;2.897490
1915.000000;2.510191
1914.000000;2.424698
1913.000000;2.408890
1912.000000;2.435611
1911.000000;2.485556
1910.000000;2.541871
1909.000000;2.571700
1908.000000;2.597847
1907.000000;2.642217
1906.000000;2.711785
1905.000000;2.746153
1904.000000;2.654369
1903.000000;2.505346
1902.000000;2.374474
1901.000000;2.307981
1900.000000;2.319340
1899.000000;2.413358
1898.000000;2.544165
1897.000000;2.593477
1896.000000;2.543660
1895.000000;2.542564
1894.000000;2.853800
1893.000000;3.079493
1892.000000;2.650236
1891.000000;2.537012
1890.000000;2.581209
1889.000000;2.609369
1888.000000;2.641659
1887.000000;2.687146
1886.000000;2.718096
1885.000000;2.833474
1884.000000;2.745162
1883.000000;2.527338
1882.000000;2.486420
1881.000000;2.688994
1880.000000;2.799397
1879.000000;2.426273
1878.000000;2.245128
1877.000000;2.206494
1876.000000;2.274478
1875.000000;2.464299
1874.000000;2.656711
1873.000000;2.630400
1872.000000;2.596893
1871.000000;2.705675
1870.000000;2.806134
1869.000000;2.793199
1868.000000;2.783459
1867.000000;2.794441
1866.000000;2.808918
1865.000000;2.819049
1864.000000;2.765940
1863.000000;2.676242
1862.000000;2.758411
1861.000000;3.005924
1860.000000;2.748962
1859.000000;2.565166
1858.000000;2.568570
1857.000000;2.703215
1856.000000;2.844653
1855.000000;2.661009
1854.000000;2.541928
1853.000000;2.592293
1852.000000;2.788071
1851.000000;2.937119
1850.000000;2.896045
1849.000000;3.250625
1848.000000;3.374077
1847.000000;2.831636
1846.000000;2.726662
1845.000000;2.693478
1844.000000;2.688363
1843.000000;2.764658
1842.000000;2.938026
1841.000000;2.858973
1840.000000;2.617681
1839.000000;2.511329
1838.000000;2.492713
1837.000000;2.512812
1836.000000;2.515266
1835.000000;2.512505
1834.000000;2.581678
1833.000000;2.789570
1832.000000;2.929559
1831.000000;2.857304
1830.000000;2.852807
1829.000000;2.847177
1828.000000;2.814234
1827.000000;2.742549
1826.000000;2.661347
1825.000000;2.658566
1824.000000;2.723757
1823.000000;2.771931
1822.000000;2.735852
1821.000000;2.628282
1820.000000;2.535278
1819.000000;2.521486
1818.000000;2.697656
1817.000000;3.077144
1816.000000;2.819458
1815.000000;2.600330
1814.000000;2.663985
1813.000000;2.673003
1812.000000;2.524752
1811.000000;2.476888
1810.000000;2.512438
1809.000000;2.489517
1808.000000;2.456427
1807.000000;2.493063
1806.000000;2.600573
1805.000000;2.749609
1804.000000;2.785475
1803.000000;2.800553
1802.000000;2.801616
1801.000000;2.629318
1800.000000;2.521989
1799.000000;2.534398
1798.000000;2.652160
1797.000000;2.879024
1796.000000;3.217228
1795.000000;3.238414
1794.000000;2.881426
1793.000000;2.689558
1792.000000;2.748843
1791.000000;2.929435
1790.000000;2.733490
1789.000000;2.521378
1788.000000;2.439523
1787.000000;2.412787
1786.000000;2.436185
1785.000000;2.533732
1784.000000;2.715727
1783.000000;2.706931
1782.000000;2.446503
1781.000000;2.258033
1780.000000;2.195305
1779.000000;2.249622
1778.000000;2.398773
1777.000000;2.617333
1776.000000;2.708692
1775.000000;2.538486
1774.000000;2.423347
1773.000000;2.384037
1772.000000;2.380512
1771.000000;2.401736
1770.000000;2.420401
1769.000000;2.402835
1768.000000;2.377258
1767.000000;2.401790
1766.000000;2.536623
1765.000000;2.984517
1764.000000;2.945010
1763.000000;2.574261
1762.000000;2.725709
1761.000000;3.202691
1760.000000;2.986782
1759.000000;2.847552
1758.000000;3.252401
1757.000000;3.417775
1756.000000;2.939291
1755.000000;2.660779
1754.000000;2.487758
1753.000000;2.435283
1752.000000;2.498065
1751.000000;2.674496
1750.000000;2.863385
1749.000000;2.883127
1748.000000;2.840706
1747.000000;2.889112
1746.000000;3.070067
1745.000000;3.351536
1744.000000;3.677612
1743.000000;3.493664
1742.000000;3.240315
1741.000000;3.053293
1740.000000;2.986741
1739.000000;2.936402
1738.000000;2.791351
1737.000000;2.783750
1736.000000;2.964113
1735.000000;2.883487
1734.000000;2.640933
1733.000000;2.520963
1732.000000;2.502037
1731.000000;2.654001
1730.000000;2.924090
1729.000000;2.775203
1728.000000;2.679607
1727.000000;2.891493
1726.000000;3.134943
1725.000000;2.809784
1724.000000;2.591226
1723.000000;2.503007
1722.000000;2.499925
1721.000000;2.554227
1720.000000;2.614737
1719.000000;2.752401
1718.000000;2.967641
1717.000000;2.848964
1716.000000;2.885036
1715.000000;3.131509
1714.000000;3.052727
1713.000000;2.922307
1712.000000;2.905901
1711.000000;2.860293
1710.000000;3.050504
1709.000000;3.035006
1708.000000;2.615290
1707.000000;2.514046
1706.000000;2.608535
1705.000000;2.884838
1704.000000;3.013131
1703.000000;2.820085
1702.000000;2.752796
1701.000000;3.149219
1700.000000;3.015840
1699.000000;2.721865
1698.000000;2.784259
1697.000000;2.856520
1696.000000;2.633255
1695.000000;2.476154
1694.000000;2.539612
1693.000000;2.807316
1692.000000;3.299549
1691.000000;3.299350
1690.000000;2.714397
1689.000000;2.482867
1688.000000;2.391262
1687.000000;2.404718
1686.000000;2.498640
1685.000000;2.486080
1684.000000;2.398253
1683.000000;2.521383
1682.000000;2.944625
1681.000000;3.422888
1680.000000;2.940870
1679.000000;2.670479
1678.000000;2.574297
1677.000000;2.560376
1676.000000;2.567298
1675.000000;2.537796
1674.000000;2.475650
1673.000000;2.427489
1672.000000;2.419622
1671.000000;2.448854
1670.000000;2.481074
1669.000000;2.491222
1668.000000;2.499670
1667.000000;2.508114
1666.000000;2.525089
1665.000000;2.603430
1664.000000;2.763160
1663.000000;2.648363
1662.000000;2.445063
1661.000000;2.396314
1660.000000;2.431480
1659.000000;2.521106
1658.000000;2.717776
1657.000000;3.111993
1656.000000;3.564315
1655.000000;3.517114
1654.000000;3.057877
1653.000000;2.791177
1652.000000;2.704820
1651.000000;2.614234
1650.000000;2.513263
1649.000000;2.482582
1648.000000;2.526999
1647.000000;2.626915
1646.000000;2.622876
1645.000000;2.506308
1644.000000;2.453648
1643.000000;2.519320
1642.000000;2.571023
1641.000000;2.410566
1640.000000;2.307376
1639.000000;2.339400
1638.000000;2.489842
1637.000000;2.730433
1636.000000;2.894638
1635.000000;2.821468
1634.000000;2.747808
1633.000000;2.727154
1632.000000;2.722282
1631.000000;2.707215
1630.000000;2.714247
1629.000000;2.781568
1628.000000;2.748383
1627.000000;2.581133
1626.000000;2.498357
1625.000000;2.534355
1624.000000;2.530473
1623.000000;2.437677
1622.000000;2.384018
1621.000000;2.361749
1620.000000;2.349036
1619.000000;2.367521
1618.000000;2.416419
1617.000000;2.487109
1616.000000;2.771750
1615.000000;2.398997
1614.000000;2.156329
1613.000000;2.091909
1612.000000;2.117367
1611.000000;2.264338
1610.000000;2.651497
1609.000000;2.672749
1608.000000;2.390038
1607.000000;2.377639
1606.000000;2.437482
1605.000000;2.520871
1604.000000;2.749392
1603.000000;3.266090
1602.000000;2.967531
1601.000000;2.639553
1600.000000;2.451027
1599.000000;2.317520
1598.000000;2.257043
1597.000000;2.256367
1596.000000;2.295031
1595.000000;2.335743
1594.000000;2.380132
1593.000000;2.468112
1592.000000;2.608081
1591.000000;2.608412
1590.000000;2.528810
1589.000000;2.493927
1588.000000;2.417445
1587.000000;2.348573
1586.000000;2.390678
1585.000000;2.580854
1584.000000;2.773477
1583.000000;2.642449
1582.000000;2.503157
1581.000000;2.475009
1580.000000;2.541861
1579.000000;2.505159
1578.000000;2.333673
1577.000000;2.239199
1576.000000;2.285453
1575.000000;2.672455
1574.000000;3.206655
1573.000000;3.014890
1572.000000;3.282864
1571.000000;2.905157
1570.000000;2.599434
1569.000000;2.526722
1568.000000;2.567534
1567.000000;2.812051
1566.000000;3.126844
1565.000000;2.556919
1564.000000;2.308887
1563.000000;2.211093
1562.000000;2.146990
1561.000000;2.118688
1560.000000;2.184004
1559.000000;2.394412
1558.000000;2.606345
1557.000000;2.637749
1556.000000;2.545525
1555.000000;2.442536
1554.000000;2.411442
1553.000000;2.443298
1552.000000;2.743707
1551.000000;3.114619
1550.000000;2.473325
1549.000000;2.279567
1548.000000;2.249181
1547.000000;2.378524
1546.000000;2.750185
1545.000000;2.828028
1544.000000;2.831892
1543.000000;3.146236
1542.000000;2.738302
1541.000000;2.523985
1540.000000;2.551416
1539.000000;2.763783
1538.000000;3.346287
1537.000000;3.483367
1536.000000;3.134529
1535.000000;3.140491
1534.000000;2.904624
1533.000000;2.626918
1532.000000;2.540186
1531.000000;2.588613
1530.000000;2.812685
1529.000000;2.997551
1528.000000;2.649259
1527.000000;2.553774
1526.000000;2.557157
1525.000000;2.593222
1524.000000;2.593531
1523.000000;2.546599
1522.000000;2.492791
1521.000000;2.466322
1520.000000;2.467526
1519.000000;2.484738
1518.000000;2.490086
1517.000000;2.485149
1516.000000;2.526820
1515.000000;2.650744
1514.000000;2.929229
1513.000000;3.166489
1512.000000;2.840663
1511.000000;2.744096
1510.000000;2.844185
1509.000000;2.838552
1508.000000;2.751900
1507.000000;2.732219
1506.000000;2.774058
1505.000000;2.803535
1504.000000;2.683420
1503.000000;2.542123
1502.000000;2.521998
1501.000000;2.636414
1500.000000;2.961629
1499.000000;2.943247
1498.000000;2.659753
1497.000000;2.629094
1496.000000;3.027282
1495.000000;3.380859
1494.000000;2.720512
1493.000000;2.751389
1492.000000;2.888182
1491.000000;2.945447
1490.000000;2.879986
1489.000000;2.893529
1488.000000;2.951385
1487.000000;3.087890
1486.000000;3.037195
1485.000000;2.802177
1484.000000;2.640970
1483.000000;2.528657
1482.000000;2.470761
1481.000000;2.469307
1480.000000;2.476821
1479.000000;2.443660
1478.000000;2.394429
1477.000000;2.386588
1476.000000;2.434956
1475.000000;2.525826
1474.000000;2.655495
1473.000000;2.914667
1472.000000;3.456656
1471.000000;3.123920
1470.000000;2.750886
1469.000000;2.547733
1468.000000;2.433512
1467.000000;2.439317
1466.000000;2.606698
1465.000000;2.646981
1464.000000;2.541105
1463.000000;2.593153
1462.000000;2.894918
1461.000000;2.946690
1460.000000;3.579869
1459.000000;2.929711
1458.000000;2.512340
1457.000000;2.440552
1456.000000;2.493756
1455.000000;2.570328
1454.000000;2.610803
1453.000000;2.679067
1452.000000;2.916380
1451.000000;3.213001
1450.000000;2.706491
1449.000000;2.648803
1448.000000;2.837356
1447.000000;2.964957
1446.000000;2.755383
1445.000000;2.884315
1444.000000;2.743763
1443.000000;2.270146
1442.000000;2.051338
1441.000000;1.966263
1440.000000;2.000745
1439.000000;2.146087
1438.000000;2.400803
1437.000000;2.644422
1436.000000;2.756079
1435.000000;2.998979
1434.000000;3.061587
1433.000000;2.592668
1432.000000;2.350021
1431.000000;2.308134
1430.000000;2.422273
1429.000000;2.595127
1428.000000;2.540493
1427.000000;2.437477
1426.000000;2.411042
1425.000000;2.397355
1424.000000;2.346712
1423.000000;2.330074
1422.000000;2.369173
1421.000000;2.403650
1420.000000;2.424921
1419.000000;2.545544
1418.000000;2.966216
1417.000000;3.162327
1416.000000;2.642247
1415.000000;2.421188
1414.000000;2.287376
1413.000000;2.295258
1412.000000;2.436064
1411.000000;2.762767
1410.000000;3.089597
1409.000000;2.895760
1408.000000;2.778258
1407.000000;2.771574
1406.000000;2.759190
1405.000000;2.686894
1404.000000;2.635566
1403.000000;2.675370
1402.000000;2.868511
1401.000000;2.828627
1400.000000;2.551451
1399.000000;2.456960
1398.000000;2.513386
1397.000000;2.612955
1396.000000;2.503737
1395.000000;2.371266
1394.000000;2.368410
1393.000000;2.496711
1392.000000;2.716855
1391.000000;2.942848
1390.000000;2.714753
1389.000000;2.384803
1388.000000;2.302543
1387.000000;2.364975
1386.000000;2.512585
1385.000000;2.619665
1384.000000;2.517038
1383.000000;2.352056
1382.000000;2.298817
1381.000000;2.391409
1380.000000;2.669214
1379.000000;3.034333
1378.000000;2.892674
1377.000000;2.756344
1376.000000;2.754072
1375.000000;2.888508
1374.000000;3.233919
1373.000000;3.404262
1372.000000;3.345022
1371.000000;2.938803
1370.000000;2.723343
1369.000000;2.657964
1368.000000;2.492019
1367.000000;2.261378
1366.000000;2.146380
1365.000000;2.174982
1364.000000;2.388236
1363.000000;2.687080
1362.000000;2.644808
1361.000000;2.553505
1360.000000;2.493147
1359.000000;2.445424
1358.000000;2.473337
1357.000000;2.609606
1356.000000;2.772179
1355.000000;2.748543
1354.000000;2.677375
1353.000000;2.692177
1352.000000;3.046028
1351.000000;3.011824
1350.000000;2.716059
1349.000000;2.729808
1348.000000;2.641739
1347.000000;2.486585
1346.000000;2.453798
1345.000000;2.487385
1344.000000;2.486210
1343.000000;2.402637
1342.000000;2.302847
1341.000000;2.239670
1340.000000;2.238515
1339.000000;2.319739
1338.000000;2.499881
1337.000000;2.804601
1336.000000;3.315876
1335.000000;3.580196
1334.000000;3.055484
1333.000000;2.728517
1332.000000;2.540803
1331.000000;2.500560
1330.000000;2.566097
1329.000000;2.868471
1328.000000;3.192942
1327.000000;2.760855
1326.000000;2.622205
1325.000000;2.658649
1324.000000;2.623024
1323.000000;2.585339
1322.000000;2.609456
1321.000000;2.695947
1320.000000;2.998209
1319.000000;3.292443
1318.000000;3.032083
1317.000000;2.990826
1316.000000;2.853456
1315.000000;2.595261
1314.000000;2.395050
1313.000000;2.270921
1312.000000;2.185164
1311.000000;2.128003
1310.000000;2.131791
1309.000000;2.232665
1308.000000;2.434312
1307.000000;2.645325
1306.000000;2.523980
1305.000000;2.239409
1304.000000;2.099959
1303.000000;2.134740
1302.000000;2.371092
1301.000000;2.763503
1300.000000;2.952401
1299.000000;3.191172
1298.000000;3.225190
1297.000000;2.770594
1296.000000;2.458755
1295.000000;2.287001
1294.000000;2.216863
1293.000000;2.237223
1292.000000;2.312547
1291.000000;2.337370
1290.000000;2.243393
1289.000000;2.107846
1288.000000;2.036132
1287.000000;2.076254
1286.000000;2.266675
1285.000000;2.692180
1284.000000;2.659683
1283.000000;2.281264
1282.000000;2.191043
1281.000000;2.221670
1280.000000;2.306662
1279.000000;2.529072
1278.000000;2.822947
1277.000000;2.541943
1276.000000;2.536436
1275.000000;2.715373
1274.000000;2.518147
1273.000000;2.442372
1272.000000;2.524106
1271.000000;2.495513
1270.000000;2.399704
1269.000000;2.347684
1268.000000;2.355821
1267.000000;2.432925
1266.000000;2.546846
1265.000000;2.534470
1264.000000;2.427106
1263.000000;2.400755
1262.000000;2.529888
1261.000000;2.755938
1260.000000;2.803592
1259.000000;2.994690
1258.000000;2.838412
1257.000000;2.503403
1256.000000;2.392389
1255.000000;2.359224
1254.000000;2.439098
1253.000000;2.508050
1252.000000;2.437358
1251.000000;2.453045
1250.000000;2.716880
1249.000000;3.079846
1248.000000;2.869146
1247.000000;3.199387
1246.000000;2.998730
1245.000000;2.505090
1244.000000;2.285698
1243.000000;2.183988
1242.000000;2.201934
1241.000000;2.348031
1240.000000;2.660150
1239.000000;3.058700
1238.000000;2.967930
1237.000000;2.694860
1236.000000;2.505861
1235.000000;2.453967
1234.000000;2.557697
1233.000000;2.945339
1232.000000;2.902814
1231.000000;2.492117
1230.000000;2.440065
1229.000000;2.551904
1228.000000;2.794374
1227.000000;2.743363
1226.000000;2.437212
1225.000000;2.248858
1224.000000;2.163741
1223.000000;2.159552
1222.000000;2.234657
1221.000000;2.405386
1220.000000;2.774537
1219.000000;2.746978
1218.000000;2.480573
1217.000000;2.426466
1216.000000;2.507576
1215.000000;2.632828
1214.000000;2.682996
1213.000000;2.755047
1212.000000;2.731779
1211.000000;2.633370
1210.000000;2.693632
1209.000000;2.919620
1208.000000;2.971685
1207.000000;2.753300
1206.000000;2.550797
1205.000000;2.456180
1204.000000;2.475808
1203.000000;2.693926
1202.000000;3.085111
1201.000000;2.769481
1200.000000;2.655208
