Criado como novo conjunto de dados;"1909daniel.spp","-4265444.0 Secs"
cm-1;Abs
10000.000000;1.618617
9999.000000;1.615869
9998.000000;1.613128
9997.000000;1.610423
9996.000000;1.607702
9995.000000;1.605057
9994.000000;1.602309
9993.000000;1.600049
9992.000000;1.599712
9991.000000;1.600680
9990.000000;1.601763
9989.000000;1.602040
9988.000000;1.600897
9987.000000;1.597953
9986.000000;1.594017
9985.000000;1.590925
9984.000000;1.589589
9983.000000;1.588993
9982.000000;1.587951
9981.000000;1.587034
9980.000000;1.587565
9979.000000;1.589369
9978.000000;1.590853
9977.000000;1.590993
9976.000000;1.589996
9975.000000;1.588202
9974.000000;1.585822
9973.000000;1.583820
9972.000000;1.583570
9971.000000;1.585170
9970.000000;1.587052
9969.000000;1.587668
9968.000000;1.586831
9967.000000;1.585142
9966.000000;1.583019
9965.000000;1.580854
9964.000000;1.579321
9963.000000;1.578781
9962.000000;1.578702
9961.000000;1.578180
9960.000000;1.576811
9959.000000;1.574790
9958.000000;1.572618
9957.000000;1.570934
9956.000000;1.570088
9955.000000;1.569658
9954.000000;1.568843
9953.000000;1.567493
9952.000000;1.566344
9951.000000;1.565996
9950.000000;1.566175
9949.000000;1.566317
9948.000000;1.566417
9947.000000;1.566826
9946.000000;1.567591
9945.000000;1.568484
9944.000000;1.569403
9943.000000;1.570244
9942.000000;1.570534
9941.000000;1.569629
9940.000000;1.567359
9939.000000;1.564364
9938.000000;1.561835
9937.000000;1.560869
9936.000000;1.561699
9935.000000;1.563350
9934.000000;1.564265
9933.000000;1.563514
9932.000000;1.561308
9931.000000;1.558404
9930.000000;1.555432
9929.000000;1.552899
9928.000000;1.551330
9927.000000;1.550900
9926.000000;1.551097
9925.000000;1.551099
9924.000000;1.550520
9923.000000;1.549699
9922.000000;1.549305
9921.000000;1.549722
9920.000000;1.550617
9919.000000;1.550985
9918.000000;1.549954
9917.000000;1.547869
9916.000000;1.546307
9915.000000;1.546701
9914.000000;1.548903
9913.000000;1.551179
9912.000000;1.551542
9911.000000;1.549213
9910.000000;1.545094
9909.000000;1.541090
9908.000000;1.538832
9907.000000;1.538681
9906.000000;1.539696
9905.000000;1.540583
9904.000000;1.540800
9903.000000;1.540792
9902.000000;1.541203
9901.000000;1.541919
9900.000000;1.541956
9899.000000;1.540474
9898.000000;1.537927
9897.000000;1.535780
9896.000000;1.534840
9895.000000;1.534309
9894.000000;1.532908
9893.000000;1.530691
9892.000000;1.529073
9891.000000;1.529089
9890.000000;1.530170
9889.000000;1.530870
9888.000000;1.530351
9887.000000;1.528930
9886.000000;1.527536
9885.000000;1.526932
9884.000000;1.527126
9883.000000;1.527243
9882.000000;1.526230
9881.000000;1.523998
9880.000000;1.521606
9879.000000;1.520179
9878.000000;1.519917
9877.000000;1.520226
9876.000000;1.520370
9875.000000;1.519805
9874.000000;1.518363
9873.000000;1.516528
9872.000000;1.515264
9871.000000;1.515092
9870.000000;1.515421
9869.000000;1.515170
9868.000000;1.514000
9867.000000;1.512478
9866.000000;1.511167
9865.000000;1.510156
9864.000000;1.509476
9863.000000;1.509368
9862.000000;1.509898
9861.000000;1.510625
9860.000000;1.510879
9859.000000;1.510287
9858.000000;1.509007
9857.000000;1.507515
9856.000000;1.506181
9855.000000;1.504979
9854.000000;1.503585
9853.000000;1.501790
9852.000000;1.499848
9851.000000;1.498368
9850.000000;1.497934
9849.000000;1.498732
9848.000000;1.500277
9847.000000;1.501479
9846.000000;1.501357
9845.000000;1.499964
9844.000000;1.498332
9843.000000;1.497302
9842.000000;1.496647
9841.000000;1.495605
9840.000000;1.493991
9839.000000;1.492338
9838.000000;1.491076
9837.000000;1.490028
9836.000000;1.488769
9835.000000;1.487220
9834.000000;1.485868
9833.000000;1.485578
9832.000000;1.486955
9831.000000;1.489454
9830.000000;1.491289
9829.000000;1.490919
9828.000000;1.488744
9827.000000;1.486743
9826.000000;1.486286
9825.000000;1.486829
9824.000000;1.486880
9823.000000;1.485763
9822.000000;1.483986
9821.000000;1.482307
9820.000000;1.481008
9819.000000;1.479970
9818.000000;1.478973
9817.000000;1.477877
9816.000000;1.476809
9815.000000;1.476243
9814.000000;1.476593
9813.000000;1.477671
9812.000000;1.478721
9811.000000;1.479024
9810.000000;1.478333
9809.000000;1.476786
9808.000000;1.474674
9807.000000;1.472394
9806.000000;1.470398
9805.000000;1.468992
9804.000000;1.468222
9803.000000;1.467897
9802.000000;1.467636
9801.000000;1.467070
9800.000000;1.466224
9799.000000;1.465610
9798.000000;1.465637
9797.000000;1.465949
9796.000000;1.465749
9795.000000;1.464891
9794.000000;1.464160
9793.000000;1.464236
9792.000000;1.464832
9791.000000;1.465227
9790.000000;1.465247
9789.000000;1.465181
9788.000000;1.464987
9787.000000;1.464260
9786.000000;1.462966
9785.000000;1.461613
9784.000000;1.460583
9783.000000;1.459779
9782.000000;1.459042
9781.000000;1.458414
9780.000000;1.457851
9779.000000;1.457151
9778.000000;1.456376
9777.000000;1.455895
9776.000000;1.455735
9775.000000;1.455341
9774.000000;1.454334
9773.000000;1.453123
9772.000000;1.452320
9771.000000;1.451881
9770.000000;1.451265
9769.000000;1.450135
9768.000000;1.448414
9767.000000;1.445981
9766.000000;1.442971
9765.000000;1.440327
9764.000000;1.439381
9763.000000;1.440593
9762.000000;1.442985
9761.000000;1.444940
9760.000000;1.445468
9759.000000;1.444783
9758.000000;1.443913
9757.000000;1.443764
9756.000000;1.444242
9755.000000;1.444264
9754.000000;1.442874
9753.000000;1.440306
9752.000000;1.437596
9751.000000;1.435327
9750.000000;1.433344
9749.000000;1.431658
9748.000000;1.430823
9747.000000;1.431115
9746.000000;1.431828
9745.000000;1.431898
9744.000000;1.431125
9743.000000;1.430368
9742.000000;1.430517
9741.000000;1.431513
9740.000000;1.432375
9739.000000;1.432058
9738.000000;1.430359
9737.000000;1.428092
9736.000000;1.426404
9735.000000;1.425892
9734.000000;1.426313
9733.000000;1.426890
9732.000000;1.426764
9731.000000;1.425413
9730.000000;1.423039
9729.000000;1.420628
9728.000000;1.419239
9727.000000;1.419083
9726.000000;1.419453
9725.000000;1.419630
9724.000000;1.419572
9723.000000;1.419540
9722.000000;1.419296
9721.000000;1.418074
9720.000000;1.415412
9719.000000;1.411826
9718.000000;1.408592
9717.000000;1.406881
9716.000000;1.406966
9715.000000;1.408124
9714.000000;1.409245
9713.000000;1.409586
9712.000000;1.409041
9711.000000;1.407936
9710.000000;1.406837
9709.000000;1.406429
9708.000000;1.407134
9707.000000;1.408586
9706.000000;1.409689
9705.000000;1.409458
9704.000000;1.407845
9703.000000;1.405648
9702.000000;1.403720
9701.000000;1.402388
9700.000000;1.401502
9699.000000;1.400853
9698.000000;1.400466
9697.000000;1.400466
9696.000000;1.400634
9695.000000;1.400340
9694.000000;1.399169
9693.000000;1.397456
9692.000000;1.395937
9691.000000;1.394955
9690.000000;1.394295
9689.000000;1.393753
9688.000000;1.393431
9687.000000;1.393349
9686.000000;1.393142
9685.000000;1.392442
9684.000000;1.391392
9683.000000;1.390478
9682.000000;1.389871
9681.000000;1.389178
9680.000000;1.387946
9679.000000;1.386275
9678.000000;1.384839
9677.000000;1.384250
9676.000000;1.384469
9675.000000;1.384874
9674.000000;1.384909
9673.000000;1.384487
9672.000000;1.383702
9671.000000;1.382413
9670.000000;1.380464
9669.000000;1.378187
9668.000000;1.376340
9667.000000;1.375515
9666.000000;1.375787
9665.000000;1.376864
9664.000000;1.378301
9663.000000;1.379577
9662.000000;1.380257
9661.000000;1.380184
9660.000000;1.379347
9659.000000;1.377620
9658.000000;1.374986
9657.000000;1.372057
9656.000000;1.369961
9655.000000;1.369491
9654.000000;1.370468
9653.000000;1.371930
9652.000000;1.372903
9651.000000;1.373097
9650.000000;1.372955
9649.000000;1.372963
9648.000000;1.372892
9647.000000;1.371998
9646.000000;1.370174
9645.000000;1.368452
9644.000000;1.367835
9643.000000;1.367973
9642.000000;1.367623
9641.000000;1.366280
9640.000000;1.364613
9639.000000;1.363265
9638.000000;1.362084
9637.000000;1.360809
9636.000000;1.359753
9635.000000;1.359343
9634.000000;1.359480
9633.000000;1.359729
9632.000000;1.359763
9631.000000;1.359301
9630.000000;1.358087
9629.000000;1.356381
9628.000000;1.355072
9627.000000;1.354844
9626.000000;1.355507
9625.000000;1.356455
9624.000000;1.357366
9623.000000;1.358020
9622.000000;1.357871
9621.000000;1.356466
9620.000000;1.354184
9619.000000;1.351982
9618.000000;1.350420
9617.000000;1.349300
9616.000000;1.348190
9615.000000;1.346941
9614.000000;1.345751
9613.000000;1.344982
9612.000000;1.344838
9611.000000;1.345029
9610.000000;1.344924
9609.000000;1.344206
9608.000000;1.343153
9607.000000;1.342073
9606.000000;1.340805
9605.000000;1.339097
9604.000000;1.337221
9603.000000;1.335863
9602.000000;1.335614
9601.000000;1.336737
9600.000000;1.338995
9599.000000;1.341317
9598.000000;1.342107
9597.000000;1.340584
9596.000000;1.337668
9595.000000;1.335065
9594.000000;1.333664
9593.000000;1.333218
9592.000000;1.333144
9591.000000;1.332943
9590.000000;1.332117
9589.000000;1.330524
9588.000000;1.328861
9587.000000;1.328136
9586.000000;1.328591
9585.000000;1.329610
9584.000000;1.330596
9583.000000;1.331244
9582.000000;1.331030
9581.000000;1.329410
9580.000000;1.326837
9579.000000;1.324767
9578.000000;1.324134
9577.000000;1.324356
9576.000000;1.324266
9575.000000;1.323578
9574.000000;1.322897
9573.000000;1.322603
9572.000000;1.322421
9571.000000;1.322001
9570.000000;1.321385
9569.000000;1.320789
9568.000000;1.320260
9567.000000;1.319663
9566.000000;1.318832
9565.000000;1.317751
9564.000000;1.316733
9563.000000;1.316350
9562.000000;1.316914
9561.000000;1.317991
9560.000000;1.318574
9559.000000;1.317884
9558.000000;1.316048
9557.000000;1.313943
9556.000000;1.312381
9555.000000;1.311446
9554.000000;1.310625
9553.000000;1.309539
9552.000000;1.308402
9551.000000;1.307677
9550.000000;1.307435
9549.000000;1.307315
9548.000000;1.307088
9547.000000;1.306983
9546.000000;1.307328
9545.000000;1.307985
9544.000000;1.308268
9543.000000;1.307534
9542.000000;1.305907
9541.000000;1.304344
9540.000000;1.303760
9539.000000;1.304061
9538.000000;1.304264
9537.000000;1.303697
9536.000000;1.302707
9535.000000;1.301919
9534.000000;1.301209
9533.000000;1.299955
9532.000000;1.298166
9531.000000;1.296681
9530.000000;1.296155
9529.000000;1.296307
9528.000000;1.296363
9527.000000;1.295881
9526.000000;1.294922
9525.000000;1.293729
9524.000000;1.292522
9523.000000;1.291461
9522.000000;1.290579
9521.000000;1.289819
9520.000000;1.289233
9519.000000;1.288986
9518.000000;1.289082
9517.000000;1.289255
9516.000000;1.289293
9515.000000;1.289322
9514.000000;1.289625
9513.000000;1.290230
9512.000000;1.290759
9511.000000;1.290607
9510.000000;1.289316
9509.000000;1.286984
9508.000000;1.284356
9507.000000;1.282345
9506.000000;1.281367
9505.000000;1.281201
9504.000000;1.281409
9503.000000;1.281711
9502.000000;1.281945
9501.000000;1.281939
9500.000000;1.281590
9499.000000;1.280969
9498.000000;1.280241
9497.000000;1.279564
9496.000000;1.279057
9495.000000;1.278728
9494.000000;1.278463
9493.000000;1.278226
9492.000000;1.278185
9491.000000;1.278362
9490.000000;1.278263
9489.000000;1.277252
9488.000000;1.275424
9487.000000;1.273689
9486.000000;1.272809
9485.000000;1.272634
9484.000000;1.272483
9483.000000;1.271945
9482.000000;1.271081
9481.000000;1.270159
9480.000000;1.269531
9479.000000;1.269541
9478.000000;1.270114
9477.000000;1.270555
9476.000000;1.270164
9475.000000;1.269063
9474.000000;1.268052
9473.000000;1.267586
9472.000000;1.267251
9471.000000;1.266455
9470.000000;1.265311
9469.000000;1.264454
9468.000000;1.264105
9467.000000;1.263743
9466.000000;1.262813
9465.000000;1.261420
9464.000000;1.260025
9463.000000;1.258705
9462.000000;1.257245
9461.000000;1.255927
9460.000000;1.255578
9459.000000;1.256455
9458.000000;1.257551
9457.000000;1.257593
9456.000000;1.256508
9455.000000;1.255232
9454.000000;1.254255
9453.000000;1.253152
9452.000000;1.251642
9451.000000;1.250248
9450.000000;1.249491
9449.000000;1.249112
9448.000000;1.248661
9447.000000;1.248415
9446.000000;1.248986
9445.000000;1.250229
9444.000000;1.251223
9443.000000;1.251324
9442.000000;1.250727
9441.000000;1.249924
9440.000000;1.249139
9439.000000;1.248426
9438.000000;1.247913
9437.000000;1.247683
9436.000000;1.247619
9435.000000;1.247515
9434.000000;1.247219
9433.000000;1.246605
9432.000000;1.245600
9431.000000;1.244317
9430.000000;1.243034
9429.000000;1.241977
9428.000000;1.241216
9427.000000;1.240749
9426.000000;1.240571
9425.000000;1.240661
9424.000000;1.241025
9423.000000;1.241675
9422.000000;1.242372
9421.000000;1.242507
9420.000000;1.241548
9419.000000;1.239697
9418.000000;1.237813
9417.000000;1.236550
9416.000000;1.235800
9415.000000;1.235063
9414.000000;1.234148
9413.000000;1.233317
9412.000000;1.232875
9411.000000;1.232808
9410.000000;1.232870
9409.000000;1.232898
9408.000000;1.232975
9407.000000;1.233262
9406.000000;1.233667
9405.000000;1.233795
9404.000000;1.233310
9403.000000;1.232273
9402.000000;1.230978
9401.000000;1.229559
9400.000000;1.227988
9399.000000;1.226424
9398.000000;1.225248
9397.000000;1.224665
9396.000000;1.224489
9395.000000;1.224394
9394.000000;1.224181
9393.000000;1.223674
9392.000000;1.222662
9391.000000;1.221207
9390.000000;1.219871
9389.000000;1.219310
9388.000000;1.219655
9387.000000;1.220444
9386.000000;1.221166
9385.000000;1.221649
9384.000000;1.221894
9383.000000;1.221820
9382.000000;1.221367
9381.000000;1.220747
9380.000000;1.220364
9379.000000;1.220387
9378.000000;1.220509
9377.000000;1.220254
9376.000000;1.219534
9375.000000;1.218750
9374.000000;1.218332
9373.000000;1.218318
9372.000000;1.218465
9371.000000;1.218546
9370.000000;1.218326
9369.000000;1.217427
9368.000000;1.215632
9367.000000;1.213408
9366.000000;1.211765
9365.000000;1.211338
9364.000000;1.211742
9363.000000;1.211962
9362.000000;1.211308
9361.000000;1.209934
9360.000000;1.208626
9359.000000;1.208202
9358.000000;1.208894
9357.000000;1.210023
9356.000000;1.210432
9355.000000;1.209573
9354.000000;1.208070
9353.000000;1.206995
9352.000000;1.206737
9351.000000;1.206861
9350.000000;1.206832
9349.000000;1.206417
9348.000000;1.205483
9347.000000;1.203989
9346.000000;1.202388
9345.000000;1.201560
9344.000000;1.201893
9343.000000;1.202654
9342.000000;1.202713
9341.000000;1.201796
9340.000000;1.200667
9339.000000;1.200111
9338.000000;1.200152
9337.000000;1.200307
9336.000000;1.200170
9335.000000;1.199533
9334.000000;1.198258
9333.000000;1.196469
9332.000000;1.194825
9331.000000;1.194253
9330.000000;1.195139
9329.000000;1.196857
9328.000000;1.198228
9327.000000;1.198497
9326.000000;1.197825
9325.000000;1.196849
9324.000000;1.195912
9323.000000;1.194895
9322.000000;1.193666
9321.000000;1.192363
9320.000000;1.191192
9319.000000;1.190193
9318.000000;1.189356
9317.000000;1.188789
9316.000000;1.188579
9315.000000;1.188603
9314.000000;1.188678
9313.000000;1.188821
9312.000000;1.189164
9311.000000;1.189668
9310.000000;1.190129
9309.000000;1.190429
9308.000000;1.190532
9307.000000;1.190285
9306.000000;1.189475
9305.000000;1.188118
9304.000000;1.186536
9303.000000;1.185109
9302.000000;1.184076
9301.000000;1.183554
9300.000000;1.183470
9299.000000;1.183415
9298.000000;1.182844
9297.000000;1.181657
9296.000000;1.180449
9295.000000;1.179983
9294.000000;1.180464
9293.000000;1.181435
9292.000000;1.182198
9291.000000;1.182161
9290.000000;1.181066
9289.000000;1.179224
9288.000000;1.177451
9287.000000;1.176527
9286.000000;1.176620
9285.000000;1.177289
9284.000000;1.177963
9283.000000;1.178273
9282.000000;1.178024
9281.000000;1.177181
9280.000000;1.175980
9279.000000;1.174791
9278.000000;1.173749
9277.000000;1.172692
9276.000000;1.171582
9275.000000;1.170788
9274.000000;1.170709
9273.000000;1.171218
9272.000000;1.171713
9271.000000;1.171768
9270.000000;1.171557
9269.000000;1.171550
9268.000000;1.171877
9267.000000;1.172153
9266.000000;1.171920
9265.000000;1.171212
9264.000000;1.170591
9263.000000;1.170621
9262.000000;1.171319
9261.000000;1.172131
9260.000000;1.172404
9259.000000;1.171823
9258.000000;1.170416
9257.000000;1.168342
9256.000000;1.165911
9255.000000;1.163709
9254.000000;1.162393
9253.000000;1.162153
9252.000000;1.162434
9251.000000;1.162429
9250.000000;1.161901
9249.000000;1.161347
9248.000000;1.161296
9247.000000;1.161584
9246.000000;1.161470
9245.000000;1.160476
9244.000000;1.159006
9243.000000;1.158019
9242.000000;1.158082
9241.000000;1.158843
9240.000000;1.159478
9239.000000;1.159628
9238.000000;1.159714
9237.000000;1.160242
9236.000000;1.160974
9235.000000;1.161111
9234.000000;1.160332
9233.000000;1.159235
9232.000000;1.158515
9231.000000;1.158045
9230.000000;1.157205
9229.000000;1.155942
9228.000000;1.154943
9227.000000;1.154626
9226.000000;1.154492
9225.000000;1.153855
9224.000000;1.152784
9223.000000;1.151856
9222.000000;1.151276
9221.000000;1.150848
9220.000000;1.150695
9219.000000;1.151241
9218.000000;1.152283
9217.000000;1.152762
9216.000000;1.151974
9215.000000;1.150586
9214.000000;1.149856
9213.000000;1.150050
9212.000000;1.150233
9211.000000;1.149581
9210.000000;1.148379
9209.000000;1.147504
9208.000000;1.147402
9207.000000;1.147842
9206.000000;1.148366
9205.000000;1.148626
9204.000000;1.148428
9203.000000;1.147848
9202.000000;1.147331
9201.000000;1.147376
9200.000000;1.148005
9199.000000;1.148649
9198.000000;1.148674
9197.000000;1.147986
9196.000000;1.147025
9195.000000;1.146194
9194.000000;1.145444
9193.000000;1.144487
9192.000000;1.143295
9191.000000;1.142234
9190.000000;1.141649
9189.000000;1.141457
9188.000000;1.141260
9187.000000;1.140789
9186.000000;1.140137
9185.000000;1.139581
9184.000000;1.139317
9183.000000;1.139365
9182.000000;1.139606
9181.000000;1.139824
9180.000000;1.139782
9179.000000;1.139330
9178.000000;1.138476
9177.000000;1.137389
9176.000000;1.136408
9175.000000;1.135963
9174.000000;1.136280
9173.000000;1.137098
9172.000000;1.137793
9171.000000;1.137908
9170.000000;1.137503
9169.000000;1.136972
9168.000000;1.136623
9167.000000;1.136454
9166.000000;1.136219
9165.000000;1.135611
9164.000000;1.134512
9163.000000;1.133179
9162.000000;1.132118
9161.000000;1.131700
9160.000000;1.131904
9159.000000;1.132431
9158.000000;1.132973
9157.000000;1.133361
9156.000000;1.133584
9155.000000;1.133776
9154.000000;1.134055
9153.000000;1.134305
9152.000000;1.134254
9151.000000;1.133864
9150.000000;1.133405
9149.000000;1.132992
9148.000000;1.132274
9147.000000;1.130864
9146.000000;1.128993
9145.000000;1.127436
9144.000000;1.126794
9143.000000;1.127049
9142.000000;1.127741
9141.000000;1.128344
9140.000000;1.128523
9139.000000;1.128311
9138.000000;1.128078
9137.000000;1.128117
9136.000000;1.128262
9135.000000;1.128114
9134.000000;1.127601
9133.000000;1.127040
9132.000000;1.126651
9131.000000;1.126342
9130.000000;1.125994
9129.000000;1.125618
9128.000000;1.125122
9127.000000;1.124313
9126.000000;1.123324
9125.000000;1.122742
9124.000000;1.123052
9123.000000;1.124109
9122.000000;1.125305
9121.000000;1.126040
9120.000000;1.125875
9119.000000;1.124562
9118.000000;1.122346
9117.000000;1.120125
9116.000000;1.118936
9115.000000;1.119170
9114.000000;1.120348
9113.000000;1.121582
9112.000000;1.122189
9111.000000;1.121997
9110.000000;1.121299
9109.000000;1.120549
9108.000000;1.120051
9107.000000;1.119894
9106.000000;1.120069
9105.000000;1.120434
9104.000000;1.120594
9103.000000;1.120140
9102.000000;1.119167
9101.000000;1.118255
9100.000000;1.117768
9099.000000;1.117423
9098.000000;1.116823
9097.000000;1.116126
9096.000000;1.115816
9095.000000;1.116006
9094.000000;1.116326
9093.000000;1.116385
9092.000000;1.116051
9091.000000;1.115412
9090.000000;1.114828
9089.000000;1.114870
9088.000000;1.115752
9087.000000;1.116822
9086.000000;1.117040
9085.000000;1.116042
9084.000000;1.114430
9083.000000;1.112977
9082.000000;1.111977
9081.000000;1.111426
9080.000000;1.111331
9079.000000;1.111568
9078.000000;1.111736
9077.000000;1.111491
9076.000000;1.110910
9075.000000;1.110328
9074.000000;1.109969
9073.000000;1.109876
9072.000000;1.110009
9071.000000;1.110214
9070.000000;1.110230
9069.000000;1.109889
9068.000000;1.109245
9067.000000;1.108461
9066.000000;1.107729
9065.000000;1.107328
9064.000000;1.107521
9063.000000;1.108213
9062.000000;1.108904
9061.000000;1.109154
9060.000000;1.108974
9059.000000;1.108647
9058.000000;1.108350
9057.000000;1.108120
9056.000000;1.108004
9055.000000;1.107996
9054.000000;1.107931
9053.000000;1.107647
9052.000000;1.107191
9051.000000;1.106686
9050.000000;1.106089
9049.000000;1.105326
9048.000000;1.104609
9047.000000;1.104365
9046.000000;1.104786
9045.000000;1.105547
9044.000000;1.106072
9043.000000;1.106062
9042.000000;1.105758
9041.000000;1.105679
9040.000000;1.106054
9039.000000;1.106507
9038.000000;1.106410
9037.000000;1.105569
9036.000000;1.104396
9035.000000;1.103374
9034.000000;1.102593
9033.000000;1.101981
9032.000000;1.101703
9031.000000;1.101958
9030.000000;1.102483
9029.000000;1.102637
9028.000000;1.102050
9027.000000;1.100942
9026.000000;1.099752
9025.000000;1.098748
9024.000000;1.098099
9023.000000;1.098001
9022.000000;1.098431
9021.000000;1.098919
9020.000000;1.098855
9019.000000;1.098117
9018.000000;1.097230
9017.000000;1.096871
9016.000000;1.097265
9015.000000;1.098051
9014.000000;1.098620
9013.000000;1.098551
9012.000000;1.097838
9011.000000;1.096800
9010.000000;1.095794
9009.000000;1.094995
9008.000000;1.094460
9007.000000;1.094360
9006.000000;1.095002
9005.000000;1.096434
9004.000000;1.098029
9003.000000;1.098714
9002.000000;1.097885
9001.000000;1.096055
9000.000000;1.094439
8999.000000;1.093876
8998.000000;1.094268
8997.000000;1.095001
8996.000000;1.095641
8995.000000;1.096083
8994.000000;1.096270
8993.000000;1.096077
8992.000000;1.095505
8991.000000;1.094743
8990.000000;1.093962
8989.000000;1.093173
8988.000000;1.092416
8987.000000;1.091955
8986.000000;1.092124
8985.000000;1.092943
8984.000000;1.093963
8983.000000;1.094559
8982.000000;1.094363
8981.000000;1.093439
8980.000000;1.092134
8979.000000;1.090873
8978.000000;1.090063
8977.000000;1.089951
8976.000000;1.090404
8975.000000;1.090929
8974.000000;1.091083
8973.000000;1.090871
8972.000000;1.090573
8971.000000;1.090258
8970.000000;1.089723
8969.000000;1.088961
8968.000000;1.088394
8967.000000;1.088420
8966.000000;1.088901
8965.000000;1.089336
8964.000000;1.089459
8963.000000;1.089393
8962.000000;1.089266
8961.000000;1.088979
8960.000000;1.088500
8959.000000;1.088135
8958.000000;1.088275
8957.000000;1.088963
8956.000000;1.089879
8955.000000;1.090674
8954.000000;1.091165
8953.000000;1.091208
8952.000000;1.090629
8951.000000;1.089436
8950.000000;1.088000
8949.000000;1.086847
8948.000000;1.086258
8947.000000;1.086122
8946.000000;1.086142
8945.000000;1.086076
8944.000000;1.085778
8943.000000;1.085237
8942.000000;1.084709
8941.000000;1.084677
8940.000000;1.085393
8939.000000;1.086452
8938.000000;1.087041
8937.000000;1.086724
8936.000000;1.085824
8935.000000;1.084966
8934.000000;1.084434
8933.000000;1.084135
8932.000000;1.083998
8931.000000;1.084100
8930.000000;1.084416
8929.000000;1.084674
8928.000000;1.084565
8927.000000;1.083991
8926.000000;1.083099
8925.000000;1.082220
8924.000000;1.081822
8923.000000;1.082278
8922.000000;1.083464
8921.000000;1.084651
8920.000000;1.084993
8919.000000;1.084236
8918.000000;1.082881
8917.000000;1.081638
8916.000000;1.080817
8915.000000;1.080264
8914.000000;1.079783
8913.000000;1.079478
8912.000000;1.079617
8911.000000;1.080242
8910.000000;1.081018
8909.000000;1.081505
8908.000000;1.081552
8907.000000;1.081414
8906.000000;1.081487
8905.000000;1.081923
8904.000000;1.082461
8903.000000;1.082634
8902.000000;1.082209
8901.000000;1.081450
8900.000000;1.080905
8899.000000;1.080937
8898.000000;1.081476
8897.000000;1.082176
8896.000000;1.082678
8895.000000;1.082697
8894.000000;1.082075
8893.000000;1.080988
8892.000000;1.080001
8891.000000;1.079675
8890.000000;1.080023
8889.000000;1.080516
8888.000000;1.080624
8887.000000;1.080225
8886.000000;1.079461
8885.000000;1.078480
8884.000000;1.077489
8883.000000;1.076881
8882.000000;1.076989
8881.000000;1.077699
8880.000000;1.078518
8879.000000;1.079061
8878.000000;1.079299
8877.000000;1.079330
8876.000000;1.079168
8875.000000;1.078886
8874.000000;1.078732
8873.000000;1.078842
8872.000000;1.078926
8871.000000;1.078578
8870.000000;1.077893
8869.000000;1.077477
8868.000000;1.077728
8867.000000;1.078354
8866.000000;1.078768
8865.000000;1.078775
8864.000000;1.078654
8863.000000;1.078636
8862.000000;1.078603
8861.000000;1.078309
8860.000000;1.077689
8859.000000;1.076921
8858.000000;1.076336
8857.000000;1.076283
8856.000000;1.076854
8855.000000;1.077649
8854.000000;1.077959
8853.000000;1.077366
8852.000000;1.076112
8851.000000;1.074842
8850.000000;1.074105
8849.000000;1.074119
8848.000000;1.074801
8847.000000;1.075843
8846.000000;1.076872
8845.000000;1.077730
8844.000000;1.078490
8843.000000;1.079119
8842.000000;1.079316
8841.000000;1.078932
8840.000000;1.078411
8839.000000;1.078422
8838.000000;1.079026
8837.000000;1.079500
8836.000000;1.079113
8835.000000;1.077855
8834.000000;1.076330
8833.000000;1.075161
8832.000000;1.074675
8831.000000;1.074932
8830.000000;1.075765
8829.000000;1.076805
8828.000000;1.077683
8827.000000;1.078238
8826.000000;1.078465
8825.000000;1.078340
8824.000000;1.077892
8823.000000;1.077368
8822.000000;1.077120
8821.000000;1.077251
8820.000000;1.077493
8819.000000;1.077475
8818.000000;1.077069
8817.000000;1.076436
8816.000000;1.075856
8815.000000;1.075528
8814.000000;1.075462
8813.000000;1.075473
8812.000000;1.075365
8811.000000;1.075195
8810.000000;1.075280
8809.000000;1.075825
8808.000000;1.076588
8807.000000;1.077084
8806.000000;1.077151
8805.000000;1.077137
8804.000000;1.077401
8803.000000;1.077801
8802.000000;1.077900
8801.000000;1.077600
8800.000000;1.077305
8799.000000;1.077375
8798.000000;1.077719
8797.000000;1.078097
8796.000000;1.078542
8795.000000;1.079210
8794.000000;1.079932
8793.000000;1.080275
8792.000000;1.080038
8791.000000;1.079446
8790.000000;1.078845
8789.000000;1.078449
8788.000000;1.078398
8787.000000;1.078759
8786.000000;1.079325
8785.000000;1.079667
8784.000000;1.079554
8783.000000;1.079186
8782.000000;1.078905
8781.000000;1.078864
8780.000000;1.079069
8779.000000;1.079505
8778.000000;1.080033
8777.000000;1.080350
8776.000000;1.080298
8775.000000;1.080055
8774.000000;1.079827
8773.000000;1.079562
8772.000000;1.079227
8771.000000;1.079147
8770.000000;1.079651
8769.000000;1.080490
8768.000000;1.081037
8767.000000;1.081103
8766.000000;1.081154
8765.000000;1.081637
8764.000000;1.082406
8763.000000;1.083009
8762.000000;1.083277
8761.000000;1.083447
8760.000000;1.083854
8759.000000;1.084581
8758.000000;1.085276
8757.000000;1.085282
8756.000000;1.084240
8755.000000;1.082649
8754.000000;1.081570
8753.000000;1.081608
8752.000000;1.082438
8751.000000;1.083421
8750.000000;1.084341
8749.000000;1.085236
8748.000000;1.085802
8747.000000;1.085514
8746.000000;1.084350
8745.000000;1.083011
8744.000000;1.082296
8743.000000;1.082445
8742.000000;1.083113
8741.000000;1.083736
8740.000000;1.083880
8739.000000;1.083488
8738.000000;1.082989
8737.000000;1.083032
8736.000000;1.083944
8735.000000;1.085392
8734.000000;1.086641
8733.000000;1.087139
8732.000000;1.086895
8731.000000;1.086367
8730.000000;1.086083
8729.000000;1.086325
8728.000000;1.087033
8727.000000;1.087861
8726.000000;1.088329
8725.000000;1.088073
8724.000000;1.087131
8723.000000;1.085999
8722.000000;1.085273
8721.000000;1.085233
8720.000000;1.085767
8719.000000;1.086566
8718.000000;1.087246
8717.000000;1.087437
8716.000000;1.087089
8715.000000;1.086714
8714.000000;1.086992
8713.000000;1.087979
8712.000000;1.088973
8711.000000;1.089314
8710.000000;1.089071
8709.000000;1.088744
8708.000000;1.088637
8707.000000;1.088817
8706.000000;1.089406
8705.000000;1.090442
8704.000000;1.091519
8703.000000;1.092036
8702.000000;1.091833
8701.000000;1.091263
8700.000000;1.090631
8699.000000;1.089937
8698.000000;1.089241
8697.000000;1.088885
8696.000000;1.089113
8695.000000;1.089745
8694.000000;1.090431
8693.000000;1.091051
8692.000000;1.091699
8691.000000;1.092411
8690.000000;1.093060
8689.000000;1.093405
8688.000000;1.093186
8687.000000;1.092357
8686.000000;1.091347
8685.000000;1.090867
8684.000000;1.091240
8683.000000;1.092058
8682.000000;1.092686
8681.000000;1.092975
8680.000000;1.093257
8679.000000;1.093739
8678.000000;1.094203
8677.000000;1.094364
8676.000000;1.094284
8675.000000;1.094257
8674.000000;1.094387
8673.000000;1.094432
8672.000000;1.094120
8671.000000;1.093520
8670.000000;1.093019
8669.000000;1.092892
8668.000000;1.093011
8667.000000;1.093061
8666.000000;1.093000
8665.000000;1.093116
8664.000000;1.093561
8663.000000;1.094004
8662.000000;1.093936
8661.000000;1.093308
8660.000000;1.092706
8659.000000;1.092827
8658.000000;1.093783
8657.000000;1.094937
8656.000000;1.095458
8655.000000;1.095089
8654.000000;1.094321
8653.000000;1.093793
8652.000000;1.093603
8651.000000;1.093371
8650.000000;1.092864
8649.000000;1.092301
8648.000000;1.091976
8647.000000;1.091851
8646.000000;1.091700
8645.000000;1.091478
8644.000000;1.091300
8643.000000;1.091157
8642.000000;1.090907
8641.000000;1.090548
8640.000000;1.090321
8639.000000;1.090469
8638.000000;1.091008
8637.000000;1.091752
8636.000000;1.092451
8635.000000;1.092899
8634.000000;1.093019
8633.000000;1.092899
8632.000000;1.092651
8631.000000;1.092252
8630.000000;1.091600
8629.000000;1.090764
8628.000000;1.090067
8627.000000;1.089887
8626.000000;1.090400
8625.000000;1.091497
8624.000000;1.092818
8623.000000;1.093856
8622.000000;1.094184
8621.000000;1.093750
8620.000000;1.092967
8619.000000;1.092403
8618.000000;1.092380
8617.000000;1.092837
8616.000000;1.093514
8615.000000;1.094140
8614.000000;1.094491
8613.000000;1.094415
8612.000000;1.093885
8611.000000;1.093024
8610.000000;1.092046
8609.000000;1.091152
8608.000000;1.090479
8607.000000;1.090106
8606.000000;1.090070
8605.000000;1.090330
8604.000000;1.090718
8603.000000;1.090964
8602.000000;1.090854
8601.000000;1.090429
8600.000000;1.089988
8599.000000;1.089809
8598.000000;1.089857
8597.000000;1.089860
8596.000000;1.089700
8595.000000;1.089587
8594.000000;1.089751
8593.000000;1.090058
8592.000000;1.090145
8591.000000;1.089923
8590.000000;1.089737
8589.000000;1.089937
8588.000000;1.090434
8587.000000;1.090810
8586.000000;1.090761
8585.000000;1.090309
8584.000000;1.089680
8583.000000;1.089142
8582.000000;1.088920
8581.000000;1.089085
8580.000000;1.089457
8579.000000;1.089739
8578.000000;1.089780
8577.000000;1.089618
8576.000000;1.089299
8575.000000;1.088803
8574.000000;1.088181
8573.000000;1.087610
8572.000000;1.087212
8571.000000;1.086962
8570.000000;1.086884
8569.000000;1.087215
8568.000000;1.088158
8567.000000;1.089520
8566.000000;1.090732
8565.000000;1.091303
8564.000000;1.091171
8563.000000;1.090612
8562.000000;1.089965
8561.000000;1.089514
8560.000000;1.089441
8559.000000;1.089712
8558.000000;1.089987
8557.000000;1.089810
8556.000000;1.089002
8555.000000;1.087834
8554.000000;1.086792
8553.000000;1.086214
8552.000000;1.086160
8551.000000;1.086511
8550.000000;1.087054
8549.000000;1.087518
8548.000000;1.087667
8547.000000;1.087432
8546.000000;1.086910
8545.000000;1.086265
8544.000000;1.085700
8543.000000;1.085456
8542.000000;1.085677
8541.000000;1.086239
8540.000000;1.086840
8539.000000;1.087317
8538.000000;1.087722
8537.000000;1.087999
8536.000000;1.087828
8535.000000;1.087004
8534.000000;1.085866
8533.000000;1.085072
8532.000000;1.084980
8531.000000;1.085416
8530.000000;1.086034
8529.000000;1.086646
8528.000000;1.087121
8527.000000;1.087226
8526.000000;1.086773
8525.000000;1.085840
8524.000000;1.084735
8523.000000;1.083813
8522.000000;1.083374
8521.000000;1.083621
8520.000000;1.084523
8519.000000;1.085717
8518.000000;1.086664
8517.000000;1.086969
8516.000000;1.086555
8515.000000;1.085616
8514.000000;1.084493
8513.000000;1.083590
8512.000000;1.083239
8511.000000;1.083511
8510.000000;1.084145
8509.000000;1.084715
8508.000000;1.084947
8507.000000;1.084886
8506.000000;1.084732
8505.000000;1.084575
8504.000000;1.084366
8503.000000;1.084145
8502.000000;1.084123
8501.000000;1.084432
8500.000000;1.084876
8499.000000;1.085087
8498.000000;1.084889
8497.000000;1.084381
8496.000000;1.083700
8495.000000;1.082911
8494.000000;1.082176
8493.000000;1.081823
8492.000000;1.082055
8491.000000;1.082678
8490.000000;1.083231
8489.000000;1.083393
8488.000000;1.083202
8487.000000;1.082905
8486.000000;1.082689
8485.000000;1.082588
8484.000000;1.082594
8483.000000;1.082782
8482.000000;1.083251
8481.000000;1.083894
8480.000000;1.084332
8479.000000;1.084192
8478.000000;1.083482
8477.000000;1.082620
8476.000000;1.082050
8475.000000;1.081901
8474.000000;1.082014
8473.000000;1.082166
8472.000000;1.082217
8471.000000;1.082132
8470.000000;1.081976
8469.000000;1.081873
8468.000000;1.081922
8467.000000;1.082135
8466.000000;1.082456
8465.000000;1.082799
8464.000000;1.083049
8463.000000;1.083073
8462.000000;1.082805
8461.000000;1.082295
8460.000000;1.081701
8459.000000;1.081229
8458.000000;1.081055
8457.000000;1.081219
8456.000000;1.081529
8455.000000;1.081633
8454.000000;1.081273
8453.000000;1.080508
8452.000000;1.079690
8451.000000;1.079178
8450.000000;1.079034
8449.000000;1.078965
8448.000000;1.078648
8447.000000;1.078160
8446.000000;1.077974
8445.000000;1.078455
8444.000000;1.079415
8443.000000;1.080318
8442.000000;1.080857
8441.000000;1.081129
8440.000000;1.081267
8439.000000;1.081172
8438.000000;1.080767
8437.000000;1.080324
8436.000000;1.080257
8435.000000;1.080617
8434.000000;1.080955
8433.000000;1.080788
8432.000000;1.080113
8431.000000;1.079413
8430.000000;1.079161
8429.000000;1.079370
8428.000000;1.079654
8427.000000;1.079664
8426.000000;1.079398
8425.000000;1.079055
8424.000000;1.078730
8423.000000;1.078392
8422.000000;1.078104
8421.000000;1.078074
8420.000000;1.078413
8419.000000;1.078950
8418.000000;1.079330
8417.000000;1.079273
8416.000000;1.078723
8415.000000;1.077890
8414.000000;1.077162
8413.000000;1.076862
8412.000000;1.076986
8411.000000;1.077232
8410.000000;1.077317
8409.000000;1.077220
8408.000000;1.077105
8407.000000;1.077138
8406.000000;1.077435
8405.000000;1.078037
8404.000000;1.078802
8403.000000;1.079380
8402.000000;1.079473
8401.000000;1.079133
8400.000000;1.078705
8399.000000;1.078477
8398.000000;1.078466
8397.000000;1.078520
8396.000000;1.078548
8395.000000;1.078615
8394.000000;1.078853
8393.000000;1.079269
8392.000000;1.079618
8391.000000;1.079480
8390.000000;1.078588
8389.000000;1.077188
8388.000000;1.075998
8387.000000;1.075671
8386.000000;1.076237
8385.000000;1.077105
8384.000000;1.077665
8383.000000;1.077820
8382.000000;1.077829
8381.000000;1.077801
8380.000000;1.077575
8379.000000;1.077127
8378.000000;1.076776
8377.000000;1.076806
8376.000000;1.077079
8375.000000;1.077244
8374.000000;1.077179
8373.000000;1.076991
8372.000000;1.076707
8371.000000;1.076285
8370.000000;1.075907
8369.000000;1.075912
8368.000000;1.076366
8367.000000;1.076929
8366.000000;1.077230
8365.000000;1.077171
8364.000000;1.076815
8363.000000;1.076261
8362.000000;1.075770
8361.000000;1.075716
8360.000000;1.076185
8359.000000;1.076796
8358.000000;1.077111
8357.000000;1.077069
8356.000000;1.076825
8355.000000;1.076391
8354.000000;1.075715
8353.000000;1.074998
8352.000000;1.074609
8351.000000;1.074676
8350.000000;1.075003
8349.000000;1.075419
8348.000000;1.075949
8347.000000;1.076582
8346.000000;1.077105
8345.000000;1.077285
8344.000000;1.077123
8343.000000;1.076818
8342.000000;1.076603
8341.000000;1.076627
8340.000000;1.076876
8339.000000;1.077119
8338.000000;1.077027
8337.000000;1.076480
8336.000000;1.075706
8335.000000;1.075070
8334.000000;1.074731
8333.000000;1.074546
8332.000000;1.074285
8331.000000;1.073912
8330.000000;1.073673
8329.000000;1.073896
8328.000000;1.074633
8327.000000;1.075478
8326.000000;1.075827
8325.000000;1.075439
8324.000000;1.074714
8323.000000;1.074340
8322.000000;1.074604
8321.000000;1.075112
8320.000000;1.075222
8319.000000;1.074700
8318.000000;1.073859
8317.000000;1.073099
8316.000000;1.072531
8315.000000;1.072125
8314.000000;1.071997
8313.000000;1.072285
8312.000000;1.072821
8311.000000;1.073222
8310.000000;1.073340
8309.000000;1.073412
8308.000000;1.073660
8307.000000;1.073937
8306.000000;1.073934
8305.000000;1.073624
8304.000000;1.073334
8303.000000;1.073396
8302.000000;1.073811
8301.000000;1.074219
8300.000000;1.074180
8299.000000;1.073581
8298.000000;1.072786
8297.000000;1.072297
8296.000000;1.072231
8295.000000;1.072288
8294.000000;1.072221
8293.000000;1.072143
8292.000000;1.072224
8291.000000;1.072355
8290.000000;1.072342
8289.000000;1.072269
8288.000000;1.072337
8287.000000;1.072434
8286.000000;1.072178
8285.000000;1.071437
8284.000000;1.070565
8283.000000;1.070041
8282.000000;1.070035
8281.000000;1.070377
8280.000000;1.070763
8279.000000;1.070918
8278.000000;1.070708
8277.000000;1.070225
8276.000000;1.069721
8275.000000;1.069402
8274.000000;1.069299
8273.000000;1.069337
8272.000000;1.069470
8271.000000;1.069694
8270.000000;1.069995
8269.000000;1.070269
8268.000000;1.070304
8267.000000;1.069921
8266.000000;1.069250
8265.000000;1.068772
8264.000000;1.068926
8263.000000;1.069667
8262.000000;1.070519
8261.000000;1.071053
8260.000000;1.071194
8259.000000;1.071105
8258.000000;1.070957
8257.000000;1.070874
8256.000000;1.070929
8255.000000;1.071101
8254.000000;1.071303
8253.000000;1.071461
8252.000000;1.071490
8251.000000;1.071251
8250.000000;1.070677
8249.000000;1.069965
8248.000000;1.069463
8247.000000;1.069308
8246.000000;1.069351
8245.000000;1.069456
8244.000000;1.069671
8243.000000;1.070021
8242.000000;1.070339
8241.000000;1.070488
8240.000000;1.070553
8239.000000;1.070613
8238.000000;1.070443
8237.000000;1.069747
8236.000000;1.068666
8235.000000;1.067816
8234.000000;1.067718
8233.000000;1.068300
8232.000000;1.068988
8231.000000;1.069206
8230.000000;1.068810
8229.000000;1.068152
8228.000000;1.067766
8227.000000;1.067904
8226.000000;1.068356
8225.000000;1.068748
8224.000000;1.068950
8223.000000;1.069095
8222.000000;1.069225
8221.000000;1.069150
8220.000000;1.068754
8219.000000;1.068295
8218.000000;1.068193
8217.000000;1.068528
8216.000000;1.068865
8215.000000;1.068672
8214.000000;1.067880
8213.000000;1.066972
8212.000000;1.066470
8211.000000;1.066445
8210.000000;1.066603
8209.000000;1.066811
8208.000000;1.067298
8207.000000;1.068206
8206.000000;1.069132
8205.000000;1.069426
8204.000000;1.068930
8203.000000;1.068159
8202.000000;1.067682
8201.000000;1.067547
8200.000000;1.067464
8199.000000;1.067325
8198.000000;1.067301
8197.000000;1.067498
8196.000000;1.067757
8195.000000;1.067859
8194.000000;1.067740
8193.000000;1.067464
8192.000000;1.067092
8191.000000;1.066697
8190.000000;1.066437
8189.000000;1.066502
8188.000000;1.066953
8187.000000;1.067602
8186.000000;1.068076
8185.000000;1.068078
8184.000000;1.067627
8183.000000;1.067039
8182.000000;1.066627
8181.000000;1.066429
8180.000000;1.066256
8179.000000;1.065951
8178.000000;1.065537
8177.000000;1.065156
8176.000000;1.064972
8175.000000;1.065125
8174.000000;1.065644
8173.000000;1.066334
8172.000000;1.066843
8171.000000;1.066925
8170.000000;1.066635
8169.000000;1.066230
8168.000000;1.065907
8167.000000;1.065681
8166.000000;1.065488
8165.000000;1.065345
8164.000000;1.065350
8163.000000;1.065542
8162.000000;1.065779
8161.000000;1.065842
8160.000000;1.065678
8159.000000;1.065479
8158.000000;1.065445
8157.000000;1.065534
8156.000000;1.065515
8155.000000;1.065253
8154.000000;1.064826
8153.000000;1.064390
8152.000000;1.064050
8151.000000;1.063889
8150.000000;1.063982
8149.000000;1.064292
8148.000000;1.064623
8147.000000;1.064765
8146.000000;1.064667
8145.000000;1.064451
8144.000000;1.064285
8143.000000;1.064259
8142.000000;1.064332
8141.000000;1.064385
8140.000000;1.064349
8139.000000;1.064271
8138.000000;1.064195
8137.000000;1.064067
8136.000000;1.063854
8135.000000;1.063714
8134.000000;1.063884
8133.000000;1.064349
8132.000000;1.064790
8131.000000;1.064909
8130.000000;1.064716
8129.000000;1.064441
8128.000000;1.064284
8127.000000;1.064305
8126.000000;1.064421
8125.000000;1.064427
8124.000000;1.064153
8123.000000;1.063662
8122.000000;1.063195
8121.000000;1.062881
8120.000000;1.062660
8119.000000;1.062533
8118.000000;1.062654
8117.000000;1.063059
8116.000000;1.063527
8115.000000;1.063881
8114.000000;1.064207
8113.000000;1.064556
8112.000000;1.064641
8111.000000;1.064171
8110.000000;1.063376
8109.000000;1.062818
8108.000000;1.062703
8107.000000;1.062698
8106.000000;1.062459
8105.000000;1.062040
8104.000000;1.061693
8103.000000;1.061530
8102.000000;1.061536
8101.000000;1.061712
8100.000000;1.062023
8099.000000;1.062333
8098.000000;1.062519
8097.000000;1.062573
8096.000000;1.062519
8095.000000;1.062333
8094.000000;1.062052
8093.000000;1.061856
8092.000000;1.061922
8091.000000;1.062214
8090.000000;1.062477
8089.000000;1.062454
8088.000000;1.062093
8087.000000;1.061602
8086.000000;1.061276
8085.000000;1.061237
8084.000000;1.061367
8083.000000;1.061517
8082.000000;1.061689
8081.000000;1.061910
8080.000000;1.062047
8079.000000;1.061923
8078.000000;1.061578
8077.000000;1.061221
8076.000000;1.060963
8075.000000;1.060799
8074.000000;1.060829
8073.000000;1.061201
8072.000000;1.061782
8071.000000;1.062133
8070.000000;1.061985
8069.000000;1.061569
8068.000000;1.061342
8067.000000;1.061495
8066.000000;1.061850
8065.000000;1.062109
8064.000000;1.062080
8063.000000;1.061764
8062.000000;1.061366
8061.000000;1.061157
8060.000000;1.061239
8059.000000;1.061476
8058.000000;1.061691
8057.000000;1.061827
8056.000000;1.061900
8055.000000;1.061905
8054.000000;1.061851
8053.000000;1.061756
8052.000000;1.061538
8051.000000;1.061047
8050.000000;1.060308
8049.000000;1.059614
8048.000000;1.059253
8047.000000;1.059220
8046.000000;1.059313
8045.000000;1.059412
8044.000000;1.059536
8043.000000;1.059681
8042.000000;1.059745
8041.000000;1.059637
8040.000000;1.059389
8039.000000;1.059179
8038.000000;1.059228
8037.000000;1.059622
8036.000000;1.060183
8035.000000;1.060606
8034.000000;1.060755
8033.000000;1.060728
8032.000000;1.060631
8031.000000;1.060423
8030.000000;1.060086
8029.000000;1.059791
8028.000000;1.059766
8027.000000;1.060052
8026.000000;1.060472
8025.000000;1.060770
8024.000000;1.060726
8023.000000;1.060255
8022.000000;1.059522
8021.000000;1.058897
8020.000000;1.058689
8019.000000;1.058920
8018.000000;1.059383
8017.000000;1.059843
8016.000000;1.060148
8015.000000;1.060254
8014.000000;1.060233
8013.000000;1.060208
8012.000000;1.060231
8011.000000;1.060248
8010.000000;1.060189
8009.000000;1.059982
8008.000000;1.059518
8007.000000;1.058795
8006.000000;1.058125
8005.000000;1.057979
8004.000000;1.058498
8003.000000;1.059318
8002.000000;1.059947
8001.000000;1.060168
8000.000000;1.060002
7999.000000;1.059539
7998.000000;1.059002
7997.000000;1.058753
7996.000000;1.058934
7995.000000;1.059203
7994.000000;1.059050
7993.000000;1.058357
7992.000000;1.057480
7991.000000;1.056878
7990.000000;1.056828
7989.000000;1.057360
7988.000000;1.058211
7987.000000;1.058928
7986.000000;1.059255
7985.000000;1.059388
7984.000000;1.059643
7983.000000;1.059964
7982.000000;1.060043
7981.000000;1.059847
7980.000000;1.059687
7979.000000;1.059731
7978.000000;1.059774
7977.000000;1.059614
7976.000000;1.059396
7975.000000;1.059412
7974.000000;1.059715
7973.000000;1.060091
7972.000000;1.060316
7971.000000;1.060347
7970.000000;1.060293
7969.000000;1.060249
7968.000000;1.060150
7967.000000;1.059826
7966.000000;1.059306
7965.000000;1.058954
7964.000000;1.059110
7963.000000;1.059600
7962.000000;1.059850
7961.000000;1.059557
7960.000000;1.059033
7959.000000;1.058785
7958.000000;1.058925
7957.000000;1.059161
7956.000000;1.059225
7955.000000;1.059130
7954.000000;1.059063
7953.000000;1.059155
7952.000000;1.059360
7951.000000;1.059524
7950.000000;1.059573
7949.000000;1.059632
7948.000000;1.059872
7947.000000;1.060242
7946.000000;1.060458
7945.000000;1.060289
7944.000000;1.059770
7943.000000;1.059128
7942.000000;1.058621
7941.000000;1.058463
7940.000000;1.058712
7939.000000;1.059152
7938.000000;1.059389
7937.000000;1.059211
7936.000000;1.058800
7935.000000;1.058517
7934.000000;1.058557
7933.000000;1.058855
7932.000000;1.059224
7931.000000;1.059485
7930.000000;1.059548
7929.000000;1.059485
7928.000000;1.059467
7927.000000;1.059561
7926.000000;1.059634
7925.000000;1.059547
7924.000000;1.059350
7923.000000;1.059190
7922.000000;1.059093
7921.000000;1.058972
7920.000000;1.058832
7919.000000;1.058812
7918.000000;1.059014
7917.000000;1.059373
7916.000000;1.059728
7915.000000;1.059963
7914.000000;1.060052
7913.000000;1.060042
7912.000000;1.059991
7911.000000;1.059907
7910.000000;1.059728
7909.000000;1.059418
7908.000000;1.059096
7907.000000;1.059020
7906.000000;1.059367
7905.000000;1.060025
7904.000000;1.060617
7903.000000;1.060778
7902.000000;1.060448
7901.000000;1.059903
7900.000000;1.059515
7899.000000;1.059468
7898.000000;1.059700
7897.000000;1.060036
7896.000000;1.060318
7895.000000;1.060429
7894.000000;1.060324
7893.000000;1.060076
7892.000000;1.059853
7891.000000;1.059783
7890.000000;1.059847
7889.000000;1.059931
7888.000000;1.059944
7887.000000;1.059897
7886.000000;1.059878
7885.000000;1.059940
7884.000000;1.060005
7883.000000;1.059893
7882.000000;1.059532
7881.000000;1.059113
7880.000000;1.058946
7879.000000;1.059128
7878.000000;1.059447
7877.000000;1.059642
7876.000000;1.059689
7875.000000;1.059757
7874.000000;1.059969
7873.000000;1.060290
7872.000000;1.060600
7871.000000;1.060787
7870.000000;1.060779
7869.000000;1.060575
7868.000000;1.060261
7867.000000;1.059943
7866.000000;1.059665
7865.000000;1.059433
7864.000000;1.059310
7863.000000;1.059408
7862.000000;1.059780
7861.000000;1.060352
7860.000000;1.060952
7859.000000;1.061404
7858.000000;1.061591
7857.000000;1.061529
7856.000000;1.061383
7855.000000;1.061355
7854.000000;1.061481
7853.000000;1.061572
7852.000000;1.061403
7851.000000;1.060963
7850.000000;1.060469
7849.000000;1.060160
7848.000000;1.060110
7847.000000;1.060243
7846.000000;1.060442
7845.000000;1.060601
7844.000000;1.060637
7843.000000;1.060547
7842.000000;1.060458
7841.000000;1.060535
7840.000000;1.060813
7839.000000;1.061161
7838.000000;1.061418
7837.000000;1.061513
7836.000000;1.061446
7835.000000;1.061268
7834.000000;1.061140
7833.000000;1.061291
7832.000000;1.061787
7831.000000;1.062361
7830.000000;1.062625
7829.000000;1.062470
7828.000000;1.062150
7827.000000;1.061956
7826.000000;1.061920
7825.000000;1.061920
7824.000000;1.061953
7823.000000;1.062156
7822.000000;1.062561
7821.000000;1.062958
7820.000000;1.063075
7819.000000;1.062856
7818.000000;1.062504
7817.000000;1.062243
7816.000000;1.062111
7815.000000;1.061990
7814.000000;1.061814
7813.000000;1.061674
7812.000000;1.061718
7811.000000;1.062002
7810.000000;1.062445
7809.000000;1.062886
7808.000000;1.063160
7807.000000;1.063195
7806.000000;1.063093
7805.000000;1.063061
7804.000000;1.063185
7803.000000;1.063319
7802.000000;1.063278
7801.000000;1.063096
7800.000000;1.062984
7799.000000;1.063026
7798.000000;1.063076
7797.000000;1.063000
7796.000000;1.062892
7795.000000;1.062922
7794.000000;1.063066
7793.000000;1.063130
7792.000000;1.063054
7791.000000;1.063048
7790.000000;1.063371
7789.000000;1.064017
7788.000000;1.064696
7787.000000;1.065083
7786.000000;1.065051
7785.000000;1.064684
7784.000000;1.064158
7783.000000;1.063653
7782.000000;1.063361
7781.000000;1.063440
7780.000000;1.063893
7779.000000;1.064479
7778.000000;1.064853
7777.000000;1.064856
7776.000000;1.064640
7775.000000;1.064494
7774.000000;1.064554
7773.000000;1.064713
7772.000000;1.064781
7771.000000;1.064685
7770.000000;1.064506
7769.000000;1.064379
7768.000000;1.064367
7767.000000;1.064428
7766.000000;1.064474
7765.000000;1.064496
7764.000000;1.064621
7763.000000;1.064997
7762.000000;1.065567
7761.000000;1.066019
7760.000000;1.066036
7759.000000;1.065630
7758.000000;1.065146
7757.000000;1.064918
7756.000000;1.065010
7755.000000;1.065328
7754.000000;1.065825
7753.000000;1.066450
7752.000000;1.066968
7751.000000;1.067074
7750.000000;1.066769
7749.000000;1.066454
7748.000000;1.066509
7747.000000;1.066868
7746.000000;1.067120
7745.000000;1.066997
7744.000000;1.066647
7743.000000;1.066434
7742.000000;1.066582
7741.000000;1.067005
7740.000000;1.067425
7739.000000;1.067607
7738.000000;1.067540
7737.000000;1.067402
7736.000000;1.067360
7735.000000;1.067433
7734.000000;1.067575
7733.000000;1.067789
7732.000000;1.068077
7731.000000;1.068331
7730.000000;1.068427
7729.000000;1.068402
7728.000000;1.068434
7727.000000;1.068605
7726.000000;1.068812
7725.000000;1.068961
7724.000000;1.069123
7723.000000;1.069386
7722.000000;1.069609
7721.000000;1.069495
7720.000000;1.068946
7719.000000;1.068270
7718.000000;1.067970
7717.000000;1.068344
7716.000000;1.069275
7715.000000;1.070340
7714.000000;1.071114
7713.000000;1.071400
7712.000000;1.071284
7711.000000;1.071016
7710.000000;1.070817
7709.000000;1.070742
7708.000000;1.070713
7707.000000;1.070681
7706.000000;1.070718
7705.000000;1.070894
7704.000000;1.071112
7703.000000;1.071178
7702.000000;1.071061
7701.000000;1.070961
7700.000000;1.071058
7699.000000;1.071276
7698.000000;1.071415
7697.000000;1.071431
7696.000000;1.071457
7695.000000;1.071588
7694.000000;1.071789
7693.000000;1.072019
7692.000000;1.072311
7691.000000;1.072644
7690.000000;1.072866
7689.000000;1.072829
7688.000000;1.072588
7687.000000;1.072389
7686.000000;1.072486
7685.000000;1.072950
7684.000000;1.073608
7683.000000;1.074135
7682.000000;1.074290
7681.000000;1.074123
7680.000000;1.073941
7679.000000;1.074049
7678.000000;1.074526
7677.000000;1.075219
7676.000000;1.075865
7675.000000;1.076198
7674.000000;1.076073
7673.000000;1.075586
7672.000000;1.075051
7671.000000;1.074768
7670.000000;1.074808
7669.000000;1.075023
7668.000000;1.075224
7667.000000;1.075299
7666.000000;1.075245
7665.000000;1.075164
7664.000000;1.075236
7663.000000;1.075574
7662.000000;1.076083
7661.000000;1.076526
7660.000000;1.076737
7659.000000;1.076757
7658.000000;1.076748
7657.000000;1.076832
7656.000000;1.077026
7655.000000;1.077284
7654.000000;1.077539
7653.000000;1.077742
7652.000000;1.077901
7651.000000;1.078091
7650.000000;1.078390
7649.000000;1.078805
7648.000000;1.079270
7647.000000;1.079700
7646.000000;1.080037
7645.000000;1.080234
7644.000000;1.080252
7643.000000;1.080109
7642.000000;1.079924
7641.000000;1.079873
7640.000000;1.080064
7639.000000;1.080442
7638.000000;1.080827
7637.000000;1.081068
7636.000000;1.081199
7635.000000;1.081411
7634.000000;1.081840
7633.000000;1.082375
7632.000000;1.082730
7631.000000;1.082724
7630.000000;1.082445
7629.000000;1.082114
7628.000000;1.081876
7627.000000;1.081804
7626.000000;1.082022
7625.000000;1.082652
7624.000000;1.083596
7623.000000;1.084499
7622.000000;1.085004
7621.000000;1.085017
7620.000000;1.084688
7619.000000;1.084257
7618.000000;1.083961
7617.000000;1.084000
7616.000000;1.084438
7615.000000;1.085140
7614.000000;1.085875
7613.000000;1.086451
7612.000000;1.086756
7611.000000;1.086738
7610.000000;1.086497
7609.000000;1.086306
7608.000000;1.086415
7607.000000;1.086788
7606.000000;1.087155
7605.000000;1.087360
7604.000000;1.087549
7603.000000;1.087964
7602.000000;1.088608
7601.000000;1.089187
7600.000000;1.089379
7599.000000;1.089157
7598.000000;1.088861
7597.000000;1.088944
7596.000000;1.089561
7595.000000;1.090416
7594.000000;1.091037
7593.000000;1.091206
7592.000000;1.091082
7591.000000;1.090936
7590.000000;1.090863
7589.000000;1.090807
7588.000000;1.090747
7587.000000;1.090791
7586.000000;1.091077
7585.000000;1.091656
7584.000000;1.092427
7583.000000;1.093180
7582.000000;1.093723
7581.000000;1.094013
7580.000000;1.094157
7579.000000;1.094295
7578.000000;1.094524
7577.000000;1.094916
7576.000000;1.095501
7575.000000;1.096168
7574.000000;1.096661
7573.000000;1.096792
7572.000000;1.096667
7571.000000;1.096612
7570.000000;1.096865
7569.000000;1.097358
7568.000000;1.097830
7567.000000;1.098106
7566.000000;1.098239
7565.000000;1.098392
7564.000000;1.098648
7563.000000;1.098966
7562.000000;1.099285
7561.000000;1.099607
7560.000000;1.099959
7559.000000;1.100324
7558.000000;1.100659
7557.000000;1.100970
7556.000000;1.101309
7555.000000;1.101689
7554.000000;1.102044
7553.000000;1.102277
7552.000000;1.102331
7551.000000;1.102220
7550.000000;1.102034
7549.000000;1.101936
7548.000000;1.102115
7547.000000;1.102674
7546.000000;1.103537
7545.000000;1.104467
7544.000000;1.105203
7543.000000;1.105597
7542.000000;1.105682
7541.000000;1.105622
7540.000000;1.105610
7539.000000;1.105790
7538.000000;1.106189
7537.000000;1.106694
7536.000000;1.107114
7535.000000;1.107342
7534.000000;1.107472
7533.000000;1.107702
7532.000000;1.108114
7531.000000;1.108610
7530.000000;1.109063
7529.000000;1.109436
7528.000000;1.109715
7527.000000;1.109849
7526.000000;1.109881
7525.000000;1.110053
7524.000000;1.110614
7523.000000;1.111486
7522.000000;1.112284
7521.000000;1.112705
7520.000000;1.112846
7519.000000;1.113041
7518.000000;1.113473
7517.000000;1.114025
7516.000000;1.114491
7515.000000;1.114824
7514.000000;1.115113
7513.000000;1.115390
7512.000000;1.115581
7511.000000;1.115666
7510.000000;1.115802
7509.000000;1.116168
7508.000000;1.116742
7507.000000;1.117329
7506.000000;1.117805
7505.000000;1.118222
7504.000000;1.118643
7503.000000;1.119017
7502.000000;1.119290
7501.000000;1.119540
7500.000000;1.119875
7499.000000;1.120270
7498.000000;1.120625
7497.000000;1.120908
7496.000000;1.121188
7495.000000;1.121505
7494.000000;1.121945
7493.000000;1.122561
7492.000000;1.123322
7491.000000;1.124058
7490.000000;1.124469
7489.000000;1.124502
7488.000000;1.124386
7487.000000;1.124432
7486.000000;1.124804
7485.000000;1.125478
7484.000000;1.126280
7483.000000;1.126963
7482.000000;1.127385
7481.000000;1.127644
7480.000000;1.127949
7479.000000;1.128355
7478.000000;1.128728
7477.000000;1.128986
7476.000000;1.129253
7475.000000;1.129711
7474.000000;1.130405
7473.000000;1.131249
7472.000000;1.132114
7471.000000;1.132839
7470.000000;1.133239
7469.000000;1.133233
7468.000000;1.132988
7467.000000;1.132873
7466.000000;1.133220
7465.000000;1.134076
7464.000000;1.135126
7463.000000;1.135918
7462.000000;1.136230
7461.000000;1.136229
7460.000000;1.136218
7459.000000;1.136308
7458.000000;1.136417
7457.000000;1.136537
7456.000000;1.136790
7455.000000;1.137235
7454.000000;1.137764
7453.000000;1.138293
7452.000000;1.138896
7451.000000;1.139661
7450.000000;1.140483
7449.000000;1.141112
7448.000000;1.141389
7447.000000;1.141404
7446.000000;1.141436
7445.000000;1.141749
7444.000000;1.142391
7443.000000;1.143166
7442.000000;1.143835
7441.000000;1.144337
7440.000000;1.144748
7439.000000;1.145082
7438.000000;1.145264
7437.000000;1.145299
7436.000000;1.145343
7435.000000;1.145533
7434.000000;1.145876
7433.000000;1.146324
7432.000000;1.146856
7431.000000;1.147425
7430.000000;1.147920
7429.000000;1.148284
7428.000000;1.148604
7427.000000;1.149029
7426.000000;1.149627
7425.000000;1.150317
7424.000000;1.150897
7423.000000;1.151162
7422.000000;1.151091
7421.000000;1.150913
7420.000000;1.150934
7419.000000;1.151261
7418.000000;1.151748
7417.000000;1.152202
7416.000000;1.152575
7415.000000;1.152963
7414.000000;1.153490
7413.000000;1.154184
7412.000000;1.154900
7411.000000;1.155396
7410.000000;1.155581
7409.000000;1.155664
7408.000000;1.155909
7407.000000;1.156309
7406.000000;1.156650
7405.000000;1.156856
7404.000000;1.157068
7403.000000;1.157371
7402.000000;1.157655
7401.000000;1.157835
7400.000000;1.158030
7399.000000;1.158376
7398.000000;1.158826
7397.000000;1.159249
7396.000000;1.159564
7395.000000;1.159727
7394.000000;1.159815
7393.000000;1.160090
7392.000000;1.160747
7391.000000;1.161597
7390.000000;1.162253
7389.000000;1.162640
7388.000000;1.163041
7387.000000;1.163597
7386.000000;1.164113
7385.000000;1.164392
7384.000000;1.164379
7383.000000;1.163993
7382.000000;1.163259
7381.000000;1.162672
7380.000000;1.162949
7379.000000;1.164147
7378.000000;1.165436
7377.000000;1.166028
7376.000000;1.165973
7375.000000;1.165913
7374.000000;1.166338
7373.000000;1.167283
7372.000000;1.168525
7371.000000;1.169677
7370.000000;1.170266
7369.000000;1.170183
7368.000000;1.169934
7367.000000;1.170041
7366.000000;1.170439
7365.000000;1.170842
7364.000000;1.171256
7363.000000;1.171782
7362.000000;1.172313
7361.000000;1.172704
7360.000000;1.173076
7359.000000;1.173604
7358.000000;1.174136
7357.000000;1.174333
7356.000000;1.174167
7355.000000;1.174050
7354.000000;1.174376
7353.000000;1.175209
7352.000000;1.176393
7351.000000;1.177618
7350.000000;1.178389
7349.000000;1.178385
7348.000000;1.177894
7347.000000;1.177561
7346.000000;1.177663
7345.000000;1.177930
7344.000000;1.178007
7343.000000;1.177657
7342.000000;1.176772
7341.000000;1.175661
7340.000000;1.175348
7339.000000;1.176877
7338.000000;1.180021
7337.000000;1.183348
7336.000000;1.185651
7335.000000;1.186764
7334.000000;1.187177
7333.000000;1.187301
7332.000000;1.187216
7331.000000;1.186855
7330.000000;1.186075
7329.000000;1.184824
7328.000000;1.183626
7327.000000;1.183585
7326.000000;1.185214
7325.000000;1.187686
7324.000000;1.189857
7323.000000;1.191413
7322.000000;1.192716
7321.000000;1.193993
7320.000000;1.195126
7319.000000;1.195974
7318.000000;1.196389
7317.000000;1.196253
7316.000000;1.195811
7315.000000;1.195719
7314.000000;1.196372
7313.000000;1.197311
7312.000000;1.197802
7311.000000;1.197925
7310.000000;1.198362
7309.000000;1.199176
7308.000000;1.199712
7307.000000;1.199811
7306.000000;1.200318
7305.000000;1.201900
7304.000000;1.204096
7303.000000;1.206081
7302.000000;1.207499
7301.000000;1.208324
7300.000000;1.208549
7299.000000;1.208411
7298.000000;1.208573
7297.000000;1.209506
7296.000000;1.210881
7295.000000;1.211892
7294.000000;1.212271
7293.000000;1.212667
7292.000000;1.213771
7291.000000;1.215544
7290.000000;1.217347
7289.000000;1.218469
7288.000000;1.218703
7287.000000;1.218627
7286.000000;1.219146
7285.000000;1.220564
7284.000000;1.222335
7283.000000;1.223857
7282.000000;1.225122
7281.000000;1.226487
7280.000000;1.228087
7279.000000;1.229705
7278.000000;1.231137
7277.000000;1.232363
7276.000000;1.233396
7275.000000;1.234285
7274.000000;1.235228
7273.000000;1.236407
7272.000000;1.237780
7271.000000;1.239210
7270.000000;1.240690
7269.000000;1.242276
7268.000000;1.243910
7267.000000;1.245490
7266.000000;1.246994
7265.000000;1.248398
7264.000000;1.249576
7263.000000;1.250540
7262.000000;1.251673
7261.000000;1.253442
7260.000000;1.255857
7259.000000;1.258439
7258.000000;1.260678
7257.000000;1.262368
7256.000000;1.263536
7255.000000;1.264268
7254.000000;1.264758
7253.000000;1.265450
7252.000000;1.266950
7251.000000;1.269513
7250.000000;1.272784
7249.000000;1.276078
7248.000000;1.278784
7247.000000;1.280674
7246.000000;1.281891
7245.000000;1.282637
7244.000000;1.283057
7243.000000;1.283620
7242.000000;1.285264
7241.000000;1.288597
7240.000000;1.293130
7239.000000;1.297751
7238.000000;1.301583
7237.000000;1.304271
7236.000000;1.305858
7235.000000;1.306574
7234.000000;1.306739
7233.000000;1.306958
7232.000000;1.308312
7231.000000;1.311699
7230.000000;1.316904
7229.000000;1.322679
7228.000000;1.327614
7227.000000;1.331036
7226.000000;1.333454
7225.000000;1.336011
7224.000000;1.339325
7223.000000;1.343036
7222.000000;1.346395
7221.000000;1.349050
7220.000000;1.351366
7219.000000;1.354162
7218.000000;1.357949
7217.000000;1.362417
7216.000000;1.366814
7215.000000;1.370741
7214.000000;1.374366
7213.000000;1.377968
7212.000000;1.381626
7211.000000;1.385356
7210.000000;1.389236
7209.000000;1.393155
7208.000000;1.396665
7207.000000;1.399412
7206.000000;1.401649
7205.000000;1.404097
7204.000000;1.407425
7203.000000;1.411946
7202.000000;1.417542
7201.000000;1.423614
7200.000000;1.429309
7199.000000;1.434163
7198.000000;1.438435
7197.000000;1.442680
7196.000000;1.447142
7195.000000;1.451779
7194.000000;1.456600
7193.000000;1.461609
7192.000000;1.466569
7191.000000;1.471191
7190.000000;1.475536
7189.000000;1.479942
7188.000000;1.484668
7187.000000;1.489819
7186.000000;1.495403
7185.000000;1.501137
7184.000000;1.506298
7183.000000;1.510291
7182.000000;1.513536
7181.000000;1.517372
7180.000000;1.522700
7179.000000;1.529079
7178.000000;1.535495
7177.000000;1.541485
7176.000000;1.547210
7175.000000;1.552947
7174.000000;1.558745
7173.000000;1.564400
7172.000000;1.569592
7171.000000;1.574073
7170.000000;1.577978
7169.000000;1.581922
7168.000000;1.586710
7167.000000;1.592747
7166.000000;1.599730
7165.000000;1.607031
7164.000000;1.614172
7163.000000;1.620836
7162.000000;1.626795
7161.000000;1.632113
7160.000000;1.637235
7159.000000;1.642572
7158.000000;1.648185
7157.000000;1.654009
7156.000000;1.660056
7155.000000;1.666266
7154.000000;1.672268
7153.000000;1.677649
7152.000000;1.682581
7151.000000;1.687727
7150.000000;1.693398
7149.000000;1.699255
7148.000000;1.704918
7147.000000;1.710428
7146.000000;1.715978
7145.000000;1.721489
7144.000000;1.726720
7143.000000;1.731713
7142.000000;1.736863
7141.000000;1.742506
7140.000000;1.748621
7139.000000;1.754972
7138.000000;1.761337
7137.000000;1.767578
7136.000000;1.773682
7135.000000;1.779757
7134.000000;1.785871
7133.000000;1.791904
7132.000000;1.797718
7131.000000;1.803416
7130.000000;1.809185
7129.000000;1.814886
7128.000000;1.820044
7127.000000;1.824453
7126.000000;1.828640
7125.000000;1.833348
7124.000000;1.838686
7123.000000;1.844136
7122.000000;1.849362
7121.000000;1.854543
7120.000000;1.859708
7119.000000;1.864280
7118.000000;1.867853
7117.000000;1.871207
7116.000000;1.875808
7115.000000;1.882211
7114.000000;1.889453
7113.000000;1.896015
7112.000000;1.901111
7111.000000;1.905111
7110.000000;1.908954
7109.000000;1.913268
7108.000000;1.917999
7107.000000;1.922796
7106.000000;1.927601
7105.000000;1.932682
7104.000000;1.938022
7103.000000;1.942916
7102.000000;1.946712
7101.000000;1.949869
7100.000000;1.953618
7099.000000;1.958468
7098.000000;1.963538
7097.000000;1.967518
7096.000000;1.969994
7095.000000;1.971695
7094.000000;1.973762
7093.000000;1.976948
7092.000000;1.981193
7091.000000;1.985657
7090.000000;1.989396
7089.000000;1.992253
7088.000000;1.994941
7087.000000;1.998164
7086.000000;2.001965
7085.000000;2.006063
7084.000000;2.010355
7083.000000;2.014689
7082.000000;2.018495
7081.000000;2.021244
7080.000000;2.023184
7079.000000;2.025342
7078.000000;2.028792
7077.000000;2.033816
7076.000000;2.039474
7075.000000;2.043999
7074.000000;2.046158
7073.000000;2.046570
7072.000000;2.047298
7071.000000;2.049871
7070.000000;2.053972
7069.000000;2.058106
7068.000000;2.061075
7067.000000;2.062538
7066.000000;2.062781
7065.000000;2.062757
7064.000000;2.064063
7063.000000;2.067934
7062.000000;2.073862
7061.000000;2.079618
7060.000000;2.082998
7059.000000;2.083621
7058.000000;2.083054
7057.000000;2.083284
7056.000000;2.085161
7055.000000;2.088136
7054.000000;2.091193
7053.000000;2.093923
7052.000000;2.096660
7051.000000;2.099710
7050.000000;2.102778
7049.000000;2.105276
7048.000000;2.106908
7047.000000;2.107714
7046.000000;2.107882
7045.000000;2.107867
7044.000000;2.108414
7043.000000;2.109949
7042.000000;2.112028
7041.000000;2.113796
7040.000000;2.114948
7039.000000;2.115924
7038.000000;2.117177
7037.000000;2.118602
7036.000000;2.119783
7035.000000;2.120594
7034.000000;2.121444
7033.000000;2.122895
7032.000000;2.125018
7031.000000;2.127216
7030.000000;2.128748
7029.000000;2.129428
7028.000000;2.129587
7027.000000;2.129401
7026.000000;2.128830
7025.000000;2.128335
7024.000000;2.129010
7023.000000;2.131526
7022.000000;2.135357
7021.000000;2.139533
7020.000000;2.143728
7019.000000;2.147839
7018.000000;2.150858
7017.000000;2.151406
7016.000000;2.149668
7015.000000;2.147793
7014.000000;2.147803
7013.000000;2.149706
7012.000000;2.151929
7011.000000;2.153144
7010.000000;2.153212
7009.000000;2.152597
7008.000000;2.151654
7007.000000;2.150671
7006.000000;2.150156
7005.000000;2.150745
7004.000000;2.152755
7003.000000;2.155748
7002.000000;2.158519
7001.000000;2.159865
7000.000000;2.159678
6999.000000;2.158960
6998.000000;2.158661
6997.000000;2.158891
6996.000000;2.159385
6995.000000;2.160370
6994.000000;2.162476
6993.000000;2.165826
6992.000000;2.169507
6991.000000;2.172071
6990.000000;2.172701
6989.000000;2.171876
6988.000000;2.170854
6987.000000;2.170593
6986.000000;2.171092
6985.000000;2.171652
6984.000000;2.171690
6983.000000;2.171330
6982.000000;2.171283
6981.000000;2.172045
6980.000000;2.173194
6979.000000;2.173610
6978.000000;2.172520
6977.000000;2.170373
6976.000000;2.168524
6975.000000;2.167954
6974.000000;2.168286
6973.000000;2.168149
6972.000000;2.166706
6971.000000;2.164871
6970.000000;2.164798
6969.000000;2.167784
6968.000000;2.172583
6967.000000;2.176003
6966.000000;2.175690
6965.000000;2.172520
6964.000000;2.169735
6963.000000;2.169656
6962.000000;2.171687
6961.000000;2.173463
6960.000000;2.173538
6959.000000;2.172541
6958.000000;2.171816
6957.000000;2.171625
6956.000000;2.171041
6955.000000;2.169343
6954.000000;2.167132
6953.000000;2.165978
6952.000000;2.167016
6951.000000;2.169797
6950.000000;2.172541
6949.000000;2.173800
6948.000000;2.173899
6947.000000;2.174341
6946.000000;2.175661
6945.000000;2.176362
6944.000000;2.174564
6943.000000;2.170560
6942.000000;2.166938
6941.000000;2.165979
6940.000000;2.167582
6939.000000;2.169977
6938.000000;2.171907
6937.000000;2.173471
6936.000000;2.174961
6935.000000;2.175781
6934.000000;2.174945
6933.000000;2.172253
6932.000000;2.168644
6931.000000;2.165581
6930.000000;2.164179
6929.000000;2.164499
6928.000000;2.165402
6927.000000;2.165417
6926.000000;2.164113
6925.000000;2.162453
6924.000000;2.161648
6923.000000;2.161967
6922.000000;2.162802
6921.000000;2.163467
6920.000000;2.163554
6919.000000;2.162954
6918.000000;2.162075
6917.000000;2.161656
6916.000000;2.161848
6915.000000;2.161808
6914.000000;2.160841
6913.000000;2.159623
6912.000000;2.159434
6911.000000;2.160261
6910.000000;2.160578
6909.000000;2.159330
6908.000000;2.157441
6907.000000;2.156757
6906.000000;2.157912
6905.000000;2.159680
6904.000000;2.160181
6903.000000;2.158490
6902.000000;2.155347
6901.000000;2.152504
6900.000000;2.151296
6899.000000;2.151702
6898.000000;2.152740
6897.000000;2.153577
6896.000000;2.154057
6895.000000;2.154453
6894.000000;2.155251
6893.000000;2.156979
6892.000000;2.159433
6891.000000;2.160997
6890.000000;2.159782
6889.000000;2.155984
6888.000000;2.152236
6887.000000;2.150997
6886.000000;2.152231
6885.000000;2.153997
6884.000000;2.154757
6883.000000;2.154491
6882.000000;2.153865
6881.000000;2.153217
6880.000000;2.152471
6879.000000;2.151463
6878.000000;2.150200
6877.000000;2.148992
6876.000000;2.148157
6875.000000;2.147419
6874.000000;2.145983
6873.000000;2.143592
6872.000000;2.141081
6871.000000;2.139466
6870.000000;2.138924
6869.000000;2.139180
6868.000000;2.140304
6867.000000;2.142290
6866.000000;2.144179
6865.000000;2.144652
6864.000000;2.143585
6863.000000;2.142023
6862.000000;2.140540
6861.000000;2.138711
6860.000000;2.136437
6859.000000;2.134697
6858.000000;2.134220
6857.000000;2.134289
6856.000000;2.133780
6855.000000;2.132806
6854.000000;2.132380
6853.000000;2.132763
6852.000000;2.133193
6851.000000;2.133225
6850.000000;2.133393
6849.000000;2.134145
6848.000000;2.134765
6847.000000;2.133982
6846.000000;2.131492
6845.000000;2.128335
6844.000000;2.125795
6843.000000;2.124356
6842.000000;2.123670
6841.000000;2.123158
6840.000000;2.122450
6839.000000;2.121370
6838.000000;2.119876
6837.000000;2.118249
6836.000000;2.117187
6835.000000;2.117196
6834.000000;2.117819
6833.000000;2.117863
6832.000000;2.116550
6831.000000;2.114258
6830.000000;2.111925
6829.000000;2.110033
6828.000000;2.108484
6827.000000;2.107191
6826.000000;2.106173
6825.000000;2.105084
6824.000000;2.103367
6823.000000;2.101089
6822.000000;2.099064
6821.000000;2.097826
6820.000000;2.096898
6819.000000;2.095494
6818.000000;2.093643
6817.000000;2.092017
6816.000000;2.090779
6815.000000;2.089320
6814.000000;2.087266
6813.000000;2.085108
6812.000000;2.083530
6811.000000;2.082524
6810.000000;2.081491
6809.000000;2.079991
6808.000000;2.078082
6807.000000;2.076001
6806.000000;2.073895
6805.000000;2.071881
6804.000000;2.070045
6803.000000;2.068252
6802.000000;2.066111
6801.000000;2.063348
6800.000000;2.060240
6799.000000;2.057570
6798.000000;2.056041
6797.000000;2.055617
6796.000000;2.055436
6795.000000;2.054520
6794.000000;2.052694
6793.000000;2.050610
6792.000000;2.048807
6791.000000;2.046987
6790.000000;2.044385
6789.000000;2.040689
6788.000000;2.036384
6787.000000;2.032318
6786.000000;2.029180
6785.000000;2.027329
6784.000000;2.026699
6783.000000;2.026666
6782.000000;2.026298
6781.000000;2.024994
6780.000000;2.022779
6779.000000;2.020005
6778.000000;2.017006
6777.000000;2.014147
6776.000000;2.011872
6775.000000;2.010335
6774.000000;2.009016
6773.000000;2.007036
6772.000000;2.004005
6771.000000;2.000472
6770.000000;1.997417
6769.000000;1.995308
6768.000000;1.993726
6767.000000;1.991912
6766.000000;1.989607
6765.000000;1.987258
6764.000000;1.985445
6763.000000;1.984259
6762.000000;1.983304
6761.000000;1.982093
6760.000000;1.980336
6759.000000;1.977994
6758.000000;1.975289
6757.000000;1.972620
6756.000000;1.970214
6755.000000;1.967848
6754.000000;1.965186
6753.000000;1.962401
6752.000000;1.960128
6751.000000;1.958659
6750.000000;1.957441
6749.000000;1.955605
6748.000000;1.952860
6747.000000;1.949715
6746.000000;1.946887
6745.000000;1.944708
6744.000000;1.943049
6743.000000;1.941589
6742.000000;1.940071
6741.000000;1.938353
6740.000000;1.936316
6739.000000;1.933849
6738.000000;1.930987
6737.000000;1.928032
6736.000000;1.925383
6735.000000;1.923226
6734.000000;1.921437
6733.000000;1.919781
6732.000000;1.918046
6731.000000;1.915999
6730.000000;1.913484
6729.000000;1.910692
6728.000000;1.908137
6727.000000;1.906162
6726.000000;1.904541
6725.000000;1.902683
6724.000000;1.900189
6723.000000;1.897133
6722.000000;1.893893
6721.000000;1.890846
6720.000000;1.888157
6719.000000;1.885721
6718.000000;1.883331
6717.000000;1.880965
6716.000000;1.878817
6715.000000;1.876939
6714.000000;1.874963
6713.000000;1.872381
6712.000000;1.869115
6711.000000;1.865677
6710.000000;1.862791
6709.000000;1.860806
6708.000000;1.859522
6707.000000;1.858366
6706.000000;1.856802
6705.000000;1.854809
6704.000000;1.852836
6703.000000;1.851143
6702.000000;1.849323
6701.000000;1.846706
6700.000000;1.843186
6699.000000;1.839657
6698.000000;1.837048
6697.000000;1.835567
6696.000000;1.834598
6695.000000;1.833292
6694.000000;1.831222
6693.000000;1.828569
6692.000000;1.825845
6691.000000;1.823406
6690.000000;1.821154
6689.000000;1.818700
6688.000000;1.815883
6687.000000;1.813049
6686.000000;1.810757
6685.000000;1.809261
6684.000000;1.808358
6683.000000;1.807653
6682.000000;1.806806
6681.000000;1.805541
6680.000000;1.803624
6679.000000;1.800998
6678.000000;1.797904
6677.000000;1.794754
6676.000000;1.791852
6675.000000;1.789275
6674.000000;1.787034
6673.000000;1.785219
6672.000000;1.783845
6671.000000;1.782594
6670.000000;1.780847
6669.000000;1.778158
6668.000000;1.774709
6667.000000;1.771214
6666.000000;1.768335
6665.000000;1.766218
6664.000000;1.764585
6663.000000;1.763171
6662.000000;1.761940
6661.000000;1.760859
6660.000000;1.759599
6659.000000;1.757648
6658.000000;1.754819
6657.000000;1.751551
6656.000000;1.748616
6655.000000;1.746503
6654.000000;1.745105
6653.000000;1.743946
6652.000000;1.742606
6651.000000;1.740920
6650.000000;1.738904
6649.000000;1.736606
6648.000000;1.734059
6647.000000;1.731334
6646.000000;1.728623
6645.000000;1.726223
6644.000000;1.724313
6643.000000;1.722718
6642.000000;1.721004
6641.000000;1.718889
6640.000000;1.716523
6639.000000;1.714252
6638.000000;1.712212
6637.000000;1.710286
6636.000000;1.708377
6635.000000;1.706534
6634.000000;1.704791
6633.000000;1.703077
6632.000000;1.701339
6631.000000;1.699606
6630.000000;1.697865
6629.000000;1.696026
6628.000000;1.694103
6627.000000;1.692301
6626.000000;1.690770
6625.000000;1.689354
6624.000000;1.687758
6623.000000;1.685928
6622.000000;1.684094
6621.000000;1.682433
6620.000000;1.680833
6619.000000;1.679030
6618.000000;1.676874
6617.000000;1.674401
6616.000000;1.671773
6615.000000;1.669209
6614.000000;1.666922
6613.000000;1.665015
6612.000000;1.663424
6611.000000;1.661992
6610.000000;1.660581
6609.000000;1.659122
6608.000000;1.657604
6607.000000;1.656055
6606.000000;1.654510
6605.000000;1.652982
6604.000000;1.651451
6603.000000;1.649879
6602.000000;1.648219
6601.000000;1.646413
6600.000000;1.644420
6599.000000;1.642282
6598.000000;1.640139
6597.000000;1.638156
6596.000000;1.636430
6595.000000;1.634915
6594.000000;1.633450
6593.000000;1.631862
6592.000000;1.630099
6591.000000;1.628247
6590.000000;1.626399
6589.000000;1.624550
6588.000000;1.622654
6587.000000;1.620749
6586.000000;1.618958
6585.000000;1.617375
6584.000000;1.615993
6583.000000;1.614731
6582.000000;1.613455
6581.000000;1.612003
6580.000000;1.610286
6579.000000;1.608371
6578.000000;1.606394
6577.000000;1.604391
6576.000000;1.602312
6575.000000;1.600227
6574.000000;1.598381
6573.000000;1.596940
6572.000000;1.595748
6571.000000;1.594438
6570.000000;1.592776
6569.000000;1.590806
6568.000000;1.588719
6567.000000;1.586684
6566.000000;1.584840
6565.000000;1.583321
6564.000000;1.582176
6563.000000;1.581260
6562.000000;1.580278
6561.000000;1.579005
6560.000000;1.577472
6559.000000;1.575895
6558.000000;1.574411
6557.000000;1.572940
6556.000000;1.571359
6555.000000;1.569726
6554.000000;1.568213
6553.000000;1.566841
6552.000000;1.565419
6551.000000;1.563823
6550.000000;1.562208
6549.000000;1.560823
6548.000000;1.559654
6547.000000;1.558366
6546.000000;1.556641
6545.000000;1.554525
6544.000000;1.552415
6543.000000;1.550712
6542.000000;1.549482
6541.000000;1.548432
6540.000000;1.547242
6539.000000;1.545877
6538.000000;1.544543
6537.000000;1.543382
6536.000000;1.542318
6535.000000;1.541202
6534.000000;1.539986
6533.000000;1.538682
6532.000000;1.537283
6531.000000;1.535808
6530.000000;1.534330
6529.000000;1.532864
6528.000000;1.531318
6527.000000;1.529644
6526.000000;1.527970
6525.000000;1.526468
6524.000000;1.525120
6523.000000;1.523756
6522.000000;1.522291
6521.000000;1.520817
6520.000000;1.519464
6519.000000;1.518286
6518.000000;1.517284
6517.000000;1.516414
6516.000000;1.515549
6515.000000;1.514517
6514.000000;1.513232
6513.000000;1.511731
6512.000000;1.510083
6511.000000;1.508338
6510.000000;1.506575
6509.000000;1.504940
6508.000000;1.503568
6507.000000;1.502465
6506.000000;1.501468
6505.000000;1.500315
6504.000000;1.498840
6503.000000;1.497149
6502.000000;1.495542
6501.000000;1.494199
6500.000000;1.493022
6499.000000;1.491839
6498.000000;1.490670
6497.000000;1.489629
6496.000000;1.488655
6495.000000;1.487544
6494.000000;1.486233
6493.000000;1.484862
6492.000000;1.483516
6491.000000;1.482127
6490.000000;1.480695
6489.000000;1.479405
6488.000000;1.478384
6487.000000;1.477485
6486.000000;1.476459
6485.000000;1.475245
6484.000000;1.473979
6483.000000;1.472781
6482.000000;1.471678
6481.000000;1.470678
6480.000000;1.469759
6479.000000;1.468806
6478.000000;1.467677
6477.000000;1.466373
6476.000000;1.465064
6475.000000;1.463910
6474.000000;1.462919
6473.000000;1.461979
6472.000000;1.460979
6471.000000;1.459886
6470.000000;1.458731
6469.000000;1.457568
6468.000000;1.456432
6467.000000;1.455330
6466.000000;1.454280
6465.000000;1.453313
6464.000000;1.452434
6463.000000;1.451578
6462.000000;1.450623
6461.000000;1.449445
6460.000000;1.447996
6459.000000;1.446387
6458.000000;1.444873
6457.000000;1.443681
6456.000000;1.442809
6455.000000;1.442031
6454.000000;1.441121
6453.000000;1.440046
6452.000000;1.438941
6451.000000;1.437960
6450.000000;1.437187
6449.000000;1.436589
6448.000000;1.435980
6447.000000;1.435083
6446.000000;1.433747
6445.000000;1.432126
6444.000000;1.430595
6443.000000;1.429447
6442.000000;1.428685
6441.000000;1.428066
6440.000000;1.427325
6439.000000;1.426361
6438.000000;1.425265
6437.000000;1.424159
6436.000000;1.423057
6435.000000;1.421882
6434.000000;1.420625
6433.000000;1.419406
6432.000000;1.418364
6431.000000;1.417514
6430.000000;1.416750
6429.000000;1.415953
6428.000000;1.415065
6427.000000;1.414118
6426.000000;1.413219
6425.000000;1.412469
6424.000000;1.411835
6423.000000;1.411138
6422.000000;1.410256
6421.000000;1.409301
6420.000000;1.408516
6419.000000;1.407965
6418.000000;1.407403
6417.000000;1.406510
6416.000000;1.405216
6415.000000;1.403762
6414.000000;1.402472
6413.000000;1.401500
6412.000000;1.400768
6411.000000;1.400090
6410.000000;1.399320
6409.000000;1.398431
6408.000000;1.397498
6407.000000;1.396623
6406.000000;1.395834
6405.000000;1.395044
6404.000000;1.394120
6403.000000;1.393018
6402.000000;1.391828
6401.000000;1.390679
6400.000000;1.389654
6399.000000;1.388793
6398.000000;1.388129
6397.000000;1.387642
6396.000000;1.387191
6395.000000;1.386590
6394.000000;1.385757
6393.000000;1.384773
6392.000000;1.383770
6391.000000;1.382824
6390.000000;1.381940
6389.000000;1.381104
6388.000000;1.380298
6387.000000;1.379514
6386.000000;1.378763
6385.000000;1.378064
6384.000000;1.377418
6383.000000;1.376813
6382.000000;1.376230
6381.000000;1.375595
6380.000000;1.374780
6379.000000;1.373728
6378.000000;1.372572
6377.000000;1.371548
6376.000000;1.370734
6375.000000;1.369968
6374.000000;1.369062
6373.000000;1.368031
6372.000000;1.367062
6371.000000;1.366308
6370.000000;1.365784
6369.000000;1.365403
6368.000000;1.365043
6367.000000;1.364592
6366.000000;1.363996
6365.000000;1.363279
6364.000000;1.362490
6363.000000;1.361641
6362.000000;1.360731
6361.000000;1.359807
6360.000000;1.358961
6359.000000;1.358245
6358.000000;1.357626
6357.000000;1.357024
6356.000000;1.356395
6355.000000;1.355778
6354.000000;1.355261
6353.000000;1.354876
6352.000000;1.354527
6351.000000;1.354044
6350.000000;1.353325
6349.000000;1.352433
6348.000000;1.351533
6347.000000;1.350755
6346.000000;1.350123
6345.000000;1.349558
6344.000000;1.348940
6343.000000;1.348177
6342.000000;1.347265
6341.000000;1.346292
6340.000000;1.345388
6339.000000;1.344648
6338.000000;1.344085
6337.000000;1.343609
6336.000000;1.343090
6335.000000;1.342492
6334.000000;1.341918
6333.000000;1.341474
6332.000000;1.341097
6331.000000;1.340595
6330.000000;1.339866
6329.000000;1.339007
6328.000000;1.338178
6327.000000;1.337453
6326.000000;1.336829
6325.000000;1.336301
6324.000000;1.335843
6323.000000;1.335388
6322.000000;1.334887
6321.000000;1.334360
6320.000000;1.333822
6319.000000;1.333219
6318.000000;1.332514
6317.000000;1.331793
6316.000000;1.331179
6315.000000;1.330636
6314.000000;1.329989
6313.000000;1.329169
6312.000000;1.328361
6311.000000;1.327827
6310.000000;1.327615
6309.000000;1.327491
6308.000000;1.327174
6307.000000;1.326608
6306.000000;1.325966
6305.000000;1.325408
6304.000000;1.324882
6303.000000;1.324219
6302.000000;1.323391
6301.000000;1.322575
6300.000000;1.321931
6299.000000;1.321390
6298.000000;1.320772
6297.000000;1.320058
6296.000000;1.319428
6295.000000;1.319001
6294.000000;1.318657
6293.000000;1.318173
6292.000000;1.317484
6291.000000;1.316741
6290.000000;1.316133
6289.000000;1.315726
6288.000000;1.315463
6287.000000;1.315249
6286.000000;1.314994
6285.000000;1.314618
6284.000000;1.314073
6283.000000;1.313397
6282.000000;1.312707
6281.000000;1.312098
6280.000000;1.311556
6279.000000;1.310990
6278.000000;1.310352
6277.000000;1.309703
6276.000000;1.309130
6275.000000;1.308632
6274.000000;1.308128
6273.000000;1.307568
6272.000000;1.307014
6271.000000;1.306583
6270.000000;1.306321
6269.000000;1.306122
6268.000000;1.305805
6267.000000;1.305279
6266.000000;1.304637
6265.000000;1.304055
6264.000000;1.303608
6263.000000;1.303207
6262.000000;1.302730
6261.000000;1.302164
6260.000000;1.301566
6259.000000;1.300956
6258.000000;1.300314
6257.000000;1.299694
6256.000000;1.299224
6255.000000;1.298961
6254.000000;1.298783
6253.000000;1.298501
6252.000000;1.298048
6251.000000;1.297495
6250.000000;1.296916
6249.000000;1.296299
6248.000000;1.295630
6247.000000;1.294978
6246.000000;1.294451
6245.000000;1.294073
6244.000000;1.293772
6243.000000;1.293482
6242.000000;1.293203
6241.000000;1.292943
6240.000000;1.292653
6239.000000;1.292260
6238.000000;1.291753
6237.000000;1.291195
6236.000000;1.290650
6235.000000;1.290149
6234.000000;1.289705
6233.000000;1.289329
6232.000000;1.289013
6231.000000;1.288715
6230.000000;1.288406
6229.000000;1.288106
6228.000000;1.287848
6227.000000;1.287610
6226.000000;1.287298
6225.000000;1.286825
6224.000000;1.286210
6223.000000;1.285579
6222.000000;1.285065
6221.000000;1.284688
6220.000000;1.284362
6219.000000;1.283993
6218.000000;1.283574
6217.000000;1.283175
6216.000000;1.282855
6215.000000;1.282610
6214.000000;1.282371
6213.000000;1.282074
6212.000000;1.281719
6211.000000;1.281380
6210.000000;1.281125
6209.000000;1.280938
6208.000000;1.280720
6207.000000;1.280390
6206.000000;1.279942
6205.000000;1.279421
6204.000000;1.278875
6203.000000;1.278349
6202.000000;1.277880
6201.000000;1.277476
6200.000000;1.277112
6199.000000;1.276764
6198.000000;1.276429
6197.000000;1.276102
6196.000000;1.275756
6195.000000;1.275392
6194.000000;1.275057
6193.000000;1.274778
6192.000000;1.274520
6191.000000;1.274236
6190.000000;1.273932
6189.000000;1.273622
6188.000000;1.273265
6187.000000;1.272819
6186.000000;1.272332
6185.000000;1.271920
6184.000000;1.271633
6183.000000;1.271415
6182.000000;1.271190
6181.000000;1.270929
6180.000000;1.270613
6179.000000;1.270218
6178.000000;1.269748
6177.000000;1.269261
6176.000000;1.268818
6175.000000;1.268424
6174.000000;1.268047
6173.000000;1.267668
6172.000000;1.267297
6171.000000;1.266965
6170.000000;1.266702
6169.000000;1.266515
6168.000000;1.266378
6167.000000;1.266258
6166.000000;1.266145
6165.000000;1.266014
6164.000000;1.265804
6163.000000;1.265457
6162.000000;1.265009
6161.000000;1.264560
6160.000000;1.264166
6159.000000;1.263795
6158.000000;1.263413
6157.000000;1.263057
6156.000000;1.262786
6155.000000;1.262593
6154.000000;1.262404
6153.000000;1.262136
6152.000000;1.261756
6151.000000;1.261281
6150.000000;1.260771
6149.000000;1.260305
6148.000000;1.259950
6147.000000;1.259731
6146.000000;1.259607
6145.000000;1.259494
6144.000000;1.259320
6143.000000;1.259097
6142.000000;1.258894
6141.000000;1.258722
6140.000000;1.258482
6139.000000;1.258093
6138.000000;1.257633
6137.000000;1.257288
6136.000000;1.257142
6135.000000;1.257090
6134.000000;1.256982
6133.000000;1.256781
6132.000000;1.256534
6131.000000;1.256255
6130.000000;1.255905
6129.000000;1.255476
6128.000000;1.255044
6127.000000;1.254725
6126.000000;1.254588
6125.000000;1.254597
6124.000000;1.254615
6123.000000;1.254490
6122.000000;1.254166
6121.000000;1.253715
6120.000000;1.253265
6119.000000;1.252911
6118.000000;1.252667
6117.000000;1.252472
6116.000000;1.252227
6115.000000;1.251869
6114.000000;1.251436
6113.000000;1.251029
6112.000000;1.250716
6111.000000;1.250479
6110.000000;1.250274
6109.000000;1.250102
6108.000000;1.249978
6107.000000;1.249880
6106.000000;1.249755
6105.000000;1.249568
6104.000000;1.249333
6103.000000;1.249085
6102.000000;1.248850
6101.000000;1.248631
6100.000000;1.248421
6099.000000;1.248232
6098.000000;1.248079
6097.000000;1.247949
6096.000000;1.247779
6095.000000;1.247508
6094.000000;1.247143
6093.000000;1.246756
6092.000000;1.246424
6091.000000;1.246184
6090.000000;1.246036
6089.000000;1.245956
6088.000000;1.245884
6087.000000;1.245755
6086.000000;1.245539
6085.000000;1.245255
6084.000000;1.244953
6083.000000;1.244698
6082.000000;1.244539
6081.000000;1.244459
6080.000000;1.244365
6079.000000;1.244179
6078.000000;1.243931
6077.000000;1.243715
6076.000000;1.243563
6075.000000;1.243412
6074.000000;1.243208
6073.000000;1.242982
6072.000000;1.242798
6071.000000;1.242667
6070.000000;1.242548
6069.000000;1.242394
6068.000000;1.242171
6067.000000;1.241869
6066.000000;1.241526
6065.000000;1.241223
6064.000000;1.241033
6063.000000;1.240961
6062.000000;1.240943
6061.000000;1.240874
6060.000000;1.240681
6059.000000;1.240381
6058.000000;1.240084
6057.000000;1.239891
6056.000000;1.239798
6055.000000;1.239711
6054.000000;1.239568
6053.000000;1.239397
6052.000000;1.239252
6051.000000;1.239147
6050.000000;1.239059
6049.000000;1.238954
6048.000000;1.238803
6047.000000;1.238597
6046.000000;1.238355
6045.000000;1.238095
6044.000000;1.237793
6043.000000;1.237441
6042.000000;1.237125
6041.000000;1.236975
6040.000000;1.237016
6039.000000;1.237111
6038.000000;1.237109
6037.000000;1.236989
6036.000000;1.236833
6035.000000;1.236696
6034.000000;1.236562
6033.000000;1.236398
6032.000000;1.236197
6031.000000;1.235988
6030.000000;1.235812
6029.000000;1.235689
6028.000000;1.235602
6027.000000;1.235516
6026.000000;1.235432
6025.000000;1.235388
6024.000000;1.235400
6023.000000;1.235442
6022.000000;1.235501
6021.000000;1.235581
6020.000000;1.235650
6019.000000;1.235614
6018.000000;1.235420
6017.000000;1.235129
6016.000000;1.234859
6015.000000;1.234675
6014.000000;1.234572
6013.000000;1.234525
6012.000000;1.234510
6011.000000;1.234482
6010.000000;1.234404
6009.000000;1.234284
6008.000000;1.234160
6007.000000;1.234049
6006.000000;1.233942
6005.000000;1.233836
6004.000000;1.233727
6003.000000;1.233581
6002.000000;1.233375
6001.000000;1.233166
6000.000000;1.233062
5999.000000;1.233085
5998.000000;1.233117
5997.000000;1.233028
5996.000000;1.232839
5995.000000;1.232709
5994.000000;1.232748
5993.000000;1.232883
5992.000000;1.232935
5991.000000;1.232813
5990.000000;1.232581
5989.000000;1.232361
5988.000000;1.232213
5987.000000;1.232146
5986.000000;1.232168
5985.000000;1.232285
5984.000000;1.232457
5983.000000;1.232612
5982.000000;1.232702
5981.000000;1.232724
5980.000000;1.232676
5979.000000;1.232556
5978.000000;1.232382
5977.000000;1.232194
5976.000000;1.232023
5975.000000;1.231881
5974.000000;1.231770
5973.000000;1.231674
5972.000000;1.231564
5971.000000;1.231447
5970.000000;1.231409
5969.000000;1.231534
5968.000000;1.231777
5967.000000;1.231971
5966.000000;1.232001
5965.000000;1.231892
5964.000000;1.231746
5963.000000;1.231621
5962.000000;1.231525
5961.000000;1.231461
5960.000000;1.231418
5959.000000;1.231353
5958.000000;1.231251
5957.000000;1.231178
5956.000000;1.231220
5955.000000;1.231384
5954.000000;1.231581
5953.000000;1.231722
5952.000000;1.231784
5951.000000;1.231798
5950.000000;1.231808
5949.000000;1.231862
5948.000000;1.231985
5947.000000;1.232150
5946.000000;1.232277
5945.000000;1.232302
5944.000000;1.232219
5943.000000;1.232068
5942.000000;1.231886
5941.000000;1.231686
5940.000000;1.231497
5939.000000;1.231395
5938.000000;1.231449
5937.000000;1.231643
5936.000000;1.231880
5935.000000;1.232063
5934.000000;1.232170
5933.000000;1.232227
5932.000000;1.232237
5931.000000;1.232198
5930.000000;1.232155
5929.000000;1.232183
5928.000000;1.232305
5927.000000;1.232452
5926.000000;1.232522
5925.000000;1.232468
5924.000000;1.232334
5923.000000;1.232225
5922.000000;1.232241
5921.000000;1.232385
5920.000000;1.232564
5919.000000;1.232685
5918.000000;1.232751
5917.000000;1.232813
5916.000000;1.232859
5915.000000;1.232836
5914.000000;1.232779
5913.000000;1.232822
5912.000000;1.233031
5911.000000;1.233286
5910.000000;1.233403
5909.000000;1.233359
5908.000000;1.233311
5907.000000;1.233412
5906.000000;1.233655
5905.000000;1.233912
5904.000000;1.234077
5903.000000;1.234143
5902.000000;1.234172
5901.000000;1.234206
5900.000000;1.234249
5899.000000;1.234299
5898.000000;1.234388
5897.000000;1.234537
5896.000000;1.234717
5895.000000;1.234871
5894.000000;1.234976
5893.000000;1.235044
5892.000000;1.235065
5891.000000;1.235015
5890.000000;1.234911
5889.000000;1.234834
5888.000000;1.234847
5887.000000;1.234929
5886.000000;1.235017
5885.000000;1.235067
5884.000000;1.235090
5883.000000;1.235127
5882.000000;1.235236
5881.000000;1.235456
5880.000000;1.235756
5879.000000;1.236033
5878.000000;1.236191
5877.000000;1.236219
5876.000000;1.236185
5875.000000;1.236178
5874.000000;1.236262
5873.000000;1.236447
5872.000000;1.236690
5871.000000;1.236930
5870.000000;1.237153
5869.000000;1.237385
5868.000000;1.237631
5867.000000;1.237855
5866.000000;1.238056
5865.000000;1.238288
5864.000000;1.238588
5863.000000;1.238906
5862.000000;1.239157
5861.000000;1.239310
5860.000000;1.239387
5859.000000;1.239402
5858.000000;1.239372
5857.000000;1.239364
5856.000000;1.239462
5855.000000;1.239675
5854.000000;1.239922
5853.000000;1.240131
5852.000000;1.240296
5851.000000;1.240440
5850.000000;1.240575
5849.000000;1.240726
5848.000000;1.240948
5847.000000;1.241268
5846.000000;1.241631
5845.000000;1.241944
5844.000000;1.242159
5843.000000;1.242303
5842.000000;1.242430
5841.000000;1.242593
5840.000000;1.242836
5839.000000;1.243182
5838.000000;1.243599
5837.000000;1.244016
5836.000000;1.244394
5835.000000;1.244747
5834.000000;1.245099
5833.000000;1.245428
5832.000000;1.245707
5831.000000;1.245966
5830.000000;1.246264
5829.000000;1.246597
5828.000000;1.246886
5827.000000;1.247073
5826.000000;1.247205
5825.000000;1.247378
5824.000000;1.247634
5823.000000;1.247941
5822.000000;1.248265
5821.000000;1.248609
5820.000000;1.248984
5819.000000;1.249362
5818.000000;1.249691
5817.000000;1.249936
5816.000000;1.250117
5815.000000;1.250286
5814.000000;1.250484
5813.000000;1.250712
5812.000000;1.250956
5811.000000;1.251235
5810.000000;1.251585
5809.000000;1.252008
5808.000000;1.252446
5807.000000;1.252847
5806.000000;1.253214
5805.000000;1.253588
5804.000000;1.253990
5803.000000;1.254409
5802.000000;1.254818
5801.000000;1.255188
5800.000000;1.255488
5799.000000;1.255725
5798.000000;1.255958
5797.000000;1.256258
5796.000000;1.256643
5795.000000;1.257085
5794.000000;1.257552
5793.000000;1.258021
5792.000000;1.258474
5791.000000;1.258918
5790.000000;1.259408
5789.000000;1.259971
5788.000000;1.260535
5787.000000;1.260970
5786.000000;1.261227
5785.000000;1.261406
5784.000000;1.261655
5783.000000;1.262044
5782.000000;1.262533
5781.000000;1.263043
5780.000000;1.263517
5779.000000;1.263922
5778.000000;1.264253
5777.000000;1.264536
5776.000000;1.264836
5775.000000;1.265232
5774.000000;1.265760
5773.000000;1.266371
5772.000000;1.266965
5771.000000;1.267493
5770.000000;1.267992
5769.000000;1.268516
5768.000000;1.269054
5767.000000;1.269543
5766.000000;1.269944
5765.000000;1.270286
5764.000000;1.270645
5763.000000;1.271105
5762.000000;1.271713
5761.000000;1.272419
5760.000000;1.273093
5759.000000;1.273649
5758.000000;1.274145
5757.000000;1.274722
5756.000000;1.275428
5755.000000;1.276162
5754.000000;1.276790
5753.000000;1.277281
5752.000000;1.277719
5751.000000;1.278221
5750.000000;1.278852
5749.000000;1.279591
5748.000000;1.280335
5747.000000;1.280979
5746.000000;1.281515
5745.000000;1.282040
5744.000000;1.282652
5743.000000;1.283344
5742.000000;1.284026
5741.000000;1.284611
5740.000000;1.285095
5739.000000;1.285546
5738.000000;1.286042
5737.000000;1.286610
5736.000000;1.287211
5735.000000;1.287794
5734.000000;1.288363
5733.000000;1.288972
5732.000000;1.289651
5731.000000;1.290358
5730.000000;1.291028
5729.000000;1.291637
5728.000000;1.292214
5727.000000;1.292796
5726.000000;1.293393
5725.000000;1.294012
5724.000000;1.294679
5723.000000;1.295420
5722.000000;1.296226
5721.000000;1.297037
5720.000000;1.297791
5719.000000;1.298469
5718.000000;1.299099
5717.000000;1.299713
5716.000000;1.300329
5715.000000;1.300966
5714.000000;1.301631
5713.000000;1.302307
5712.000000;1.302966
5711.000000;1.303619
5710.000000;1.304316
5709.000000;1.305087
5708.000000;1.305914
5707.000000;1.306781
5706.000000;1.307690
5705.000000;1.308624
5704.000000;1.309512
5703.000000;1.310302
5702.000000;1.311023
5701.000000;1.311741
5700.000000;1.312473
5699.000000;1.313173
5698.000000;1.313833
5697.000000;1.314506
5696.000000;1.315292
5695.000000;1.316211
5694.000000;1.317169
5693.000000;1.318084
5692.000000;1.318867
5691.000000;1.319548
5690.000000;1.320222
5689.000000;1.320954
5688.000000;1.321714
5687.000000;1.322452
5686.000000;1.323162
5685.000000;1.323867
5684.000000;1.324568
5683.000000;1.325256
5682.000000;1.325961
5681.000000;1.326739
5680.000000;1.327617
5679.000000;1.328564
5678.000000;1.329514
5677.000000;1.330403
5676.000000;1.331228
5675.000000;1.332063
5674.000000;1.333003
5673.000000;1.334032
5672.000000;1.335009
5671.000000;1.335789
5670.000000;1.336351
5669.000000;1.336787
5668.000000;1.337232
5667.000000;1.337807
5666.000000;1.338569
5665.000000;1.339450
5664.000000;1.340298
5663.000000;1.341049
5662.000000;1.341795
5661.000000;1.342633
5660.000000;1.343503
5659.000000;1.344276
5658.000000;1.344942
5657.000000;1.345593
5656.000000;1.346273
5655.000000;1.346959
5654.000000;1.347680
5653.000000;1.348525
5652.000000;1.349499
5651.000000;1.350462
5650.000000;1.351281
5649.000000;1.351949
5648.000000;1.352556
5647.000000;1.353184
5646.000000;1.353871
5645.000000;1.354601
5644.000000;1.355309
5643.000000;1.355941
5642.000000;1.356522
5641.000000;1.357110
5640.000000;1.357699
5639.000000;1.358222
5638.000000;1.358673
5637.000000;1.359138
5636.000000;1.359693
5635.000000;1.360326
5634.000000;1.360991
5633.000000;1.361676
5632.000000;1.362370
5631.000000;1.363035
5630.000000;1.363649
5629.000000;1.364244
5628.000000;1.364862
5627.000000;1.365472
5626.000000;1.366000
5625.000000;1.366405
5624.000000;1.366736
5623.000000;1.367107
5622.000000;1.367610
5621.000000;1.368222
5620.000000;1.368813
5619.000000;1.369285
5618.000000;1.369683
5617.000000;1.370144
5616.000000;1.370730
5615.000000;1.371381
5614.000000;1.372013
5613.000000;1.372595
5612.000000;1.373112
5611.000000;1.373534
5610.000000;1.373862
5609.000000;1.374157
5608.000000;1.374474
5607.000000;1.374811
5606.000000;1.375148
5605.000000;1.375500
5604.000000;1.375897
5603.000000;1.376337
5602.000000;1.376791
5601.000000;1.377232
5600.000000;1.377636
5599.000000;1.377979
5598.000000;1.378256
5597.000000;1.378480
5596.000000;1.378652
5595.000000;1.378764
5594.000000;1.378836
5593.000000;1.378934
5592.000000;1.379119
5591.000000;1.379416
5590.000000;1.379821
5589.000000;1.380312
5588.000000;1.380820
5587.000000;1.381240
5586.000000;1.381490
5585.000000;1.381570
5584.000000;1.381556
5583.000000;1.381550
5582.000000;1.381623
5581.000000;1.381779
5580.000000;1.381964
5579.000000;1.382137
5578.000000;1.382301
5577.000000;1.382484
5576.000000;1.382709
5575.000000;1.383001
5574.000000;1.383381
5573.000000;1.383799
5572.000000;1.384122
5571.000000;1.384279
5570.000000;1.384350
5569.000000;1.384458
5568.000000;1.384587
5567.000000;1.384608
5566.000000;1.384480
5565.000000;1.384315
5564.000000;1.384249
5563.000000;1.384307
5562.000000;1.384431
5561.000000;1.384555
5560.000000;1.384631
5559.000000;1.384654
5558.000000;1.384675
5557.000000;1.384738
5556.000000;1.384818
5555.000000;1.384867
5554.000000;1.384912
5553.000000;1.385012
5552.000000;1.385138
5551.000000;1.385194
5550.000000;1.385138
5549.000000;1.385009
5548.000000;1.384852
5547.000000;1.384716
5546.000000;1.384702
5545.000000;1.384898
5544.000000;1.385229
5543.000000;1.385495
5542.000000;1.385578
5541.000000;1.385545
5540.000000;1.385528
5539.000000;1.385593
5538.000000;1.385717
5537.000000;1.385809
5536.000000;1.385762
5535.000000;1.385575
5534.000000;1.385399
5533.000000;1.385380
5532.000000;1.385462
5531.000000;1.385463
5530.000000;1.385326
5529.000000;1.385185
5528.000000;1.385168
5527.000000;1.385261
5526.000000;1.385390
5525.000000;1.385546
5524.000000;1.385742
5523.000000;1.385952
5522.000000;1.386156
5521.000000;1.386359
5520.000000;1.386557
5519.000000;1.386705
5518.000000;1.386749
5517.000000;1.386683
5516.000000;1.386541
5515.000000;1.386406
5514.000000;1.386404
5513.000000;1.386594
5512.000000;1.386885
5511.000000;1.387140
5510.000000;1.387341
5509.000000;1.387572
5508.000000;1.387859
5507.000000;1.388132
5506.000000;1.388327
5505.000000;1.388447
5504.000000;1.388479
5503.000000;1.388425
5502.000000;1.388384
5501.000000;1.388464
5500.000000;1.388655
5499.000000;1.388857
5498.000000;1.389013
5497.000000;1.389189
5496.000000;1.389465
5495.000000;1.389804
5494.000000;1.390067
5493.000000;1.390166
5492.000000;1.390188
5491.000000;1.390309
5490.000000;1.390620
5489.000000;1.391011
5488.000000;1.391249
5487.000000;1.391235
5486.000000;1.391114
5485.000000;1.391114
5484.000000;1.391294
5483.000000;1.391546
5482.000000;1.391814
5481.000000;1.392073
5480.000000;1.392281
5479.000000;1.392513
5478.000000;1.392927
5477.000000;1.393503
5476.000000;1.393984
5475.000000;1.394276
5474.000000;1.394669
5473.000000;1.395421
5472.000000;1.396360
5471.000000;1.397115
5470.000000;1.397573
5469.000000;1.397904
5468.000000;1.398233
5467.000000;1.398548
5466.000000;1.398870
5465.000000;1.399285
5464.000000;1.399772
5463.000000;1.400239
5462.000000;1.400743
5461.000000;1.401373
5460.000000;1.402050
5459.000000;1.402693
5458.000000;1.403365
5457.000000;1.404047
5456.000000;1.404562
5455.000000;1.404893
5454.000000;1.405296
5453.000000;1.405970
5452.000000;1.406801
5451.000000;1.407589
5450.000000;1.408354
5449.000000;1.409215
5448.000000;1.410198
5447.000000;1.411250
5446.000000;1.412247
5445.000000;1.413122
5444.000000;1.414000
5443.000000;1.415062
5442.000000;1.416263
5441.000000;1.417293
5440.000000;1.417965
5439.000000;1.418566
5438.000000;1.419555
5437.000000;1.420903
5436.000000;1.422091
5435.000000;1.422863
5434.000000;1.423574
5433.000000;1.424680
5432.000000;1.426291
5431.000000;1.428151
5430.000000;1.429776
5429.000000;1.430910
5428.000000;1.431866
5427.000000;1.433111
5426.000000;1.434733
5425.000000;1.436465
5424.000000;1.437988
5423.000000;1.439188
5422.000000;1.440176
5421.000000;1.441180
5420.000000;1.442387
5419.000000;1.443864
5418.000000;1.445667
5417.000000;1.447823
5416.000000;1.450197
5415.000000;1.452527
5414.000000;1.454733
5413.000000;1.457050
5412.000000;1.459633
5411.000000;1.462282
5410.000000;1.464643
5409.000000;1.466561
5408.000000;1.468252
5407.000000;1.470101
5406.000000;1.472305
5405.000000;1.474705
5404.000000;1.477070
5403.000000;1.479483
5402.000000;1.482109
5401.000000;1.484967
5400.000000;1.487988
5399.000000;1.491023
5398.000000;1.494036
5397.000000;1.497207
5396.000000;1.500712
5395.000000;1.504476
5394.000000;1.508215
5393.000000;1.511756
5392.000000;1.515124
5391.000000;1.518398
5390.000000;1.521714
5389.000000;1.525232
5388.000000;1.529019
5387.000000;1.533044
5386.000000;1.537281
5385.000000;1.541657
5384.000000;1.546069
5383.000000;1.550512
5382.000000;1.555031
5381.000000;1.559709
5380.000000;1.564673
5379.000000;1.569908
5378.000000;1.575229
5377.000000;1.580573
5376.000000;1.586114
5375.000000;1.591974
5374.000000;1.598052
5373.000000;1.604283
5372.000000;1.610682
5371.000000;1.617204
5370.000000;1.623784
5369.000000;1.630453
5368.000000;1.637287
5367.000000;1.644312
5366.000000;1.651542
5365.000000;1.658959
5364.000000;1.666552
5363.000000;1.674342
5362.000000;1.682362
5361.000000;1.690722
5360.000000;1.699468
5359.000000;1.708451
5358.000000;1.717534
5357.000000;1.726848
5356.000000;1.736565
5355.000000;1.746572
5354.000000;1.756654
5353.000000;1.766880
5352.000000;1.777556
5351.000000;1.788833
5350.000000;1.800510
5349.000000;1.812272
5348.000000;1.824106
5347.000000;1.836261
5346.000000;1.848881
5345.000000;1.861906
5344.000000;1.875185
5343.000000;1.888514
5342.000000;1.901838
5341.000000;1.915530
5340.000000;1.929893
5339.000000;1.944776
5338.000000;1.959963
5337.000000;1.975373
5336.000000;1.990978
5335.000000;2.006918
5334.000000;2.023428
5333.000000;2.040361
5332.000000;2.057162
5331.000000;2.073458
5330.000000;2.089493
5329.000000;2.106007
5328.000000;2.123731
5327.000000;2.142867
5326.000000;2.162903
5325.000000;2.182845
5324.000000;2.201821
5323.000000;2.219692
5322.000000;2.237059
5321.000000;2.254544
5320.000000;2.272253
5319.000000;2.290253
5318.000000;2.309106
5317.000000;2.329204
5316.000000;2.349786
5315.000000;2.369472
5314.000000;2.387850
5313.000000;2.405590
5312.000000;2.423116
5311.000000;2.440198
5310.000000;2.456726
5309.000000;2.472862
5308.000000;2.488373
5307.000000;2.502687
5306.000000;2.515711
5305.000000;2.527925
5304.000000;2.539764
5303.000000;2.551516
5302.000000;2.563438
5301.000000;2.575181
5300.000000;2.585578
5299.000000;2.593956
5298.000000;2.601319
5297.000000;2.609189
5296.000000;2.617585
5295.000000;2.625366
5294.000000;2.632314
5293.000000;2.639260
5292.000000;2.646157
5291.000000;2.651673
5290.000000;2.655134
5289.000000;2.657691
5288.000000;2.660870
5287.000000;2.664836
5286.000000;2.668509
5285.000000;2.670941
5284.000000;2.672216
5283.000000;2.673055
5282.000000;2.673857
5281.000000;2.674480
5280.000000;2.675023
5279.000000;2.676315
5278.000000;2.678981
5277.000000;2.682224
5276.000000;2.684307
5275.000000;2.684324
5274.000000;2.683026
5273.000000;2.681936
5272.000000;2.682323
5271.000000;2.684899
5270.000000;2.689237
5269.000000;2.693273
5268.000000;2.694677
5267.000000;2.693277
5266.000000;2.691087
5265.000000;2.689796
5264.000000;2.689612
5263.000000;2.690394
5262.000000;2.692103
5261.000000;2.693522
5260.000000;2.692378
5259.000000;2.688309
5258.000000;2.684364
5257.000000;2.683737
5256.000000;2.685907
5255.000000;2.687403
5254.000000;2.686078
5253.000000;2.683299
5252.000000;2.681752
5251.000000;2.682732
5250.000000;2.685495
5249.000000;2.688202
5248.000000;2.689705
5247.000000;2.690549
5246.000000;2.691981
5245.000000;2.694187
5244.000000;2.696044
5243.000000;2.696640
5242.000000;2.696338
5241.000000;2.695711
5240.000000;2.694267
5239.000000;2.691519
5238.000000;2.688697
5237.000000;2.687817
5236.000000;2.689366
5235.000000;2.692101
5234.000000;2.694844
5233.000000;2.697336
5232.000000;2.699270
5231.000000;2.699683
5230.000000;2.697982
5229.000000;2.694962
5228.000000;2.692001
5227.000000;2.689518
5226.000000;2.686950
5225.000000;2.684172
5224.000000;2.682161
5223.000000;2.681956
5222.000000;2.683451
5221.000000;2.685639
5220.000000;2.687859
5219.000000;2.690147
5218.000000;2.692269
5217.000000;2.693328
5216.000000;2.692920
5215.000000;2.691837
5214.000000;2.690939
5213.000000;2.690223
5212.000000;2.689556
5211.000000;2.689280
5210.000000;2.689243
5209.000000;2.688182
5208.000000;2.685286
5207.000000;2.681922
5206.000000;2.680448
5205.000000;2.681572
5204.000000;2.684154
5203.000000;2.687365
5202.000000;2.691332
5201.000000;2.695505
5200.000000;2.698091
5199.000000;2.697878
5198.000000;2.695567
5197.000000;2.692620
5196.000000;2.689945
5195.000000;2.688134
5194.000000;2.687713
5193.000000;2.688557
5192.000000;2.689704
5191.000000;2.690176
5190.000000;2.689662
5189.000000;2.688332
5188.000000;2.686788
5187.000000;2.686258
5186.000000;2.687680
5185.000000;2.690165
5184.000000;2.691201
5183.000000;2.689300
5182.000000;2.685975
5181.000000;2.684264
5180.000000;2.685748
5179.000000;2.689351
5178.000000;2.692464
5177.000000;2.693006
5176.000000;2.690895
5175.000000;2.687871
5174.000000;2.685771
5173.000000;2.684913
5172.000000;2.684213
5171.000000;2.682647
5170.000000;2.680267
5169.000000;2.678045
5168.000000;2.677311
5167.000000;2.679071
5166.000000;2.682961
5165.000000;2.686873
5164.000000;2.688618
5163.000000;2.688157
5162.000000;2.687104
5161.000000;2.686029
5160.000000;2.683841
5159.000000;2.680305
5158.000000;2.677462
5157.000000;2.677341
5156.000000;2.679634
5155.000000;2.682650
5154.000000;2.685496
5153.000000;2.688194
5152.000000;2.690133
5151.000000;2.690017
5150.000000;2.687675
5149.000000;2.684760
5148.000000;2.683147
5147.000000;2.683110
5146.000000;2.683419
5145.000000;2.683003
5144.000000;2.682358
5143.000000;2.682992
5142.000000;2.685391
5141.000000;2.687924
5140.000000;2.688282
5139.000000;2.686008
5138.000000;2.682858
5137.000000;2.680778
5136.000000;2.680311
5135.000000;2.680817
5134.000000;2.681485
5133.000000;2.682052
5132.000000;2.682936
5131.000000;2.684763
5130.000000;2.687382
5129.000000;2.689414
5128.000000;2.689460
5127.000000;2.687769
5126.000000;2.685868
5125.000000;2.684638
5124.000000;2.683775
5123.000000;2.683246
5122.000000;2.683883
5121.000000;2.685919
5120.000000;2.688038
5119.000000;2.688536
5118.000000;2.686856
5117.000000;2.683651
5116.000000;2.680017
5115.000000;2.677119
5114.000000;2.675900
5113.000000;2.676502
5112.000000;2.678183
5111.000000;2.679966
5110.000000;2.681094
5109.000000;2.681087
5108.000000;2.680117
5107.000000;2.679290
5106.000000;2.679681
5105.000000;2.680843
5104.000000;2.681237
5103.000000;2.680553
5102.000000;2.680385
5101.000000;2.681797
5100.000000;2.683395
5099.000000;2.682834
5098.000000;2.679571
5097.000000;2.675308
5096.000000;2.672350
5095.000000;2.672178
5094.000000;2.674830
5093.000000;2.678637
5092.000000;2.680963
5091.000000;2.680276
5090.000000;2.677545
5089.000000;2.674965
5088.000000;2.673667
5087.000000;2.673365
5086.000000;2.673657
5085.000000;2.674691
5084.000000;2.676501
5083.000000;2.678285
5082.000000;2.678834
5081.000000;2.677958
5080.000000;2.677138
5079.000000;2.678171
5078.000000;2.681011
5077.000000;2.683411
5076.000000;2.683320
5075.000000;2.681194
5074.000000;2.679055
5073.000000;2.677755
5072.000000;2.676331
5071.000000;2.673909
5070.000000;2.671004
5069.000000;2.668788
5068.000000;2.668166
5067.000000;2.669664
5066.000000;2.673002
5065.000000;2.676497
5064.000000;2.678059
5063.000000;2.677369
5062.000000;2.676126
5061.000000;2.675873
5060.000000;2.676664
5059.000000;2.677909
5058.000000;2.679130
5057.000000;2.679472
5056.000000;2.677948
5055.000000;2.674909
5054.000000;2.672095
5053.000000;2.670568
5052.000000;2.669758
5051.000000;2.669205
5050.000000;2.669836
5049.000000;2.672351
5048.000000;2.675641
5047.000000;2.678083
5046.000000;2.679410
5045.000000;2.679976
5044.000000;2.679288
5043.000000;2.676917
5042.000000;2.673900
5041.000000;2.671656
5040.000000;2.670219
5039.000000;2.668873
5038.000000;2.667683
5037.000000;2.666915
5036.000000;2.665771
5035.000000;2.663515
5034.000000;2.661361
5033.000000;2.661283
5032.000000;2.663073
5031.000000;2.664306
5030.000000;2.663511
5029.000000;2.661944
5028.000000;2.661660
5027.000000;2.663223
5026.000000;2.665915
5025.000000;2.668897
5024.000000;2.671243
5023.000000;2.671795
5022.000000;2.670144
5021.000000;2.667204
5020.000000;2.664010
5019.000000;2.660507
5018.000000;2.656375
5017.000000;2.652628
5016.000000;2.651292
5015.000000;2.653177
5014.000000;2.656444
5013.000000;2.658044
5012.000000;2.656737
5011.000000;2.653953
5010.000000;2.651408
5009.000000;2.648982
5008.000000;2.645812
5007.000000;2.642603
5006.000000;2.641149
5005.000000;2.641471
5004.000000;2.641163
5003.000000;2.638440
5002.000000;2.634538
5001.000000;2.631916
5000.000000;2.631217
4999.000000;2.631437
4998.000000;2.632117
4997.000000;2.633720
4996.000000;2.635896
4995.000000;2.636995
4994.000000;2.636045
4993.000000;2.634048
4992.000000;2.632560
4991.000000;2.631805
4990.000000;2.630868
4989.000000;2.629213
4988.000000;2.627401
4987.000000;2.626291
4986.000000;2.625866
4985.000000;2.625132
4984.000000;2.623373
4983.000000;2.621273
4982.000000;2.620143
4981.000000;2.620021
4980.000000;2.619370
4979.000000;2.617098
4978.000000;2.614040
4977.000000;2.611669
4976.000000;2.610119
4975.000000;2.608506
4974.000000;2.606652
4973.000000;2.605329
4972.000000;2.604928
4971.000000;2.604833
4970.000000;2.604180
4969.000000;2.602480
4968.000000;2.599526
4967.000000;2.595504
4966.000000;2.591335
4965.000000;2.588128
4964.000000;2.586062
4963.000000;2.584325
4962.000000;2.582228
4961.000000;2.579867
4960.000000;2.577708
4959.000000;2.576038
4958.000000;2.574823
4957.000000;2.573659
4956.000000;2.571945
4955.000000;2.569645
4954.000000;2.567701
4953.000000;2.567010
4952.000000;2.567065
4951.000000;2.566284
4950.000000;2.563870
4949.000000;2.560610
4948.000000;2.557657
4947.000000;2.555328
4946.000000;2.553416
4945.000000;2.551819
4944.000000;2.550297
4943.000000;2.548259
4942.000000;2.545495
4941.000000;2.542740
4940.000000;2.540773
4939.000000;2.539102
4938.000000;2.536182
4937.000000;2.531188
4936.000000;2.525230
4935.000000;2.520464
4934.000000;2.518159
4933.000000;2.517787
4932.000000;2.517895
4931.000000;2.517651
4930.000000;2.517314
4929.000000;2.517235
4928.000000;2.516774
4927.000000;2.514629
4926.000000;2.510213
4925.000000;2.504395
4924.000000;2.498873
4923.000000;2.494996
4922.000000;2.492969
4921.000000;2.491886
4920.000000;2.490553
4919.000000;2.488411
4918.000000;2.485641
4917.000000;2.482509
4916.000000;2.479012
4915.000000;2.475264
4914.000000;2.471807
4913.000000;2.469214
4912.000000;2.467535
4911.000000;2.466362
4910.000000;2.465303
4909.000000;2.464114
4908.000000;2.462522
4907.000000;2.460305
4906.000000;2.457606
4905.000000;2.454801
4904.000000;2.451934
4903.000000;2.448452
4902.000000;2.443712
4901.000000;2.437850
4900.000000;2.432131
4899.000000;2.428251
4898.000000;2.426954
4897.000000;2.427214
4896.000000;2.426926
4895.000000;2.424617
4894.000000;2.420403
4893.000000;2.415282
4892.000000;2.410076
4891.000000;2.405376
4890.000000;2.401904
4889.000000;2.400137
4888.000000;2.399567
4887.000000;2.398704
4886.000000;2.396029
4885.000000;2.391108
4884.000000;2.384999
4883.000000;2.379586
4882.000000;2.376201
4881.000000;2.374569
4880.000000;2.373157
4879.000000;2.370772
4878.000000;2.367693
4877.000000;2.365009
4876.000000;2.363202
4875.000000;2.361816
4874.000000;2.360117
4873.000000;2.357517
4872.000000;2.353647
4871.000000;2.348721
4870.000000;2.343815
4869.000000;2.340076
4868.000000;2.337523
4867.000000;2.335121
4866.000000;2.332156
4865.000000;2.329035
4864.000000;2.326457
4863.000000;2.324280
4862.000000;2.321640
4861.000000;2.317984
4860.000000;2.313636
4859.000000;2.309426
4858.000000;2.306008
4857.000000;2.303484
4856.000000;2.301396
4855.000000;2.299083
4854.000000;2.296180
4853.000000;2.292880
4852.000000;2.289639
4851.000000;2.286644
4850.000000;2.283603
4849.000000;2.280063
4848.000000;2.275936
4847.000000;2.271647
4846.000000;2.267739
4845.000000;2.264366
4844.000000;2.261300
4843.000000;2.258380
4842.000000;2.255708
4841.000000;2.253309
4840.000000;2.250822
4839.000000;2.247796
4838.000000;2.244222
4837.000000;2.240555
4836.000000;2.237252
4835.000000;2.234451
4834.000000;2.232042
4833.000000;2.229812
4832.000000;2.227495
4831.000000;2.224843
4830.000000;2.221763
4829.000000;2.218357
4828.000000;2.214831
4827.000000;2.211378
4826.000000;2.208074
4825.000000;2.204786
4824.000000;2.201286
4823.000000;2.197528
4822.000000;2.193748
4821.000000;2.190207
4820.000000;2.186932
4819.000000;2.183778
4818.000000;2.180618
4817.000000;2.177417
4816.000000;2.174258
4815.000000;2.171357
4814.000000;2.168866
4813.000000;2.166575
4812.000000;2.164056
4811.000000;2.161266
4810.000000;2.158729
4809.000000;2.156800
4808.000000;2.155019
4807.000000;2.152537
4806.000000;2.149092
4805.000000;2.145220
4804.000000;2.141526
4803.000000;2.138154
4802.000000;2.134932
4801.000000;2.131665
4800.000000;2.128183
4799.000000;2.124406
4798.000000;2.120491
4797.000000;2.116792
4796.000000;2.113547
4795.000000;2.110683
4794.000000;2.107950
4793.000000;2.105077
4792.000000;2.101864
4791.000000;2.098329
4790.000000;2.094802
4789.000000;2.091650
4788.000000;2.088877
4787.000000;2.086147
4786.000000;2.083215
4785.000000;2.080159
4784.000000;2.077182
4783.000000;2.074397
4782.000000;2.071849
4781.000000;2.069486
4780.000000;2.067015
4779.000000;2.064011
4778.000000;2.060378
4777.000000;2.056570
4776.000000;2.053251
4775.000000;2.050779
4774.000000;2.049051
4773.000000;2.047631
4772.000000;2.045954
4771.000000;2.043585
4770.000000;2.040487
4769.000000;2.037015
4768.000000;2.033570
4767.000000;2.030300
4766.000000;2.027144
4765.000000;2.024037
4764.000000;2.021017
4763.000000;2.018181
4762.000000;2.015580
4761.000000;2.013089
4760.000000;2.010423
4759.000000;2.007431
4758.000000;2.004358
4757.000000;2.001597
4756.000000;1.999163
4755.000000;1.996640
4754.000000;1.993760
4753.000000;1.990773
4752.000000;1.988078
4751.000000;1.985653
4750.000000;1.983123
4749.000000;1.980307
4748.000000;1.977451
4747.000000;1.974887
4746.000000;1.972611
4745.000000;1.970268
4744.000000;1.967509
4743.000000;1.964383
4742.000000;1.961362
4741.000000;1.958914
4740.000000;1.956992
4739.000000;1.955007
4738.000000;1.952400
4737.000000;1.949206
4736.000000;1.945964
4735.000000;1.943174
4734.000000;1.940937
4733.000000;1.939063
4732.000000;1.937308
4731.000000;1.935465
4730.000000;1.933331
4729.000000;1.930763
4728.000000;1.927835
4727.000000;1.924897
4726.000000;1.922319
4725.000000;1.920115
4724.000000;1.917883
4723.000000;1.915274
4722.000000;1.912456
4721.000000;1.909949
4720.000000;1.907989
4719.000000;1.906274
4718.000000;1.904369
4717.000000;1.902156
4716.000000;1.899760
4715.000000;1.897277
4714.000000;1.894789
4713.000000;1.892511
4712.000000;1.890574
4711.000000;1.888695
4710.000000;1.886331
4709.000000;1.883306
4708.000000;1.880141
4707.000000;1.877627
4706.000000;1.876145
4705.000000;1.875397
4704.000000;1.874701
4703.000000;1.873463
4702.000000;1.871467
4701.000000;1.868884
4700.000000;1.866072
4699.000000;1.863372
4698.000000;1.860995
4697.000000;1.858985
4696.000000;1.857225
4695.000000;1.855506
4694.000000;1.853682
4693.000000;1.851781
4692.000000;1.849954
4691.000000;1.848304
4690.000000;1.846753
4689.000000;1.845082
4688.000000;1.843102
4687.000000;1.840846
4686.000000;1.838572
4685.000000;1.836527
4684.000000;1.834722
4683.000000;1.832978
4682.000000;1.831166
4681.000000;1.829291
4680.000000;1.827340
4679.000000;1.825260
4678.000000;1.823160
4677.000000;1.821381
4676.000000;1.820131
4675.000000;1.819107
4674.000000;1.817673
4673.000000;1.815493
4672.000000;1.812906
4671.000000;1.810597
4670.000000;1.808963
4669.000000;1.807814
4668.000000;1.806638
4667.000000;1.805107
4666.000000;1.803343
4665.000000;1.801695
4664.000000;1.800312
4663.000000;1.798989
4662.000000;1.797426
4661.000000;1.795543
4660.000000;1.793485
4659.000000;1.791445
4658.000000;1.789599
4657.000000;1.788120
4656.000000;1.787076
4655.000000;1.786273
4654.000000;1.785326
4653.000000;1.783964
4652.000000;1.782243
4651.000000;1.780449
4650.000000;1.778844
4649.000000;1.777493
4648.000000;1.776259
4647.000000;1.774917
4646.000000;1.773328
4645.000000;1.771532
4644.000000;1.769704
4643.000000;1.768022
4642.000000;1.766577
4641.000000;1.765368
4640.000000;1.764321
4639.000000;1.763361
4638.000000;1.762457
4637.000000;1.761555
4636.000000;1.760461
4635.000000;1.758943
4634.000000;1.757017
4633.000000;1.755024
4632.000000;1.753319
4631.000000;1.751967
4630.000000;1.750854
4629.000000;1.749962
4628.000000;1.749323
4627.000000;1.748731
4626.000000;1.747778
4625.000000;1.746267
4624.000000;1.744437
4623.000000;1.742712
4622.000000;1.741327
4621.000000;1.740268
4620.000000;1.739425
4619.000000;1.738683
4618.000000;1.737929
4617.000000;1.737019
4616.000000;1.735782
4615.000000;1.734109
4614.000000;1.732144
4613.000000;1.730328
4612.000000;1.729069
4611.000000;1.728313
4610.000000;1.727595
4609.000000;1.726562
4608.000000;1.725310
4607.000000;1.724123
4606.000000;1.723062
4605.000000;1.721983
4604.000000;1.720863
4603.000000;1.719886
4602.000000;1.719173
4601.000000;1.718584
4600.000000;1.717856
4599.000000;1.716891
4598.000000;1.715815
4597.000000;1.714774
4596.000000;1.713707
4595.000000;1.712424
4594.000000;1.710911
4593.000000;1.709460
4592.000000;1.708385
4591.000000;1.707654
4590.000000;1.706950
4589.000000;1.706066
4588.000000;1.705076
4587.000000;1.704097
4586.000000;1.703103
4585.000000;1.702108
4584.000000;1.701338
4583.000000;1.701017
4582.000000;1.701030
4581.000000;1.700978
4580.000000;1.700547
4579.000000;1.699724
4578.000000;1.698711
4577.000000;1.697741
4576.000000;1.696946
4575.000000;1.696237
4574.000000;1.695315
4573.000000;1.693937
4572.000000;1.692211
4571.000000;1.690560
4570.000000;1.689394
4569.000000;1.688890
4568.000000;1.688980
4567.000000;1.689357
4566.000000;1.689506
4565.000000;1.688965
4564.000000;1.687726
4563.000000;1.686270
4562.000000;1.685121
4561.000000;1.684435
4560.000000;1.684040
4559.000000;1.683710
4558.000000;1.683250
4557.000000;1.682487
4556.000000;1.681406
4555.000000;1.680303
4554.000000;1.679563
4553.000000;1.679220
4552.000000;1.678870
4551.000000;1.678126
4550.000000;1.677035
4549.000000;1.675947
4548.000000;1.675091
4547.000000;1.674442
4546.000000;1.673940
4545.000000;1.673607
4544.000000;1.673389
4543.000000;1.673067
4542.000000;1.672473
4541.000000;1.671688
4540.000000;1.670902
4539.000000;1.670156
4538.000000;1.669375
4537.000000;1.668627
4536.000000;1.668149
4535.000000;1.668051
4534.000000;1.668115
4533.000000;1.667989
4532.000000;1.667521
4531.000000;1.666817
4530.000000;1.666030
4529.000000;1.665239
4528.000000;1.664525
4527.000000;1.664046
4526.000000;1.663906
4525.000000;1.664004
4524.000000;1.664098
4523.000000;1.664028
4522.000000;1.663820
4521.000000;1.663553
4520.000000;1.663231
4519.000000;1.662882
4518.000000;1.662662
4517.000000;1.662689
4516.000000;1.662788
4515.000000;1.662589
4514.000000;1.661994
4513.000000;1.661366
4512.000000;1.661130
4511.000000;1.661275
4510.000000;1.661430
4509.000000;1.661334
4508.000000;1.661072
4507.000000;1.660872
4506.000000;1.660857
4505.000000;1.660998
4504.000000;1.661136
4503.000000;1.661045
4502.000000;1.660616
4501.000000;1.660043
4500.000000;1.659664
4499.000000;1.659596
4498.000000;1.659652
4497.000000;1.659653
4496.000000;1.659643
4495.000000;1.659736
4494.000000;1.659914
4493.000000;1.660082
4492.000000;1.660187
4491.000000;1.660201
4490.000000;1.660101
4489.000000;1.659997
4488.000000;1.660144
4487.000000;1.660699
4486.000000;1.661530
4485.000000;1.662341
4484.000000;1.662925
4483.000000;1.663230
4482.000000;1.663290
4481.000000;1.663227
4480.000000;1.663209
4479.000000;1.663331
4478.000000;1.663608
4477.000000;1.664118
4476.000000;1.664962
4475.000000;1.665963
4474.000000;1.666653
4473.000000;1.666790
4472.000000;1.666732
4471.000000;1.667008
4470.000000;1.667617
4469.000000;1.668080
4468.000000;1.668141
4467.000000;1.668079
4466.000000;1.668246
4465.000000;1.668623
4464.000000;1.668989
4463.000000;1.669263
4462.000000;1.669503
4461.000000;1.669706
4460.000000;1.669789
4459.000000;1.669705
4458.000000;1.669481
4457.000000;1.669240
4456.000000;1.669230
4455.000000;1.669694
4454.000000;1.670622
4453.000000;1.671775
4452.000000;1.673018
4451.000000;1.674435
4450.000000;1.675969
4449.000000;1.677206
4448.000000;1.677770
4447.000000;1.677844
4446.000000;1.677990
4445.000000;1.678494
4444.000000;1.679149
4443.000000;1.679679
4442.000000;1.680103
4441.000000;1.680586
4440.000000;1.681208
4439.000000;1.682003
4438.000000;1.683066
4437.000000;1.684409
4436.000000;1.685816
4435.000000;1.686974
4434.000000;1.687733
4433.000000;1.688156
4432.000000;1.688396
4431.000000;1.688639
4430.000000;1.689100
4429.000000;1.689927
4428.000000;1.691102
4427.000000;1.692505
4426.000000;1.694028
4425.000000;1.695559
4424.000000;1.696964
4423.000000;1.698192
4422.000000;1.699348
4421.000000;1.700482
4420.000000;1.701378
4419.000000;1.701754
4418.000000;1.701705
4417.000000;1.701729
4416.000000;1.702256
4415.000000;1.703292
4414.000000;1.704567
4413.000000;1.705830
4412.000000;1.706903
4411.000000;1.707693
4410.000000;1.708336
4409.000000;1.709210
4408.000000;1.710580
4407.000000;1.712282
4406.000000;1.713872
4405.000000;1.715056
4404.000000;1.715854
4403.000000;1.716425
4402.000000;1.716899
4401.000000;1.717388
4400.000000;1.718004
4399.000000;1.718863
4398.000000;1.720118
4397.000000;1.721832
4396.000000;1.723717
4395.000000;1.725183
4394.000000;1.725916
4393.000000;1.726311
4392.000000;1.727062
4391.000000;1.728358
4390.000000;1.729749
4389.000000;1.730788
4388.000000;1.731478
4387.000000;1.732013
4386.000000;1.732449
4385.000000;1.732839
4384.000000;1.733426
4383.000000;1.734455
4382.000000;1.735879
4381.000000;1.737414
4380.000000;1.738806
4379.000000;1.739938
4378.000000;1.740783
4377.000000;1.741390
4376.000000;1.741854
4375.000000;1.742211
4374.000000;1.742503
4373.000000;1.742977
4372.000000;1.743971
4371.000000;1.745484
4370.000000;1.747047
4369.000000;1.748236
4368.000000;1.749184
4367.000000;1.750385
4366.000000;1.752073
4365.000000;1.754013
4364.000000;1.755802
4363.000000;1.757174
4362.000000;1.758058
4361.000000;1.758581
4360.000000;1.759060
4359.000000;1.759835
4358.000000;1.761015
4357.000000;1.762377
4356.000000;1.763434
4355.000000;1.763706
4354.000000;1.763191
4353.000000;1.762716
4352.000000;1.763450
4351.000000;1.765711
4350.000000;1.768371
4349.000000;1.769850
4348.000000;1.769799
4347.000000;1.769482
4346.000000;1.770396
4345.000000;1.772805
4344.000000;1.775620
4343.000000;1.777458
4342.000000;1.777810
4341.000000;1.777428
4340.000000;1.777605
4339.000000;1.778961
4338.000000;1.780831
4337.000000;1.781940
4336.000000;1.781799
4335.000000;1.781305
4334.000000;1.781830
4333.000000;1.783878
4332.000000;1.786759
4331.000000;1.789362
4330.000000;1.791094
4329.000000;1.792124
4328.000000;1.792974
4327.000000;1.793923
4326.000000;1.794702
4325.000000;1.794811
4324.000000;1.794213
4323.000000;1.793649
4322.000000;1.794043
4321.000000;1.795533
4320.000000;1.797197
4319.000000;1.797871
4318.000000;1.797259
4317.000000;1.796201
4316.000000;1.795853
4315.000000;1.796704
4314.000000;1.798296
4313.000000;1.799765
4312.000000;1.800621
4311.000000;1.801130
4310.000000;1.802045
4309.000000;1.803936
4308.000000;1.806504
4307.000000;1.808550
4306.000000;1.808863
4305.000000;1.807361
4304.000000;1.805269
4303.000000;1.804056
4302.000000;1.804147
4301.000000;1.804913
4300.000000;1.805723
4299.000000;1.806323
4298.000000;1.806351
4297.000000;1.805450
4296.000000;1.804052
4295.000000;1.803368
4294.000000;1.804200
4293.000000;1.806009
4292.000000;1.807596
4291.000000;1.808587
4290.000000;1.809541
4289.000000;1.810576
4288.000000;1.810758
4287.000000;1.809304
4286.000000;1.806763
4285.000000;1.804517
4284.000000;1.803448
4283.000000;1.803688
4282.000000;1.805250
4281.000000;1.807874
4280.000000;1.810255
4279.000000;1.810516
4278.000000;1.808107
4277.000000;1.804737
4276.000000;1.802781
4275.000000;1.803145
4274.000000;1.805031
4273.000000;1.806958
4272.000000;1.807498
4271.000000;1.805813
4270.000000;1.802344
4269.000000;1.798692
4268.000000;1.796038
4267.000000;1.793739
4266.000000;1.790266
4265.000000;1.785537
4264.000000;1.781392
4263.000000;1.779585
4262.000000;1.780129
4261.000000;1.781951
4260.000000;1.784376
4259.000000;1.786953
4258.000000;1.788247
4257.000000;1.786289
4256.000000;1.780518
4255.000000;1.772772
4254.000000;1.766189
4253.000000;1.763002
4252.000000;1.763031
4251.000000;1.764122
4250.000000;1.764167
4249.000000;1.762582
4248.000000;1.759589
4247.000000;1.754669
4246.000000;1.747121
4245.000000;1.737746
4244.000000;1.728555
4243.000000;1.720245
4242.000000;1.711451
4241.000000;1.701270
4240.000000;1.691508
4239.000000;1.685056
4238.000000;1.682702
4237.000000;1.682695
4236.000000;1.682997
4235.000000;1.682491
4234.000000;1.679763
4233.000000;1.672645
4232.000000;1.660785
4231.000000;1.647712
4230.000000;1.638095
4229.000000;1.633073
4228.000000;1.629480
4227.000000;1.623388
4226.000000;1.613692
4225.000000;1.602247
4224.000000;1.591170
4223.000000;1.580716
4222.000000;1.569836
4221.000000;1.558063
4220.000000;1.545729
4219.000000;1.532722
4218.000000;1.518343
4217.000000;1.502438
4216.000000;1.485845
4215.000000;1.468900
4214.000000;1.450188
4213.000000;1.428025
4212.000000;1.402357
4211.000000;1.374191
4210.000000;1.344241
4209.000000;1.313277
4208.000000;1.283078
4207.000000;1.254372
4206.000000;1.223127
4205.000000;1.182180
4204.000000;1.128704
4203.000000;1.067643
4202.000000;1.005437
4201.000000;0.944596
4200.000000;0.888762
4199.000000;0.849360
4198.000000;0.838912
4197.000000;0.859284
4196.000000;0.902466
4195.000000;0.957383
4194.000000;1.017719
4193.000000;1.083393
4192.000000;1.153634
4191.000000;1.222339
4190.000000;1.281417
4189.000000;1.327666
4188.000000;1.365434
4187.000000;1.401996
4186.000000;1.441575
4185.000000;1.483841
4184.000000;1.526189
4183.000000;1.566496
4182.000000;1.603262
4181.000000;1.634329
4180.000000;1.658192
4179.000000;1.677178
4178.000000;1.697547
4177.000000;1.724749
4176.000000;1.758749
4175.000000;1.794353
4174.000000;1.824377
4173.000000;1.842863
4172.000000;1.849540
4171.000000;1.852338
4170.000000;1.861968
4169.000000;1.882731
4168.000000;1.908704
4167.000000;1.930053
4166.000000;1.943959
4165.000000;1.955664
4164.000000;1.970003
4163.000000;1.987899
4162.000000;2.009769
4161.000000;2.035965
4160.000000;2.062185
4159.000000;2.079707
4158.000000;2.085301
4157.000000;2.087672
4156.000000;2.097813
4155.000000;2.117529
4154.000000;2.141238
4153.000000;2.163180
4152.000000;2.178692
4151.000000;2.185470
4150.000000;2.186452
4149.000000;2.188027
4148.000000;2.196500
4147.000000;2.212385
4146.000000;2.228972
4145.000000;2.243187
4144.000000;2.261657
4143.000000;2.290302
4142.000000;2.325112
4141.000000;2.351563
4140.000000;2.352930
4139.000000;2.328504
4138.000000;2.299192
4137.000000;2.288670
4136.000000;2.306109
4135.000000;2.343247
4134.000000;2.380837
4133.000000;2.403281
4132.000000;2.411760
4131.000000;2.413775
4130.000000;2.411166
4129.000000;2.407110
4128.000000;2.405354
4127.000000;2.405048
4126.000000;2.404873
4125.000000;2.406886
4124.000000;2.415132
4123.000000;2.430054
4122.000000;2.446141
4121.000000;2.457923
4120.000000;2.466928
4119.000000;2.479033
4118.000000;2.496136
4117.000000;2.516856
4116.000000;2.537164
4115.000000;2.546573
4114.000000;2.541132
4113.000000;2.535145
4112.000000;2.546223
4111.000000;2.575433
4110.000000;2.602530
4109.000000;2.604971
4108.000000;2.587081
4107.000000;2.575749
4106.000000;2.585073
4105.000000;2.602566
4104.000000;2.605795
4103.000000;2.588085
4102.000000;2.565012
4101.000000;2.558071
4100.000000;2.580772
4099.000000;2.634182
4098.000000;2.704796
4097.000000;2.767669
4096.000000;2.796429
4095.000000;2.783122
4094.000000;2.748730
4093.000000;2.713804
4092.000000;2.684788
4091.000000;2.659055
4090.000000;2.629352
4089.000000;2.597893
4088.000000;2.579267
4087.000000;2.587469
4086.000000;2.623672
4085.000000;2.672114
4084.000000;2.707097
4083.000000;2.707805
4082.000000;2.678847
4081.000000;2.643349
4080.000000;2.623261
4079.000000;2.635399
4078.000000;2.684682
4077.000000;2.758556
4076.000000;2.825173
4075.000000;2.853096
4074.000000;2.847122
4073.000000;2.837264
4072.000000;2.844419
4071.000000;2.869318
4070.000000;2.896476
4069.000000;2.908390
4068.000000;2.902882
4067.000000;2.890799
4066.000000;2.878762
4065.000000;2.865247
4064.000000;2.848109
4063.000000;2.833915
4062.000000;2.839148
4061.000000;2.874505
4060.000000;2.930410
4059.000000;2.976169
4058.000000;2.986734
4057.000000;2.971611
4056.000000;2.951695
4055.000000;2.935573
4054.000000;2.920594
4053.000000;2.903560
4052.000000;2.890741
4051.000000;2.891472
4050.000000;2.904334
4049.000000;2.913251
4048.000000;2.901930
4047.000000;2.880041
4046.000000;2.875202
4045.000000;2.902069
4044.000000;2.955707
4043.000000;3.018019
4042.000000;3.063184
4041.000000;3.068337
4040.000000;3.035592
4039.000000;2.988986
4038.000000;2.951162
4037.000000;2.931076
4036.000000;2.922270
4035.000000;2.912380
4034.000000;2.898643
4033.000000;2.892966
4032.000000;2.909888
4031.000000;2.952261
4030.000000;3.009933
4029.000000;3.072851
4028.000000;3.144354
4027.000000;3.224819
4026.000000;3.270605
4025.000000;3.220595
4024.000000;3.108806
4023.000000;3.014535
4022.000000;2.970318
4021.000000;2.969168
4020.000000;2.990063
4019.000000;3.013630
4018.000000;3.027545
4017.000000;3.026065
4016.000000;3.012561
4015.000000;3.005723
4014.000000;3.025941
4013.000000;3.066841
4012.000000;3.088397
4011.000000;3.064361
4010.000000;3.018183
4009.000000;2.983053
4008.000000;2.965329
4007.000000;2.953010
4006.000000;2.943265
4005.000000;2.951035
4004.000000;2.987281
4003.000000;3.036350
4002.000000;3.058672
4001.000000;3.038095
4000.000000;3.008850
3999.000000;3.007380
3998.000000;3.038877
3997.000000;3.075443
3996.000000;3.094460
3995.000000;3.105785
3994.000000;3.117111
3993.000000;3.134533
3992.000000;3.136340
3991.000000;3.090797
3990.000000;3.037641
3989.000000;3.023275
3988.000000;3.055831
3987.000000;3.116293
3986.000000;3.171478
3985.000000;3.200104
3984.000000;3.204286
3983.000000;3.196706
3982.000000;3.188835
3981.000000;3.184051
3980.000000;3.172137
3979.000000;3.138241
3978.000000;3.086378
3977.000000;3.043824
3976.000000;3.037372
3975.000000;3.076323
3974.000000;3.146738
3973.000000;3.205807
3972.000000;3.223763
3971.000000;3.208623
3970.000000;3.158510
3969.000000;3.103799
3968.000000;3.088888
3967.000000;3.123726
3966.000000;3.184766
3965.000000;3.227558
3964.000000;3.244396
3963.000000;3.283030
3962.000000;3.364701
3961.000000;3.405424
3960.000000;3.338123
3959.000000;3.230566
3958.000000;3.170430
3957.000000;3.174733
3956.000000;3.212498
3955.000000;3.263317
3954.000000;3.357113
3953.000000;3.524354
3952.000000;3.565235
3951.000000;3.495924
3950.000000;3.547035
3949.000000;3.662222
3948.000000;3.509368
3947.000000;3.264969
3946.000000;3.186021
3945.000000;3.275381
3944.000000;3.475317
3943.000000;3.589303
3942.000000;3.470785
3941.000000;3.280235
3940.000000;3.190150
3939.000000;3.225914
3938.000000;3.313081
3937.000000;3.344444
3936.000000;3.310063
3935.000000;3.277258
3934.000000;3.275202
3933.000000;3.307877
3932.000000;3.379902
3931.000000;3.453540
3930.000000;3.380283
3929.000000;3.267665
3928.000000;3.241454
3927.000000;3.295895
3926.000000;3.395559
3925.000000;3.474379
3924.000000;3.529261
3923.000000;3.571155
3922.000000;3.521226
3921.000000;3.485280
3920.000000;3.474725
3919.000000;3.408402
3918.000000;3.311465
3917.000000;3.244873
3916.000000;3.227574
3915.000000;3.265667
3914.000000;3.367310
3913.000000;3.478483
3912.000000;3.522793
3911.000000;3.560355
3910.000000;3.600343
3909.000000;3.645347
3908.000000;3.809030
3907.000000;4.237866
3906.000000;3.985977
3905.000000;3.648417
3904.000000;3.494745
3903.000000;3.446998
3902.000000;3.477036
3901.000000;3.573297
3900.000000;3.727484
3899.000000;3.845877
3898.000000;3.789051
3897.000000;3.672223
3896.000000;3.649610
3895.000000;3.730716
3894.000000;3.846328
3893.000000;3.946975
3892.000000;3.928114
3891.000000;3.736278
3890.000000;3.601240
3889.000000;3.659787
3888.000000;3.788862
3887.000000;3.787376
3886.000000;3.786055
3885.000000;3.794104
3884.000000;3.837136
3883.000000;4.066032
3882.000000;4.507277
3881.000000;4.107915
3880.000000;3.856171
3879.000000;3.770446
3878.000000;3.861489
3877.000000;3.943624
3876.000000;3.877738
3875.000000;3.889118
3874.000000;3.957958
3873.000000;4.002790
3872.000000;3.998082
3871.000000;4.047962
3870.000000;4.060673
3869.000000;3.912267
3868.000000;3.709660
3867.000000;3.639864
3866.000000;3.724939
3865.000000;3.818143
3864.000000;3.785159
3863.000000;3.698292
3862.000000;3.713949
3861.000000;3.847806
3860.000000;4.016141
3859.000000;4.533672
3858.000000;4.210076
3857.000000;3.840606
3856.000000;3.848227
3855.000000;3.921057
3854.000000;3.981797
3853.000000;4.011656
3852.000000;4.095950
3851.000000;4.305777
3850.000000;4.352946
3849.000000;4.133945
3848.000000;3.991003
3847.000000;4.144863
3846.000000;4.474487
3845.000000;3.802889
3844.000000;3.644648
3843.000000;3.653731
3842.000000;3.762065
3841.000000;3.995766
3840.000000;4.366721
3839.000000;4.785493
3838.000000;4.806344
3837.000000;4.532810
3836.000000;4.465176
3835.000000;4.626925
3834.000000;4.360416
3833.000000;4.128942
3832.000000;4.086596
3831.000000;4.177661
3830.000000;4.339142
3829.000000;4.116604
3828.000000;3.922703
3827.000000;3.858308
3826.000000;3.795913
3825.000000;3.767171
3824.000000;3.848537
3823.000000;4.059229
3822.000000;4.305946
3821.000000;4.463153
3820.000000;4.488803
3819.000000;4.510427
3818.000000;4.624535
3817.000000;4.737735
3816.000000;4.669561
3815.000000;4.395943
3814.000000;4.394771
3813.000000;4.405392
3812.000000;4.051526
3811.000000;4.008483
3810.000000;4.052747
3809.000000;4.000813
3808.000000;3.954090
3807.000000;3.992810
3806.000000;4.109333
3805.000000;4.684764
3804.000000;4.527651
3803.000000;4.311292
3802.000000;4.387446
3801.000000;4.424680
3800.000000;4.525234
3799.000000;4.305238
3798.000000;4.115301
3797.000000;4.001968
3796.000000;3.871247
3795.000000;3.794840
3794.000000;3.892282
3793.000000;4.182098
3792.000000;4.011499
3791.000000;3.804139
3790.000000;3.770949
3789.000000;3.979541
3788.000000;4.202754
3787.000000;3.796501
3786.000000;3.622821
3785.000000;3.601883
3784.000000;3.643261
3783.000000;3.685946
3782.000000;3.769032
3781.000000;3.905260
3780.000000;3.941975
3779.000000;3.868112
3778.000000;3.814141
3777.000000;3.903840
3776.000000;4.316344
3775.000000;3.930705
3774.000000;3.575193
3773.000000;3.479911
3772.000000;3.513573
3771.000000;3.644299
3770.000000;3.798368
3769.000000;3.923410
3768.000000;3.978211
3767.000000;3.977142
3766.000000;3.967891
3765.000000;3.992802
3764.000000;4.097301
3763.000000;4.285058
3762.000000;4.604146
3761.000000;5.203033
3760.000000;4.578830
3759.000000;4.075703
3758.000000;3.880271
3757.000000;3.875849
3756.000000;3.986027
3755.000000;4.114368
3754.000000;4.202827
3753.000000;4.282759
3752.000000;4.319727
3751.000000;4.498287
3750.000000;4.974196
3749.000000;4.575333
3748.000000;4.377538
3747.000000;4.492023
3746.000000;5.118406
3745.000000;5.055986
3744.000000;4.665936
3743.000000;4.579981
3742.000000;4.105719
3741.000000;3.901056
3740.000000;3.991757
3739.000000;4.132968
3738.000000;4.253946
3737.000000;4.150667
3736.000000;4.077860
3735.000000;4.117258
3734.000000;4.292919
3733.000000;4.587714
3732.000000;4.564350
3731.000000;4.252211
3730.000000;3.998660
3729.000000;3.852054
3728.000000;3.775561
3727.000000;3.702178
3726.000000;3.653860
3725.000000;3.715158
3724.000000;3.878456
3723.000000;3.916123
3722.000000;3.896969
3721.000000;3.925206
3720.000000;3.920895
3719.000000;3.860937
3718.000000;3.802108
3717.000000;3.751217
3716.000000;3.688271
3715.000000;3.701741
3714.000000;3.824907
3713.000000;3.842474
3712.000000;3.735099
3711.000000;3.713135
3710.000000;3.804086
3709.000000;3.953880
3708.000000;4.096572
3707.000000;4.189872
3706.000000;4.067178
3705.000000;3.844284
3704.000000;3.732139
3703.000000;3.735814
3702.000000;3.834047
3701.000000;4.010259
3700.000000;4.354272
3699.000000;4.170801
3698.000000;3.723816
3697.000000;3.507865
3696.000000;3.427710
3695.000000;3.476593
3694.000000;3.640171
3693.000000;3.829195
3692.000000;3.866141
3691.000000;3.877597
3690.000000;3.996188
3689.000000;4.124809
3688.000000;4.177120
3687.000000;4.147720
3686.000000;4.327637
3685.000000;4.479153
3684.000000;3.891433
3683.000000;3.661099
3682.000000;3.611671
3681.000000;3.699340
3680.000000;3.939635
3679.000000;4.383320
3678.000000;4.642515
3677.000000;4.645533
3676.000000;4.931442
3675.000000;4.669706
3674.000000;4.888935
3673.000000;4.732341
3672.000000;4.397452
3671.000000;4.449771
3670.000000;4.595751
3669.000000;4.767087
3668.000000;4.433400
3667.000000;4.161182
3666.000000;3.986350
3665.000000;3.811004
3664.000000;3.677856
3663.000000;3.664001
3662.000000;3.883460
3661.000000;3.929725
3660.000000;3.650351
3659.000000;3.582267
3658.000000;3.659521
3657.000000;3.778242
3656.000000;3.826880
3655.000000;3.965351
3654.000000;4.469287
3653.000000;4.550674
3652.000000;4.489633
3651.000000;4.491526
3650.000000;4.401119
3649.000000;4.449996
3648.000000;4.554173
3647.000000;4.534133
3646.000000;4.244062
3645.000000;3.990730
3644.000000;3.941346
3643.000000;4.144995
3642.000000;4.409023
3641.000000;4.208245
3640.000000;3.861718
3639.000000;3.646983
3638.000000;3.597447
3637.000000;3.651752
3636.000000;3.743108
3635.000000;3.774077
3634.000000;3.709982
3633.000000;3.670324
3632.000000;3.770803
3631.000000;3.905797
3630.000000;3.833741
3629.000000;3.687229
3628.000000;3.482690
3627.000000;3.373742
3626.000000;3.478655
3625.000000;3.830460
3624.000000;4.226109
3623.000000;3.973216
3622.000000;3.851406
3621.000000;3.928217
3620.000000;4.055492
3619.000000;4.143965
3618.000000;4.213705
3617.000000;4.372411
3616.000000;4.083151
3615.000000;3.792683
3614.000000;3.677005
3613.000000;3.647955
3612.000000;3.715046
3611.000000;3.930175
3610.000000;4.368926
3609.000000;4.406029
3608.000000;4.155177
3607.000000;3.994174
3606.000000;3.738363
3605.000000;3.502384
3604.000000;3.373950
3603.000000;3.348095
3602.000000;3.405507
3601.000000;3.511340
3600.000000;3.576274
3599.000000;3.549541
3598.000000;3.520652
3597.000000;3.534557
3596.000000;3.546530
3595.000000;3.532882
3594.000000;3.536209
3593.000000;3.787564
3592.000000;4.183499
3591.000000;3.887268
3590.000000;3.997959
3589.000000;4.103223
3588.000000;3.730920
3587.000000;3.589503
3586.000000;3.571280
3585.000000;3.703437
3584.000000;4.195150
3583.000000;3.908238
3582.000000;3.615130
3581.000000;3.523732
3580.000000;3.503546
3579.000000;3.488697
3578.000000;3.430319
3577.000000;3.380524
3576.000000;3.376446
3575.000000;3.422007
3574.000000;3.499549
3573.000000;3.565436
3572.000000;3.603348
3571.000000;3.627742
3570.000000;3.650696
3569.000000;3.688330
3568.000000;3.708729
3567.000000;3.991915
3566.000000;4.228778
3565.000000;3.691408
3564.000000;3.564139
3563.000000;3.621797
3562.000000;3.746274
3561.000000;3.994227
3560.000000;4.284322
3559.000000;4.085610
3558.000000;3.873390
3557.000000;3.722099
3556.000000;3.588336
3555.000000;3.573689
3554.000000;3.695436
3553.000000;4.023242
3552.000000;4.203125
3551.000000;3.950526
3550.000000;3.913043
3549.000000;3.722021
3548.000000;3.462697
3547.000000;3.336493
3546.000000;3.310399
3545.000000;3.339777
3544.000000;3.380043
3543.000000;3.433449
3542.000000;3.516612
3541.000000;3.577591
3540.000000;3.675433
3539.000000;4.093436
3538.000000;3.942470
3537.000000;3.629812
3536.000000;3.858533
3535.000000;4.096836
3534.000000;3.818222
3533.000000;3.918501
3532.000000;4.157991
3531.000000;3.770002
3530.000000;3.497653
3529.000000;3.394415
3528.000000;3.411148
3527.000000;3.505293
3526.000000;3.568318
3525.000000;3.658689
3524.000000;3.646715
3523.000000;3.503033
3522.000000;3.469369
3521.000000;3.714338
3520.000000;4.280422
3519.000000;3.814338
3518.000000;3.612674
3517.000000;3.587245
3516.000000;3.650120
3515.000000;3.801166
3514.000000;3.792059
3513.000000;3.714848
3512.000000;3.750962
3511.000000;3.870244
3510.000000;3.824691
3509.000000;3.613215
3508.000000;3.471641
3507.000000;3.486237
3506.000000;3.599130
3505.000000;3.726357
3504.000000;4.025839
3503.000000;3.958658
3502.000000;3.639487
3501.000000;3.532795
3500.000000;3.486450
3499.000000;3.482814
3498.000000;3.521587
3497.000000;3.505627
3496.000000;3.456640
3495.000000;3.455019
3494.000000;3.486997
3493.000000;3.477970
3492.000000;3.363610
3491.000000;3.271291
3490.000000;3.281662
3489.000000;3.431891
3488.000000;3.884575
3487.000000;4.075487
3486.000000;4.269906
3485.000000;4.006328
3484.000000;3.401622
3483.000000;3.258351
3482.000000;3.233304
3481.000000;3.267318
3480.000000;3.361598
3479.000000;3.499275
3478.000000;3.693378
3477.000000;3.820643
3476.000000;3.719430
3475.000000;3.618692
3474.000000;3.659337
3473.000000;3.883594
3472.000000;4.040725
3471.000000;3.679666
3470.000000;3.463458
3469.000000;3.359309
3468.000000;3.310911
3467.000000;3.303848
3466.000000;3.324596
3465.000000;3.441665
3464.000000;3.889708
3463.000000;4.086887
3462.000000;3.724171
3461.000000;4.146285
3460.000000;3.986874
3459.000000;3.423959
3458.000000;3.231131
3457.000000;3.129280
3456.000000;3.130007
3455.000000;3.232948
3454.000000;3.509460
3453.000000;4.102276
3452.000000;3.800039
3451.000000;3.634140
3450.000000;3.765324
3449.000000;3.688594
3448.000000;3.511989
3447.000000;3.380913
3446.000000;3.364740
3445.000000;3.515557
3444.000000;3.841765
3443.000000;4.187735
3442.000000;4.235943
3441.000000;4.092466
3440.000000;3.797410
3439.000000;3.558731
3438.000000;3.420695
3437.000000;3.325149
3436.000000;3.241563
3435.000000;3.167610
3434.000000;3.133749
3433.000000;3.136879
3432.000000;3.174361
3431.000000;3.269219
3430.000000;3.520613
3429.000000;4.085443
3428.000000;3.839683
3427.000000;3.559637
3426.000000;3.602716
3425.000000;3.710573
3424.000000;3.946955
3423.000000;4.499006
3422.000000;4.074852
3421.000000;3.768283
3420.000000;3.655002
3419.000000;3.585980
3418.000000;3.563096
3417.000000;3.547661
3416.000000;3.558662
3415.000000;3.453042
3414.000000;3.268620
3413.000000;3.179054
3412.000000;3.177765
3411.000000;3.242731
3410.000000;3.395996
3409.000000;3.644442
3408.000000;4.019097
3407.000000;4.041541
3406.000000;3.793389
3405.000000;3.716549
3404.000000;3.644167
3403.000000;3.455575
3402.000000;3.376840
3401.000000;3.717984
3400.000000;3.797462
3399.000000;3.354723
3398.000000;3.302083
3397.000000;3.469543
3396.000000;3.581098
3395.000000;3.507627
3394.000000;3.425539
3393.000000;3.287142
3392.000000;3.199740
3391.000000;3.227472
3390.000000;3.392558
3389.000000;3.664194
3388.000000;4.010146
3387.000000;4.025931
3386.000000;3.490515
3385.000000;3.277772
3384.000000;3.233539
3383.000000;3.264078
3382.000000;3.316636
3381.000000;3.403788
3380.000000;3.593036
3379.000000;3.830164
3378.000000;4.043950
3377.000000;4.131336
3376.000000;4.254398
3375.000000;4.281151
3374.000000;4.181044
3373.000000;4.043688
3372.000000;3.831425
3371.000000;3.997474
3370.000000;4.217460
3369.000000;3.975040
3368.000000;3.763637
3367.000000;3.823356
3366.000000;4.684126
3365.000000;3.764690
3364.000000;3.412483
3363.000000;3.311209
3362.000000;3.244265
3361.000000;3.237586
3360.000000;3.265830
3359.000000;3.291244
3358.000000;3.261766
3357.000000;3.233205
3356.000000;3.249633
3355.000000;3.338392
3354.000000;3.478355
3353.000000;3.492650
3352.000000;3.413724
3351.000000;3.455733
3350.000000;3.674907
3349.000000;3.776440
3348.000000;3.599306
3347.000000;3.552168
3346.000000;3.677056
3345.000000;3.700686
3344.000000;3.437502
3343.000000;3.255248
3342.000000;3.225520
3341.000000;3.309657
3340.000000;3.440518
3339.000000;3.499174
3338.000000;3.521806
3337.000000;3.570896
3336.000000;3.713966
3335.000000;3.802898
3334.000000;3.489310
3333.000000;3.272184
3332.000000;3.204026
3331.000000;3.315323
3330.000000;3.495094
3329.000000;3.323032
3328.000000;3.193333
3327.000000;3.239478
3326.000000;3.435601
3325.000000;3.487602
3324.000000;3.267470
3323.000000;3.170165
3322.000000;3.210656
3321.000000;3.370877
3320.000000;3.447738
3319.000000;3.321479
3318.000000;3.245230
3317.000000;3.275934
3316.000000;3.369765
3315.000000;3.421867
3314.000000;3.342801
3313.000000;3.269341
3312.000000;3.271867
3311.000000;3.437407
3310.000000;3.852203
3309.000000;3.666513
3308.000000;3.492456
3307.000000;3.545067
3306.000000;3.495688
3305.000000;3.399503
3304.000000;3.341414
3303.000000;3.279161
3302.000000;3.226152
3301.000000;3.247951
3300.000000;3.344696
3299.000000;3.529389
3298.000000;3.693940
3297.000000;3.655211
3296.000000;3.651448
3295.000000;3.660010
3294.000000;3.644489
3293.000000;3.727288
3292.000000;3.804010
3291.000000;3.716927
3290.000000;3.580840
3289.000000;3.515806
3288.000000;3.507763
3287.000000;3.471672
3286.000000;3.385442
3285.000000;3.326519
3284.000000;3.321991
3283.000000;3.284507
3282.000000;3.201514
3281.000000;3.176327
3280.000000;3.257088
3279.000000;3.420744
3278.000000;3.530720
3277.000000;3.530130
3276.000000;3.498845
3275.000000;3.441398
3274.000000;3.428238
3273.000000;3.558952
3272.000000;3.646051
3271.000000;3.449637
3270.000000;3.320966
3269.000000;3.314302
3268.000000;3.360508
3267.000000;3.388636
3266.000000;3.382220
3265.000000;3.389820
3264.000000;3.437129
3263.000000;3.436213
3262.000000;3.345834
3261.000000;3.295664
3260.000000;3.366195
3259.000000;3.542027
3258.000000;3.494103
3257.000000;3.301250
3256.000000;3.230151
3255.000000;3.289005
3254.000000;3.468346
3253.000000;3.625953
3252.000000;3.523642
3251.000000;3.383924
3250.000000;3.346079
3249.000000;3.534916
3248.000000;3.964257
3247.000000;3.599407
3246.000000;3.263927
3245.000000;3.113850
3244.000000;3.071807
3243.000000;3.154600
3242.000000;3.332153
3241.000000;3.467087
3240.000000;3.447323
3239.000000;3.405681
3238.000000;3.419652
3237.000000;3.470465
3236.000000;3.510327
3235.000000;3.520609
3234.000000;3.474468
3233.000000;3.442521
3232.000000;3.504319
3231.000000;3.702675
3230.000000;3.969426
3229.000000;3.750176
3228.000000;3.465160
3227.000000;3.338439
3226.000000;3.334429
3225.000000;3.373210
3224.000000;3.361454
3223.000000;3.379795
3222.000000;3.490544
3221.000000;3.657455
3220.000000;3.854439
3219.000000;3.938352
3218.000000;3.763984
3217.000000;3.570553
3216.000000;3.420430
3215.000000;3.307830
3214.000000;3.234589
3213.000000;3.241223
3212.000000;3.354239
3211.000000;3.475269
3210.000000;3.503879
3209.000000;3.575749
3208.000000;3.750666
3207.000000;3.779485
3206.000000;3.647984
3205.000000;3.497289
3204.000000;3.336581
3203.000000;3.220196
3202.000000;3.159257
3201.000000;3.151778
3200.000000;3.160856
3199.000000;3.164550
3198.000000;3.203627
3197.000000;3.381581
3196.000000;3.618835
3195.000000;3.435135
3194.000000;3.262529
3193.000000;3.240012
3192.000000;3.313476
3191.000000;3.461028
3190.000000;3.610467
3189.000000;3.862624
3188.000000;3.954405
3187.000000;3.670446
3186.000000;3.454790
3185.000000;3.385760
3184.000000;3.418347
3183.000000;3.640822
3182.000000;4.132898
3181.000000;3.550248
3180.000000;3.209749
3179.000000;3.127836
3178.000000;3.155979
3177.000000;3.356139
3176.000000;3.666503
3175.000000;3.478738
3174.000000;3.282360
3173.000000;3.268590
3172.000000;3.332761
3171.000000;3.606780
3170.000000;4.123554
3169.000000;3.653202
3168.000000;3.449774
3167.000000;3.495481
3166.000000;3.840517
3165.000000;4.241496
3164.000000;3.742339
3163.000000;3.543036
3162.000000;3.473530
3161.000000;3.715912
3160.000000;3.838191
3159.000000;3.542967
3158.000000;3.709698
3157.000000;3.967522
3156.000000;3.529111
3155.000000;3.355899
3154.000000;3.372826
3153.000000;3.435243
3152.000000;3.460535
3151.000000;3.403460
3150.000000;3.294339
3149.000000;3.228651
3148.000000;3.235358
3147.000000;3.387728
3146.000000;3.717759
3145.000000;3.511182
3144.000000;3.238943
3143.000000;3.164088
3142.000000;3.215871
3141.000000;3.386035
3140.000000;3.579210
3139.000000;3.673612
3138.000000;3.555974
3137.000000;3.426178
3136.000000;3.373351
3135.000000;3.343037
3134.000000;3.334245
3133.000000;3.437843
3132.000000;3.934908
3131.000000;4.014420
3130.000000;3.490614
3129.000000;3.335556
3128.000000;3.314312
3127.000000;3.418001
3126.000000;3.633106
3125.000000;3.806952
3124.000000;3.678697
3123.000000;3.463962
3122.000000;3.370245
3121.000000;3.415759
3120.000000;3.521234
3119.000000;3.511832
3118.000000;3.492415
3117.000000;3.648767
3116.000000;3.599333
3115.000000;3.317177
3114.000000;3.229055
3113.000000;3.299384
3112.000000;3.483669
3111.000000;3.746672
3110.000000;3.593997
3109.000000;3.341221
3108.000000;3.249087
3107.000000;3.333818
3106.000000;3.771169
3105.000000;3.608479
3104.000000;3.189669
3103.000000;3.062173
3102.000000;3.061639
3101.000000;3.209385
3100.000000;3.443320
3099.000000;3.404775
3098.000000;3.266323
3097.000000;3.234200
3096.000000;3.351068
3095.000000;3.672807
3094.000000;3.714327
3093.000000;3.508029
3092.000000;3.502159
3091.000000;3.453800
3090.000000;3.319639
3089.000000;3.291884
3088.000000;3.448233
3087.000000;3.943961
3086.000000;3.921489
3085.000000;3.661275
3084.000000;3.822681
3083.000000;3.813307
3082.000000;3.854585
3081.000000;3.842850
3080.000000;3.520302
3079.000000;3.390533
3078.000000;3.401642
3077.000000;3.603569
3076.000000;3.969397
3075.000000;3.711372
3074.000000;3.728489
3073.000000;3.865083
3072.000000;3.465812
3071.000000;3.343526
3070.000000;3.474477
3069.000000;3.567453
3068.000000;3.493289
3067.000000;3.505416
3066.000000;3.544989
3065.000000;3.450043
3064.000000;3.558050
3063.000000;3.869628
3062.000000;3.571373
3061.000000;3.417060
3060.000000;3.649594
3059.000000;4.064261
3058.000000;3.884950
3057.000000;3.912173
3056.000000;4.196919
3055.000000;4.273462
3054.000000;4.111737
3053.000000;3.832415
3052.000000;3.455435
3051.000000;3.207097
3050.000000;3.141775
3049.000000;3.209132
3048.000000;3.352856
3047.000000;3.432799
3046.000000;3.495462
3045.000000;3.617211
3044.000000;3.527118
3043.000000;3.362734
3042.000000;3.262414
3041.000000;3.184607
3040.000000;3.168088
3039.000000;3.259689
3038.000000;3.478921
3037.000000;3.808529
3036.000000;4.053217
3035.000000;4.042618
3034.000000;3.868917
3033.000000;4.018487
3032.000000;4.361562
3031.000000;3.746879
3030.000000;3.507148
3029.000000;3.462457
3028.000000;3.497004
3027.000000;3.605550
3026.000000;3.747343
3025.000000;3.744477
3024.000000;3.529529
3023.000000;3.336465
3022.000000;3.221477
3021.000000;3.203579
3020.000000;3.273683
3019.000000;3.371238
3018.000000;3.429237
3017.000000;3.450479
3016.000000;3.346848
3015.000000;3.137774
3014.000000;3.025659
3013.000000;3.060553
3012.000000;3.259295
3011.000000;3.761276
3010.000000;3.983808
3009.000000;3.585496
3008.000000;3.487691
3007.000000;3.381787
3006.000000;3.261840
3005.000000;3.192854
3004.000000;3.161537
3003.000000;3.156557
3002.000000;3.186575
3001.000000;3.244870
3000.000000;3.293032
2999.000000;3.359009
2998.000000;3.410746
2997.000000;3.565417
2996.000000;3.800752
2995.000000;3.471459
2994.000000;3.237111
2993.000000;3.211442
2992.000000;3.298039
2991.000000;3.365288
2990.000000;3.320732
2989.000000;3.318345
2988.000000;3.352542
2987.000000;3.353835
2986.000000;3.409669
2985.000000;3.544457
2984.000000;3.585407
2983.000000;3.422544
2982.000000;3.225580
2981.000000;3.076810
2980.000000;2.998120
2979.000000;3.008943
2978.000000;3.132451
2977.000000;3.358941
2976.000000;3.394722
2975.000000;3.236150
2974.000000;3.158111
2973.000000;3.147886
2972.000000;3.206438
2971.000000;3.343840
2970.000000;3.571611
2969.000000;3.877709
2968.000000;4.134550
2967.000000;4.188784
2966.000000;3.936739
2965.000000;3.655613
2964.000000;3.490625
2963.000000;3.529474
2962.000000;3.750812
2961.000000;3.810114
2960.000000;3.905341
2959.000000;3.990199
2958.000000;3.594488
2957.000000;3.368552
2956.000000;3.329043
2955.000000;3.426131
2954.000000;3.745206
2953.000000;3.848531
2952.000000;3.462966
2951.000000;3.298362
2950.000000;3.222083
2949.000000;3.208018
2948.000000;3.277686
2947.000000;3.394406
2946.000000;3.437439
2945.000000;3.315143
2944.000000;3.213881
2943.000000;3.218048
2942.000000;3.308081
2941.000000;3.376303
2940.000000;3.359433
2939.000000;3.327582
2938.000000;3.396856
2937.000000;3.646501
2936.000000;3.605008
2935.000000;3.375024
2934.000000;3.276000
2933.000000;3.293155
2932.000000;3.391884
2931.000000;3.673496
2930.000000;4.308859
2929.000000;3.677079
2928.000000;3.385071
2927.000000;3.278597
2926.000000;3.192539
2925.000000;3.158292
2924.000000;3.162577
2923.000000;3.179724
2922.000000;3.207535
2921.000000;3.311257
2920.000000;3.807425
2919.000000;3.938778
2918.000000;3.364766
2917.000000;3.214347
2916.000000;3.154459
2915.000000;3.133579
2914.000000;3.113595
2913.000000;3.120945
2912.000000;3.193819
2911.000000;3.302020
2910.000000;3.407784
2909.000000;3.426140
2908.000000;3.383586
2907.000000;3.325118
2906.000000;3.234339
2905.000000;3.138535
2904.000000;3.089790
2903.000000;3.130505
2902.000000;3.255858
2901.000000;3.453730
2900.000000;3.762503
2899.000000;3.644570
2898.000000;3.405468
2897.000000;3.428321
2896.000000;3.486565
2895.000000;3.385915
2894.000000;3.274682
2893.000000;3.218730
2892.000000;3.192843
2891.000000;3.207155
2890.000000;3.304245
2889.000000;3.520049
2888.000000;3.713703
2887.000000;3.610955
2886.000000;3.422185
2885.000000;3.263741
2884.000000;3.169499
2883.000000;3.151476
2882.000000;3.191499
2881.000000;3.252075
2880.000000;3.271217
2879.000000;3.223042
2878.000000;3.208875
2877.000000;3.277355
2876.000000;3.506649
2875.000000;4.027134
2874.000000;3.899222
2873.000000;3.641963
2872.000000;3.464037
2871.000000;3.320497
2870.000000;3.369876
2869.000000;3.584059
2868.000000;3.476282
2867.000000;3.215043
2866.000000;3.102706
2865.000000;3.100130
2864.000000;3.144584
2863.000000;3.193188
2862.000000;3.235287
2861.000000;3.390808
2860.000000;4.031738
2859.000000;3.985400
2858.000000;3.644471
2857.000000;3.795729
2856.000000;4.350695
2855.000000;3.903399
2854.000000;3.444001
2853.000000;3.274699
2852.000000;3.239200
2851.000000;3.233476
2850.000000;3.153231
2849.000000;3.093280
2848.000000;3.137049
2847.000000;3.318628
2846.000000;3.700517
2845.000000;3.794478
2844.000000;3.501448
2843.000000;3.383465
2842.000000;3.274654
2841.000000;3.184516
2840.000000;3.156115
2839.000000;3.153549
2838.000000;3.158124
2837.000000;3.186830
2836.000000;3.298071
2835.000000;3.515310
2834.000000;3.679804
2833.000000;3.717883
2832.000000;3.758176
2831.000000;3.613102
2830.000000;3.696083
2829.000000;4.108862
2828.000000;3.483128
2827.000000;3.240276
2826.000000;3.201722
2825.000000;3.173950
2824.000000;3.182970
2823.000000;3.242254
2822.000000;3.291447
2821.000000;3.309211
2820.000000;3.342487
2819.000000;3.363682
2818.000000;3.366019
2817.000000;3.500969
2816.000000;3.723808
2815.000000;3.446086
2814.000000;3.214921
2813.000000;3.147900
2812.000000;3.161484
2811.000000;3.209114
2810.000000;3.257167
2809.000000;3.300193
2808.000000;3.391875
2807.000000;3.459945
2806.000000;3.568282
2805.000000;4.261372
2804.000000;3.845075
2803.000000;3.483514
2802.000000;3.570962
2801.000000;3.914762
2800.000000;3.812985
2799.000000;3.681884
2798.000000;3.731577
2797.000000;3.673838
2796.000000;3.783242
2795.000000;4.243913
2794.000000;4.494954
2793.000000;4.326992
2792.000000;3.974704
2791.000000;3.650381
2790.000000;3.501323
2789.000000;3.453400
2788.000000;3.471432
2787.000000;3.710618
2786.000000;3.916482
2785.000000;3.472857
2784.000000;3.263603
2783.000000;3.252892
2782.000000;3.437491
2781.000000;3.663579
2780.000000;3.447716
2779.000000;3.252714
2778.000000;3.177661
2777.000000;3.194854
2776.000000;3.311164
2775.000000;3.501609
2774.000000;3.703750
2773.000000;3.825136
2772.000000;3.946673
2771.000000;3.718671
2770.000000;3.305493
2769.000000;3.076100
2768.000000;3.004104
2767.000000;3.080871
2766.000000;3.321134
2765.000000;3.498101
2764.000000;3.373283
2763.000000;3.264846
2762.000000;3.198541
2761.000000;3.201791
2760.000000;3.224410
2759.000000;3.185075
2758.000000;3.148343
2757.000000;3.179817
2756.000000;3.404097
2755.000000;3.695988
2754.000000;3.465673
2753.000000;3.356301
2752.000000;3.575595
2751.000000;3.989322
2750.000000;3.486687
2749.000000;3.235950
2748.000000;3.208257
2747.000000;3.272871
2746.000000;3.437321
2745.000000;3.840788
2744.000000;3.859834
2743.000000;3.413028
2742.000000;3.303147
2741.000000;3.367851
2740.000000;3.473671
2739.000000;3.605609
2738.000000;3.603023
2737.000000;3.334613
2736.000000;3.220270
2735.000000;3.294284
2734.000000;3.489158
2733.000000;3.540814
2732.000000;3.426930
2731.000000;3.356687
2730.000000;3.321124
2729.000000;3.366071
2728.000000;3.536747
2727.000000;3.813598
2726.000000;3.851173
2725.000000;3.575359
2724.000000;3.397334
2723.000000;3.378916
2722.000000;3.442449
2721.000000;3.390058
2720.000000;3.250527
2719.000000;3.181929
2718.000000;3.224613
2717.000000;3.376985
2716.000000;3.536082
2715.000000;3.526040
2714.000000;3.478493
2713.000000;3.570743
2712.000000;3.900156
2711.000000;4.020467
2710.000000;3.884755
2709.000000;3.948992
2708.000000;3.776843
2707.000000;3.734070
2706.000000;4.133271
2705.000000;4.122090
2704.000000;3.823516
2703.000000;3.865740
2702.000000;3.811750
2701.000000;3.693680
2700.000000;3.585770
2699.000000;3.481162
2698.000000;3.355146
2697.000000;3.250167
2696.000000;3.197829
2695.000000;3.192444
2694.000000;3.271054
2693.000000;3.384247
2692.000000;3.308979
2691.000000;3.216980
2690.000000;3.264222
2689.000000;3.419662
2688.000000;3.528661
2687.000000;3.510950
2686.000000;3.448586
2685.000000;3.365082
2684.000000;3.302569
2683.000000;3.288623
2682.000000;3.356873
2681.000000;3.454932
2680.000000;3.428538
2679.000000;3.337389
2678.000000;3.318394
2677.000000;3.383668
2676.000000;3.564469
2675.000000;4.178839
2674.000000;3.902257
2673.000000;3.520170
2672.000000;3.494858
2671.000000;3.585233
2670.000000;3.713452
2669.000000;3.696570
2668.000000;3.866203
2667.000000;3.853377
2666.000000;3.423606
2665.000000;3.246633
2664.000000;3.221499
2663.000000;3.266566
2662.000000;3.304608
2661.000000;3.328944
2660.000000;3.430404
2659.000000;3.606716
2658.000000;3.781741
2657.000000;3.859775
2656.000000;3.703639
2655.000000;3.523041
2654.000000;3.375958
2653.000000;3.225224
2652.000000;3.093010
2651.000000;3.027854
2650.000000;3.071835
2649.000000;3.262826
2648.000000;3.430514
2647.000000;3.326196
2646.000000;3.214093
2645.000000;3.155860
2644.000000;3.147938
2643.000000;3.200060
2642.000000;3.302675
2641.000000;3.446355
2640.000000;3.599837
2639.000000;3.706687
2638.000000;3.708560
2637.000000;3.602956
2636.000000;3.510107
2635.000000;3.537707
2634.000000;3.799482
2633.000000;4.013080
2632.000000;3.837005
2631.000000;3.920305
2630.000000;3.694786
2629.000000;3.441519
2628.000000;3.333406
2627.000000;3.297476
2626.000000;3.311329
2625.000000;3.359353
2624.000000;3.452446
2623.000000;3.578775
2622.000000;3.692400
2621.000000;3.773781
2620.000000;3.799853
2619.000000;3.650762
2618.000000;3.454691
2617.000000;3.336616
2616.000000;3.322770
2615.000000;3.406068
2614.000000;3.601671
2613.000000;4.016529
2612.000000;3.766013
2611.000000;3.478852
2610.000000;3.439979
2609.000000;3.536071
2608.000000;3.473787
2607.000000;3.333139
2606.000000;3.338740
2605.000000;3.595490
2604.000000;3.979837
2603.000000;3.667569
2602.000000;3.617117
2601.000000;3.595936
2600.000000;3.546043
2599.000000;3.534986
2598.000000;3.465189
2597.000000;3.395157
2596.000000;3.389470
2595.000000;3.401581
2594.000000;3.395412
2593.000000;3.405004
2592.000000;3.476271
2591.000000;3.617175
2590.000000;3.670062
2589.000000;3.640319
2588.000000;3.708289
2587.000000;3.830370
2586.000000;3.837400
2585.000000;3.751389
2584.000000;3.658611
2583.000000;3.821610
2582.000000;4.102734
2581.000000;3.593635
2580.000000;3.725221
2579.000000;4.292654
2578.000000;3.477415
2577.000000;3.326903
2576.000000;3.291259
2575.000000;3.260065
2574.000000;3.185051
2573.000000;3.105616
2572.000000;3.081202
2571.000000;3.111144
2570.000000;3.172526
2569.000000;3.235253
2568.000000;3.321485
2567.000000;3.508407
2566.000000;3.604598
2565.000000;3.414257
2564.000000;3.271067
2563.000000;3.239680
2562.000000;3.330559
2561.000000;3.554442
2560.000000;3.759428
2559.000000;3.585543
2558.000000;3.448601
2557.000000;3.503759
2556.000000;3.832265
2555.000000;4.384173
2554.000000;3.716963
2553.000000;3.502835
2552.000000;3.378799
2551.000000;3.337104
2550.000000;3.428966
2549.000000;3.679653
2548.000000;3.816693
2547.000000;3.641616
2546.000000;3.538942
2545.000000;3.443756
2544.000000;3.365506
2543.000000;3.317805
2542.000000;3.293922
2541.000000;3.313785
2540.000000;3.399160
2539.000000;3.502808
2538.000000;3.529215
2537.000000;3.441966
2536.000000;3.343997
2535.000000;3.341852
2534.000000;3.485836
2533.000000;3.992505
2532.000000;3.948636
2531.000000;3.573982
2530.000000;3.477639
2529.000000;3.500806
2528.000000;3.579515
2527.000000;3.665199
2526.000000;3.802634
2525.000000;4.026238
2524.000000;4.267476
2523.000000;4.357957
2522.000000;4.375791
2521.000000;4.155784
2520.000000;3.690307
2519.000000;3.505644
2518.000000;3.472672
2517.000000;3.499048
2516.000000;3.513373
2515.000000;3.465553
2514.000000;3.396235
2513.000000;3.385572
2512.000000;3.463745
2511.000000;3.650450
2510.000000;3.858927
2509.000000;3.849560
2508.000000;3.844354
2507.000000;4.013515
2506.000000;4.776893
2505.000000;4.060802
2504.000000;3.720734
2503.000000;3.585905
2502.000000;3.490396
2501.000000;3.432003
2500.000000;3.508131
2499.000000;3.880388
2498.000000;3.862386
2497.000000;3.492266
2496.000000;3.376892
2495.000000;3.306934
2494.000000;3.272248
2493.000000;3.304870
2492.000000;3.432023
2491.000000;3.692845
2490.000000;3.982860
2489.000000;3.848902
2488.000000;3.631631
2487.000000;3.509026
2486.000000;3.486396
2485.000000;3.575004
2484.000000;3.758270
2483.000000;3.888139
2482.000000;3.751319
2481.000000;3.585341
2480.000000;3.590372
2479.000000;3.906395
2478.000000;3.975476
2477.000000;3.787552
2476.000000;3.648287
2475.000000;3.522674
2474.000000;3.520452
2473.000000;3.551303
2472.000000;3.533140
2471.000000;3.591166
2470.000000;3.907018
2469.000000;3.997435
2468.000000;3.604184
2467.000000;3.486971
2466.000000;3.441806
2465.000000;3.485166
2464.000000;3.620840
2463.000000;3.544021
2462.000000;3.362883
2461.000000;3.347246
2460.000000;3.504156
2459.000000;3.975287
2458.000000;3.694804
2457.000000;3.373558
2456.000000;3.296549
2455.000000;3.308659
2454.000000;3.399576
2453.000000;3.528747
2452.000000;3.634734
2451.000000;3.639409
2450.000000;3.558515
2449.000000;3.444882
2448.000000;3.391913
2447.000000;3.424655
2446.000000;3.546023
2445.000000;3.752373
2444.000000;3.579501
2443.000000;3.335389
2442.000000;3.276500
2441.000000;3.343612
2440.000000;3.448576
2439.000000;3.503263
2438.000000;3.850706
2437.000000;4.097400
2436.000000;3.624237
2435.000000;3.626599
2434.000000;4.047649
2433.000000;4.174016
2432.000000;3.693523
2431.000000;3.533830
2430.000000;3.459456
2429.000000;3.498473
2428.000000;3.646179
2427.000000;3.714510
2426.000000;3.492712
2425.000000;3.312672
2424.000000;3.263300
2423.000000;3.349514
2422.000000;3.651181
2421.000000;4.754697
2420.000000;3.924873
2419.000000;3.994240
2418.000000;4.238725
2417.000000;4.153337
2416.000000;4.188547
2415.000000;4.028162
2414.000000;3.782148
2413.000000;3.605972
2412.000000;3.481261
2411.000000;3.410735
2410.000000;3.404033
2409.000000;3.480644
2408.000000;3.611653
2407.000000;3.975168
2406.000000;4.201348
2405.000000;3.960338
2404.000000;4.040639
2403.000000;3.784520
2402.000000;3.635878
2401.000000;3.632600
2400.000000;3.712951
2399.000000;3.706249
2398.000000;3.496991
2397.000000;3.435512
2396.000000;3.547615
2395.000000;3.729204
2394.000000;3.716838
2393.000000;3.579745
2392.000000;3.448716
2391.000000;3.372384
2390.000000;3.385287
2389.000000;3.481484
2388.000000;3.603645
2387.000000;3.638754
2386.000000;3.588619
2385.000000;3.572846
2384.000000;3.605423
2383.000000;3.581074
2382.000000;3.528779
2381.000000;3.571736
2380.000000;3.737121
2379.000000;4.170097
2378.000000;4.198402
2377.000000;3.891335
2376.000000;3.835733
2375.000000;3.815152
2374.000000;3.772117
2373.000000;3.738976
2372.000000;3.589981
2371.000000;3.402929
2370.000000;3.364124
2369.000000;3.531309
2368.000000;3.618179
2367.000000;3.397794
2366.000000;3.348403
2365.000000;3.456475
2364.000000;3.605944
2363.000000;3.570018
2362.000000;3.452678
2361.000000;3.396889
2360.000000;3.443683
2359.000000;3.601503
2358.000000;3.771628
2357.000000;3.706491
2356.000000;3.580767
2355.000000;3.541562
2354.000000;3.533861
2353.000000;3.494802
2352.000000;3.725106
2351.000000;3.912444
2350.000000;3.528814
2349.000000;3.443658
2348.000000;3.488989
2347.000000;3.606454
2346.000000;3.635932
2345.000000;3.198898
2344.000000;3.045443
2343.000000;3.206994
2342.000000;3.458391
2341.000000;3.580907
2340.000000;3.696365
2339.000000;3.746846
2338.000000;3.759023
2337.000000;3.822646
2336.000000;3.843718
2335.000000;3.725232
2334.000000;3.580082
2333.000000;3.464184
2332.000000;3.418482
2331.000000;3.427356
2330.000000;3.465900
2329.000000;3.479984
2328.000000;3.487280
2327.000000;3.538731
2326.000000;3.666689
2325.000000;3.893747
2324.000000;4.100047
2323.000000;3.936469
2322.000000;3.754676
2321.000000;3.688477
2320.000000;3.690593
2319.000000;3.763643
2318.000000;3.862939
2317.000000;3.759477
2316.000000;3.647275
2315.000000;3.645668
2314.000000;3.716624
2313.000000;3.700413
2312.000000;3.672693
2311.000000;3.738274
2310.000000;3.762876
2309.000000;3.698340
2308.000000;3.700786
2307.000000;3.741374
2306.000000;3.798476
2305.000000;3.975015
2304.000000;4.368287
2303.000000;4.367974
2302.000000;4.096129
2301.000000;4.014400
2300.000000;4.084541
2299.000000;4.463862
2298.000000;4.071768
2297.000000;3.769057
2296.000000;3.705815
2295.000000;3.695485
2294.000000;3.743287
2293.000000;3.965191
2292.000000;4.421997
2291.000000;3.869807
2290.000000;3.732808
2289.000000;3.870745
2288.000000;4.455097
2287.000000;3.986236
2286.000000;3.839413
2285.000000;4.041453
2284.000000;4.874304
2283.000000;4.525149
2282.000000;4.540965
2281.000000;4.285392
2280.000000;3.907338
2279.000000;3.690623
2278.000000;3.575767
2277.000000;3.499613
2276.000000;3.839522
2275.000000;4.194299
2274.000000;3.629233
2273.000000;3.672726
2272.000000;3.650652
2271.000000;3.487783
2270.000000;3.368166
2269.000000;3.341414
2268.000000;3.416441
2267.000000;3.587396
2266.000000;3.677468
2265.000000;3.685078
2264.000000;3.761841
2263.000000;3.865975
2262.000000;3.940028
2261.000000;3.932012
2260.000000;3.785592
2259.000000;3.658418
2258.000000;3.635509
2257.000000;3.737926
2256.000000;3.847828
2255.000000;3.844198
2254.000000;4.128104
2253.000000;4.022780
2252.000000;3.598553
2251.000000;3.509382
2250.000000;3.469122
2249.000000;3.423572
2248.000000;3.390689
2247.000000;3.422996
2246.000000;3.524667
2245.000000;3.773849
2244.000000;3.982738
2243.000000;3.726452
2242.000000;3.613700
2241.000000;3.811180
2240.000000;4.232783
2239.000000;3.808511
2238.000000;3.759133
2237.000000;4.479275
2236.000000;3.719918
2235.000000;3.527001
2234.000000;3.615169
2233.000000;3.970968
2232.000000;4.392161
2231.000000;4.065288
2230.000000;3.943768
2229.000000;3.898342
2228.000000;3.915094
2227.000000;3.979936
2226.000000;4.084890
2225.000000;3.906850
2224.000000;3.692539
2223.000000;3.565811
2222.000000;3.516925
2221.000000;3.617355
2220.000000;3.908415
2219.000000;3.682681
2218.000000;3.442839
2217.000000;3.415699
2216.000000;3.452823
2215.000000;3.444595
2214.000000;3.401614
2213.000000;3.458451
2212.000000;3.650202
2211.000000;3.823481
2210.000000;3.688275
2209.000000;3.540327
2208.000000;3.452997
2207.000000;3.406721
2206.000000;3.402500
2205.000000;3.472404
2204.000000;3.678721
2203.000000;3.877542
2202.000000;3.660256
2201.000000;3.583811
2200.000000;3.693937
2199.000000;4.058007
2198.000000;3.851075
2197.000000;3.483023
2196.000000;3.338450
2195.000000;3.276761
2194.000000;3.278763
2193.000000;3.311706
2192.000000;3.357076
2191.000000;3.413485
2190.000000;3.504764
2189.000000;3.634811
2188.000000;3.726792
2187.000000;3.707257
2186.000000;3.647799
2185.000000;3.601956
2184.000000;3.532983
2183.000000;3.418387
2182.000000;3.339687
2181.000000;3.369132
2180.000000;3.545095
2179.000000;3.713261
2178.000000;3.569975
2177.000000;3.511784
2176.000000;3.571334
2175.000000;3.724132
2174.000000;3.947079
2173.000000;3.976602
2172.000000;3.725132
2171.000000;3.588661
2170.000000;3.591590
2169.000000;3.752592
2168.000000;4.196112
2167.000000;4.702313
2166.000000;4.144644
2165.000000;3.775258
2164.000000;3.555877
2163.000000;3.474736
2162.000000;3.490348
2161.000000;3.600777
2160.000000;3.817656
2159.000000;4.078467
2158.000000;4.023436
2157.000000;3.890562
2156.000000;3.766226
2155.000000;3.677274
2154.000000;3.656877
2153.000000;3.697113
2152.000000;3.770145
2151.000000;3.770508
2150.000000;3.902550
2149.000000;4.633917
2148.000000;3.861737
2147.000000;3.692067
2146.000000;3.707080
2145.000000;3.849910
2144.000000;3.931212
2143.000000;3.808246
2142.000000;3.735933
2141.000000;3.785133
2140.000000;4.199041
2139.000000;4.447104
2138.000000;4.100667
2137.000000;4.148133
2136.000000;3.839607
2135.000000;3.635625
2134.000000;3.630139
2133.000000;3.770011
2132.000000;4.400867
2131.000000;4.278058
2130.000000;4.089184
2129.000000;4.441013
2128.000000;4.065414
2127.000000;3.838178
2126.000000;3.761085
2125.000000;3.812696
2124.000000;4.119194
2123.000000;4.453686
2122.000000;3.842650
2121.000000;3.659293
2120.000000;3.643773
2119.000000;3.862927
2118.000000;3.820072
2117.000000;3.532515
2116.000000;3.483245
2115.000000;3.546910
2114.000000;3.745917
2113.000000;3.742099
2112.000000;3.480951
2111.000000;3.348637
2110.000000;3.328129
2109.000000;3.400004
2108.000000;3.565749
2107.000000;3.757741
2106.000000;3.731572
2105.000000;3.702245
2104.000000;4.039804
2103.000000;4.116159
2102.000000;3.667155
2101.000000;3.498491
2100.000000;3.448945
2099.000000;3.474938
2098.000000;3.576708
2097.000000;3.787134
2096.000000;4.225891
2095.000000;3.899200
2094.000000;3.643124
2093.000000;3.598772
2092.000000;3.664592
2091.000000;3.725795
2090.000000;3.686080
2089.000000;3.562233
2088.000000;3.435672
2087.000000;3.353660
2086.000000;3.319034
2085.000000;3.350599
2084.000000;3.477990
2083.000000;3.761462
2082.000000;4.105776
2081.000000;3.962463
2080.000000;3.870605
2079.000000;4.110132
2078.000000;3.944876
2077.000000;3.585480
2076.000000;3.376484
2075.000000;3.279553
2074.000000;3.293798
2073.000000;3.426335
2072.000000;3.717103
2071.000000;4.212796
2070.000000;4.109311
2069.000000;4.400205
2068.000000;4.169968
2067.000000;3.868470
2066.000000;3.832109
2065.000000;3.863787
2064.000000;3.877227
2063.000000;3.882307
2062.000000;3.787496
2061.000000;3.659549
2060.000000;3.623131
2059.000000;3.608294
2058.000000;3.574530
2057.000000;3.562839
2056.000000;3.582658
2055.000000;3.606612
2054.000000;3.603911
2053.000000;3.591141
2052.000000;3.616897
2051.000000;3.753329
2050.000000;4.025476
2049.000000;4.735040
2048.000000;4.130510
2047.000000;3.797097
2046.000000;3.800631
2045.000000;4.290043
2044.000000;4.174113
2043.000000;3.927484
2042.000000;3.878918
2041.000000;3.776942
2040.000000;3.711402
2039.000000;3.699113
2038.000000;3.732357
2037.000000;3.807376
2036.000000;3.854663
2035.000000;3.756884
2034.000000;3.626798
2033.000000;3.596936
2032.000000;3.689502
2031.000000;3.977454
2030.000000;4.017209
2029.000000;3.808940
2028.000000;3.824726
2027.000000;3.982047
2026.000000;3.983957
2025.000000;3.812465
2024.000000;3.801045
2023.000000;3.950182
2022.000000;4.872185
2021.000000;4.066302
2020.000000;3.810135
2019.000000;3.843410
2018.000000;3.945884
2017.000000;3.712027
2016.000000;3.534830
2015.000000;3.458426
2014.000000;3.432514
2013.000000;3.446280
2012.000000;3.544127
2011.000000;3.725621
2010.000000;3.666973
2009.000000;3.487115
2008.000000;3.430052
2007.000000;3.436189
2006.000000;3.481623
2005.000000;3.545231
2004.000000;3.789978
2003.000000;4.076622
2002.000000;3.624898
2001.000000;3.411757
2000.000000;3.412960
1999.000000;3.546338
1998.000000;3.826787
1997.000000;3.924033
1996.000000;3.779081
1995.000000;3.776526
1994.000000;3.956660
1993.000000;3.786373
1992.000000;3.551753
1991.000000;3.451988
1990.000000;3.452577
1989.000000;3.558381
1988.000000;3.796288
1987.000000;4.083492
1986.000000;4.114944
1985.000000;4.225527
1984.000000;4.180441
1983.000000;4.047294
1982.000000;4.221005
1981.000000;4.236356
1980.000000;4.015879
1979.000000;4.008200
1978.000000;4.037609
1977.000000;4.053954
1976.000000;3.997389
1975.000000;4.034445
1974.000000;4.228007
1973.000000;3.836272
1972.000000;3.589647
1971.000000;3.553973
1970.000000;3.617698
1969.000000;3.734601
1968.000000;3.885291
1967.000000;4.039488
1966.000000;4.137809
1965.000000;4.311784
1964.000000;4.659852
1963.000000;4.439567
1962.000000;4.120530
1961.000000;3.985216
1960.000000;3.937487
1959.000000;3.882060
1958.000000;3.803623
1957.000000;3.784435
1956.000000;3.849747
1955.000000;3.885610
1954.000000;3.869183
1953.000000;4.012733
1952.000000;4.035627
1951.000000;3.760074
1950.000000;3.664756
1949.000000;3.776362
1948.000000;4.184279
1947.000000;4.196973
1946.000000;3.872690
1945.000000;3.655189
1944.000000;3.495719
1943.000000;3.412116
1942.000000;3.410527
1941.000000;3.519101
1940.000000;3.764470
1939.000000;4.216624
1938.000000;4.356183
1937.000000;4.111639
1936.000000;3.983678
1935.000000;3.996017
1934.000000;4.321529
1933.000000;4.840853
1932.000000;4.260445
1931.000000;4.000466
1930.000000;3.719270
1929.000000;3.604275
1928.000000;3.571672
1927.000000;3.565461
1926.000000;3.564980
1925.000000;3.624237
1924.000000;3.723418
1923.000000;3.719514
1922.000000;3.733587
1921.000000;3.921538
1920.000000;4.435726
1919.000000;4.189259
1918.000000;3.800280
1917.000000;3.610935
1916.000000;3.533664
1915.000000;3.619100
1914.000000;3.793402
1913.000000;3.639854
1912.000000;3.561053
1911.000000;3.680597
1910.000000;3.995132
1909.000000;4.523438
1908.000000;4.332107
1907.000000;4.000125
1906.000000;3.957475
1905.000000;3.996593
1904.000000;3.996097
1903.000000;4.249656
1902.000000;4.455041
1901.000000;4.004306
1900.000000;3.787461
1899.000000;3.693865
1898.000000;3.747407
1897.000000;3.954741
1896.000000;3.972778
1895.000000;3.662611
1894.000000;3.476711
1893.000000;3.409637
1892.000000;3.432187
1891.000000;3.522915
1890.000000;3.622695
1889.000000;3.686732
1888.000000;3.713517
1887.000000;3.633152
1886.000000;3.534995
1885.000000;3.541668
1884.000000;3.699203
1883.000000;3.851498
1882.000000;3.735548
1881.000000;3.704348
1880.000000;3.782590
1879.000000;3.936957
1878.000000;4.256502
1877.000000;4.661254
1876.000000;4.300244
1875.000000;3.991529
1874.000000;3.778200
1873.000000;3.694815
1872.000000;3.696320
1871.000000;3.758727
1870.000000;3.822307
1869.000000;3.854760
1868.000000;3.906073
1867.000000;4.115396
1866.000000;4.124393
1865.000000;3.914729
1864.000000;3.916379
1863.000000;4.097479
1862.000000;4.200767
1861.000000;4.212016
1860.000000;4.142649
1859.000000;3.906524
1858.000000;3.706067
1857.000000;3.634210
1856.000000;3.676582
1855.000000;3.746223
1854.000000;3.798517
1853.000000;4.007065
1852.000000;4.112318
1851.000000;3.733515
1850.000000;3.644008
1849.000000;3.708785
1848.000000;3.927688
1847.000000;4.401930
1846.000000;4.074503
1845.000000;3.689974
1844.000000;3.627354
1843.000000;3.693968
1842.000000;3.769364
1841.000000;3.721528
1840.000000;3.609298
1839.000000;3.549345
1838.000000;3.555171
1837.000000;3.616878
1836.000000;3.795411
1835.000000;4.654877
1834.000000;4.015791
1833.000000;3.838465
1832.000000;4.165204
1831.000000;4.359308
1830.000000;3.958435
1829.000000;3.917343
1828.000000;3.946964
1827.000000;3.864023
1826.000000;3.732179
1825.000000;3.688923
1824.000000;3.768200
1823.000000;3.922922
1822.000000;4.079451
1821.000000;4.227038
1820.000000;4.264902
1819.000000;4.029240
1818.000000;3.811293
1817.000000;3.736652
1816.000000;3.759887
1815.000000;3.814814
1814.000000;3.876775
1813.000000;3.957728
1812.000000;4.055682
1811.000000;4.156504
1810.000000;4.088728
1809.000000;4.004494
1808.000000;4.174158
1807.000000;4.524534
1806.000000;4.105445
1805.000000;3.973739
1804.000000;3.929613
1803.000000;3.871186
1802.000000;3.921044
1801.000000;4.056091
1800.000000;4.189005
1799.000000;4.238967
1798.000000;3.985677
1797.000000;3.856950
1796.000000;3.933440
1795.000000;4.369786
1794.000000;4.677780
1793.000000;4.572638
1792.000000;4.509784
1791.000000;3.888451
1790.000000;3.704275
1789.000000;3.604529
1788.000000;3.568331
1787.000000;3.614057
1786.000000;3.773717
1785.000000;4.124598
1784.000000;4.140834
1783.000000;3.776424
1782.000000;3.579312
1781.000000;3.514029
1780.000000;3.523710
1779.000000;3.558407
1778.000000;3.633524
1777.000000;3.804793
1776.000000;3.779398
1775.000000;3.538061
1774.000000;3.396732
1773.000000;3.367191
1772.000000;3.450492
1771.000000;3.766082
1770.000000;4.238193
1769.000000;3.724444
1768.000000;3.696027
1767.000000;3.872183
1766.000000;3.982962
1765.000000;3.858431
1764.000000;3.744013
1763.000000;3.654431
1762.000000;3.629212
1761.000000;3.729934
1760.000000;3.956544
1759.000000;3.929762
1758.000000;3.753146
1757.000000;3.695291
1756.000000;3.678025
1755.000000;3.645501
1754.000000;3.595980
1753.000000;3.597216
1752.000000;3.724206
1751.000000;4.114991
1750.000000;4.334336
1749.000000;3.965005
1748.000000;3.920031
1747.000000;4.069033
1746.000000;4.238655
1745.000000;4.212488
1744.000000;4.090537
1743.000000;3.898182
1742.000000;3.741284
1741.000000;3.642441
1740.000000;3.593185
1739.000000;3.592792
1738.000000;3.637080
1737.000000;3.727894
1736.000000;3.884410
1735.000000;4.123405
1734.000000;4.160972
1733.000000;3.991484
1732.000000;3.849819
1731.000000;3.762383
1730.000000;3.830958
1729.000000;3.993953
1728.000000;3.919314
1727.000000;3.868455
1726.000000;3.998707
1725.000000;4.279787
1724.000000;4.430626
1723.000000;4.539353
1722.000000;5.371149
1721.000000;4.280165
1720.000000;3.965685
1719.000000;3.862214
1718.000000;3.926416
1717.000000;4.203195
1716.000000;4.287355
1715.000000;3.999982
1714.000000;3.893103
1713.000000;3.835050
1712.000000;3.765356
1711.000000;3.772294
1710.000000;3.905068
1709.000000;4.249040
1708.000000;4.346126
1707.000000;3.954166
1706.000000;3.795105
1705.000000;3.798241
1704.000000;3.845893
1703.000000;3.786188
1702.000000;3.675536
1701.000000;3.674704
1700.000000;3.845717
1699.000000;4.038647
1698.000000;4.004744
1697.000000;3.970546
1696.000000;4.010583
1695.000000;4.105648
1694.000000;4.295937
1693.000000;4.484207
1692.000000;4.131951
1691.000000;3.880816
1690.000000;3.839915
1689.000000;4.029009
1688.000000;4.073753
1687.000000;3.791604
1686.000000;3.734336
1685.000000;3.884510
1684.000000;4.089661
1683.000000;3.924091
1682.000000;3.747212
1681.000000;3.714928
1680.000000;3.734791
1679.000000;3.706108
1678.000000;3.690320
1677.000000;3.691221
1676.000000;3.735624
1675.000000;4.044479
1674.000000;4.184405
1673.000000;3.904694
1672.000000;3.993021
1671.000000;4.291134
1670.000000;3.923407
1669.000000;3.804600
1668.000000;3.870350
1667.000000;4.002285
1666.000000;4.151596
1665.000000;4.120738
1664.000000;3.890219
1663.000000;3.697178
1662.000000;3.580676
1661.000000;3.516131
1660.000000;3.496520
1659.000000;3.527144
1658.000000;3.595175
1657.000000;3.657580
1656.000000;3.685728
1655.000000;3.719373
1654.000000;3.735450
1653.000000;3.709145
1652.000000;3.709099
1651.000000;3.704818
1650.000000;3.734790
1649.000000;3.857700
1648.000000;4.004193
1647.000000;4.016193
1646.000000;3.977983
1645.000000;3.960879
1644.000000;3.972742
1643.000000;4.018934
1642.000000;3.991063
1641.000000;3.850607
1640.000000;3.763758
1639.000000;3.771841
1638.000000;3.817388
1637.000000;3.811291
1636.000000;3.777893
1635.000000;3.759249
1634.000000;3.736186
1633.000000;3.739452
1632.000000;3.847840
1631.000000;4.185568
1630.000000;4.174476
1629.000000;3.847364
1628.000000;3.747093
1627.000000;3.701495
1626.000000;3.708501
1625.000000;3.820823
1624.000000;3.956414
1623.000000;3.966994
1622.000000;4.069019
1621.000000;4.282305
1620.000000;4.139805
1619.000000;3.922657
1618.000000;3.825341
1617.000000;3.814749
1616.000000;3.808436
1615.000000;3.758583
1614.000000;3.819734
1613.000000;4.054531
1612.000000;3.798451
1611.000000;3.563541
1610.000000;3.530100
1609.000000;3.665099
1608.000000;3.986345
1607.000000;4.076138
1606.000000;3.988944
1605.000000;4.119446
1604.000000;4.239351
1603.000000;4.214681
1602.000000;4.089719
1601.000000;3.929314
1600.000000;3.818581
1599.000000;3.809786
1598.000000;3.912749
1597.000000;4.084060
1596.000000;4.118924
1595.000000;3.978100
1594.000000;3.872251
1593.000000;3.838827
1592.000000;3.823320
1591.000000;3.742503
1590.000000;3.636356
1589.000000;3.633432
1588.000000;3.733872
1587.000000;3.937825
1586.000000;4.208021
1585.000000;3.827600
1584.000000;3.596666
1583.000000;3.540868
1582.000000;3.564248
1581.000000;3.633731
1580.000000;3.744515
1579.000000;3.984853
1578.000000;4.050306
1577.000000;3.831912
1576.000000;3.804681
1575.000000;3.886301
1574.000000;3.901024
1573.000000;3.818831
1572.000000;3.725870
1571.000000;3.746453
1570.000000;4.272326
1569.000000;4.173094
1568.000000;3.703261
1567.000000;3.575897
1566.000000;3.555815
1565.000000;3.612839
1564.000000;3.677766
1563.000000;3.763106
1562.000000;3.916519
1561.000000;4.249561
1560.000000;4.721325
1559.000000;4.202878
1558.000000;3.872223
1557.000000;3.665794
1556.000000;3.562752
1555.000000;3.534346
1554.000000;3.540764
1553.000000;3.597631
1552.000000;3.848596
1551.000000;4.260033
1550.000000;3.844438
1549.000000;3.601613
1548.000000;3.536892
1547.000000;3.586940
1546.000000;3.785715
1545.000000;3.949457
1544.000000;3.957803
1543.000000;4.057149
1542.000000;4.044749
1541.000000;3.973371
1540.000000;4.025740
1539.000000;4.015953
1538.000000;3.872017
1537.000000;3.702910
1536.000000;3.601676
1535.000000;3.597003
1534.000000;3.760162
1533.000000;4.160384
1532.000000;4.152913
1531.000000;4.030464
1530.000000;4.248183
1529.000000;4.486564
1528.000000;4.068165
1527.000000;3.793343
1526.000000;3.671663
1525.000000;3.673703
1524.000000;3.807389
1523.000000;3.926043
1522.000000;3.800988
1521.000000;3.740141
1520.000000;3.820078
1519.000000;3.872679
1518.000000;3.787921
1517.000000;3.699324
1516.000000;3.717260
1515.000000;3.918017
1514.000000;4.048499
1513.000000;3.781713
1512.000000;3.666524
1511.000000;3.645399
1510.000000;3.566731
1509.000000;3.491640
1508.000000;3.498363
1507.000000;3.621326
1506.000000;3.814355
1505.000000;4.009266
1504.000000;4.239667
1503.000000;4.448319
1502.000000;4.563757
1501.000000;4.649678
1500.000000;4.572128
1499.000000;4.296917
1498.000000;4.054692
1497.000000;3.915174
1496.000000;3.970609
1495.000000;4.093790
1494.000000;3.884415
1493.000000;3.679561
1492.000000;3.674603
1491.000000;3.873078
1490.000000;3.896944
1489.000000;3.752683
1488.000000;3.804043
1487.000000;3.867927
1486.000000;3.739389
1485.000000;3.676996
1484.000000;3.789443
1483.000000;4.139510
1482.000000;4.471290
1481.000000;4.076194
1480.000000;3.955214
1479.000000;3.932206
1478.000000;3.888530
1477.000000;3.910780
1476.000000;4.055722
1475.000000;4.343469
1474.000000;4.204034
1473.000000;4.009223
1472.000000;4.119204
1471.000000;4.323098
1470.000000;4.268315
1469.000000;4.227856
1468.000000;4.174528
1467.000000;4.164754
1466.000000;4.267773
1465.000000;3.923500
1464.000000;3.633382
1463.000000;3.548656
1462.000000;3.591290
1461.000000;3.784269
1460.000000;3.884678
1459.000000;3.629552
1458.000000;3.436660
1457.000000;3.363343
1456.000000;3.380427
1455.000000;3.485860
1454.000000;3.666168
1453.000000;3.817740
1452.000000;3.785133
1451.000000;3.665287
1450.000000;3.579728
1449.000000;3.567750
1448.000000;3.666449
1447.000000;4.027388
1446.000000;4.269936
1445.000000;4.024135
1444.000000;4.335395
1443.000000;4.238853
1442.000000;3.916716
1441.000000;3.852810
1440.000000;3.722627
1439.000000;3.570017
1438.000000;3.464383
1437.000000;3.449016
1436.000000;3.546628
1435.000000;3.751063
1434.000000;3.986302
1433.000000;4.078556
1432.000000;3.982115
1431.000000;3.829803
1430.000000;3.710283
1429.000000;3.667316
1428.000000;3.676732
1427.000000;3.740187
1426.000000;3.801454
1425.000000;4.049219
1424.000000;4.794801
1423.000000;3.987751
1422.000000;3.762983
1421.000000;3.757375
1420.000000;3.832095
1419.000000;3.875352
1418.000000;3.751833
1417.000000;3.638381
1416.000000;3.594448
1415.000000;3.674538
1414.000000;4.073023
1413.000000;4.416133
1412.000000;4.060923
1411.000000;4.180885
1410.000000;4.293562
1409.000000;4.153242
1408.000000;4.054048
1407.000000;4.028201
1406.000000;4.013196
1405.000000;4.031370
1404.000000;4.339817
1403.000000;4.282571
1402.000000;3.963165
1401.000000;3.876713
1400.000000;3.815372
1399.000000;3.738108
1398.000000;3.681604
1397.000000;3.658712
1396.000000;3.719762
1395.000000;3.857884
1394.000000;3.931550
1393.000000;3.876331
1392.000000;3.848609
1391.000000;3.928279
1390.000000;4.195367
1389.000000;4.416486
1388.000000;4.211728
1387.000000;4.070049
1386.000000;4.056013
1385.000000;4.556377
1384.000000;4.640339
1383.000000;4.171882
1382.000000;4.269892
1381.000000;4.120738
1380.000000;3.873961
1379.000000;3.754844
1378.000000;3.699192
1377.000000;3.677743
1376.000000;3.693194
1375.000000;3.750558
1374.000000;3.799632
1373.000000;3.792540
1372.000000;3.761354
1371.000000;3.794375
1370.000000;3.936662
1369.000000;4.051456
1368.000000;3.953696
1367.000000;4.010751
1366.000000;4.247051
1365.000000;4.000482
1364.000000;3.798883
1363.000000;3.842765
1362.000000;3.940119
1361.000000;3.849006
1360.000000;3.758408
1359.000000;3.819592
1358.000000;4.081838
1357.000000;4.571307
1356.000000;4.397933
1355.000000;4.283195
1354.000000;4.654877
1353.000000;4.456200
1352.000000;4.273904
1351.000000;4.234316
1350.000000;3.927731
1349.000000;3.770649
1348.000000;3.774101
1347.000000;3.774823
1346.000000;3.735820
1345.000000;3.750687
1344.000000;3.862944
1343.000000;4.048964
1342.000000;4.111844
1341.000000;4.048894
1340.000000;4.056636
1339.000000;4.061165
1338.000000;4.037150
1337.000000;4.098476
1336.000000;4.139806
1335.000000;3.913407
1334.000000;3.705496
1333.000000;3.647981
1332.000000;3.721194
1331.000000;3.860955
1330.000000;3.888824
1329.000000;3.789726
1328.000000;3.721321
1327.000000;3.744914
1326.000000;3.856045
1325.000000;3.921188
1324.000000;3.831475
1323.000000;3.718944
1322.000000;3.653037
1321.000000;3.641392
1320.000000;3.655615
1319.000000;3.727348
1318.000000;3.832912
1317.000000;4.137267
1316.000000;4.424096
1315.000000;3.857050
1314.000000;3.724157
1313.000000;3.862593
1312.000000;4.021667
1311.000000;3.833435
1310.000000;3.691744
1309.000000;3.701417
1308.000000;3.762201
1307.000000;3.832338
1306.000000;3.852546
1305.000000;3.782885
1304.000000;3.639595
1303.000000;3.554958
1302.000000;3.569430
1301.000000;3.691223
1300.000000;3.906163
1299.000000;4.272063
1298.000000;4.983871
1297.000000;4.540038
1296.000000;4.289920
1295.000000;4.194139
1294.000000;4.073611
1293.000000;3.982428
1292.000000;3.914726
1291.000000;3.860104
1290.000000;3.762834
1289.000000;3.722286
1288.000000;3.828197
1287.000000;4.012658
1286.000000;3.983079
1285.000000;3.828255
1284.000000;3.763193
1283.000000;3.815166
1282.000000;4.176807
1281.000000;4.643800
1280.000000;4.143371
1279.000000;3.962801
1278.000000;3.878343
1277.000000;3.904392
1276.000000;4.095781
1275.000000;4.446289
1274.000000;4.478368
1273.000000;4.122719
1272.000000;3.981418
1271.000000;3.951542
1270.000000;4.136774
1269.000000;4.391004
1268.000000;3.879534
1267.000000;3.634199
1266.000000;3.593191
1265.000000;3.718412
1264.000000;4.030397
1263.000000;3.925779
1262.000000;3.703082
1261.000000;3.652866
1260.000000;3.712356
1259.000000;3.862630
1258.000000;3.983155
1257.000000;3.913804
1256.000000;3.806890
1255.000000;3.813998
1254.000000;3.886788
1253.000000;3.954285
1252.000000;3.960390
1251.000000;3.823324
1250.000000;3.689976
1249.000000;3.627979
1248.000000;3.611454
1247.000000;3.647229
1246.000000;3.768700
1245.000000;3.983149
1244.000000;4.160366
1243.000000;4.077340
1242.000000;3.841138
1241.000000;3.696687
1240.000000;3.670981
1239.000000;3.786254
1238.000000;3.918614
1237.000000;4.060974
1236.000000;4.336428
1235.000000;3.959957
1234.000000;3.772469
1233.000000;3.815373
1232.000000;3.950357
1231.000000;4.202913
1230.000000;4.311330
1229.000000;4.737157
1228.000000;4.760908
1227.000000;3.945130
1226.000000;3.684644
1225.000000;3.589922
1224.000000;3.619682
1223.000000;3.756272
1222.000000;3.876572
1221.000000;3.872165
1220.000000;3.810913
1219.000000;3.788563
1218.000000;3.796605
1217.000000;3.801020
1216.000000;3.741716
1215.000000;3.700569
1214.000000;3.776676
1213.000000;4.012930
1212.000000;4.365257
1211.000000;4.382116
1210.000000;4.146403
1209.000000;4.013097
1208.000000;4.010316
1207.000000;4.021624
1206.000000;3.991348
1205.000000;4.002277
1204.000000;4.384353
1203.000000;4.572296
1202.000000;4.073000
1201.000000;4.096509
1200.000000;4.132656
