Criado como novo conjunto de dados;"1909daniel.spp","-4211980.9 Secs"
cm-1;Abs
10000.000000;1.239932
9999.000000;1.238689
9998.000000;1.237630
9997.000000;1.236462
9996.000000;1.235282
9995.000000;1.234698
9994.000000;1.234890
9993.000000;1.235350
9992.000000;1.235518
9991.000000;1.235376
9990.000000;1.235153
9989.000000;1.234870
9988.000000;1.234360
9987.000000;1.233512
9986.000000;1.232340
9985.000000;1.231000
9984.000000;1.229849
9983.000000;1.229197
9982.000000;1.228871
9981.000000;1.228260
9980.000000;1.226968
9979.000000;1.225224
9978.000000;1.223616
9977.000000;1.222562
9976.000000;1.222075
9975.000000;1.221855
9974.000000;1.221520
9973.000000;1.220881
9972.000000;1.220122
9971.000000;1.219672
9970.000000;1.219808
9969.000000;1.220354
9968.000000;1.220702
9967.000000;1.220188
9966.000000;1.218694
9965.000000;1.216925
9964.000000;1.215802
9963.000000;1.215427
9962.000000;1.214975
9961.000000;1.213866
9960.000000;1.212617
9959.000000;1.212067
9958.000000;1.212120
9957.000000;1.211915
9956.000000;1.211099
9955.000000;1.210173
9954.000000;1.209537
9953.000000;1.208952
9952.000000;1.208140
9951.000000;1.207255
9950.000000;1.206404
9949.000000;1.205289
9948.000000;1.203775
9947.000000;1.202356
9946.000000;1.201561
9945.000000;1.201158
9944.000000;1.200430
9943.000000;1.199136
9942.000000;1.197847
9941.000000;1.197272
9940.000000;1.197497
9939.000000;1.197876
9938.000000;1.197633
9937.000000;1.196601
9936.000000;1.195318
9935.000000;1.194284
9934.000000;1.193354
9933.000000;1.192169
9932.000000;1.190992
9931.000000;1.190583
9930.000000;1.191152
9929.000000;1.191929
9928.000000;1.191959
9927.000000;1.190968
9926.000000;1.189283
9925.000000;1.187381
9924.000000;1.185716
9923.000000;1.184532
9922.000000;1.183556
9921.000000;1.182207
9920.000000;1.180403
9919.000000;1.178827
9918.000000;1.178157
9917.000000;1.178349
9916.000000;1.178840
9915.000000;1.179068
9914.000000;1.178547
9913.000000;1.176929
9912.000000;1.174417
9911.000000;1.171811
9910.000000;1.169817
9909.000000;1.168556
9908.000000;1.167949
9907.000000;1.168119
9906.000000;1.168969
9905.000000;1.169785
9904.000000;1.169846
9903.000000;1.169244
9902.000000;1.168620
9901.000000;1.168236
9900.000000;1.167833
9899.000000;1.167303
9898.000000;1.166988
9897.000000;1.167197
9896.000000;1.167762
9895.000000;1.168136
9894.000000;1.167792
9893.000000;1.166579
9892.000000;1.164894
9891.000000;1.163378
9890.000000;1.162320
9889.000000;1.161495
9888.000000;1.160644
9887.000000;1.159834
9886.000000;1.159186
9885.000000;1.158603
9884.000000;1.158016
9883.000000;1.157526
9882.000000;1.157004
9881.000000;1.155961
9880.000000;1.154268
9879.000000;1.152627
9878.000000;1.151819
9877.000000;1.151760
9876.000000;1.151817
9875.000000;1.151768
9874.000000;1.151798
9873.000000;1.151696
9872.000000;1.150861
9871.000000;1.149218
9870.000000;1.147510
9869.000000;1.146490
9868.000000;1.146233
9867.000000;1.146353
9866.000000;1.146429
9865.000000;1.146126
9864.000000;1.145348
9863.000000;1.144513
9862.000000;1.144288
9861.000000;1.144796
9860.000000;1.145312
9859.000000;1.144932
9858.000000;1.143364
9857.000000;1.140986
9856.000000;1.138394
9855.000000;1.136071
9854.000000;1.134289
9853.000000;1.133127
9852.000000;1.132543
9851.000000;1.132456
9850.000000;1.132658
9849.000000;1.132771
9848.000000;1.132495
9847.000000;1.131917
9846.000000;1.131354
9845.000000;1.130928
9844.000000;1.130471
9843.000000;1.129807
9842.000000;1.128876
9841.000000;1.127610
9840.000000;1.125991
9839.000000;1.124279
9838.000000;1.122887
9837.000000;1.121898
9836.000000;1.120984
9835.000000;1.119952
9834.000000;1.119125
9833.000000;1.118951
9832.000000;1.119364
9831.000000;1.119772
9830.000000;1.119642
9829.000000;1.118980
9828.000000;1.118186
9827.000000;1.117547
9826.000000;1.116995
9825.000000;1.116368
9824.000000;1.115763
9823.000000;1.115439
9822.000000;1.115342
9821.000000;1.114974
9820.000000;1.113930
9819.000000;1.112419
9818.000000;1.111022
9817.000000;1.110043
9816.000000;1.109324
9815.000000;1.108656
9814.000000;1.108079
9813.000000;1.107711
9812.000000;1.107507
9811.000000;1.107241
9810.000000;1.106609
9809.000000;1.105316
9808.000000;1.103297
9807.000000;1.100945
9806.000000;1.098987
9805.000000;1.097995
9804.000000;1.097987
9803.000000;1.098481
9802.000000;1.098851
9801.000000;1.098695
9800.000000;1.097983
9799.000000;1.096962
9798.000000;1.095888
9797.000000;1.094847
9796.000000;1.093799
9795.000000;1.092714
9794.000000;1.091639
9793.000000;1.090737
9792.000000;1.090290
9791.000000;1.090522
9790.000000;1.091239
9789.000000;1.091758
9788.000000;1.091402
9787.000000;1.090097
9786.000000;1.088353
9785.000000;1.086737
9784.000000;1.085535
9783.000000;1.084838
9782.000000;1.084614
9781.000000;1.084604
9780.000000;1.084352
9779.000000;1.083577
9778.000000;1.082481
9777.000000;1.081579
9776.000000;1.081174
9775.000000;1.081035
9774.000000;1.080615
9773.000000;1.079625
9772.000000;1.078371
9771.000000;1.077488
9770.000000;1.077288
9769.000000;1.077371
9768.000000;1.076951
9767.000000;1.075590
9766.000000;1.073625
9765.000000;1.071847
9764.000000;1.070793
9763.000000;1.070349
9762.000000;1.070005
9761.000000;1.069444
9760.000000;1.068800
9759.000000;1.068314
9758.000000;1.067915
9757.000000;1.067306
9756.000000;1.066388
9755.000000;1.065365
9754.000000;1.064451
9753.000000;1.063686
9752.000000;1.063086
9751.000000;1.062721
9750.000000;1.062538
9749.000000;1.062293
9748.000000;1.061821
9747.000000;1.061204
9746.000000;1.060552
9745.000000;1.059789
9744.000000;1.058839
9743.000000;1.057887
9742.000000;1.057228
9741.000000;1.056901
9740.000000;1.056684
9739.000000;1.056415
9738.000000;1.056126
9737.000000;1.055834
9736.000000;1.055396
9735.000000;1.054671
9734.000000;1.053719
9733.000000;1.052708
9732.000000;1.051607
9731.000000;1.050149
9730.000000;1.048232
9729.000000;1.046296
9728.000000;1.045096
9727.000000;1.044972
9726.000000;1.045462
9725.000000;1.045750
9724.000000;1.045408
9723.000000;1.044560
9722.000000;1.043469
9721.000000;1.042285
9720.000000;1.041145
9719.000000;1.040218
9718.000000;1.039504
9717.000000;1.038830
9716.000000;1.038160
9715.000000;1.037701
9714.000000;1.037583
9713.000000;1.037556
9712.000000;1.037176
9711.000000;1.036264
9710.000000;1.035116
9709.000000;1.034293
9708.000000;1.034130
9707.000000;1.034334
9706.000000;1.034097
9705.000000;1.032817
9704.000000;1.030710
9703.000000;1.028570
9702.000000;1.027019
9701.000000;1.026203
9700.000000;1.026050
9699.000000;1.026393
9698.000000;1.026788
9697.000000;1.026683
9696.000000;1.025968
9695.000000;1.025078
9694.000000;1.024393
9693.000000;1.023872
9692.000000;1.023417
9691.000000;1.023190
9690.000000;1.023234
9689.000000;1.023114
9688.000000;1.022367
9687.000000;1.021115
9686.000000;1.019861
9685.000000;1.018819
9684.000000;1.017845
9683.000000;1.016907
9682.000000;1.016156
9681.000000;1.015477
9680.000000;1.014422
9679.000000;1.012806
9678.000000;1.011094
9677.000000;1.009950
9676.000000;1.009530
9675.000000;1.009400
9674.000000;1.009088
9673.000000;1.008530
9672.000000;1.007935
9671.000000;1.007398
9670.000000;1.006846
9669.000000;1.006308
9668.000000;1.006004
9667.000000;1.006036
9666.000000;1.006161
9665.000000;1.006047
9664.000000;1.005678
9663.000000;1.005257
9662.000000;1.004796
9661.000000;1.004083
9660.000000;1.003063
9659.000000;1.001994
9658.000000;1.001137
9657.000000;1.000490
9656.000000;0.999932
9655.000000;0.999401
9654.000000;0.998823
9653.000000;0.998030
9652.000000;0.996903
9651.000000;0.995464
9650.000000;0.993824
9649.000000;0.992192
9648.000000;0.990986
9647.000000;0.990609
9646.000000;0.990967
9645.000000;0.991372
9644.000000;0.991168
9643.000000;0.990347
9642.000000;0.989436
9641.000000;0.988917
9640.000000;0.988867
9639.000000;0.989030
9638.000000;0.989045
9637.000000;0.988654
9636.000000;0.987844
9635.000000;0.986785
9634.000000;0.985610
9633.000000;0.984328
9632.000000;0.982949
9631.000000;0.981545
9630.000000;0.980232
9629.000000;0.979236
9628.000000;0.978902
9627.000000;0.979376
9626.000000;0.980227
9625.000000;0.980625
9624.000000;0.980025
9623.000000;0.978571
9622.000000;0.976839
9621.000000;0.975433
9620.000000;0.974766
9619.000000;0.974819
9618.000000;0.974943
9617.000000;0.974250
9616.000000;0.972478
9615.000000;0.970330
9614.000000;0.968800
9613.000000;0.968358
9612.000000;0.968827
9611.000000;0.969707
9610.000000;0.970411
9609.000000;0.970484
9608.000000;0.969925
9607.000000;0.969171
9606.000000;0.968549
9605.000000;0.967915
9604.000000;0.966988
9603.000000;0.965812
9602.000000;0.964656
9601.000000;0.963628
9600.000000;0.962644
9599.000000;0.961691
9598.000000;0.960903
9597.000000;0.960408
9596.000000;0.960137
9595.000000;0.959734
9594.000000;0.958679
9593.000000;0.956761
9592.000000;0.954511
9591.000000;0.952862
9590.000000;0.952279
9589.000000;0.952392
9588.000000;0.952532
9587.000000;0.952325
9586.000000;0.951706
9585.000000;0.950754
9584.000000;0.949769
9583.000000;0.949170
9582.000000;0.949012
9581.000000;0.948863
9580.000000;0.948387
9579.000000;0.947758
9578.000000;0.947225
9577.000000;0.946679
9576.000000;0.946018
9575.000000;0.945586
9574.000000;0.945718
9573.000000;0.946047
9572.000000;0.945848
9571.000000;0.944976
9570.000000;0.943989
9569.000000;0.943351
9568.000000;0.942954
9567.000000;0.942456
9566.000000;0.941698
9565.000000;0.940710
9564.000000;0.939633
9563.000000;0.938721
9562.000000;0.938134
9561.000000;0.937679
9560.000000;0.936973
9559.000000;0.935898
9558.000000;0.934704
9557.000000;0.933702
9556.000000;0.933097
9555.000000;0.932988
9554.000000;0.933225
9553.000000;0.933314
9552.000000;0.932816
9551.000000;0.931875
9550.000000;0.931030
9549.000000;0.930495
9548.000000;0.929965
9547.000000;0.929229
9546.000000;0.928599
9545.000000;0.928484
9544.000000;0.928786
9543.000000;0.928948
9542.000000;0.928450
9541.000000;0.927127
9540.000000;0.925189
9539.000000;0.923162
9538.000000;0.921705
9537.000000;0.921200
9536.000000;0.921419
9535.000000;0.921680
9534.000000;0.921426
9533.000000;0.920630
9532.000000;0.919629
9531.000000;0.918651
9530.000000;0.917638
9529.000000;0.916544
9528.000000;0.915612
9527.000000;0.915176
9526.000000;0.915221
9525.000000;0.915318
9524.000000;0.915038
9523.000000;0.914300
9522.000000;0.913298
9521.000000;0.912287
9520.000000;0.911516
9519.000000;0.911153
9518.000000;0.911138
9517.000000;0.911223
9516.000000;0.911236
9515.000000;0.911173
9514.000000;0.910960
9513.000000;0.910356
9512.000000;0.909253
9511.000000;0.907870
9510.000000;0.906483
9509.000000;0.905163
9508.000000;0.903983
9507.000000;0.903255
9506.000000;0.903222
9505.000000;0.903607
9504.000000;0.903782
9503.000000;0.903418
9502.000000;0.902759
9501.000000;0.902184
9500.000000;0.901750
9499.000000;0.901237
9498.000000;0.900535
9497.000000;0.899827
9496.000000;0.899366
9495.000000;0.899120
9494.000000;0.898760
9493.000000;0.898061
9492.000000;0.897228
9491.000000;0.896634
9490.000000;0.896283
9489.000000;0.895794
9488.000000;0.894949
9487.000000;0.893966
9486.000000;0.893112
9485.000000;0.892352
9484.000000;0.891590
9483.000000;0.890943
9482.000000;0.890514
9481.000000;0.890099
9480.000000;0.889456
9479.000000;0.888712
9478.000000;0.888187
9477.000000;0.887896
9476.000000;0.887521
9475.000000;0.886828
9474.000000;0.885882
9473.000000;0.884893
9472.000000;0.884032
9471.000000;0.883344
9470.000000;0.882682
9469.000000;0.881821
9468.000000;0.880791
9467.000000;0.879952
9466.000000;0.879534
9465.000000;0.879296
9464.000000;0.878895
9463.000000;0.878380
9462.000000;0.877972
9461.000000;0.877542
9460.000000;0.876772
9459.000000;0.875799
9458.000000;0.875213
9457.000000;0.875328
9456.000000;0.875822
9455.000000;0.876205
9454.000000;0.876263
9453.000000;0.875917
9452.000000;0.875062
9451.000000;0.873829
9450.000000;0.872727
9449.000000;0.872168
9448.000000;0.871987
9447.000000;0.871700
9446.000000;0.871125
9445.000000;0.870484
9444.000000;0.869989
9443.000000;0.869595
9442.000000;0.869171
9441.000000;0.868659
9440.000000;0.867962
9439.000000;0.866920
9438.000000;0.865579
9437.000000;0.864381
9436.000000;0.863842
9435.000000;0.863980
9434.000000;0.864193
9433.000000;0.863810
9432.000000;0.862714
9431.000000;0.861298
9430.000000;0.859918
9429.000000;0.858633
9428.000000;0.857487
9427.000000;0.856751
9426.000000;0.856650
9425.000000;0.856995
9424.000000;0.857296
9423.000000;0.857212
9422.000000;0.856709
9421.000000;0.855873
9420.000000;0.854784
9419.000000;0.853668
9418.000000;0.852963
9417.000000;0.853070
9416.000000;0.853946
9415.000000;0.854942
9414.000000;0.855132
9413.000000;0.854043
9412.000000;0.852155
9411.000000;0.850530
9410.000000;0.849841
9409.000000;0.849870
9408.000000;0.850039
9407.000000;0.850183
9406.000000;0.850519
9405.000000;0.850968
9404.000000;0.850981
9403.000000;0.850203
9402.000000;0.848972
9401.000000;0.847885
9400.000000;0.847038
9399.000000;0.845998
9398.000000;0.844502
9397.000000;0.842903
9396.000000;0.841787
9395.000000;0.841308
9394.000000;0.841059
9393.000000;0.840545
9392.000000;0.839647
9391.000000;0.838628
9390.000000;0.837836
9389.000000;0.837501
9388.000000;0.837659
9387.000000;0.838130
9386.000000;0.838580
9385.000000;0.838750
9384.000000;0.838642
9383.000000;0.838396
9382.000000;0.838044
9381.000000;0.837500
9380.000000;0.836759
9379.000000;0.835915
9378.000000;0.834993
9377.000000;0.833940
9376.000000;0.832839
9375.000000;0.831960
9374.000000;0.831520
9373.000000;0.831522
9372.000000;0.831827
9371.000000;0.832229
9370.000000;0.832388
9369.000000;0.831915
9368.000000;0.830695
9367.000000;0.829044
9366.000000;0.827444
9365.000000;0.826177
9364.000000;0.825277
9363.000000;0.824668
9362.000000;0.824246
9361.000000;0.823888
9360.000000;0.823518
9359.000000;0.823170
9358.000000;0.822980
9357.000000;0.823128
9356.000000;0.823673
9355.000000;0.824286
9354.000000;0.824256
9353.000000;0.823067
9352.000000;0.821064
9351.000000;0.819259
9350.000000;0.818375
9349.000000;0.818259
9348.000000;0.818295
9347.000000;0.818090
9346.000000;0.817618
9345.000000;0.816989
9344.000000;0.816371
9343.000000;0.815969
9342.000000;0.815809
9341.000000;0.815652
9340.000000;0.815313
9339.000000;0.814929
9338.000000;0.814730
9337.000000;0.814687
9336.000000;0.814611
9335.000000;0.814439
9334.000000;0.814156
9333.000000;0.813579
9332.000000;0.812560
9331.000000;0.811352
9330.000000;0.810440
9329.000000;0.809965
9328.000000;0.809601
9327.000000;0.809031
9326.000000;0.808337
9325.000000;0.807808
9324.000000;0.807573
9323.000000;0.807504
9322.000000;0.807392
9321.000000;0.807108
9320.000000;0.806666
9319.000000;0.806148
9318.000000;0.805600
9317.000000;0.805054
9316.000000;0.804655
9315.000000;0.804595
9314.000000;0.804788
9313.000000;0.804805
9312.000000;0.804335
9311.000000;0.803602
9310.000000;0.803061
9309.000000;0.802737
9308.000000;0.802197
9307.000000;0.801200
9306.000000;0.800071
9305.000000;0.799294
9304.000000;0.798944
9303.000000;0.798727
9302.000000;0.798412
9301.000000;0.798020
9300.000000;0.797621
9299.000000;0.797171
9298.000000;0.796642
9297.000000;0.796170
9296.000000;0.795930
9295.000000;0.795851
9294.000000;0.795597
9293.000000;0.794917
9292.000000;0.793930
9291.000000;0.792991
9290.000000;0.792296
9289.000000;0.791783
9288.000000;0.791389
9287.000000;0.791219
9286.000000;0.791410
9285.000000;0.791930
9284.000000;0.792548
9283.000000;0.792895
9282.000000;0.792567
9281.000000;0.791424
9280.000000;0.789907
9279.000000;0.788834
9278.000000;0.788632
9277.000000;0.788869
9276.000000;0.788719
9275.000000;0.787819
9274.000000;0.786521
9273.000000;0.785426
9272.000000;0.784866
9271.000000;0.784808
9270.000000;0.785031
9269.000000;0.785317
9268.000000;0.785561
9267.000000;0.785732
9266.000000;0.785712
9265.000000;0.785244
9264.000000;0.784175
9263.000000;0.782711
9262.000000;0.781342
9261.000000;0.780481
9260.000000;0.780195
9259.000000;0.780233
9258.000000;0.780232
9257.000000;0.779957
9256.000000;0.779424
9255.000000;0.778806
9254.000000;0.778250
9253.000000;0.777813
9252.000000;0.777543
9251.000000;0.777479
9250.000000;0.777550
9249.000000;0.777630
9248.000000;0.777678
9247.000000;0.777660
9246.000000;0.777336
9245.000000;0.776428
9244.000000;0.775137
9243.000000;0.774178
9242.000000;0.773985
9241.000000;0.774076
9240.000000;0.773541
9239.000000;0.772144
9238.000000;0.770629
9237.000000;0.769916
9236.000000;0.770196
9235.000000;0.770880
9234.000000;0.771225
9233.000000;0.770924
9232.000000;0.770174
9231.000000;0.769321
9230.000000;0.768526
9229.000000;0.767785
9228.000000;0.767178
9227.000000;0.766882
9226.000000;0.766919
9225.000000;0.767094
9224.000000;0.767255
9223.000000;0.767406
9222.000000;0.767468
9221.000000;0.767180
9220.000000;0.766464
9219.000000;0.765696
9218.000000;0.765314
9217.000000;0.765268
9216.000000;0.765118
9215.000000;0.764612
9214.000000;0.763904
9213.000000;0.763242
9212.000000;0.762732
9211.000000;0.762405
9210.000000;0.762256
9209.000000;0.762148
9208.000000;0.761856
9207.000000;0.761335
9206.000000;0.760784
9205.000000;0.760398
9204.000000;0.760146
9203.000000;0.759812
9202.000000;0.759208
9201.000000;0.758357
9200.000000;0.757566
9199.000000;0.757258
9198.000000;0.757583
9197.000000;0.758191
9196.000000;0.758515
9195.000000;0.758267
9194.000000;0.757589
9193.000000;0.756802
9192.000000;0.756161
9191.000000;0.755777
9190.000000;0.755588
9189.000000;0.755408
9188.000000;0.755131
9187.000000;0.754846
9186.000000;0.754635
9185.000000;0.754358
9184.000000;0.753858
9183.000000;0.753287
9182.000000;0.752966
9181.000000;0.752930
9180.000000;0.752879
9179.000000;0.752602
9178.000000;0.752197
9177.000000;0.751789
9176.000000;0.751266
9175.000000;0.750476
9174.000000;0.749513
9173.000000;0.748674
9172.000000;0.748198
9171.000000;0.748114
9170.000000;0.748229
9169.000000;0.748230
9168.000000;0.747927
9167.000000;0.747445
9166.000000;0.747071
9165.000000;0.746862
9164.000000;0.746581
9163.000000;0.746051
9162.000000;0.745400
9161.000000;0.744895
9160.000000;0.744671
9159.000000;0.744731
9158.000000;0.744990
9157.000000;0.745178
9156.000000;0.744882
9155.000000;0.743945
9154.000000;0.742756
9153.000000;0.741920
9152.000000;0.741650
9151.000000;0.741622
9150.000000;0.741412
9149.000000;0.740920
9148.000000;0.740362
9147.000000;0.740000
9146.000000;0.739904
9145.000000;0.739861
9144.000000;0.739520
9143.000000;0.738769
9142.000000;0.737981
9141.000000;0.737719
9140.000000;0.738106
9139.000000;0.738639
9138.000000;0.738725
9137.000000;0.738295
9136.000000;0.737737
9135.000000;0.737321
9134.000000;0.736935
9133.000000;0.736392
9132.000000;0.735783
9131.000000;0.735376
9130.000000;0.735305
9129.000000;0.735472
9128.000000;0.735668
9127.000000;0.735671
9126.000000;0.735300
9125.000000;0.734554
9124.000000;0.733692
9123.000000;0.733061
9122.000000;0.732756
9121.000000;0.732568
9120.000000;0.732284
9119.000000;0.731960
9118.000000;0.731819
9117.000000;0.731922
9116.000000;0.732027
9115.000000;0.731808
9114.000000;0.731177
9113.000000;0.730364
9112.000000;0.729703
9111.000000;0.729372
9110.000000;0.729360
9109.000000;0.729600
9108.000000;0.729991
9107.000000;0.730322
9106.000000;0.730331
9105.000000;0.729954
9104.000000;0.729397
9103.000000;0.728866
9102.000000;0.728364
9101.000000;0.727858
9100.000000;0.727483
9099.000000;0.727357
9098.000000;0.727311
9097.000000;0.727064
9096.000000;0.726644
9095.000000;0.726362
9094.000000;0.726336
9093.000000;0.726274
9092.000000;0.725827
9091.000000;0.724964
9090.000000;0.723930
9089.000000;0.723016
9088.000000;0.722449
9087.000000;0.722311
9086.000000;0.722418
9085.000000;0.722435
9084.000000;0.722211
9083.000000;0.721916
9082.000000;0.721779
9081.000000;0.721829
9080.000000;0.721943
9079.000000;0.721964
9078.000000;0.721700
9077.000000;0.721017
9076.000000;0.720078
9075.000000;0.719328
9074.000000;0.719065
9073.000000;0.719180
9072.000000;0.719431
9071.000000;0.719777
9070.000000;0.720223
9069.000000;0.720513
9068.000000;0.720287
9067.000000;0.719537
9066.000000;0.718644
9065.000000;0.717922
9064.000000;0.717300
9063.000000;0.716525
9062.000000;0.715565
9061.000000;0.714703
9060.000000;0.714255
9059.000000;0.714252
9058.000000;0.714438
9057.000000;0.714600
9056.000000;0.714783
9055.000000;0.715100
9054.000000;0.715401
9053.000000;0.715369
9052.000000;0.714942
9051.000000;0.714382
9050.000000;0.713868
9049.000000;0.713306
9048.000000;0.712686
9047.000000;0.712347
9046.000000;0.712580
9045.000000;0.713133
9044.000000;0.713421
9043.000000;0.713204
9042.000000;0.712816
9041.000000;0.712730
9040.000000;0.713066
9039.000000;0.713502
9038.000000;0.713530
9037.000000;0.712828
9036.000000;0.711539
9035.000000;0.710181
9034.000000;0.709206
9033.000000;0.708711
9032.000000;0.708594
9031.000000;0.708778
9030.000000;0.709101
9029.000000;0.709208
9028.000000;0.708873
9027.000000;0.708333
9026.000000;0.708011
9025.000000;0.707964
9024.000000;0.707915
9023.000000;0.707787
9022.000000;0.707809
9021.000000;0.708040
9020.000000;0.708124
9019.000000;0.707733
9018.000000;0.707015
9017.000000;0.706391
9016.000000;0.706051
9015.000000;0.705849
9014.000000;0.705601
9013.000000;0.705288
9012.000000;0.705009
9011.000000;0.704869
9010.000000;0.704944
9009.000000;0.705217
9008.000000;0.705520
9007.000000;0.705595
9006.000000;0.705278
9005.000000;0.704664
9004.000000;0.704060
9003.000000;0.703739
9002.000000;0.703685
9001.000000;0.703606
9000.000000;0.703239
8999.000000;0.702638
8998.000000;0.702108
8997.000000;0.701881
8996.000000;0.701897
8995.000000;0.701878
8994.000000;0.701563
8993.000000;0.700897
8992.000000;0.700062
8991.000000;0.699340
8990.000000;0.698926
8989.000000;0.698844
8988.000000;0.699022
8987.000000;0.699332
8986.000000;0.699549
8985.000000;0.699422
8984.000000;0.698916
8983.000000;0.698330
8982.000000;0.698049
8981.000000;0.698186
8980.000000;0.698548
8979.000000;0.698901
8978.000000;0.699184
8977.000000;0.699485
8976.000000;0.699891
8975.000000;0.700367
8974.000000;0.700720
8973.000000;0.700700
8972.000000;0.700177
8971.000000;0.699213
8970.000000;0.698005
8969.000000;0.696826
8968.000000;0.696009
8967.000000;0.695752
8966.000000;0.695838
8965.000000;0.695753
8964.000000;0.695263
8963.000000;0.694757
8962.000000;0.694795
8961.000000;0.695360
8960.000000;0.695825
8959.000000;0.695631
8958.000000;0.694806
8957.000000;0.693804
8956.000000;0.693037
8955.000000;0.692666
8954.000000;0.692651
8953.000000;0.692838
8952.000000;0.693046
8951.000000;0.693160
8950.000000;0.693166
8949.000000;0.693093
8948.000000;0.692972
8947.000000;0.692839
8946.000000;0.692718
8945.000000;0.692601
8944.000000;0.692508
8943.000000;0.692517
8942.000000;0.692676
8941.000000;0.692876
8940.000000;0.692912
8939.000000;0.692658
8938.000000;0.692153
8937.000000;0.691555
8936.000000;0.691078
8935.000000;0.690911
8934.000000;0.691068
8933.000000;0.691319
8932.000000;0.691359
8931.000000;0.691066
8930.000000;0.690521
8929.000000;0.689843
8928.000000;0.689118
8927.000000;0.688471
8926.000000;0.688049
8925.000000;0.687893
8924.000000;0.687923
8923.000000;0.688065
8922.000000;0.688334
8921.000000;0.688732
8920.000000;0.689157
8919.000000;0.689442
8918.000000;0.689467
8917.000000;0.689229
8916.000000;0.688853
8915.000000;0.688500
8914.000000;0.688233
8913.000000;0.687974
8912.000000;0.687627
8911.000000;0.687185
8910.000000;0.686682
8909.000000;0.686144
8908.000000;0.685687
8907.000000;0.685583
8906.000000;0.686012
8905.000000;0.686778
8904.000000;0.687427
8903.000000;0.687654
8902.000000;0.687476
8901.000000;0.687022
8900.000000;0.686382
8899.000000;0.685718
8898.000000;0.685314
8897.000000;0.685320
8896.000000;0.685544
8895.000000;0.685639
8894.000000;0.685489
8893.000000;0.685284
8892.000000;0.685240
8891.000000;0.685329
8890.000000;0.685353
8889.000000;0.685180
8888.000000;0.684832
8887.000000;0.684352
8886.000000;0.683693
8885.000000;0.682874
8884.000000;0.682166
8883.000000;0.681955
8882.000000;0.682313
8881.000000;0.682866
8880.000000;0.683201
8879.000000;0.683327
8878.000000;0.683549
8877.000000;0.683947
8876.000000;0.684212
8875.000000;0.684076
8874.000000;0.683693
8873.000000;0.683452
8872.000000;0.683508
8871.000000;0.683655
8870.000000;0.683642
8869.000000;0.683444
8868.000000;0.683198
8867.000000;0.682969
8866.000000;0.682689
8865.000000;0.682300
8864.000000;0.681876
8863.000000;0.681569
8862.000000;0.681475
8861.000000;0.681571
8860.000000;0.681767
8859.000000;0.681971
8858.000000;0.682115
8857.000000;0.682152
8856.000000;0.682030
8855.000000;0.681685
8854.000000;0.681112
8853.000000;0.680501
8852.000000;0.680208
8851.000000;0.680464
8850.000000;0.681091
8849.000000;0.681606
8848.000000;0.681667
8847.000000;0.681334
8846.000000;0.680912
8845.000000;0.680633
8844.000000;0.680571
8843.000000;0.680722
8842.000000;0.681042
8841.000000;0.681402
8840.000000;0.681612
8839.000000;0.681517
8838.000000;0.681095
8837.000000;0.680481
8836.000000;0.679898
8835.000000;0.679494
8834.000000;0.679240
8833.000000;0.679035
8832.000000;0.678920
8831.000000;0.679081
8830.000000;0.679617
8829.000000;0.680389
8828.000000;0.681133
8827.000000;0.681635
8826.000000;0.681790
8825.000000;0.681607
8824.000000;0.681241
8823.000000;0.680913
8822.000000;0.680764
8821.000000;0.680824
8820.000000;0.681130
8819.000000;0.681717
8818.000000;0.682438
8817.000000;0.682943
8816.000000;0.682946
8815.000000;0.682426
8814.000000;0.681516
8813.000000;0.680373
8812.000000;0.679247
8811.000000;0.678506
8810.000000;0.678404
8809.000000;0.678882
8808.000000;0.679714
8807.000000;0.680714
8806.000000;0.681680
8805.000000;0.682300
8804.000000;0.682347
8803.000000;0.681953
8802.000000;0.681494
8801.000000;0.681226
8800.000000;0.681136
8799.000000;0.681116
8798.000000;0.681119
8797.000000;0.681167
8796.000000;0.681319
8795.000000;0.681631
8794.000000;0.682063
8793.000000;0.682428
8792.000000;0.682514
8791.000000;0.682269
8790.000000;0.681845
8789.000000;0.681524
8788.000000;0.681578
8787.000000;0.682034
8786.000000;0.682522
8785.000000;0.682557
8784.000000;0.682092
8783.000000;0.681640
8782.000000;0.681668
8781.000000;0.682073
8780.000000;0.682438
8779.000000;0.682636
8778.000000;0.682870
8777.000000;0.683248
8776.000000;0.683638
8775.000000;0.683922
8774.000000;0.684081
8773.000000;0.684049
8772.000000;0.683769
8771.000000;0.683469
8770.000000;0.683549
8769.000000;0.684086
8768.000000;0.684658
8767.000000;0.684803
8766.000000;0.684496
8765.000000;0.684067
8764.000000;0.683802
8763.000000;0.683787
8762.000000;0.684022
8761.000000;0.684516
8760.000000;0.685261
8759.000000;0.686158
8758.000000;0.686987
8757.000000;0.687480
8756.000000;0.687517
8755.000000;0.687252
8754.000000;0.686964
8753.000000;0.686801
8752.000000;0.686744
8751.000000;0.686751
8750.000000;0.686796
8749.000000;0.686797
8748.000000;0.686685
8747.000000;0.686555
8746.000000;0.686579
8745.000000;0.686767
8744.000000;0.686957
8743.000000;0.687072
8742.000000;0.687224
8741.000000;0.687501
8740.000000;0.687833
8739.000000;0.688126
8738.000000;0.688397
8737.000000;0.688696
8736.000000;0.689003
8735.000000;0.689251
8734.000000;0.689366
8733.000000;0.689261
8732.000000;0.688947
8731.000000;0.688677
8730.000000;0.688783
8729.000000;0.689267
8728.000000;0.689700
8727.000000;0.689683
8726.000000;0.689295
8725.000000;0.688960
8724.000000;0.688953
8723.000000;0.689203
8722.000000;0.689505
8721.000000;0.689752
8720.000000;0.689931
8719.000000;0.690031
8718.000000;0.690034
8717.000000;0.689981
8716.000000;0.689987
8715.000000;0.690182
8714.000000;0.690592
8713.000000;0.691128
8712.000000;0.691702
8711.000000;0.692328
8710.000000;0.692991
8709.000000;0.693462
8708.000000;0.693422
8707.000000;0.692863
8706.000000;0.692224
8705.000000;0.691995
8704.000000;0.692260
8703.000000;0.692724
8702.000000;0.693123
8701.000000;0.693401
8700.000000;0.693530
8699.000000;0.693367
8698.000000;0.692853
8697.000000;0.692226
8696.000000;0.691879
8695.000000;0.691995
8694.000000;0.692414
8693.000000;0.692868
8692.000000;0.693254
8691.000000;0.693612
8690.000000;0.693934
8689.000000;0.694088
8688.000000;0.693957
8687.000000;0.693603
8686.000000;0.693275
8685.000000;0.693232
8684.000000;0.693511
8683.000000;0.693843
8682.000000;0.693881
8681.000000;0.693581
8680.000000;0.693292
8679.000000;0.693372
8678.000000;0.693764
8677.000000;0.694089
8676.000000;0.694136
8675.000000;0.694085
8674.000000;0.694246
8673.000000;0.694731
8672.000000;0.695424
8671.000000;0.696103
8670.000000;0.696515
8669.000000;0.696495
8668.000000;0.696123
8667.000000;0.695705
8666.000000;0.695487
8665.000000;0.695474
8664.000000;0.695556
8663.000000;0.695646
8662.000000;0.695638
8661.000000;0.695401
8660.000000;0.694990
8659.000000;0.694704
8658.000000;0.694764
8657.000000;0.695011
8656.000000;0.695086
8655.000000;0.694862
8654.000000;0.694517
8653.000000;0.694275
8652.000000;0.694225
8651.000000;0.694359
8650.000000;0.694596
8649.000000;0.694791
8648.000000;0.694854
8647.000000;0.694862
8646.000000;0.694922
8645.000000;0.694956
8644.000000;0.694768
8643.000000;0.694320
8642.000000;0.693824
8641.000000;0.693562
8640.000000;0.693673
8639.000000;0.694061
8638.000000;0.694421
8637.000000;0.694453
8636.000000;0.694178
8635.000000;0.693953
8634.000000;0.694037
8633.000000;0.694239
8632.000000;0.694185
8631.000000;0.693829
8630.000000;0.693473
8629.000000;0.693329
8628.000000;0.693343
8627.000000;0.693437
8626.000000;0.693657
8625.000000;0.693964
8624.000000;0.694124
8623.000000;0.693986
8622.000000;0.693723
8621.000000;0.693640
8620.000000;0.693803
8619.000000;0.693973
8618.000000;0.693882
8617.000000;0.693530
8616.000000;0.693189
8615.000000;0.693150
8614.000000;0.693422
8613.000000;0.693684
8612.000000;0.693587
8611.000000;0.693076
8610.000000;0.692377
8609.000000;0.691744
8608.000000;0.691321
8607.000000;0.691176
8606.000000;0.691274
8605.000000;0.691421
8604.000000;0.691373
8603.000000;0.691084
8602.000000;0.690739
8601.000000;0.690519
8600.000000;0.690435
8599.000000;0.690419
8598.000000;0.690472
8597.000000;0.690663
8596.000000;0.691046
8595.000000;0.691591
8594.000000;0.692161
8593.000000;0.692565
8592.000000;0.692689
8591.000000;0.692559
8590.000000;0.692236
8589.000000;0.691711
8588.000000;0.691007
8587.000000;0.690309
8586.000000;0.689844
8585.000000;0.689666
8584.000000;0.689675
8583.000000;0.689812
8582.000000;0.690075
8581.000000;0.690370
8580.000000;0.690527
8579.000000;0.690487
8578.000000;0.690353
8577.000000;0.690211
8576.000000;0.690054
8575.000000;0.689866
8574.000000;0.689668
8573.000000;0.689443
8572.000000;0.689177
8571.000000;0.688974
8570.000000;0.688965
8569.000000;0.689079
8568.000000;0.689082
8567.000000;0.688880
8566.000000;0.688618
8565.000000;0.688407
8564.000000;0.688145
8563.000000;0.687726
8562.000000;0.687281
8561.000000;0.687044
8560.000000;0.687049
8559.000000;0.687124
8558.000000;0.687150
8557.000000;0.687197
8556.000000;0.687376
8555.000000;0.687640
8554.000000;0.687774
8553.000000;0.687606
8552.000000;0.687203
8551.000000;0.686831
8550.000000;0.686687
8549.000000;0.686710
8548.000000;0.686707
8547.000000;0.686632
8546.000000;0.686610
8545.000000;0.686704
8544.000000;0.686775
8543.000000;0.686633
8542.000000;0.686237
8541.000000;0.685713
8540.000000;0.685218
8539.000000;0.684864
8538.000000;0.684720
8537.000000;0.684827
8536.000000;0.685146
8535.000000;0.685484
8534.000000;0.685535
8533.000000;0.685121
8532.000000;0.684454
8531.000000;0.684026
8530.000000;0.684140
8529.000000;0.684610
8528.000000;0.685019
8527.000000;0.685148
8526.000000;0.685038
8525.000000;0.684761
8524.000000;0.684347
8523.000000;0.683913
8522.000000;0.683633
8521.000000;0.683556
8520.000000;0.683609
8519.000000;0.683749
8518.000000;0.683955
8517.000000;0.684099
8516.000000;0.684045
8515.000000;0.683871
8514.000000;0.683788
8513.000000;0.683804
8512.000000;0.683685
8511.000000;0.683305
8510.000000;0.682825
8509.000000;0.682446
8508.000000;0.682185
8507.000000;0.682005
8506.000000;0.681942
8505.000000;0.681967
8504.000000;0.681912
8503.000000;0.681710
8502.000000;0.681544
8501.000000;0.681587
8500.000000;0.681718
8499.000000;0.681686
8498.000000;0.681444
8497.000000;0.681126
8496.000000;0.680807
8495.000000;0.680494
8494.000000;0.680310
8493.000000;0.680412
8492.000000;0.680735
8491.000000;0.681005
8490.000000;0.681052
8489.000000;0.680966
8488.000000;0.680883
8487.000000;0.680797
8486.000000;0.680650
8485.000000;0.680485
8484.000000;0.680402
8483.000000;0.680436
8482.000000;0.680568
8481.000000;0.680779
8480.000000;0.681024
8479.000000;0.681214
8478.000000;0.681263
8477.000000;0.681149
8476.000000;0.680890
8475.000000;0.680516
8474.000000;0.680119
8473.000000;0.679856
8472.000000;0.679795
8471.000000;0.679814
8470.000000;0.679732
8469.000000;0.679536
8468.000000;0.679356
8467.000000;0.679254
8466.000000;0.679156
8465.000000;0.679039
8464.000000;0.679009
8463.000000;0.679119
8462.000000;0.679255
8461.000000;0.679327
8460.000000;0.679439
8459.000000;0.679709
8458.000000;0.680003
8457.000000;0.680064
8456.000000;0.679864
8455.000000;0.679630
8454.000000;0.679514
8453.000000;0.679478
8452.000000;0.679492
8451.000000;0.679592
8450.000000;0.679645
8449.000000;0.679352
8448.000000;0.678675
8447.000000;0.678036
8446.000000;0.677871
8445.000000;0.678099
8444.000000;0.678278
8443.000000;0.678200
8442.000000;0.678063
8441.000000;0.678081
8440.000000;0.678180
8439.000000;0.678139
8438.000000;0.677882
8437.000000;0.677548
8436.000000;0.677350
8435.000000;0.677373
8434.000000;0.677481
8433.000000;0.677464
8432.000000;0.677311
8431.000000;0.677245
8430.000000;0.677376
8429.000000;0.677455
8428.000000;0.677181
8427.000000;0.676645
8426.000000;0.676258
8425.000000;0.676227
8424.000000;0.676323
8423.000000;0.676202
8422.000000;0.675794
8421.000000;0.675319
8420.000000;0.675046
8419.000000;0.675086
8418.000000;0.675313
8417.000000;0.675468
8416.000000;0.675418
8415.000000;0.675306
8414.000000;0.675317
8413.000000;0.675360
8412.000000;0.675157
8411.000000;0.674646
8410.000000;0.674108
8409.000000;0.673845
8408.000000;0.673906
8407.000000;0.674173
8406.000000;0.674548
8405.000000;0.674958
8404.000000;0.675309
8403.000000;0.675535
8402.000000;0.675650
8401.000000;0.675686
8400.000000;0.675667
8399.000000;0.675641
8398.000000;0.675653
8397.000000;0.675633
8396.000000;0.675447
8395.000000;0.675095
8394.000000;0.674761
8393.000000;0.674638
8392.000000;0.674771
8391.000000;0.675085
8390.000000;0.675415
8389.000000;0.675528
8388.000000;0.675289
8387.000000;0.674870
8386.000000;0.674607
8385.000000;0.674600
8384.000000;0.674599
8383.000000;0.674398
8382.000000;0.674133
8381.000000;0.674057
8380.000000;0.674164
8379.000000;0.674239
8378.000000;0.674183
8377.000000;0.674094
8376.000000;0.674031
8375.000000;0.673894
8374.000000;0.673585
8373.000000;0.673173
8372.000000;0.672842
8371.000000;0.672711
8370.000000;0.672733
8369.000000;0.672751
8368.000000;0.672665
8367.000000;0.672544
8366.000000;0.672548
8365.000000;0.672729
8364.000000;0.672945
8363.000000;0.673002
8362.000000;0.672841
8361.000000;0.672545
8360.000000;0.672207
8359.000000;0.671855
8358.000000;0.671509
8357.000000;0.671246
8356.000000;0.671186
8355.000000;0.671384
8354.000000;0.671748
8353.000000;0.672091
8352.000000;0.672289
8351.000000;0.672380
8350.000000;0.672455
8349.000000;0.672495
8348.000000;0.672380
8347.000000;0.672056
8346.000000;0.671631
8345.000000;0.671330
8344.000000;0.671357
8343.000000;0.671743
8342.000000;0.672236
8341.000000;0.672402
8340.000000;0.671954
8339.000000;0.671023
8338.000000;0.670047
8337.000000;0.669413
8336.000000;0.669260
8335.000000;0.669534
8334.000000;0.670075
8333.000000;0.670634
8332.000000;0.670966
8331.000000;0.670982
8330.000000;0.670748
8329.000000;0.670355
8328.000000;0.669888
8327.000000;0.669490
8326.000000;0.669277
8325.000000;0.669185
8324.000000;0.669045
8323.000000;0.668826
8322.000000;0.668677
8321.000000;0.668667
8320.000000;0.668676
8319.000000;0.668600
8318.000000;0.668517
8317.000000;0.668545
8316.000000;0.668666
8315.000000;0.668784
8314.000000;0.668849
8313.000000;0.668819
8312.000000;0.668618
8311.000000;0.668272
8310.000000;0.667994
8309.000000;0.667991
8308.000000;0.668208
8307.000000;0.668384
8306.000000;0.668316
8305.000000;0.668000
8304.000000;0.667590
8303.000000;0.667305
8302.000000;0.667326
8301.000000;0.667633
8300.000000;0.667960
8299.000000;0.668001
8298.000000;0.667695
8297.000000;0.667234
8296.000000;0.666802
8295.000000;0.666420
8294.000000;0.666036
8293.000000;0.665684
8292.000000;0.665494
8291.000000;0.665559
8290.000000;0.665832
8289.000000;0.666141
8288.000000;0.666328
8287.000000;0.666362
8286.000000;0.666306
8285.000000;0.666190
8284.000000;0.665993
8283.000000;0.665743
8282.000000;0.665561
8281.000000;0.665518
8280.000000;0.665537
8279.000000;0.665481
8278.000000;0.665313
8277.000000;0.665107
8276.000000;0.664954
8275.000000;0.664898
8274.000000;0.664938
8273.000000;0.664999
8272.000000;0.664950
8271.000000;0.664739
8270.000000;0.664505
8269.000000;0.664461
8268.000000;0.664641
8267.000000;0.664819
8266.000000;0.664721
8265.000000;0.664290
8264.000000;0.663740
8263.000000;0.663393
8262.000000;0.663453
8261.000000;0.663860
8260.000000;0.664329
8259.000000;0.664575
8258.000000;0.664548
8257.000000;0.664446
8256.000000;0.664466
8255.000000;0.664556
8254.000000;0.664472
8253.000000;0.664070
8252.000000;0.663477
8251.000000;0.662973
8250.000000;0.662740
8249.000000;0.662769
8248.000000;0.662931
8247.000000;0.663077
8246.000000;0.663096
8245.000000;0.662978
8244.000000;0.662850
8243.000000;0.662864
8242.000000;0.663022
8241.000000;0.663166
8240.000000;0.663176
8239.000000;0.663107
8238.000000;0.663079
8237.000000;0.663123
8236.000000;0.663167
8235.000000;0.663131
8234.000000;0.662963
8233.000000;0.662638
8232.000000;0.662225
8231.000000;0.661883
8230.000000;0.661731
8229.000000;0.661729
8228.000000;0.661758
8227.000000;0.661752
8226.000000;0.661681
8225.000000;0.661460
8224.000000;0.661029
8223.000000;0.660510
8222.000000;0.660163
8221.000000;0.660164
8220.000000;0.660473
8219.000000;0.660909
8218.000000;0.661260
8217.000000;0.661341
8216.000000;0.661100
8215.000000;0.660711
8214.000000;0.660470
8213.000000;0.660494
8212.000000;0.660595
8211.000000;0.660490
8210.000000;0.660130
8209.000000;0.659764
8208.000000;0.659683
8207.000000;0.659915
8206.000000;0.660205
8205.000000;0.660302
8204.000000;0.660231
8203.000000;0.660210
8202.000000;0.660332
8201.000000;0.660428
8200.000000;0.660300
8199.000000;0.659974
8198.000000;0.659611
8197.000000;0.659294
8196.000000;0.659040
8195.000000;0.658938
8194.000000;0.659083
8193.000000;0.659380
8192.000000;0.659588
8191.000000;0.659574
8190.000000;0.659427
8189.000000;0.659326
8188.000000;0.659408
8187.000000;0.659725
8186.000000;0.660161
8185.000000;0.660373
8184.000000;0.660041
8183.000000;0.659238
8182.000000;0.658419
8181.000000;0.657977
8180.000000;0.657910
8179.000000;0.657997
8178.000000;0.658135
8177.000000;0.658365
8176.000000;0.658688
8175.000000;0.659000
8174.000000;0.659188
8173.000000;0.659193
8172.000000;0.659006
8171.000000;0.658687
8170.000000;0.658346
8169.000000;0.658051
8168.000000;0.657770
8167.000000;0.657452
8166.000000;0.657126
8165.000000;0.656897
8164.000000;0.656853
8163.000000;0.657009
8162.000000;0.657300
8161.000000;0.657599
8160.000000;0.657803
8159.000000;0.657901
8158.000000;0.657936
8157.000000;0.657888
8156.000000;0.657684
8155.000000;0.657318
8154.000000;0.656892
8153.000000;0.656503
8152.000000;0.656183
8151.000000;0.655984
8150.000000;0.656018
8149.000000;0.656326
8148.000000;0.656728
8147.000000;0.656902
8146.000000;0.656650
8145.000000;0.656074
8144.000000;0.655506
8143.000000;0.655223
8142.000000;0.655214
8141.000000;0.655230
8140.000000;0.655082
8139.000000;0.654841
8138.000000;0.654683
8137.000000;0.654642
8136.000000;0.654634
8135.000000;0.654667
8134.000000;0.654835
8133.000000;0.655096
8132.000000;0.655255
8131.000000;0.655217
8130.000000;0.655116
8129.000000;0.655103
8128.000000;0.655144
8127.000000;0.655122
8126.000000;0.655033
8125.000000;0.654942
8124.000000;0.654841
8123.000000;0.654652
8122.000000;0.654368
8121.000000;0.654099
8120.000000;0.653996
8119.000000;0.654134
8118.000000;0.654413
8117.000000;0.654577
8116.000000;0.654426
8115.000000;0.654063
8114.000000;0.653816
8113.000000;0.653875
8112.000000;0.654105
8111.000000;0.654269
8110.000000;0.654292
8109.000000;0.654221
8108.000000;0.654058
8107.000000;0.653794
8106.000000;0.653506
8105.000000;0.653278
8104.000000;0.653096
8103.000000;0.652946
8102.000000;0.652929
8101.000000;0.653110
8100.000000;0.653320
8099.000000;0.653270
8098.000000;0.652913
8097.000000;0.652508
8096.000000;0.652315
8095.000000;0.652348
8094.000000;0.652468
8093.000000;0.652581
8092.000000;0.652669
8091.000000;0.652728
8090.000000;0.652741
8089.000000;0.652710
8088.000000;0.652648
8087.000000;0.652582
8086.000000;0.652568
8085.000000;0.652635
8084.000000;0.652708
8083.000000;0.652653
8082.000000;0.652421
8081.000000;0.652124
8080.000000;0.651928
8079.000000;0.651909
8078.000000;0.652028
8077.000000;0.652200
8076.000000;0.652349
8075.000000;0.652430
8074.000000;0.652432
8073.000000;0.652376
8072.000000;0.652305
8071.000000;0.652243
8070.000000;0.652171
8069.000000;0.652046
8068.000000;0.651858
8067.000000;0.651685
8066.000000;0.651637
8065.000000;0.651716
8064.000000;0.651784
8063.000000;0.651697
8062.000000;0.651448
8061.000000;0.651141
8060.000000;0.650866
8059.000000;0.650674
8058.000000;0.650621
8057.000000;0.650727
8056.000000;0.650902
8055.000000;0.650998
8054.000000;0.650985
8053.000000;0.650983
8052.000000;0.651064
8051.000000;0.651124
8050.000000;0.651020
8049.000000;0.650783
8048.000000;0.650589
8047.000000;0.650544
8046.000000;0.650571
8045.000000;0.650546
8044.000000;0.650443
8043.000000;0.650336
8042.000000;0.650304
8041.000000;0.650374
8040.000000;0.650511
8039.000000;0.650618
8038.000000;0.650593
8037.000000;0.650439
8036.000000;0.650297
8035.000000;0.650310
8034.000000;0.650474
8033.000000;0.650651
8032.000000;0.650700
8031.000000;0.650568
8030.000000;0.650274
8029.000000;0.649891
8028.000000;0.649532
8027.000000;0.649278
8026.000000;0.649118
8025.000000;0.649013
8024.000000;0.649001
8023.000000;0.649143
8022.000000;0.649381
8021.000000;0.649561
8020.000000;0.649623
8019.000000;0.649669
8018.000000;0.649786
8017.000000;0.649918
8016.000000;0.649980
8015.000000;0.650001
8014.000000;0.650056
8013.000000;0.650116
8012.000000;0.650090
8011.000000;0.649964
8010.000000;0.649788
8009.000000;0.649570
8008.000000;0.649303
8007.000000;0.649046
8006.000000;0.648880
8005.000000;0.648778
8004.000000;0.648650
8003.000000;0.648500
8002.000000;0.648437
8001.000000;0.648505
8000.000000;0.648644
7999.000000;0.648808
7998.000000;0.649010
7997.000000;0.649198
7996.000000;0.649233
7995.000000;0.649037
7994.000000;0.648684
7993.000000;0.648283
7992.000000;0.647871
7991.000000;0.647481
7990.000000;0.647239
7989.000000;0.647290
7988.000000;0.647636
7987.000000;0.648115
7986.000000;0.648512
7985.000000;0.648681
7984.000000;0.648600
7983.000000;0.648379
7982.000000;0.648180
7981.000000;0.648091
7980.000000;0.648062
7979.000000;0.647993
7978.000000;0.647835
7977.000000;0.647606
7976.000000;0.647365
7975.000000;0.647203
7974.000000;0.647199
7973.000000;0.647341
7972.000000;0.647500
7971.000000;0.647558
7970.000000;0.647547
7969.000000;0.647598
7968.000000;0.647771
7967.000000;0.647970
7966.000000;0.648048
7965.000000;0.647958
7964.000000;0.647782
7963.000000;0.647619
7962.000000;0.647491
7961.000000;0.647386
7960.000000;0.647340
7959.000000;0.647424
7958.000000;0.647609
7957.000000;0.647736
7956.000000;0.647668
7955.000000;0.647426
7954.000000;0.647122
7953.000000;0.646818
7952.000000;0.646547
7951.000000;0.646426
7950.000000;0.646589
7949.000000;0.646979
7948.000000;0.647320
7947.000000;0.647382
7946.000000;0.647200
7945.000000;0.646988
7944.000000;0.646897
7943.000000;0.646931
7942.000000;0.647023
7941.000000;0.647111
7940.000000;0.647150
7939.000000;0.647126
7938.000000;0.647045
7937.000000;0.646913
7936.000000;0.646712
7935.000000;0.646447
7934.000000;0.646173
7933.000000;0.645968
7932.000000;0.645890
7931.000000;0.645969
7930.000000;0.646196
7929.000000;0.646479
7928.000000;0.646660
7927.000000;0.646646
7926.000000;0.646524
7925.000000;0.646514
7924.000000;0.646759
7923.000000;0.647176
7922.000000;0.647520
7921.000000;0.647604
7920.000000;0.647453
7919.000000;0.647233
7918.000000;0.647045
7917.000000;0.646837
7916.000000;0.646521
7915.000000;0.646138
7914.000000;0.645851
7913.000000;0.645783
7912.000000;0.645919
7911.000000;0.646149
7910.000000;0.646361
7909.000000;0.646497
7908.000000;0.646570
7907.000000;0.646651
7906.000000;0.646803
7905.000000;0.647006
7904.000000;0.647163
7903.000000;0.647177
7902.000000;0.647027
7901.000000;0.646796
7900.000000;0.646639
7899.000000;0.646688
7898.000000;0.646922
7897.000000;0.647149
7896.000000;0.647187
7895.000000;0.647035
7894.000000;0.646829
7893.000000;0.646655
7892.000000;0.646493
7891.000000;0.646312
7890.000000;0.646111
7889.000000;0.645891
7888.000000;0.645679
7887.000000;0.645605
7886.000000;0.645814
7885.000000;0.646261
7884.000000;0.646671
7883.000000;0.646793
7882.000000;0.646641
7881.000000;0.646436
7880.000000;0.646366
7879.000000;0.646451
7878.000000;0.646605
7877.000000;0.646739
7876.000000;0.646828
7875.000000;0.646904
7874.000000;0.646998
7873.000000;0.647111
7872.000000;0.647227
7871.000000;0.647340
7870.000000;0.647414
7869.000000;0.647365
7868.000000;0.647167
7867.000000;0.646951
7866.000000;0.646899
7865.000000;0.647027
7864.000000;0.647173
7863.000000;0.647215
7862.000000;0.647195
7861.000000;0.647181
7860.000000;0.647155
7859.000000;0.647090
7858.000000;0.647049
7857.000000;0.647086
7856.000000;0.647144
7855.000000;0.647138
7854.000000;0.647092
7853.000000;0.647090
7852.000000;0.647131
7851.000000;0.647129
7850.000000;0.647045
7849.000000;0.646936
7848.000000;0.646877
7847.000000;0.646909
7846.000000;0.647041
7845.000000;0.647236
7844.000000;0.647404
7843.000000;0.647472
7842.000000;0.647464
7841.000000;0.647467
7840.000000;0.647520
7839.000000;0.647585
7838.000000;0.647605
7837.000000;0.647555
7836.000000;0.647459
7835.000000;0.647406
7834.000000;0.647516
7833.000000;0.647825
7832.000000;0.648186
7831.000000;0.648369
7830.000000;0.648263
7829.000000;0.647976
7828.000000;0.647725
7827.000000;0.647660
7826.000000;0.647769
7825.000000;0.647911
7824.000000;0.647944
7823.000000;0.647852
7822.000000;0.647750
7821.000000;0.647760
7820.000000;0.647887
7819.000000;0.648050
7818.000000;0.648178
7817.000000;0.648248
7816.000000;0.648257
7815.000000;0.648215
7814.000000;0.648173
7813.000000;0.648182
7812.000000;0.648237
7811.000000;0.648289
7810.000000;0.648313
7809.000000;0.648309
7808.000000;0.648266
7807.000000;0.648182
7806.000000;0.648114
7805.000000;0.648160
7804.000000;0.648346
7803.000000;0.648580
7802.000000;0.648732
7801.000000;0.648739
7800.000000;0.648631
7799.000000;0.648490
7798.000000;0.648414
7797.000000;0.648489
7796.000000;0.648735
7795.000000;0.649069
7794.000000;0.649350
7793.000000;0.649457
7792.000000;0.649364
7791.000000;0.649162
7790.000000;0.649008
7789.000000;0.649025
7788.000000;0.649222
7787.000000;0.649504
7786.000000;0.649753
7785.000000;0.649878
7784.000000;0.649840
7783.000000;0.649653
7782.000000;0.649409
7781.000000;0.649238
7780.000000;0.649224
7779.000000;0.649351
7778.000000;0.649539
7777.000000;0.649723
7776.000000;0.649881
7775.000000;0.650006
7774.000000;0.650096
7773.000000;0.650169
7772.000000;0.650263
7771.000000;0.650395
7770.000000;0.650547
7769.000000;0.650696
7768.000000;0.650840
7767.000000;0.650972
7766.000000;0.651036
7765.000000;0.650968
7764.000000;0.650792
7763.000000;0.650640
7762.000000;0.650658
7761.000000;0.650877
7760.000000;0.651202
7759.000000;0.651493
7758.000000;0.651640
7757.000000;0.651614
7756.000000;0.651493
7755.000000;0.651431
7754.000000;0.651533
7753.000000;0.651740
7752.000000;0.651888
7751.000000;0.651896
7750.000000;0.651854
7749.000000;0.651891
7748.000000;0.651990
7747.000000;0.652011
7746.000000;0.651881
7745.000000;0.651686
7744.000000;0.651580
7743.000000;0.651632
7742.000000;0.651799
7741.000000;0.652005
7740.000000;0.652218
7739.000000;0.652432
7738.000000;0.652608
7737.000000;0.652677
7736.000000;0.652614
7735.000000;0.652489
7734.000000;0.652419
7733.000000;0.652466
7732.000000;0.652587
7731.000000;0.652704
7730.000000;0.652790
7729.000000;0.652874
7728.000000;0.652969
7727.000000;0.653045
7726.000000;0.653089
7725.000000;0.653162
7724.000000;0.653362
7723.000000;0.653706
7722.000000;0.654084
7721.000000;0.654331
7720.000000;0.654368
7719.000000;0.654248
7718.000000;0.654088
7717.000000;0.653978
7716.000000;0.653951
7715.000000;0.654006
7714.000000;0.654133
7713.000000;0.654320
7712.000000;0.654552
7711.000000;0.654802
7710.000000;0.655038
7709.000000;0.655232
7708.000000;0.655387
7707.000000;0.655506
7706.000000;0.655549
7705.000000;0.655446
7704.000000;0.655195
7703.000000;0.654926
7702.000000;0.654834
7701.000000;0.655004
7700.000000;0.655339
7699.000000;0.655647
7698.000000;0.655804
7697.000000;0.655837
7696.000000;0.655867
7695.000000;0.655989
7694.000000;0.656194
7693.000000;0.656389
7692.000000;0.656509
7691.000000;0.656572
7690.000000;0.656640
7689.000000;0.656715
7688.000000;0.656747
7687.000000;0.656730
7686.000000;0.656761
7685.000000;0.656943
7684.000000;0.657269
7683.000000;0.657622
7682.000000;0.657903
7681.000000;0.658117
7680.000000;0.658318
7679.000000;0.658519
7678.000000;0.658696
7677.000000;0.658858
7676.000000;0.659027
7675.000000;0.659165
7674.000000;0.659180
7673.000000;0.659039
7672.000000;0.658847
7671.000000;0.658738
7670.000000;0.658738
7669.000000;0.658772
7668.000000;0.658804
7667.000000;0.658902
7666.000000;0.659130
7665.000000;0.659441
7664.000000;0.659715
7663.000000;0.659883
7662.000000;0.659987
7661.000000;0.660119
7660.000000;0.660298
7659.000000;0.660446
7658.000000;0.660472
7657.000000;0.660412
7656.000000;0.660418
7655.000000;0.660608
7654.000000;0.660926
7653.000000;0.661219
7652.000000;0.661408
7651.000000;0.661544
7650.000000;0.661693
7649.000000;0.661858
7648.000000;0.662018
7647.000000;0.662166
7646.000000;0.662300
7645.000000;0.662419
7644.000000;0.662574
7643.000000;0.662849
7642.000000;0.663247
7641.000000;0.663637
7640.000000;0.663883
7639.000000;0.663967
7638.000000;0.663977
7637.000000;0.664014
7636.000000;0.664170
7635.000000;0.664498
7634.000000;0.664944
7633.000000;0.665322
7632.000000;0.665477
7631.000000;0.665444
7630.000000;0.665407
7629.000000;0.665509
7628.000000;0.665739
7627.000000;0.666005
7626.000000;0.666224
7625.000000;0.666364
7624.000000;0.666454
7623.000000;0.666554
7622.000000;0.666691
7621.000000;0.666814
7620.000000;0.666866
7619.000000;0.666859
7618.000000;0.666860
7617.000000;0.666904
7616.000000;0.667007
7615.000000;0.667216
7614.000000;0.667572
7613.000000;0.668011
7612.000000;0.668393
7611.000000;0.668649
7610.000000;0.668847
7609.000000;0.669104
7608.000000;0.669459
7607.000000;0.669874
7606.000000;0.670274
7605.000000;0.670582
7604.000000;0.670747
7603.000000;0.670804
7602.000000;0.670862
7601.000000;0.671016
7600.000000;0.671285
7599.000000;0.671611
7598.000000;0.671908
7597.000000;0.672104
7596.000000;0.672180
7595.000000;0.672208
7594.000000;0.672303
7593.000000;0.672528
7592.000000;0.672858
7591.000000;0.673246
7590.000000;0.673671
7589.000000;0.674109
7588.000000;0.674490
7587.000000;0.674753
7586.000000;0.674912
7585.000000;0.675052
7584.000000;0.675246
7583.000000;0.675502
7582.000000;0.675768
7581.000000;0.676000
7580.000000;0.676195
7579.000000;0.676392
7578.000000;0.676633
7577.000000;0.676931
7576.000000;0.677262
7575.000000;0.677584
7574.000000;0.677840
7573.000000;0.677993
7572.000000;0.678074
7571.000000;0.678184
7570.000000;0.678417
7569.000000;0.678779
7568.000000;0.679203
7567.000000;0.679637
7566.000000;0.680087
7565.000000;0.680582
7564.000000;0.681110
7563.000000;0.681597
7562.000000;0.681942
7561.000000;0.682101
7560.000000;0.682168
7559.000000;0.682316
7558.000000;0.682639
7557.000000;0.683047
7556.000000;0.683371
7555.000000;0.683547
7554.000000;0.683649
7553.000000;0.683776
7552.000000;0.683959
7551.000000;0.684204
7550.000000;0.684519
7549.000000;0.684885
7548.000000;0.685235
7547.000000;0.685528
7546.000000;0.685800
7545.000000;0.686113
7544.000000;0.686479
7543.000000;0.686861
7542.000000;0.687230
7541.000000;0.687594
7540.000000;0.687968
7539.000000;0.688343
7538.000000;0.688677
7537.000000;0.688921
7536.000000;0.689093
7535.000000;0.689293
7534.000000;0.689629
7533.000000;0.690096
7532.000000;0.690570
7531.000000;0.690943
7530.000000;0.691228
7529.000000;0.691512
7528.000000;0.691834
7527.000000;0.692167
7526.000000;0.692475
7525.000000;0.692761
7524.000000;0.693038
7523.000000;0.693330
7522.000000;0.693679
7521.000000;0.694122
7520.000000;0.694629
7519.000000;0.695099
7518.000000;0.695437
7517.000000;0.695645
7516.000000;0.695840
7515.000000;0.696157
7514.000000;0.696638
7513.000000;0.697188
7512.000000;0.697659
7511.000000;0.697981
7510.000000;0.698218
7509.000000;0.698481
7508.000000;0.698811
7507.000000;0.699166
7506.000000;0.699514
7505.000000;0.699873
7504.000000;0.700261
7503.000000;0.700667
7502.000000;0.701090
7501.000000;0.701544
7500.000000;0.702018
7499.000000;0.702413
7498.000000;0.702621
7497.000000;0.702722
7496.000000;0.702923
7495.000000;0.703360
7494.000000;0.703954
7493.000000;0.704521
7492.000000;0.704962
7491.000000;0.705307
7490.000000;0.705601
7489.000000;0.705847
7488.000000;0.706062
7487.000000;0.706310
7486.000000;0.706656
7485.000000;0.707106
7484.000000;0.707629
7483.000000;0.708188
7482.000000;0.708730
7481.000000;0.709175
7480.000000;0.709484
7479.000000;0.709745
7478.000000;0.710107
7477.000000;0.710616
7476.000000;0.711142
7475.000000;0.711528
7474.000000;0.711782
7473.000000;0.712070
7472.000000;0.712533
7471.000000;0.713140
7470.000000;0.713734
7469.000000;0.714174
7468.000000;0.714428
7467.000000;0.714577
7466.000000;0.714772
7465.000000;0.715155
7464.000000;0.715732
7463.000000;0.716356
7462.000000;0.716862
7461.000000;0.717225
7460.000000;0.717537
7459.000000;0.717862
7458.000000;0.718198
7457.000000;0.718562
7456.000000;0.719015
7455.000000;0.719551
7454.000000;0.720060
7453.000000;0.720439
7452.000000;0.720708
7451.000000;0.720973
7450.000000;0.721321
7449.000000;0.721770
7448.000000;0.722280
7447.000000;0.722765
7446.000000;0.723148
7445.000000;0.723435
7444.000000;0.723706
7443.000000;0.723992
7442.000000;0.724231
7441.000000;0.724377
7440.000000;0.724507
7439.000000;0.724762
7438.000000;0.725213
7437.000000;0.725827
7436.000000;0.726504
7435.000000;0.727106
7434.000000;0.727510
7433.000000;0.727725
7432.000000;0.727913
7431.000000;0.728232
7430.000000;0.728690
7429.000000;0.729188
7428.000000;0.729643
7427.000000;0.730019
7426.000000;0.730306
7425.000000;0.730547
7424.000000;0.730811
7423.000000;0.731100
7422.000000;0.731315
7421.000000;0.731398
7420.000000;0.731474
7419.000000;0.731743
7418.000000;0.732255
7417.000000;0.732886
7416.000000;0.733518
7415.000000;0.734159
7414.000000;0.734850
7413.000000;0.735537
7412.000000;0.736113
7411.000000;0.736507
7410.000000;0.736720
7409.000000;0.736823
7408.000000;0.736909
7407.000000;0.737041
7406.000000;0.737213
7405.000000;0.737393
7404.000000;0.737584
7403.000000;0.737829
7402.000000;0.738148
7401.000000;0.738507
7400.000000;0.738889
7399.000000;0.739298
7398.000000;0.739714
7397.000000;0.740128
7396.000000;0.740532
7395.000000;0.740850
7394.000000;0.741029
7393.000000;0.741227
7392.000000;0.741716
7391.000000;0.742536
7390.000000;0.743385
7389.000000;0.743978
7388.000000;0.744328
7387.000000;0.744559
7386.000000;0.744693
7385.000000;0.744757
7384.000000;0.744818
7383.000000;0.744817
7382.000000;0.744603
7381.000000;0.744279
7380.000000;0.744276
7379.000000;0.744812
7378.000000;0.745505
7377.000000;0.745822
7376.000000;0.745748
7375.000000;0.745846
7374.000000;0.746631
7373.000000;0.747999
7372.000000;0.749363
7371.000000;0.750149
7370.000000;0.750121
7369.000000;0.749561
7368.000000;0.749159
7367.000000;0.749381
7366.000000;0.750054
7365.000000;0.750836
7364.000000;0.751680
7363.000000;0.752587
7362.000000;0.753327
7361.000000;0.753670
7360.000000;0.753752
7359.000000;0.753894
7358.000000;0.754145
7357.000000;0.754245
7356.000000;0.754050
7355.000000;0.753839
7354.000000;0.754009
7353.000000;0.754673
7352.000000;0.755648
7351.000000;0.756599
7350.000000;0.757125
7349.000000;0.757052
7348.000000;0.756735
7347.000000;0.756774
7346.000000;0.757319
7345.000000;0.757910
7344.000000;0.758043
7343.000000;0.757553
7342.000000;0.756549
7341.000000;0.755388
7340.000000;0.754862
7339.000000;0.755860
7338.000000;0.758384
7337.000000;0.761392
7336.000000;0.763801
7335.000000;0.765256
7334.000000;0.766000
7333.000000;0.766357
7332.000000;0.766473
7331.000000;0.766383
7330.000000;0.766032
7329.000000;0.765281
7328.000000;0.764306
7327.000000;0.763939
7326.000000;0.764918
7325.000000;0.766892
7324.000000;0.768904
7323.000000;0.770493
7322.000000;0.771831
7321.000000;0.773059
7320.000000;0.774026
7319.000000;0.774653
7318.000000;0.775027
7317.000000;0.775245
7316.000000;0.775481
7315.000000;0.776038
7314.000000;0.777010
7313.000000;0.777883
7312.000000;0.777960
7311.000000;0.777378
7310.000000;0.777121
7309.000000;0.777763
7308.000000;0.778813
7307.000000;0.779656
7306.000000;0.780552
7305.000000;0.782044
7304.000000;0.783959
7303.000000;0.785748
7302.000000;0.787176
7301.000000;0.788282
7300.000000;0.789052
7299.000000;0.789498
7298.000000;0.789880
7297.000000;0.790428
7296.000000;0.790995
7295.000000;0.791225
7294.000000;0.791208
7293.000000;0.791653
7292.000000;0.792989
7291.000000;0.794793
7290.000000;0.796337
7289.000000;0.797264
7288.000000;0.797763
7287.000000;0.798404
7286.000000;0.799697
7285.000000;0.801597
7284.000000;0.803510
7283.000000;0.804975
7282.000000;0.806084
7281.000000;0.807219
7280.000000;0.808527
7279.000000;0.809833
7278.000000;0.811005
7277.000000;0.812110
7276.000000;0.813194
7275.000000;0.814230
7274.000000;0.815301
7273.000000;0.816608
7272.000000;0.818242
7271.000000;0.820086
7270.000000;0.821903
7269.000000;0.823457
7268.000000;0.824669
7267.000000;0.825744
7266.000000;0.827004
7265.000000;0.828476
7264.000000;0.829810
7263.000000;0.830806
7262.000000;0.831834
7261.000000;0.833463
7260.000000;0.835775
7259.000000;0.838324
7258.000000;0.840646
7257.000000;0.842549
7256.000000;0.843998
7255.000000;0.845018
7254.000000;0.845768
7253.000000;0.846653
7252.000000;0.848237
7251.000000;0.850783
7250.000000;0.853994
7249.000000;0.857240
7248.000000;0.859918
7247.000000;0.861795
7246.000000;0.863065
7245.000000;0.863967
7244.000000;0.864492
7243.000000;0.864810
7242.000000;0.865822
7241.000000;0.868538
7240.000000;0.872837
7239.000000;0.877550
7238.000000;0.881541
7237.000000;0.884350
7236.000000;0.886142
7235.000000;0.887289
7234.000000;0.888037
7233.000000;0.888724
7232.000000;0.890194
7231.000000;0.893317
7230.000000;0.898037
7229.000000;0.903338
7228.000000;0.908048
7227.000000;0.911618
7226.000000;0.914449
7225.000000;0.917430
7224.000000;0.920979
7223.000000;0.924716
7222.000000;0.928074
7221.000000;0.930908
7220.000000;0.933580
7219.000000;0.936694
7218.000000;0.940604
7217.000000;0.945055
7216.000000;0.949435
7215.000000;0.953412
7214.000000;0.957156
7213.000000;0.960978
7212.000000;0.964968
7211.000000;0.969017
7210.000000;0.973049
7209.000000;0.977037
7208.000000;0.980847
7207.000000;0.984306
7206.000000;0.987440
7205.000000;0.990537
7204.000000;0.994000
7203.000000;0.998182
7202.000000;1.003193
7201.000000;1.008738
7200.000000;1.014273
7199.000000;1.019456
7198.000000;1.024323
7197.000000;1.029006
7196.000000;1.033494
7195.000000;1.037848
7194.000000;1.042384
7193.000000;1.047356
7192.000000;1.052640
7191.000000;1.057983
7190.000000;1.063404
7189.000000;1.069026
7188.000000;1.074700
7187.000000;1.080098
7186.000000;1.085095
7185.000000;1.089869
7184.000000;1.094556
7183.000000;1.099069
7182.000000;1.103395
7181.000000;1.107941
7180.000000;1.113222
7179.000000;1.119281
7178.000000;1.125732
7177.000000;1.132144
7176.000000;1.138241
7175.000000;1.143987
7174.000000;1.149555
7173.000000;1.155077
7172.000000;1.160448
7171.000000;1.165465
7170.000000;1.170197
7169.000000;1.175073
7168.000000;1.180637
7167.000000;1.187077
7166.000000;1.193948
7165.000000;1.200620
7164.000000;1.206902
7163.000000;1.213027
7162.000000;1.219150
7161.000000;1.225244
7160.000000;1.231435
7159.000000;1.237980
7158.000000;1.244866
7157.000000;1.251717
7156.000000;1.258188
7155.000000;1.264373
7154.000000;1.270605
7153.000000;1.276890
7152.000000;1.282921
7151.000000;1.288498
7150.000000;1.293749
7149.000000;1.299089
7148.000000;1.305000
7147.000000;1.311581
7146.000000;1.318321
7145.000000;1.324560
7144.000000;1.330177
7143.000000;1.335638
7142.000000;1.341388
7141.000000;1.347499
7140.000000;1.353906
7139.000000;1.360631
7138.000000;1.367551
7137.000000;1.374243
7136.000000;1.380390
7135.000000;1.386146
7134.000000;1.391856
7133.000000;1.397663
7132.000000;1.403643
7131.000000;1.409998
7130.000000;1.416769
7129.000000;1.423599
7128.000000;1.430072
7127.000000;1.436142
7126.000000;1.442002
7125.000000;1.447706
7124.000000;1.453229
7123.000000;1.458643
7122.000000;1.463987
7121.000000;1.469173
7120.000000;1.474235
7119.000000;1.479474
7118.000000;1.485069
7117.000000;1.490799
7116.000000;1.496420
7115.000000;1.502085
7114.000000;1.508011
7113.000000;1.513919
7112.000000;1.519278
7111.000000;1.524119
7110.000000;1.529051
7109.000000;1.534378
7108.000000;1.539743
7107.000000;1.544774
7106.000000;1.549487
7105.000000;1.554063
7104.000000;1.558733
7103.000000;1.563776
7102.000000;1.569272
7101.000000;1.574823
7100.000000;1.579831
7099.000000;1.584175
7098.000000;1.588329
7097.000000;1.592687
7096.000000;1.597090
7095.000000;1.601189
7094.000000;1.604992
7093.000000;1.608836
7092.000000;1.613041
7091.000000;1.617742
7090.000000;1.622854
7089.000000;1.628042
7088.000000;1.632874
7087.000000;1.637141
7086.000000;1.640924
7085.000000;1.644442
7084.000000;1.647972
7083.000000;1.651800
7082.000000;1.655893
7081.000000;1.659694
7080.000000;1.662584
7079.000000;1.664705
7078.000000;1.667039
7077.000000;1.670394
7076.000000;1.674581
7075.000000;1.678816
7074.000000;1.682659
7073.000000;1.686287
7072.000000;1.690029
7071.000000;1.693968
7070.000000;1.697975
7069.000000;1.701804
7068.000000;1.705168
7067.000000;1.707934
7066.000000;1.710303
7065.000000;1.712668
7064.000000;1.715262
7063.000000;1.717957
7062.000000;1.720459
7061.000000;1.722742
7060.000000;1.725184
7059.000000;1.728199
7058.000000;1.731783
7057.000000;1.735424
7056.000000;1.738455
7055.000000;1.740515
7054.000000;1.741731
7053.000000;1.742575
7052.000000;1.743605
7051.000000;1.745216
7050.000000;1.747475
7049.000000;1.750186
7048.000000;1.753147
7047.000000;1.756206
7046.000000;1.759113
7045.000000;1.761603
7044.000000;1.763810
7043.000000;1.766292
7042.000000;1.769368
7041.000000;1.772639
7040.000000;1.775418
7039.000000;1.777481
7038.000000;1.779111
7037.000000;1.780536
7036.000000;1.781712
7035.000000;1.782625
7034.000000;1.783455
7033.000000;1.784368
7032.000000;1.785385
7031.000000;1.786474
7030.000000;1.787562
7029.000000;1.788493
7028.000000;1.789276
7027.000000;1.790380
7026.000000;1.792382
7025.000000;1.795157
7024.000000;1.797736
7023.000000;1.799205
7022.000000;1.799586
7021.000000;1.799637
7020.000000;1.799978
7019.000000;1.800734
7018.000000;1.801881
7017.000000;1.803529
7016.000000;1.805765
7015.000000;1.808361
7014.000000;1.810764
7013.000000;1.812432
7012.000000;1.813198
7011.000000;1.813323
7010.000000;1.813242
7009.000000;1.813307
7008.000000;1.813711
7007.000000;1.814522
7006.000000;1.815740
7005.000000;1.817325
7004.000000;1.819194
7003.000000;1.821169
7002.000000;1.822953
7001.000000;1.824278
7000.000000;1.825173
6999.000000;1.825994
6998.000000;1.827053
6997.000000;1.828291
6996.000000;1.829367
6995.000000;1.829928
6994.000000;1.829763
6993.000000;1.828879
6992.000000;1.827623
6991.000000;1.826637
6990.000000;1.826443
6989.000000;1.826938
6988.000000;1.827464
6987.000000;1.827483
6986.000000;1.827098
6985.000000;1.826852
6984.000000;1.827147
6983.000000;1.828020
6982.000000;1.829419
6981.000000;1.831383
6980.000000;1.833716
6979.000000;1.835641
6978.000000;1.836221
6977.000000;1.835290
6976.000000;1.833693
6975.000000;1.832486
6974.000000;1.832126
6973.000000;1.832502
6972.000000;1.833348
6971.000000;1.834317
6970.000000;1.834851
6969.000000;1.834454
6968.000000;1.833136
6967.000000;1.831346
6966.000000;1.829523
6965.000000;1.827992
6964.000000;1.827124
6963.000000;1.827152
6962.000000;1.827857
6961.000000;1.828833
6960.000000;1.830087
6959.000000;1.831960
6958.000000;1.834351
6957.000000;1.836326
6956.000000;1.836791
6955.000000;1.835439
6954.000000;1.833007
6953.000000;1.830794
6952.000000;1.829912
6951.000000;1.830666
6950.000000;1.832444
6949.000000;1.834317
6948.000000;1.835738
6947.000000;1.836535
6946.000000;1.836462
6945.000000;1.835328
6944.000000;1.833569
6943.000000;1.832049
6942.000000;1.831133
6941.000000;1.830410
6940.000000;1.829448
6939.000000;1.828394
6938.000000;1.827615
6937.000000;1.827206
6936.000000;1.827165
6935.000000;1.827603
6934.000000;1.828387
6933.000000;1.828932
6932.000000;1.828793
6931.000000;1.828246
6930.000000;1.827938
6929.000000;1.828109
6928.000000;1.828505
6927.000000;1.828861
6926.000000;1.829092
6925.000000;1.829074
6924.000000;1.828644
6923.000000;1.827867
6922.000000;1.827107
6921.000000;1.826788
6920.000000;1.827082
6919.000000;1.827720
6918.000000;1.828090
6917.000000;1.827715
6916.000000;1.826731
6915.000000;1.825696
6914.000000;1.824930
6913.000000;1.824320
6912.000000;1.823719
6911.000000;1.823132
6910.000000;1.822467
6909.000000;1.821564
6908.000000;1.820613
6907.000000;1.820057
6906.000000;1.819875
6905.000000;1.819434
6904.000000;1.818357
6903.000000;1.817034
6902.000000;1.815888
6901.000000;1.814697
6900.000000;1.813204
6899.000000;1.811945
6898.000000;1.811757
6897.000000;1.812610
6896.000000;1.813546
6895.000000;1.813716
6894.000000;1.812995
6893.000000;1.811660
6892.000000;1.810041
6891.000000;1.808570
6890.000000;1.807726
6889.000000;1.807703
6888.000000;1.808325
6887.000000;1.809304
6886.000000;1.810343
6885.000000;1.810997
6884.000000;1.810778
6883.000000;1.809573
6882.000000;1.807825
6881.000000;1.806173
6880.000000;1.804964
6879.000000;1.804151
6878.000000;1.803561
6877.000000;1.803170
6876.000000;1.803040
6875.000000;1.803033
6874.000000;1.802827
6873.000000;1.802326
6872.000000;1.801849
6871.000000;1.801632
6870.000000;1.801303
6869.000000;1.800269
6868.000000;1.798592
6867.000000;1.797002
6866.000000;1.795952
6865.000000;1.795152
6864.000000;1.794203
6863.000000;1.793178
6862.000000;1.792292
6861.000000;1.791455
6860.000000;1.790586
6859.000000;1.789986
6858.000000;1.789948
6857.000000;1.790189
6856.000000;1.790101
6855.000000;1.789429
6854.000000;1.788276
6853.000000;1.786667
6852.000000;1.784604
6851.000000;1.782433
6850.000000;1.780665
6849.000000;1.779430
6848.000000;1.778451
6847.000000;1.777569
6846.000000;1.776898
6845.000000;1.776443
6844.000000;1.775910
6843.000000;1.774993
6842.000000;1.773676
6841.000000;1.772196
6840.000000;1.770902
6839.000000;1.770108
6838.000000;1.769834
6837.000000;1.769612
6836.000000;1.768752
6835.000000;1.766909
6834.000000;1.764321
6833.000000;1.761532
6832.000000;1.759032
6831.000000;1.757113
6830.000000;1.755787
6829.000000;1.754724
6828.000000;1.753417
6827.000000;1.751584
6826.000000;1.749411
6825.000000;1.747381
6824.000000;1.745822
6823.000000;1.744605
6822.000000;1.743334
6821.000000;1.741847
6820.000000;1.740407
6819.000000;1.739243
6818.000000;1.738059
6817.000000;1.736290
6816.000000;1.733825
6815.000000;1.731165
6814.000000;1.728783
6813.000000;1.726635
6812.000000;1.724402
6811.000000;1.721924
6810.000000;1.719195
6809.000000;1.716209
6808.000000;1.713095
6807.000000;1.710240
6806.000000;1.707995
6805.000000;1.706339
6804.000000;1.704938
6803.000000;1.703426
6802.000000;1.701515
6801.000000;1.699019
6800.000000;1.696020
6799.000000;1.692932
6798.000000;1.690225
6797.000000;1.688080
6796.000000;1.686330
6795.000000;1.684626
6794.000000;1.682618
6793.000000;1.680188
6792.000000;1.677630
6791.000000;1.675429
6790.000000;1.673642
6789.000000;1.671677
6788.000000;1.668910
6787.000000;1.665408
6786.000000;1.661886
6785.000000;1.659029
6784.000000;1.656997
6783.000000;1.655448
6782.000000;1.653837
6781.000000;1.651769
6780.000000;1.649267
6779.000000;1.646697
6778.000000;1.644351
6777.000000;1.642184
6776.000000;1.639992
6775.000000;1.637677
6774.000000;1.635217
6773.000000;1.632549
6772.000000;1.629638
6771.000000;1.626582
6770.000000;1.623509
6769.000000;1.620464
6768.000000;1.617485
6767.000000;1.614676
6766.000000;1.612090
6765.000000;1.609675
6764.000000;1.607428
6763.000000;1.605414
6762.000000;1.603534
6761.000000;1.601442
6760.000000;1.598903
6759.000000;1.596080
6758.000000;1.593262
6757.000000;1.590451
6756.000000;1.587458
6755.000000;1.584343
6754.000000;1.581486
6753.000000;1.579187
6752.000000;1.577353
6751.000000;1.575609
6750.000000;1.573616
6749.000000;1.571235
6748.000000;1.568470
6747.000000;1.565387
6746.000000;1.562118
6745.000000;1.558905
6744.000000;1.555983
6743.000000;1.553352
6742.000000;1.550775
6741.000000;1.548127
6740.000000;1.545610
6739.000000;1.543411
6738.000000;1.541286
6737.000000;1.538796
6736.000000;1.535928
6735.000000;1.533100
6734.000000;1.530519
6733.000000;1.527925
6732.000000;1.525093
6731.000000;1.522212
6730.000000;1.519573
6729.000000;1.517202
6728.000000;1.515003
6727.000000;1.512973
6726.000000;1.511008
6725.000000;1.508810
6724.000000;1.506288
6723.000000;1.503802
6722.000000;1.501657
6721.000000;1.499580
6720.000000;1.497096
6719.000000;1.494232
6718.000000;1.491433
6717.000000;1.488852
6716.000000;1.486216
6715.000000;1.483329
6714.000000;1.480389
6713.000000;1.477661
6712.000000;1.475123
6711.000000;1.472571
6710.000000;1.469862
6709.000000;1.466922
6708.000000;1.463850
6707.000000;1.460972
6706.000000;1.458502
6705.000000;1.456250
6704.000000;1.453849
6703.000000;1.451186
6702.000000;1.448552
6701.000000;1.446218
6700.000000;1.444093
6699.000000;1.441896
6698.000000;1.439501
6697.000000;1.437020
6696.000000;1.434649
6695.000000;1.432512
6694.000000;1.430572
6693.000000;1.428621
6692.000000;1.426417
6691.000000;1.423878
6690.000000;1.421120
6689.000000;1.418320
6688.000000;1.415632
6687.000000;1.413178
6686.000000;1.410959
6685.000000;1.408776
6684.000000;1.406424
6683.000000;1.403970
6682.000000;1.401715
6681.000000;1.399811
6680.000000;1.398065
6679.000000;1.396174
6678.000000;1.394020
6677.000000;1.391638
6676.000000;1.389045
6675.000000;1.386274
6674.000000;1.383494
6673.000000;1.380949
6672.000000;1.378720
6671.000000;1.376642
6670.000000;1.374476
6669.000000;1.372131
6668.000000;1.369715
6667.000000;1.367420
6666.000000;1.365356
6665.000000;1.363461
6664.000000;1.361509
6663.000000;1.359267
6662.000000;1.356700
6661.000000;1.354053
6660.000000;1.351632
6659.000000;1.349483
6658.000000;1.347358
6657.000000;1.345059
6656.000000;1.342717
6655.000000;1.340608
6654.000000;1.338738
6653.000000;1.336819
6652.000000;1.334651
6651.000000;1.332337
6650.000000;1.330045
6649.000000;1.327751
6648.000000;1.325374
6647.000000;1.322987
6646.000000;1.320736
6645.000000;1.318618
6644.000000;1.316526
6643.000000;1.314451
6642.000000;1.312463
6641.000000;1.310502
6640.000000;1.308375
6639.000000;1.306010
6638.000000;1.303572
6637.000000;1.301285
6636.000000;1.299210
6635.000000;1.297259
6634.000000;1.295337
6633.000000;1.293414
6632.000000;1.291492
6631.000000;1.289543
6630.000000;1.287494
6629.000000;1.285306
6628.000000;1.283048
6627.000000;1.280870
6626.000000;1.278853
6625.000000;1.276930
6624.000000;1.274994
6623.000000;1.273040
6622.000000;1.271125
6621.000000;1.269254
6620.000000;1.267344
6619.000000;1.265321
6618.000000;1.263188
6617.000000;1.261023
6616.000000;1.258922
6615.000000;1.256911
6614.000000;1.254911
6613.000000;1.252835
6612.000000;1.250743
6611.000000;1.248798
6610.000000;1.247023
6609.000000;1.245231
6608.000000;1.243276
6607.000000;1.241267
6606.000000;1.239409
6605.000000;1.237710
6604.000000;1.235993
6603.000000;1.234145
6602.000000;1.232212
6601.000000;1.230258
6600.000000;1.228291
6599.000000;1.226346
6598.000000;1.224511
6597.000000;1.222826
6596.000000;1.221227
6595.000000;1.219619
6594.000000;1.217949
6593.000000;1.216185
6592.000000;1.214320
6591.000000;1.212397
6590.000000;1.210495
6589.000000;1.208648
6588.000000;1.206829
6587.000000;1.205011
6586.000000;1.203202
6585.000000;1.201412
6584.000000;1.199632
6583.000000;1.197834
6582.000000;1.195981
6581.000000;1.194052
6580.000000;1.192111
6579.000000;1.190291
6578.000000;1.188653
6577.000000;1.187073
6576.000000;1.185364
6575.000000;1.183489
6574.000000;1.181614
6573.000000;1.179923
6572.000000;1.178460
6571.000000;1.177114
6570.000000;1.175713
6569.000000;1.174109
6568.000000;1.172268
6567.000000;1.170309
6566.000000;1.168409
6565.000000;1.166676
6564.000000;1.165097
6563.000000;1.163602
6562.000000;1.162116
6561.000000;1.160563
6560.000000;1.158878
6559.000000;1.157046
6558.000000;1.155125
6557.000000;1.153243
6556.000000;1.151567
6555.000000;1.150189
6554.000000;1.149017
6553.000000;1.147801
6552.000000;1.146340
6551.000000;1.144629
6550.000000;1.142791
6549.000000;1.140938
6548.000000;1.139147
6547.000000;1.137507
6546.000000;1.136067
6545.000000;1.134745
6544.000000;1.133377
6543.000000;1.131861
6542.000000;1.130210
6541.000000;1.128498
6540.000000;1.126810
6539.000000;1.125208
6538.000000;1.123692
6537.000000;1.122197
6536.000000;1.120700
6535.000000;1.119287
6534.000000;1.118027
6533.000000;1.116838
6532.000000;1.115546
6531.000000;1.114077
6530.000000;1.112490
6529.000000;1.110855
6528.000000;1.109194
6527.000000;1.107540
6526.000000;1.105968
6525.000000;1.104527
6524.000000;1.103203
6523.000000;1.101940
6522.000000;1.100666
6521.000000;1.099299
6520.000000;1.097818
6519.000000;1.096310
6518.000000;1.094872
6517.000000;1.093491
6516.000000;1.092078
6515.000000;1.090593
6514.000000;1.089063
6513.000000;1.087501
6512.000000;1.085937
6511.000000;1.084491
6510.000000;1.083289
6509.000000;1.082279
6508.000000;1.081237
6507.000000;1.080010
6506.000000;1.078638
6505.000000;1.077231
6504.000000;1.075830
6503.000000;1.074445
6502.000000;1.073120
6501.000000;1.071888
6500.000000;1.070707
6499.000000;1.069527
6498.000000;1.068357
6497.000000;1.067217
6496.000000;1.066075
6495.000000;1.064868
6494.000000;1.063557
6493.000000;1.062144
6492.000000;1.060668
6491.000000;1.059225
6490.000000;1.057917
6489.000000;1.056746
6488.000000;1.055593
6487.000000;1.054358
6486.000000;1.053070
6485.000000;1.051804
6484.000000;1.050562
6483.000000;1.049289
6482.000000;1.047985
6481.000000;1.046730
6480.000000;1.045576
6479.000000;1.044481
6478.000000;1.043348
6477.000000;1.042131
6476.000000;1.040871
6475.000000;1.039634
6474.000000;1.038438
6473.000000;1.037228
6472.000000;1.035973
6471.000000;1.034730
6470.000000;1.033592
6469.000000;1.032562
6468.000000;1.031531
6467.000000;1.030394
6466.000000;1.029155
6465.000000;1.027915
6464.000000;1.026766
6463.000000;1.025718
6462.000000;1.024707
6461.000000;1.023649
6460.000000;1.022514
6459.000000;1.021345
6458.000000;1.020201
6457.000000;1.019100
6456.000000;1.018008
6455.000000;1.016896
6454.000000;1.015772
6453.000000;1.014670
6452.000000;1.013622
6451.000000;1.012643
6450.000000;1.011701
6449.000000;1.010725
6448.000000;1.009658
6447.000000;1.008500
6446.000000;1.007280
6445.000000;1.006034
6444.000000;1.004825
6443.000000;1.003739
6442.000000;1.002815
6441.000000;1.001964
6440.000000;1.001037
6439.000000;0.999960
6438.000000;0.998784
6437.000000;0.997614
6436.000000;0.996534
6435.000000;0.995563
6434.000000;0.994640
6433.000000;0.993663
6432.000000;0.992593
6431.000000;0.991514
6430.000000;0.990536
6429.000000;0.989658
6428.000000;0.988792
6427.000000;0.987883
6426.000000;0.986954
6425.000000;0.986012
6424.000000;0.985018
6423.000000;0.983946
6422.000000;0.982826
6421.000000;0.981704
6420.000000;0.980632
6419.000000;0.979667
6418.000000;0.978823
6417.000000;0.978022
6416.000000;0.977147
6415.000000;0.976184
6414.000000;0.975223
6413.000000;0.974325
6412.000000;0.973438
6411.000000;0.972492
6410.000000;0.971501
6409.000000;0.970536
6408.000000;0.969641
6407.000000;0.968812
6406.000000;0.968019
6405.000000;0.967217
6404.000000;0.966351
6403.000000;0.965396
6402.000000;0.964379
6401.000000;0.963356
6400.000000;0.962382
6399.000000;0.961493
6398.000000;0.960686
6397.000000;0.959902
6396.000000;0.959087
6395.000000;0.958252
6394.000000;0.957447
6393.000000;0.956673
6392.000000;0.955866
6391.000000;0.954975
6390.000000;0.954005
6389.000000;0.952989
6388.000000;0.951975
6387.000000;0.951047
6386.000000;0.950271
6385.000000;0.949605
6384.000000;0.948919
6383.000000;0.948136
6382.000000;0.947310
6381.000000;0.946526
6380.000000;0.945779
6379.000000;0.945002
6378.000000;0.944158
6377.000000;0.943279
6376.000000;0.942428
6375.000000;0.941663
6374.000000;0.940993
6373.000000;0.940356
6372.000000;0.939672
6371.000000;0.938931
6370.000000;0.938191
6369.000000;0.937481
6368.000000;0.936750
6367.000000;0.935951
6366.000000;0.935118
6365.000000;0.934328
6364.000000;0.933604
6363.000000;0.932899
6362.000000;0.932168
6361.000000;0.931403
6360.000000;0.930627
6359.000000;0.929867
6358.000000;0.929127
6357.000000;0.928376
6356.000000;0.927585
6355.000000;0.926767
6354.000000;0.925972
6353.000000;0.925219
6352.000000;0.924479
6351.000000;0.923731
6350.000000;0.922998
6349.000000;0.922321
6348.000000;0.921701
6347.000000;0.921097
6346.000000;0.920453
6345.000000;0.919716
6344.000000;0.918871
6343.000000;0.917973
6342.000000;0.917126
6341.000000;0.916398
6340.000000;0.915782
6339.000000;0.915216
6338.000000;0.914637
6337.000000;0.914010
6336.000000;0.913346
6335.000000;0.912700
6334.000000;0.912120
6333.000000;0.911582
6332.000000;0.911008
6331.000000;0.910347
6330.000000;0.909625
6329.000000;0.908922
6328.000000;0.908310
6327.000000;0.907811
6326.000000;0.907364
6325.000000;0.906839
6324.000000;0.906138
6323.000000;0.905297
6322.000000;0.904458
6321.000000;0.903727
6320.000000;0.903096
6319.000000;0.902501
6318.000000;0.901901
6317.000000;0.901294
6316.000000;0.900702
6315.000000;0.900152
6314.000000;0.899644
6313.000000;0.899123
6312.000000;0.898531
6311.000000;0.897886
6310.000000;0.897251
6309.000000;0.896636
6308.000000;0.895984
6307.000000;0.895275
6306.000000;0.894571
6305.000000;0.893945
6304.000000;0.893398
6303.000000;0.892889
6302.000000;0.892391
6301.000000;0.891897
6300.000000;0.891393
6299.000000;0.890857
6298.000000;0.890276
6297.000000;0.889635
6296.000000;0.888938
6295.000000;0.888234
6294.000000;0.887589
6293.000000;0.887020
6292.000000;0.886487
6291.000000;0.885968
6290.000000;0.885483
6289.000000;0.885043
6288.000000;0.884610
6287.000000;0.884141
6286.000000;0.883637
6285.000000;0.883125
6284.000000;0.882618
6283.000000;0.882116
6282.000000;0.881607
6281.000000;0.881057
6280.000000;0.880449
6279.000000;0.879827
6278.000000;0.879276
6277.000000;0.878814
6276.000000;0.878366
6275.000000;0.877845
6274.000000;0.877236
6273.000000;0.876580
6272.000000;0.875950
6271.000000;0.875430
6270.000000;0.875063
6269.000000;0.874783
6268.000000;0.874452
6267.000000;0.873996
6266.000000;0.873456
6265.000000;0.872894
6264.000000;0.872312
6263.000000;0.871714
6262.000000;0.871161
6261.000000;0.870720
6260.000000;0.870373
6259.000000;0.870030
6258.000000;0.869617
6257.000000;0.869111
6256.000000;0.868537
6255.000000;0.867956
6254.000000;0.867440
6253.000000;0.867013
6252.000000;0.866633
6251.000000;0.866242
6250.000000;0.865801
6249.000000;0.865289
6248.000000;0.864695
6247.000000;0.864069
6246.000000;0.863500
6245.000000;0.863039
6244.000000;0.862658
6243.000000;0.862311
6242.000000;0.861985
6241.000000;0.861667
6240.000000;0.861300
6239.000000;0.860844
6238.000000;0.860334
6237.000000;0.859823
6236.000000;0.859325
6235.000000;0.858836
6234.000000;0.858376
6233.000000;0.857963
6232.000000;0.857564
6231.000000;0.857137
6230.000000;0.856693
6229.000000;0.856269
6228.000000;0.855864
6227.000000;0.855454
6226.000000;0.855043
6225.000000;0.854650
6224.000000;0.854266
6223.000000;0.853859
6222.000000;0.853416
6221.000000;0.852959
6220.000000;0.852516
6219.000000;0.852102
6218.000000;0.851708
6217.000000;0.851301
6216.000000;0.850855
6215.000000;0.850401
6214.000000;0.850007
6213.000000;0.849682
6212.000000;0.849359
6211.000000;0.848982
6210.000000;0.848578
6209.000000;0.848191
6208.000000;0.847807
6207.000000;0.847396
6206.000000;0.846991
6205.000000;0.846657
6204.000000;0.846385
6203.000000;0.846095
6202.000000;0.845734
6201.000000;0.845323
6200.000000;0.844908
6199.000000;0.844509
6198.000000;0.844134
6197.000000;0.843795
6196.000000;0.843490
6195.000000;0.843187
6194.000000;0.842840
6193.000000;0.842428
6192.000000;0.841968
6191.000000;0.841512
6190.000000;0.841114
6189.000000;0.840782
6188.000000;0.840468
6187.000000;0.840110
6186.000000;0.839677
6185.000000;0.839185
6184.000000;0.838684
6183.000000;0.838255
6182.000000;0.837959
6181.000000;0.837771
6180.000000;0.837590
6179.000000;0.837334
6178.000000;0.837005
6177.000000;0.836650
6176.000000;0.836288
6175.000000;0.835919
6174.000000;0.835547
6173.000000;0.835184
6172.000000;0.834835
6171.000000;0.834514
6170.000000;0.834251
6169.000000;0.834040
6168.000000;0.833811
6167.000000;0.833498
6166.000000;0.833108
6165.000000;0.832707
6164.000000;0.832355
6163.000000;0.832079
6162.000000;0.831880
6161.000000;0.831718
6160.000000;0.831516
6159.000000;0.831226
6158.000000;0.830876
6157.000000;0.830520
6156.000000;0.830165
6155.000000;0.829776
6154.000000;0.829347
6153.000000;0.828919
6152.000000;0.828522
6151.000000;0.828156
6150.000000;0.827815
6149.000000;0.827509
6148.000000;0.827239
6147.000000;0.827003
6146.000000;0.826805
6145.000000;0.826647
6144.000000;0.826497
6143.000000;0.826289
6142.000000;0.825984
6141.000000;0.825604
6140.000000;0.825208
6139.000000;0.824846
6138.000000;0.824538
6137.000000;0.824279
6136.000000;0.824058
6135.000000;0.823866
6134.000000;0.823686
6133.000000;0.823485
6132.000000;0.823228
6131.000000;0.822914
6130.000000;0.822572
6129.000000;0.822231
6128.000000;0.821896
6127.000000;0.821567
6126.000000;0.821260
6125.000000;0.821002
6124.000000;0.820804
6123.000000;0.820642
6122.000000;0.820449
6121.000000;0.820159
6120.000000;0.819771
6119.000000;0.819377
6118.000000;0.819076
6117.000000;0.818870
6116.000000;0.818668
6115.000000;0.818399
6114.000000;0.818078
6113.000000;0.817755
6112.000000;0.817448
6111.000000;0.817158
6110.000000;0.816887
6109.000000;0.816637
6108.000000;0.816404
6107.000000;0.816204
6106.000000;0.816068
6105.000000;0.815980
6104.000000;0.815870
6103.000000;0.815674
6102.000000;0.815402
6101.000000;0.815103
6100.000000;0.814805
6099.000000;0.814515
6098.000000;0.814243
6097.000000;0.813995
6096.000000;0.813752
6095.000000;0.813492
6094.000000;0.813219
6093.000000;0.812950
6092.000000;0.812687
6091.000000;0.812429
6090.000000;0.812187
6089.000000;0.811975
6088.000000;0.811794
6087.000000;0.811647
6086.000000;0.811534
6085.000000;0.811439
6084.000000;0.811332
6083.000000;0.811195
6082.000000;0.811022
6081.000000;0.810799
6080.000000;0.810513
6079.000000;0.810208
6078.000000;0.809958
6077.000000;0.809780
6076.000000;0.809600
6075.000000;0.809352
6074.000000;0.809060
6073.000000;0.808792
6072.000000;0.808570
6071.000000;0.808368
6070.000000;0.808170
6069.000000;0.807976
6068.000000;0.807784
6067.000000;0.807589
6066.000000;0.807408
6065.000000;0.807257
6064.000000;0.807126
6063.000000;0.807007
6062.000000;0.806910
6061.000000;0.806833
6060.000000;0.806730
6059.000000;0.806549
6058.000000;0.806293
6057.000000;0.806009
6056.000000;0.805741
6055.000000;0.805507
6054.000000;0.805311
6053.000000;0.805149
6052.000000;0.805000
6051.000000;0.804845
6050.000000;0.804677
6049.000000;0.804487
6048.000000;0.804268
6047.000000;0.804035
6046.000000;0.803820
6045.000000;0.803644
6044.000000;0.803497
6043.000000;0.803375
6042.000000;0.803285
6041.000000;0.803220
6040.000000;0.803147
6039.000000;0.803053
6038.000000;0.802950
6037.000000;0.802849
6036.000000;0.802738
6035.000000;0.802615
6034.000000;0.802490
6033.000000;0.802345
6032.000000;0.802136
6031.000000;0.801868
6030.000000;0.801613
6029.000000;0.801429
6028.000000;0.801307
6027.000000;0.801216
6026.000000;0.801160
6025.000000;0.801136
6024.000000;0.801093
6023.000000;0.800985
6022.000000;0.800841
6021.000000;0.800727
6020.000000;0.800664
6019.000000;0.800623
6018.000000;0.800569
6017.000000;0.800468
6016.000000;0.800302
6015.000000;0.800100
6014.000000;0.799948
6013.000000;0.799893
6012.000000;0.799881
6011.000000;0.799824
6010.000000;0.799707
6009.000000;0.799572
6008.000000;0.799441
6007.000000;0.799303
6006.000000;0.799172
6005.000000;0.799079
6004.000000;0.799001
6003.000000;0.798874
6002.000000;0.798678
6001.000000;0.798467
6000.000000;0.798293
5999.000000;0.798157
5998.000000;0.798044
5997.000000;0.797964
5996.000000;0.797938
5995.000000;0.797965
5994.000000;0.798028
5993.000000;0.798095
5992.000000;0.798130
5991.000000;0.798107
5990.000000;0.798032
5989.000000;0.797934
5988.000000;0.797828
5987.000000;0.797715
5986.000000;0.797602
5985.000000;0.797504
5984.000000;0.797435
5983.000000;0.797399
5982.000000;0.797396
5981.000000;0.797409
5980.000000;0.797410
5979.000000;0.797383
5978.000000;0.797345
5977.000000;0.797314
5976.000000;0.797281
5975.000000;0.797225
5974.000000;0.797133
5973.000000;0.797011
5972.000000;0.796865
5971.000000;0.796719
5970.000000;0.796614
5969.000000;0.796585
5968.000000;0.796629
5967.000000;0.796714
5966.000000;0.796808
5965.000000;0.796885
5964.000000;0.796921
5963.000000;0.796915
5962.000000;0.796898
5961.000000;0.796899
5960.000000;0.796895
5959.000000;0.796838
5958.000000;0.796704
5957.000000;0.796532
5956.000000;0.796396
5955.000000;0.796354
5954.000000;0.796412
5953.000000;0.796525
5952.000000;0.796647
5951.000000;0.796764
5950.000000;0.796878
5949.000000;0.796963
5948.000000;0.796987
5947.000000;0.796959
5946.000000;0.796935
5945.000000;0.796937
5944.000000;0.796928
5943.000000;0.796869
5942.000000;0.796779
5941.000000;0.796705
5940.000000;0.796676
5939.000000;0.796693
5938.000000;0.796741
5937.000000;0.796789
5936.000000;0.796808
5935.000000;0.796807
5934.000000;0.796827
5933.000000;0.796877
5932.000000;0.796919
5931.000000;0.796917
5930.000000;0.796894
5929.000000;0.796894
5928.000000;0.796936
5927.000000;0.797024
5926.000000;0.797146
5925.000000;0.797264
5924.000000;0.797324
5923.000000;0.797313
5922.000000;0.797291
5921.000000;0.797321
5920.000000;0.797414
5919.000000;0.797541
5918.000000;0.797675
5917.000000;0.797780
5916.000000;0.797820
5915.000000;0.797805
5914.000000;0.797799
5913.000000;0.797835
5912.000000;0.797868
5911.000000;0.797859
5910.000000;0.797847
5909.000000;0.797893
5908.000000;0.797987
5907.000000;0.798075
5906.000000;0.798140
5905.000000;0.798203
5904.000000;0.798259
5903.000000;0.798282
5902.000000;0.798280
5901.000000;0.798300
5900.000000;0.798369
5899.000000;0.798479
5898.000000;0.798618
5897.000000;0.798775
5896.000000;0.798927
5895.000000;0.799051
5894.000000;0.799140
5893.000000;0.799204
5892.000000;0.799260
5891.000000;0.799339
5890.000000;0.799484
5889.000000;0.799690
5888.000000;0.799885
5887.000000;0.800008
5886.000000;0.800078
5885.000000;0.800158
5884.000000;0.800271
5883.000000;0.800387
5882.000000;0.800490
5881.000000;0.800596
5880.000000;0.800730
5879.000000;0.800896
5878.000000;0.801074
5877.000000;0.801221
5876.000000;0.801296
5875.000000;0.801304
5874.000000;0.801305
5873.000000;0.801360
5872.000000;0.801478
5871.000000;0.801643
5870.000000;0.801857
5869.000000;0.802118
5868.000000;0.802401
5867.000000;0.802681
5866.000000;0.802966
5865.000000;0.803263
5864.000000;0.803540
5863.000000;0.803756
5862.000000;0.803909
5861.000000;0.804018
5860.000000;0.804090
5859.000000;0.804139
5858.000000;0.804218
5857.000000;0.804387
5856.000000;0.804645
5855.000000;0.804948
5854.000000;0.805253
5853.000000;0.805526
5852.000000;0.805734
5851.000000;0.805872
5850.000000;0.806000
5849.000000;0.806181
5848.000000;0.806416
5847.000000;0.806651
5846.000000;0.806853
5845.000000;0.807036
5844.000000;0.807219
5843.000000;0.807414
5842.000000;0.807637
5841.000000;0.807903
5840.000000;0.808196
5839.000000;0.808490
5838.000000;0.808779
5837.000000;0.809080
5836.000000;0.809399
5835.000000;0.809729
5834.000000;0.810058
5833.000000;0.810370
5832.000000;0.810646
5831.000000;0.810890
5830.000000;0.811139
5829.000000;0.811409
5828.000000;0.811666
5827.000000;0.811881
5826.000000;0.812084
5825.000000;0.812328
5824.000000;0.812625
5823.000000;0.812947
5822.000000;0.813281
5821.000000;0.813631
5820.000000;0.813980
5819.000000;0.814294
5818.000000;0.814559
5817.000000;0.814788
5816.000000;0.815008
5815.000000;0.815254
5814.000000;0.815560
5813.000000;0.815928
5812.000000;0.816310
5811.000000;0.816658
5810.000000;0.816977
5809.000000;0.817300
5808.000000;0.817638
5807.000000;0.817986
5806.000000;0.818353
5805.000000;0.818738
5804.000000;0.819112
5803.000000;0.819451
5802.000000;0.819785
5801.000000;0.820166
5800.000000;0.820596
5799.000000;0.821024
5798.000000;0.821411
5797.000000;0.821765
5796.000000;0.822118
5795.000000;0.822498
5794.000000;0.822906
5793.000000;0.823316
5792.000000;0.823701
5791.000000;0.824088
5790.000000;0.824539
5789.000000;0.825065
5788.000000;0.825580
5787.000000;0.825988
5786.000000;0.826297
5785.000000;0.826597
5784.000000;0.826966
5783.000000;0.827418
5782.000000;0.827919
5781.000000;0.828409
5780.000000;0.828831
5779.000000;0.829177
5778.000000;0.829518
5777.000000;0.829935
5776.000000;0.830452
5775.000000;0.831034
5774.000000;0.831638
5773.000000;0.832218
5772.000000;0.832734
5771.000000;0.833185
5770.000000;0.833628
5769.000000;0.834123
5768.000000;0.834670
5767.000000;0.835232
5766.000000;0.835789
5765.000000;0.836335
5764.000000;0.836850
5763.000000;0.837327
5762.000000;0.837787
5761.000000;0.838256
5760.000000;0.838725
5759.000000;0.839199
5758.000000;0.839721
5757.000000;0.840323
5756.000000;0.840966
5755.000000;0.841594
5754.000000;0.842204
5753.000000;0.842823
5752.000000;0.843441
5751.000000;0.844028
5750.000000;0.844605
5749.000000;0.845221
5748.000000;0.845874
5747.000000;0.846510
5746.000000;0.847107
5745.000000;0.847699
5744.000000;0.848320
5743.000000;0.848970
5742.000000;0.849628
5741.000000;0.850260
5740.000000;0.850827
5739.000000;0.851317
5738.000000;0.851784
5737.000000;0.852306
5736.000000;0.852906
5735.000000;0.853566
5734.000000;0.854269
5733.000000;0.855004
5732.000000;0.855739
5731.000000;0.856436
5730.000000;0.857098
5729.000000;0.857754
5728.000000;0.858407
5727.000000;0.859048
5726.000000;0.859703
5725.000000;0.860409
5724.000000;0.861144
5723.000000;0.861839
5722.000000;0.862465
5721.000000;0.863066
5720.000000;0.863708
5719.000000;0.864416
5718.000000;0.865180
5717.000000;0.865983
5716.000000;0.866807
5715.000000;0.867639
5714.000000;0.868468
5713.000000;0.869263
5712.000000;0.869982
5711.000000;0.870620
5710.000000;0.871239
5709.000000;0.871906
5708.000000;0.872632
5707.000000;0.873401
5706.000000;0.874219
5705.000000;0.875094
5704.000000;0.875988
5703.000000;0.876849
5702.000000;0.877675
5701.000000;0.878478
5700.000000;0.879253
5699.000000;0.879972
5698.000000;0.880646
5697.000000;0.881337
5696.000000;0.882076
5695.000000;0.882848
5694.000000;0.883653
5693.000000;0.884514
5692.000000;0.885429
5691.000000;0.886346
5690.000000;0.887207
5689.000000;0.888005
5688.000000;0.888774
5687.000000;0.889561
5686.000000;0.890402
5685.000000;0.891283
5684.000000;0.892138
5683.000000;0.892900
5682.000000;0.893581
5681.000000;0.894265
5680.000000;0.895021
5679.000000;0.895834
5678.000000;0.896638
5677.000000;0.897391
5676.000000;0.898112
5675.000000;0.898860
5674.000000;0.899667
5673.000000;0.900503
5672.000000;0.901322
5671.000000;0.902139
5670.000000;0.903011
5669.000000;0.903948
5668.000000;0.904878
5667.000000;0.905729
5666.000000;0.906501
5665.000000;0.907229
5664.000000;0.907929
5663.000000;0.908614
5662.000000;0.909324
5661.000000;0.910085
5660.000000;0.910861
5659.000000;0.911601
5658.000000;0.912307
5657.000000;0.913012
5656.000000;0.913728
5655.000000;0.914455
5654.000000;0.915228
5653.000000;0.916072
5652.000000;0.916943
5651.000000;0.917766
5650.000000;0.918519
5649.000000;0.919237
5648.000000;0.919942
5647.000000;0.920628
5646.000000;0.921313
5645.000000;0.922031
5644.000000;0.922778
5643.000000;0.923502
5642.000000;0.924174
5641.000000;0.924809
5640.000000;0.925430
5639.000000;0.926045
5638.000000;0.926660
5637.000000;0.927280
5636.000000;0.927904
5635.000000;0.928531
5634.000000;0.929170
5633.000000;0.929821
5632.000000;0.930461
5631.000000;0.931078
5630.000000;0.931684
5629.000000;0.932270
5628.000000;0.932799
5627.000000;0.933262
5626.000000;0.933715
5625.000000;0.934219
5624.000000;0.934771
5623.000000;0.935342
5622.000000;0.935935
5621.000000;0.936559
5620.000000;0.937180
5619.000000;0.937749
5618.000000;0.938273
5617.000000;0.938778
5616.000000;0.939251
5615.000000;0.939666
5614.000000;0.940061
5613.000000;0.940496
5612.000000;0.940972
5611.000000;0.941432
5610.000000;0.941861
5609.000000;0.942298
5608.000000;0.942763
5607.000000;0.943227
5606.000000;0.943661
5605.000000;0.944047
5604.000000;0.944355
5603.000000;0.944584
5602.000000;0.944819
5601.000000;0.945176
5600.000000;0.945657
5599.000000;0.946148
5598.000000;0.946558
5597.000000;0.946898
5596.000000;0.947207
5595.000000;0.947474
5594.000000;0.947691
5593.000000;0.947901
5592.000000;0.948154
5591.000000;0.948437
5590.000000;0.948689
5589.000000;0.948873
5588.000000;0.949003
5587.000000;0.949122
5586.000000;0.949276
5585.000000;0.949478
5584.000000;0.949698
5583.000000;0.949898
5582.000000;0.950082
5581.000000;0.950277
5580.000000;0.950487
5579.000000;0.950693
5578.000000;0.950885
5577.000000;0.951065
5576.000000;0.951226
5575.000000;0.951382
5574.000000;0.951594
5573.000000;0.951903
5572.000000;0.952243
5571.000000;0.952499
5570.000000;0.952624
5569.000000;0.952670
5568.000000;0.952689
5567.000000;0.952682
5566.000000;0.952653
5565.000000;0.952637
5564.000000;0.952659
5563.000000;0.952713
5562.000000;0.952797
5561.000000;0.952922
5560.000000;0.953066
5559.000000;0.953174
5558.000000;0.953238
5557.000000;0.953300
5556.000000;0.953379
5555.000000;0.953442
5554.000000;0.953471
5553.000000;0.953492
5552.000000;0.953516
5551.000000;0.953520
5550.000000;0.953500
5549.000000;0.953491
5548.000000;0.953530
5547.000000;0.953618
5546.000000;0.953744
5545.000000;0.953896
5544.000000;0.954031
5543.000000;0.954091
5542.000000;0.954061
5541.000000;0.953974
5540.000000;0.953871
5539.000000;0.953794
5538.000000;0.953788
5537.000000;0.953867
5536.000000;0.953978
5535.000000;0.954060
5534.000000;0.954106
5533.000000;0.954143
5532.000000;0.954180
5531.000000;0.954205
5530.000000;0.954229
5529.000000;0.954253
5528.000000;0.954265
5527.000000;0.954263
5526.000000;0.954284
5525.000000;0.954364
5524.000000;0.954470
5523.000000;0.954548
5522.000000;0.954608
5521.000000;0.954695
5520.000000;0.954828
5519.000000;0.954989
5518.000000;0.955146
5517.000000;0.955250
5516.000000;0.955250
5515.000000;0.955179
5514.000000;0.955167
5513.000000;0.955279
5512.000000;0.955419
5511.000000;0.955488
5510.000000;0.955529
5509.000000;0.955617
5508.000000;0.955716
5507.000000;0.955759
5506.000000;0.955809
5505.000000;0.955984
5504.000000;0.956235
5503.000000;0.956393
5502.000000;0.956449
5501.000000;0.956551
5500.000000;0.956795
5499.000000;0.957102
5498.000000;0.957303
5497.000000;0.957359
5496.000000;0.957422
5495.000000;0.957664
5494.000000;0.958057
5493.000000;0.958376
5492.000000;0.958486
5491.000000;0.958491
5490.000000;0.958600
5489.000000;0.958873
5488.000000;0.959184
5487.000000;0.959448
5486.000000;0.959700
5485.000000;0.959982
5484.000000;0.960232
5483.000000;0.960430
5482.000000;0.960757
5481.000000;0.961305
5480.000000;0.961828
5479.000000;0.962098
5478.000000;0.962261
5477.000000;0.962577
5476.000000;0.962945
5475.000000;0.963127
5474.000000;0.963237
5473.000000;0.963549
5472.000000;0.964079
5471.000000;0.964626
5470.000000;0.965091
5469.000000;0.965521
5468.000000;0.965977
5467.000000;0.966517
5466.000000;0.967179
5465.000000;0.967899
5464.000000;0.968514
5463.000000;0.968958
5462.000000;0.969380
5461.000000;0.969870
5460.000000;0.970290
5459.000000;0.970614
5458.000000;0.971118
5457.000000;0.971980
5456.000000;0.972988
5455.000000;0.973865
5454.000000;0.974601
5453.000000;0.975341
5452.000000;0.976148
5451.000000;0.976951
5450.000000;0.977683
5449.000000;0.978326
5448.000000;0.978998
5447.000000;0.979911
5446.000000;0.981010
5445.000000;0.981942
5444.000000;0.982575
5443.000000;0.983224
5442.000000;0.984221
5441.000000;0.985429
5440.000000;0.986448
5439.000000;0.987180
5438.000000;0.987952
5437.000000;0.989038
5436.000000;0.990315
5435.000000;0.991556
5434.000000;0.992735
5433.000000;0.993866
5432.000000;0.994999
5431.000000;0.996320
5430.000000;0.997813
5429.000000;0.999184
5428.000000;1.000374
5427.000000;1.001664
5426.000000;1.003250
5425.000000;1.005035
5424.000000;1.006745
5423.000000;1.008208
5422.000000;1.009521
5421.000000;1.010963
5420.000000;1.012679
5419.000000;1.014504
5418.000000;1.016267
5417.000000;1.018067
5416.000000;1.020107
5415.000000;1.022317
5414.000000;1.024416
5413.000000;1.026397
5412.000000;1.028518
5411.000000;1.030896
5410.000000;1.033376
5409.000000;1.035739
5408.000000;1.037956
5407.000000;1.040171
5406.000000;1.042536
5405.000000;1.045050
5404.000000;1.047629
5403.000000;1.050345
5402.000000;1.053245
5401.000000;1.056235
5400.000000;1.059300
5399.000000;1.062429
5398.000000;1.065600
5397.000000;1.068874
5396.000000;1.072333
5395.000000;1.075935
5394.000000;1.079509
5393.000000;1.083063
5392.000000;1.086777
5391.000000;1.090655
5390.000000;1.094570
5389.000000;1.098525
5388.000000;1.102665
5387.000000;1.107032
5386.000000;1.111492
5385.000000;1.115928
5384.000000;1.120485
5383.000000;1.125427
5382.000000;1.130666
5381.000000;1.135858
5380.000000;1.140961
5379.000000;1.146299
5378.000000;1.152011
5377.000000;1.157835
5376.000000;1.163581
5375.000000;1.169397
5374.000000;1.175449
5373.000000;1.181751
5372.000000;1.188270
5371.000000;1.195010
5370.000000;1.201999
5369.000000;1.209172
5368.000000;1.216412
5367.000000;1.223754
5366.000000;1.231453
5365.000000;1.239649
5364.000000;1.248188
5363.000000;1.256839
5362.000000;1.265502
5361.000000;1.274325
5360.000000;1.283540
5359.000000;1.293176
5358.000000;1.303062
5357.000000;1.313111
5356.000000;1.323486
5355.000000;1.334351
5354.000000;1.345611
5353.000000;1.357071
5352.000000;1.368737
5351.000000;1.380805
5350.000000;1.393322
5349.000000;1.406000
5348.000000;1.418620
5347.000000;1.431483
5346.000000;1.445090
5345.000000;1.459485
5344.000000;1.474275
5343.000000;1.489131
5342.000000;1.504063
5341.000000;1.519476
5340.000000;1.535707
5339.000000;1.552650
5338.000000;1.570137
5337.000000;1.588020
5336.000000;1.605956
5335.000000;1.623887
5334.000000;1.642449
5333.000000;1.662161
5332.000000;1.682714
5331.000000;1.703538
5330.000000;1.724588
5329.000000;1.746182
5328.000000;1.768342
5327.000000;1.790779
5326.000000;1.813382
5325.000000;1.836170
5324.000000;1.858998
5323.000000;1.881950
5322.000000;1.905652
5321.000000;1.930503
5320.000000;1.955989
5319.000000;1.981469
5318.000000;2.007171
5317.000000;2.033570
5316.000000;2.060386
5315.000000;2.087187
5314.000000;2.114381
5313.000000;2.142210
5312.000000;2.169570
5311.000000;2.195474
5310.000000;2.220858
5309.000000;2.247198
5308.000000;2.274177
5307.000000;2.300513
5306.000000;2.326133
5305.000000;2.351540
5304.000000;2.376056
5303.000000;2.398860
5302.000000;2.420772
5301.000000;2.442934
5300.000000;2.464849
5299.000000;2.485696
5298.000000;2.506079
5297.000000;2.526411
5296.000000;2.545224
5295.000000;2.561385
5294.000000;2.576116
5293.000000;2.590429
5292.000000;2.603133
5291.000000;2.613649
5290.000000;2.623785
5289.000000;2.634093
5288.000000;2.642070
5287.000000;2.647139
5286.000000;2.652948
5285.000000;2.661500
5284.000000;2.669445
5283.000000;2.673422
5282.000000;2.675343
5281.000000;2.678440
5280.000000;2.682266
5279.000000;2.685527
5278.000000;2.689776
5277.000000;2.696028
5276.000000;2.700799
5275.000000;2.699936
5274.000000;2.694477
5273.000000;2.688910
5272.000000;2.686106
5271.000000;2.686755
5270.000000;2.690381
5269.000000;2.694216
5268.000000;2.694389
5267.000000;2.690910
5266.000000;2.688171
5265.000000;2.688716
5264.000000;2.690359
5263.000000;2.691197
5262.000000;2.693221
5261.000000;2.697754
5260.000000;2.701530
5259.000000;2.701068
5258.000000;2.697838
5257.000000;2.695282
5256.000000;2.693643
5255.000000;2.691377
5254.000000;2.688926
5253.000000;2.687638
5252.000000;2.687326
5251.000000;2.687956
5250.000000;2.690933
5249.000000;2.696180
5248.000000;2.700830
5247.000000;2.703255
5246.000000;2.705634
5245.000000;2.709681
5244.000000;2.712978
5243.000000;2.712521
5242.000000;2.709360
5241.000000;2.706395
5240.000000;2.704014
5239.000000;2.701007
5238.000000;2.698037
5237.000000;2.697029
5236.000000;2.697922
5235.000000;2.699179
5234.000000;2.700142
5233.000000;2.700620
5232.000000;2.700241
5231.000000;2.699404
5230.000000;2.699182
5229.000000;2.699697
5228.000000;2.700251
5227.000000;2.701241
5226.000000;2.703613
5225.000000;2.706265
5224.000000;2.706690
5223.000000;2.704819
5222.000000;2.703255
5221.000000;2.703273
5220.000000;2.703728
5219.000000;2.704087
5218.000000;2.705277
5217.000000;2.706787
5216.000000;2.706115
5215.000000;2.702504
5214.000000;2.698126
5213.000000;2.694527
5212.000000;2.691521
5211.000000;2.690083
5210.000000;2.692349
5209.000000;2.697529
5208.000000;2.701066
5207.000000;2.700012
5206.000000;2.696673
5205.000000;2.694763
5204.000000;2.695189
5203.000000;2.697095
5202.000000;2.699534
5201.000000;2.700694
5200.000000;2.698749
5199.000000;2.695157
5198.000000;2.694113
5197.000000;2.697325
5196.000000;2.701943
5195.000000;2.704596
5194.000000;2.704711
5193.000000;2.702644
5192.000000;2.698260
5191.000000;2.693169
5190.000000;2.690701
5189.000000;2.691616
5188.000000;2.692572
5187.000000;2.690869
5186.000000;2.687876
5185.000000;2.686071
5184.000000;2.686010
5183.000000;2.687411
5182.000000;2.690421
5181.000000;2.694095
5180.000000;2.695807
5179.000000;2.694235
5178.000000;2.690986
5177.000000;2.687952
5176.000000;2.685377
5175.000000;2.683287
5174.000000;2.682175
5173.000000;2.681390
5172.000000;2.679647
5171.000000;2.678050
5170.000000;2.679645
5169.000000;2.684815
5168.000000;2.689692
5167.000000;2.690677
5166.000000;2.688402
5165.000000;2.685739
5164.000000;2.684627
5163.000000;2.686047
5162.000000;2.690011
5161.000000;2.694055
5160.000000;2.694323
5159.000000;2.690012
5158.000000;2.684715
5157.000000;2.682325
5156.000000;2.683791
5155.000000;2.687940
5154.000000;2.692776
5153.000000;2.695498
5152.000000;2.694208
5151.000000;2.690598
5150.000000;2.688556
5149.000000;2.689570
5148.000000;2.691833
5147.000000;2.693989
5146.000000;2.696096
5145.000000;2.696490
5144.000000;2.692464
5143.000000;2.685480
5142.000000;2.681229
5141.000000;2.682935
5140.000000;2.687990
5139.000000;2.692305
5138.000000;2.694906
5137.000000;2.696276
5136.000000;2.695518
5135.000000;2.692222
5134.000000;2.688650
5133.000000;2.687298
5132.000000;2.687869
5131.000000;2.688600
5130.000000;2.689225
5129.000000;2.690962
5128.000000;2.694480
5127.000000;2.698795
5126.000000;2.701203
5125.000000;2.698573
5124.000000;2.690750
5123.000000;2.682319
5122.000000;2.678544
5121.000000;2.679948
5120.000000;2.682639
5119.000000;2.683414
5118.000000;2.682187
5117.000000;2.679693
5116.000000;2.676376
5115.000000;2.674058
5114.000000;2.675089
5113.000000;2.678827
5112.000000;2.681852
5111.000000;2.682537
5110.000000;2.682522
5109.000000;2.682855
5108.000000;2.682162
5107.000000;2.679913
5106.000000;2.678095
5105.000000;2.678174
5104.000000;2.679289
5103.000000;2.680440
5102.000000;2.682022
5101.000000;2.684126
5100.000000;2.685782
5099.000000;2.686964
5098.000000;2.688688
5097.000000;2.690322
5096.000000;2.689639
5095.000000;2.686414
5094.000000;2.683197
5093.000000;2.681658
5092.000000;2.681029
5091.000000;2.680755
5090.000000;2.681402
5089.000000;2.682259
5088.000000;2.681604
5087.000000;2.680422
5086.000000;2.682115
5085.000000;2.687134
5084.000000;2.691091
5083.000000;2.690156
5082.000000;2.685648
5081.000000;2.680775
5080.000000;2.676247
5079.000000;2.671758
5078.000000;2.668492
5077.000000;2.667720
5076.000000;2.669166
5075.000000;2.672396
5074.000000;2.677542
5073.000000;2.682990
5072.000000;2.684989
5071.000000;2.682013
5070.000000;2.677221
5069.000000;2.674443
5068.000000;2.674130
5067.000000;2.674643
5066.000000;2.675318
5065.000000;2.676426
5064.000000;2.677575
5063.000000;2.678077
5062.000000;2.677898
5061.000000;2.677007
5060.000000;2.675069
5059.000000;2.672570
5058.000000;2.670475
5057.000000;2.668275
5056.000000;2.664517
5055.000000;2.659851
5054.000000;2.657081
5053.000000;2.657399
5052.000000;2.658892
5051.000000;2.659645
5050.000000;2.660042
5049.000000;2.660861
5048.000000;2.661449
5047.000000;2.661351
5046.000000;2.661572
5045.000000;2.662534
5044.000000;2.662702
5043.000000;2.660927
5042.000000;2.658496
5041.000000;2.657375
5040.000000;2.657827
5039.000000;2.658627
5038.000000;2.658371
5037.000000;2.656221
5036.000000;2.652795
5035.000000;2.650388
5034.000000;2.650485
5033.000000;2.651114
5032.000000;2.649111
5031.000000;2.645116
5030.000000;2.643137
5029.000000;2.644858
5028.000000;2.647735
5027.000000;2.649262
5026.000000;2.649730
5025.000000;2.649422
5024.000000;2.646904
5023.000000;2.642208
5022.000000;2.638376
5021.000000;2.637404
5020.000000;2.637193
5019.000000;2.634912
5018.000000;2.631226
5017.000000;2.628559
5016.000000;2.627309
5015.000000;2.626258
5014.000000;2.625162
5013.000000;2.624455
5012.000000;2.623442
5011.000000;2.620894
5010.000000;2.616875
5009.000000;2.612683
5008.000000;2.609424
5007.000000;2.607365
5006.000000;2.605865
5005.000000;2.603330
5004.000000;2.598627
5003.000000;2.593060
5002.000000;2.589390
5001.000000;2.588560
5000.000000;2.588606
4999.000000;2.587276
4998.000000;2.584592
4997.000000;2.582015
4996.000000;2.580357
4995.000000;2.579560
4994.000000;2.579316
4993.000000;2.578990
4992.000000;2.577870
4991.000000;2.575995
4990.000000;2.573843
4989.000000;2.571085
4988.000000;2.566933
4987.000000;2.562012
4986.000000;2.558322
4985.000000;2.556800
4984.000000;2.556126
4983.000000;2.554285
4982.000000;2.550435
4981.000000;2.545050
4980.000000;2.539180
4979.000000;2.533846
4978.000000;2.529237
4977.000000;2.524608
4976.000000;2.519859
4975.000000;2.516482
4974.000000;2.515513
4973.000000;2.515210
4972.000000;2.512699
4971.000000;2.507872
4970.000000;2.503485
4969.000000;2.501250
4968.000000;2.499927
4967.000000;2.497579
4966.000000;2.493830
4965.000000;2.489186
4964.000000;2.483723
4963.000000;2.477414
4962.000000;2.470756
4961.000000;2.464437
4960.000000;2.459055
4959.000000;2.455235
4958.000000;2.453068
4957.000000;2.451524
4956.000000;2.449522
4955.000000;2.447292
4954.000000;2.445431
4953.000000;2.443072
4952.000000;2.438742
4951.000000;2.432859
4950.000000;2.427388
4949.000000;2.423069
4948.000000;2.418868
4947.000000;2.414278
4946.000000;2.410250
4945.000000;2.407410
4944.000000;2.405060
4943.000000;2.402318
4942.000000;2.398783
4941.000000;2.393978
4940.000000;2.387653
4939.000000;2.380855
4938.000000;2.375412
4937.000000;2.371986
4936.000000;2.369597
4935.000000;2.367174
4934.000000;2.364397
4933.000000;2.361024
4932.000000;2.356787
4931.000000;2.352166
4930.000000;2.347967
4929.000000;2.343952
4928.000000;2.339135
4927.000000;2.333576
4926.000000;2.328482
4925.000000;2.324276
4924.000000;2.320076
4923.000000;2.315257
4922.000000;2.310169
4921.000000;2.305098
4920.000000;2.299865
4919.000000;2.294726
4918.000000;2.290327
4917.000000;2.286462
4916.000000;2.282152
4915.000000;2.277258
4914.000000;2.272672
4913.000000;2.268639
4912.000000;2.264250
4911.000000;2.258984
4910.000000;2.253521
4909.000000;2.248576
4908.000000;2.244024
4907.000000;2.239538
4906.000000;2.234977
4905.000000;2.229862
4904.000000;2.223689
4903.000000;2.217193
4902.000000;2.212054
4901.000000;2.208821
4900.000000;2.206182
4899.000000;2.202789
4898.000000;2.198788
4897.000000;2.194925
4896.000000;2.191172
4895.000000;2.187034
4894.000000;2.182387
4893.000000;2.177287
4892.000000;2.171610
4891.000000;2.165556
4890.000000;2.159991
4889.000000;2.155680
4888.000000;2.152510
4887.000000;2.149781
4886.000000;2.146887
4885.000000;2.143516
4884.000000;2.139605
4883.000000;2.135315
4882.000000;2.130767
4881.000000;2.125821
4880.000000;2.120533
4879.000000;2.115579
4878.000000;2.111499
4877.000000;2.107653
4876.000000;2.102883
4875.000000;2.097227
4874.000000;2.091985
4873.000000;2.087899
4872.000000;2.084235
4871.000000;2.080007
4870.000000;2.075219
4869.000000;2.070435
4868.000000;2.065835
4867.000000;2.061234
4866.000000;2.056511
4865.000000;2.051613
4864.000000;2.046547
4863.000000;2.041621
4862.000000;2.037230
4861.000000;2.033229
4860.000000;2.029036
4859.000000;2.024499
4858.000000;2.020075
4857.000000;2.015956
4856.000000;2.011693
4855.000000;2.007000
4854.000000;2.002255
4853.000000;1.997813
4852.000000;1.993424
4851.000000;1.988798
4850.000000;1.984270
4849.000000;1.980360
4848.000000;1.976948
4847.000000;1.973333
4846.000000;1.968958
4845.000000;1.963826
4844.000000;1.958386
4843.000000;1.953231
4842.000000;1.948727
4841.000000;1.944731
4840.000000;1.940785
4839.000000;1.936657
4838.000000;1.932532
4837.000000;1.928657
4836.000000;1.925044
4835.000000;1.921554
4834.000000;1.917993
4833.000000;1.914109
4832.000000;1.909722
4831.000000;1.904931
4830.000000;1.899990
4829.000000;1.895057
4828.000000;1.890280
4827.000000;1.886001
4826.000000;1.882463
4825.000000;1.879374
4824.000000;1.876134
4823.000000;1.872500
4822.000000;1.868699
4821.000000;1.864925
4820.000000;1.861140
4819.000000;1.857347
4818.000000;1.853625
4817.000000;1.849829
4816.000000;1.845649
4815.000000;1.841100
4814.000000;1.836626
4813.000000;1.832599
4812.000000;1.828967
4811.000000;1.825484
4810.000000;1.821972
4809.000000;1.818375
4808.000000;1.814742
4807.000000;1.811227
4806.000000;1.807866
4805.000000;1.804392
4804.000000;1.800538
4803.000000;1.796439
4802.000000;1.792444
4801.000000;1.788546
4800.000000;1.784403
4799.000000;1.779891
4798.000000;1.775321
4797.000000;1.771055
4796.000000;1.767192
4795.000000;1.763630
4794.000000;1.760198
4793.000000;1.756720
4792.000000;1.753179
4791.000000;1.749761
4790.000000;1.746567
4789.000000;1.743406
4788.000000;1.740104
4787.000000;1.736825
4786.000000;1.733781
4785.000000;1.730803
4784.000000;1.727558
4783.000000;1.724046
4782.000000;1.720492
4781.000000;1.716878
4780.000000;1.713031
4779.000000;1.709071
4778.000000;1.705313
4777.000000;1.701761
4776.000000;1.698148
4775.000000;1.694443
4774.000000;1.690891
4773.000000;1.687547
4772.000000;1.684196
4771.000000;1.680737
4770.000000;1.677264
4769.000000;1.673775
4768.000000;1.670205
4767.000000;1.666759
4766.000000;1.663739
4765.000000;1.661028
4764.000000;1.658172
4763.000000;1.655025
4762.000000;1.651899
4761.000000;1.648968
4760.000000;1.646013
4759.000000;1.642891
4758.000000;1.639823
4757.000000;1.636988
4756.000000;1.634181
4755.000000;1.631109
4754.000000;1.627758
4753.000000;1.624291
4752.000000;1.620821
4751.000000;1.617433
4750.000000;1.614231
4749.000000;1.611203
4748.000000;1.608231
4747.000000;1.605284
4746.000000;1.602432
4745.000000;1.599639
4744.000000;1.596774
4743.000000;1.593850
4742.000000;1.591005
4741.000000;1.588230
4740.000000;1.585373
4739.000000;1.582405
4738.000000;1.579414
4737.000000;1.576349
4736.000000;1.573092
4735.000000;1.569780
4734.000000;1.566699
4733.000000;1.563813
4732.000000;1.560771
4731.000000;1.557483
4730.000000;1.554333
4729.000000;1.551671
4728.000000;1.549402
4727.000000;1.547227
4726.000000;1.544997
4725.000000;1.542667
4724.000000;1.540171
4723.000000;1.537522
4722.000000;1.534847
4721.000000;1.532180
4720.000000;1.529427
4719.000000;1.526603
4718.000000;1.523895
4717.000000;1.521360
4716.000000;1.518821
4715.000000;1.516159
4714.000000;1.513490
4713.000000;1.510933
4712.000000;1.508435
4711.000000;1.505965
4710.000000;1.503652
4709.000000;1.501583
4708.000000;1.499661
4707.000000;1.497775
4706.000000;1.495909
4705.000000;1.493952
4704.000000;1.491648
4703.000000;1.488893
4702.000000;1.485927
4701.000000;1.483058
4700.000000;1.480378
4699.000000;1.477869
4698.000000;1.475592
4697.000000;1.473580
4696.000000;1.471677
4695.000000;1.469680
4694.000000;1.467558
4693.000000;1.465416
4692.000000;1.463330
4691.000000;1.461306
4690.000000;1.459309
4689.000000;1.457232
4688.000000;1.454962
4687.000000;1.452577
4686.000000;1.450344
4685.000000;1.448431
4684.000000;1.446721
4683.000000;1.444959
4682.000000;1.443001
4681.000000;1.440850
4680.000000;1.438597
4679.000000;1.436418
4678.000000;1.434478
4677.000000;1.432749
4676.000000;1.431027
4675.000000;1.429210
4674.000000;1.427426
4673.000000;1.425792
4672.000000;1.424202
4671.000000;1.422471
4670.000000;1.420588
4669.000000;1.418689
4668.000000;1.416859
4667.000000;1.415073
4666.000000;1.413267
4665.000000;1.411367
4664.000000;1.409324
4663.000000;1.407191
4662.000000;1.405127
4661.000000;1.403253
4660.000000;1.401547
4659.000000;1.399909
4658.000000;1.398263
4657.000000;1.396587
4656.000000;1.394923
4655.000000;1.393379
4654.000000;1.392036
4653.000000;1.390822
4652.000000;1.389566
4651.000000;1.388179
4650.000000;1.386689
4649.000000;1.385121
4648.000000;1.383480
4647.000000;1.381835
4646.000000;1.380271
4645.000000;1.378724
4644.000000;1.377035
4643.000000;1.375210
4642.000000;1.373472
4641.000000;1.371994
4640.000000;1.370727
4639.000000;1.369535
4638.000000;1.368361
4637.000000;1.367167
4636.000000;1.365873
4635.000000;1.364459
4634.000000;1.363035
4633.000000;1.361698
4632.000000;1.360399
4631.000000;1.359028
4630.000000;1.357551
4629.000000;1.355990
4628.000000;1.354376
4627.000000;1.352764
4626.000000;1.351227
4625.000000;1.349762
4624.000000;1.348297
4623.000000;1.346830
4622.000000;1.345479
4621.000000;1.344321
4620.000000;1.343259
4619.000000;1.342144
4618.000000;1.340935
4617.000000;1.339703
4616.000000;1.338516
4615.000000;1.337406
4614.000000;1.336381
4613.000000;1.335421
4612.000000;1.334477
4611.000000;1.333514
4610.000000;1.332510
4609.000000;1.331411
4608.000000;1.330164
4607.000000;1.328798
4606.000000;1.327423
4605.000000;1.326113
4604.000000;1.324856
4603.000000;1.323649
4602.000000;1.322525
4601.000000;1.321482
4600.000000;1.320437
4599.000000;1.319298
4598.000000;1.318046
4597.000000;1.316727
4596.000000;1.315431
4595.000000;1.314270
4594.000000;1.313314
4593.000000;1.312525
4592.000000;1.311801
4591.000000;1.311073
4590.000000;1.310314
4589.000000;1.309487
4588.000000;1.308582
4587.000000;1.307671
4586.000000;1.306832
4585.000000;1.306033
4584.000000;1.305192
4583.000000;1.304337
4582.000000;1.303581
4581.000000;1.302958
4580.000000;1.302372
4579.000000;1.301722
4578.000000;1.300969
4577.000000;1.300088
4576.000000;1.299081
4575.000000;1.298038
4574.000000;1.297082
4573.000000;1.296234
4572.000000;1.295412
4571.000000;1.294562
4570.000000;1.293678
4569.000000;1.292732
4568.000000;1.291696
4567.000000;1.290648
4566.000000;1.289716
4565.000000;1.288922
4564.000000;1.288177
4563.000000;1.287446
4562.000000;1.286795
4561.000000;1.286262
4560.000000;1.285809
4559.000000;1.285395
4558.000000;1.284990
4557.000000;1.284499
4556.000000;1.283821
4555.000000;1.283002
4554.000000;1.282212
4553.000000;1.281498
4552.000000;1.280712
4551.000000;1.279724
4550.000000;1.278636
4549.000000;1.277700
4548.000000;1.277091
4547.000000;1.276757
4546.000000;1.276458
4545.000000;1.275941
4544.000000;1.275174
4543.000000;1.274379
4542.000000;1.273755
4541.000000;1.273238
4540.000000;1.272636
4539.000000;1.271938
4538.000000;1.271308
4537.000000;1.270795
4536.000000;1.270258
4535.000000;1.269614
4534.000000;1.268973
4533.000000;1.268476
4532.000000;1.268120
4531.000000;1.267827
4530.000000;1.267560
4529.000000;1.267327
4528.000000;1.267149
4527.000000;1.267060
4526.000000;1.267026
4525.000000;1.266862
4524.000000;1.266387
4523.000000;1.265678
4522.000000;1.265034
4521.000000;1.264656
4520.000000;1.264486
4519.000000;1.264380
4518.000000;1.264275
4517.000000;1.264121
4516.000000;1.263838
4515.000000;1.263444
4514.000000;1.263112
4513.000000;1.262984
4512.000000;1.262990
4511.000000;1.262927
4510.000000;1.262676
4509.000000;1.262298
4508.000000;1.261986
4507.000000;1.261942
4506.000000;1.262236
4505.000000;1.262742
4504.000000;1.263247
4503.000000;1.263603
4502.000000;1.263730
4501.000000;1.263564
4500.000000;1.263151
4499.000000;1.262738
4498.000000;1.262593
4497.000000;1.262710
4496.000000;1.262862
4495.000000;1.262942
4494.000000;1.263045
4493.000000;1.263187
4492.000000;1.263183
4491.000000;1.262954
4490.000000;1.262773
4489.000000;1.263002
4488.000000;1.263648
4487.000000;1.264328
4486.000000;1.264662
4485.000000;1.264618
4484.000000;1.264494
4483.000000;1.264634
4482.000000;1.265155
4481.000000;1.265886
4480.000000;1.266538
4479.000000;1.266933
4478.000000;1.267079
4477.000000;1.267123
4476.000000;1.267267
4475.000000;1.267679
4474.000000;1.268369
4473.000000;1.269171
4472.000000;1.269898
4471.000000;1.270482
4470.000000;1.270924
4469.000000;1.271224
4468.000000;1.271455
4467.000000;1.271799
4466.000000;1.272350
4465.000000;1.272983
4464.000000;1.273576
4463.000000;1.274259
4462.000000;1.275209
4461.000000;1.276279
4460.000000;1.277089
4459.000000;1.277513
4458.000000;1.277817
4457.000000;1.278273
4456.000000;1.278867
4455.000000;1.279454
4454.000000;1.279993
4453.000000;1.280525
4452.000000;1.281067
4451.000000;1.281629
4450.000000;1.282233
4449.000000;1.282869
4448.000000;1.283519
4447.000000;1.284256
4446.000000;1.285194
4445.000000;1.286321
4444.000000;1.287491
4443.000000;1.288588
4442.000000;1.289589
4441.000000;1.290500
4440.000000;1.291350
4439.000000;1.292210
4438.000000;1.293100
4437.000000;1.293944
4436.000000;1.294745
4435.000000;1.295699
4434.000000;1.296929
4433.000000;1.298216
4432.000000;1.299253
4431.000000;1.300107
4430.000000;1.301129
4429.000000;1.302428
4428.000000;1.303728
4427.000000;1.304774
4426.000000;1.305572
4425.000000;1.306225
4424.000000;1.306821
4423.000000;1.307547
4422.000000;1.308632
4421.000000;1.310078
4420.000000;1.311678
4419.000000;1.313337
4418.000000;1.315114
4417.000000;1.316926
4416.000000;1.318520
4415.000000;1.319814
4414.000000;1.320967
4413.000000;1.322040
4412.000000;1.322917
4411.000000;1.323631
4410.000000;1.324432
4409.000000;1.325400
4408.000000;1.326349
4407.000000;1.327270
4406.000000;1.328488
4405.000000;1.330156
4404.000000;1.331921
4403.000000;1.333390
4402.000000;1.334659
4401.000000;1.336079
4400.000000;1.337729
4399.000000;1.339439
4398.000000;1.341124
4397.000000;1.342762
4396.000000;1.344158
4395.000000;1.345072
4394.000000;1.345566
4393.000000;1.345988
4392.000000;1.346596
4391.000000;1.347381
4390.000000;1.348241
4389.000000;1.349187
4388.000000;1.350364
4387.000000;1.351915
4386.000000;1.353773
4385.000000;1.355634
4384.000000;1.357224
4383.000000;1.358600
4382.000000;1.360003
4381.000000;1.361460
4380.000000;1.362764
4379.000000;1.363855
4378.000000;1.364932
4377.000000;1.366104
4376.000000;1.367232
4375.000000;1.368243
4374.000000;1.369330
4373.000000;1.370664
4372.000000;1.372141
4371.000000;1.373604
4370.000000;1.375091
4369.000000;1.376653
4368.000000;1.378137
4367.000000;1.379373
4366.000000;1.380464
4365.000000;1.381699
4364.000000;1.383232
4363.000000;1.384987
4362.000000;1.386803
4361.000000;1.388576
4360.000000;1.390305
4359.000000;1.392061
4358.000000;1.393817
4357.000000;1.395369
4356.000000;1.396530
4355.000000;1.397353
4354.000000;1.397979
4353.000000;1.398381
4352.000000;1.398605
4351.000000;1.399149
4350.000000;1.400661
4349.000000;1.403181
4348.000000;1.406061
4347.000000;1.408710
4346.000000;1.411046
4345.000000;1.413087
4344.000000;1.414562
4343.000000;1.415241
4342.000000;1.415337
4341.000000;1.415343
4340.000000;1.415734
4339.000000;1.416945
4338.000000;1.419239
4337.000000;1.422267
4336.000000;1.425040
4335.000000;1.426724
4334.000000;1.427426
4333.000000;1.428010
4332.000000;1.429299
4331.000000;1.431583
4330.000000;1.434578
4329.000000;1.437619
4328.000000;1.440027
4327.000000;1.441533
4326.000000;1.442339
4325.000000;1.442758
4324.000000;1.442964
4323.000000;1.443097
4322.000000;1.443370
4321.000000;1.443944
4320.000000;1.444836
4319.000000;1.446014
4318.000000;1.447452
4317.000000;1.449118
4316.000000;1.450993
4315.000000;1.453004
4314.000000;1.454862
4313.000000;1.456271
4312.000000;1.457490
4311.000000;1.459233
4310.000000;1.461585
4309.000000;1.463534
4308.000000;1.464252
4307.000000;1.464441
4306.000000;1.465491
4305.000000;1.467577
4304.000000;1.469496
4303.000000;1.470388
4302.000000;1.470669
4301.000000;1.471154
4300.000000;1.472172
4299.000000;1.473812
4298.000000;1.476146
4297.000000;1.478772
4296.000000;1.480784
4295.000000;1.481626
4294.000000;1.481544
4293.000000;1.481113
4292.000000;1.480915
4291.000000;1.481670
4290.000000;1.483823
4289.000000;1.486685
4288.000000;1.488782
4287.000000;1.489466
4286.000000;1.489486
4285.000000;1.489620
4284.000000;1.489602
4283.000000;1.488875
4282.000000;1.487687
4281.000000;1.486882
4280.000000;1.487171
4279.000000;1.488910
4278.000000;1.491901
4277.000000;1.494945
4276.000000;1.496390
4275.000000;1.495767
4274.000000;1.494337
4273.000000;1.493533
4272.000000;1.493239
4271.000000;1.492158
4270.000000;1.489767
4269.000000;1.487195
4268.000000;1.485899
4267.000000;1.485777
4266.000000;1.485077
4265.000000;1.482600
4264.000000;1.479748
4263.000000;1.479323
4262.000000;1.482087
4261.000000;1.485651
4260.000000;1.487303
4259.000000;1.486931
4258.000000;1.486068
4257.000000;1.485215
4256.000000;1.483819
4255.000000;1.482093
4254.000000;1.480980
4253.000000;1.480411
4252.000000;1.479293
4251.000000;1.477359
4250.000000;1.475524
4249.000000;1.474219
4248.000000;1.472621
4247.000000;1.469920
4246.000000;1.466433
4245.000000;1.463316
4244.000000;1.461680
4243.000000;1.461659
4242.000000;1.461804
4241.000000;1.460139
4240.000000;1.456486
4239.000000;1.452559
4238.000000;1.449195
4237.000000;1.445486
4236.000000;1.441573
4235.000000;1.439419
4234.000000;1.438608
4233.000000;1.434224
4232.000000;1.422870
4231.000000;1.408655
4230.000000;1.398278
4229.000000;1.392409
4228.000000;1.386144
4227.000000;1.376743
4226.000000;1.366453
4225.000000;1.357378
4224.000000;1.348518
4223.000000;1.338708
4222.000000;1.328231
4221.000000;1.316750
4220.000000;1.303439
4219.000000;1.289767
4218.000000;1.278053
4217.000000;1.266502
4216.000000;1.250197
4215.000000;1.228600
4214.000000;1.207262
4213.000000;1.189871
4212.000000;1.173143
4211.000000;1.151257
4210.000000;1.122760
4209.000000;1.091066
4208.000000;1.059714
4207.000000;1.028499
4206.000000;0.992612
4205.000000;0.946667
4204.000000;0.892143
4203.000000;0.837275
4202.000000;0.786052
4201.000000;0.732726
4200.000000;0.674096
4199.000000;0.625038
4198.000000;0.608654
4197.000000;0.631976
4196.000000;0.683102
4195.000000;0.746163
4194.000000;0.814047
4193.000000;0.884543
4192.000000;0.951693
4191.000000;1.010912
4190.000000;1.066871
4189.000000;1.126712
4188.000000;1.189756
4187.000000;1.249334
4186.000000;1.300821
4185.000000;1.343221
4184.000000;1.377662
4183.000000;1.407548
4182.000000;1.437383
4181.000000;1.468738
4180.000000;1.499549
4179.000000;1.529776
4178.000000;1.563171
4177.000000;1.600584
4176.000000;1.636652
4175.000000;1.667079
4174.000000;1.693483
4173.000000;1.716679
4172.000000;1.733662
4171.000000;1.745196
4170.000000;1.759054
4169.000000;1.780075
4168.000000;1.803270
4167.000000;1.820738
4166.000000;1.833904
4165.000000;1.850328
4164.000000;1.867075
4163.000000;1.876003
4162.000000;1.879036
4161.000000;1.883427
4160.000000;1.893127
4159.000000;1.907325
4158.000000;1.923242
4157.000000;1.939600
4156.000000;1.955869
4155.000000;1.969606
4154.000000;1.977709
4153.000000;1.980879
4152.000000;1.985768
4151.000000;2.000374
4150.000000;2.024076
4149.000000;2.045516
4148.000000;2.054846
4147.000000;2.057566
4146.000000;2.066647
4145.000000;2.082808
4144.000000;2.096876
4143.000000;2.108921
4142.000000;2.130118
4141.000000;2.164530
4140.000000;2.201698
4139.000000;2.233673
4138.000000;2.269875
4137.000000;2.320252
4136.000000;2.370754
4135.000000;2.390770
4134.000000;2.371653
4133.000000;2.332954
4132.000000;2.293466
4131.000000;2.264637
4130.000000;2.253726
4129.000000;2.259616
4128.000000;2.275296
4127.000000;2.296502
4126.000000;2.323105
4125.000000;2.351627
4124.000000;2.374457
4123.000000;2.391852
4122.000000;2.412772
4121.000000;2.436515
4120.000000;2.447579
4119.000000;2.441216
4118.000000;2.436209
4117.000000;2.446264
4116.000000;2.460907
4115.000000;2.465776
4114.000000;2.461205
4113.000000;2.454366
4112.000000;2.454424
4111.000000;2.468722
4110.000000;2.498351
4109.000000;2.534378
4108.000000;2.561124
4107.000000;2.576507
4106.000000;2.598676
4105.000000;2.643863
4104.000000;2.704396
4103.000000;2.744372
4102.000000;2.727834
4101.000000;2.662167
4100.000000;2.593013
4099.000000;2.553556
4098.000000;2.549173
4097.000000;2.565540
4096.000000;2.581411
4095.000000;2.589556
4094.000000;2.598769
4093.000000;2.612445
4092.000000;2.620870
4091.000000;2.616233
4090.000000;2.603673
4089.000000;2.598146
4088.000000;2.608942
4087.000000;2.627753
4086.000000;2.637507
4085.000000;2.632756
4084.000000;2.622303
4083.000000;2.616223
4082.000000;2.622388
4081.000000;2.644063
4080.000000;2.675433
4079.000000;2.709739
4078.000000;2.742439
4077.000000;2.764241
4076.000000;2.774641
4075.000000;2.788808
4074.000000;2.805661
4073.000000;2.797033
4072.000000;2.754737
4071.000000;2.716088
4070.000000;2.715471
4069.000000;2.748834
4068.000000;2.786688
4067.000000;2.812180
4066.000000;2.828187
4065.000000;2.828792
4064.000000;2.837309
4063.000000;2.921924
4062.000000;3.148515
4061.000000;3.490374
4060.000000;3.510954
4059.000000;3.363761
4058.000000;3.205129
4057.000000;3.115918
4056.000000;3.030205
4055.000000;2.933479
4054.000000;2.864803
4053.000000;2.850883
4052.000000;2.900418
4051.000000;2.953728
4050.000000;2.935153
4049.000000;2.882203
4048.000000;2.843865
4047.000000;2.833647
4046.000000;2.852751
4045.000000;2.887546
4044.000000;2.923260
4043.000000;2.973262
4042.000000;3.060847
4041.000000;3.149129
4040.000000;3.140439
4039.000000;3.064343
4038.000000;3.004393
4037.000000;2.973369
4036.000000;2.923415
4035.000000;2.841245
4034.000000;2.769104
4033.000000;2.722557
4032.000000;2.709282
4031.000000;2.740681
4030.000000;2.807659
4029.000000;2.853298
4028.000000;2.837881
4027.000000;2.822863
4026.000000;2.868904
4025.000000;2.969471
4024.000000;3.033579
4023.000000;3.005466
4022.000000;2.965528
4021.000000;2.968566
4020.000000;2.992313
4019.000000;3.000938
4018.000000;3.001004
4017.000000;3.006373
4016.000000;3.022423
4015.000000;3.041711
4014.000000;3.064727
4013.000000;3.098481
4012.000000;3.099803
4011.000000;3.022749
4010.000000;2.926852
4009.000000;2.890268
4008.000000;2.935356
4007.000000;3.055657
4006.000000;3.230032
4005.000000;3.392972
4004.000000;3.386598
4003.000000;3.270595
4002.000000;3.214457
4001.000000;3.231161
4000.000000;3.288333
3999.000000;3.297857
3998.000000;3.230003
3997.000000;3.145997
3996.000000;3.086553
3995.000000;3.073333
3994.000000;3.123170
3993.000000;3.240641
3992.000000;3.345558
3991.000000;3.307216
3990.000000;3.201616
3989.000000;3.139777
3988.000000;3.121909
3987.000000;3.112897
3986.000000;3.115624
3985.000000;3.155011
3984.000000;3.216494
3983.000000;3.240156
3982.000000;3.187354
3981.000000;3.104546
3980.000000;3.039384
3979.000000;2.988616
3978.000000;2.954056
3977.000000;2.947966
3976.000000;2.950955
3975.000000;2.928441
3974.000000;2.903465
3973.000000;2.912982
3972.000000;2.953221
3971.000000;3.010743
3970.000000;3.079991
3969.000000;3.111832
3968.000000;3.076992
3967.000000;3.031370
3966.000000;3.017201
3965.000000;3.054833
3964.000000;3.146895
3963.000000;3.294158
3962.000000;3.523244
3961.000000;3.854817
3960.000000;4.681116
3959.000000;4.033735
3958.000000;3.693520
3957.000000;3.658359
3956.000000;4.157305
3955.000000;3.742345
3954.000000;3.447719
3953.000000;3.393042
3952.000000;3.252479
3951.000000;3.128006
3950.000000;3.163245
3949.000000;3.351099
3948.000000;3.523315
3947.000000;3.482378
3946.000000;3.368940
3945.000000;3.379022
3944.000000;3.591852
3943.000000;3.645375
3942.000000;3.534292
3941.000000;3.519925
3940.000000;3.436703
3939.000000;3.380313
3938.000000;3.377586
3937.000000;3.379047
3936.000000;3.429509
3935.000000;3.527581
3934.000000;3.551235
3933.000000;3.486575
3932.000000;3.420091
3931.000000;3.371207
3930.000000;3.369648
3929.000000;3.434405
3928.000000;3.557926
3927.000000;3.688223
3926.000000;3.669900
3925.000000;3.601025
3924.000000;3.562728
3923.000000;3.512120
3922.000000;3.463950
3921.000000;3.471690
3920.000000;3.682904
3919.000000;4.082968
3918.000000;3.734906
3917.000000;3.502424
3916.000000;3.450658
3915.000000;3.523034
3914.000000;3.885642
3913.000000;3.943933
3912.000000;3.590712
3911.000000;3.430158
3910.000000;3.360061
3909.000000;3.426799
3908.000000;3.687194
3907.000000;3.993057
3906.000000;3.914727
3905.000000;3.918201
3904.000000;3.949593
3903.000000;3.891224
3902.000000;3.916257
3901.000000;4.102953
3900.000000;3.753325
3899.000000;3.533722
3898.000000;3.635838
3897.000000;3.751942
3896.000000;3.388281
3895.000000;3.315012
3894.000000;3.356352
3893.000000;3.401900
3892.000000;3.410274
3891.000000;3.397730
3890.000000;3.387657
3889.000000;3.388084
3888.000000;3.438035
3887.000000;3.544291
3886.000000;3.544577
3885.000000;3.430457
3884.000000;3.340905
3883.000000;3.316624
3882.000000;3.355433
3881.000000;3.390448
3880.000000;3.381736
3879.000000;3.360402
3878.000000;3.377818
3877.000000;3.485580
3876.000000;3.627145
3875.000000;3.722946
3874.000000;3.836621
3873.000000;3.888289
3872.000000;3.859189
3871.000000;3.895148
3870.000000;4.091654
3869.000000;4.528996
3868.000000;4.291374
3867.000000;3.754107
3866.000000;3.538179
3865.000000;3.480416
3864.000000;3.528198
3863.000000;3.562354
3862.000000;3.427751
3861.000000;3.293098
3860.000000;3.311068
3859.000000;3.500861
3858.000000;3.848935
3857.000000;4.102602
3856.000000;4.060371
3855.000000;4.016696
3854.000000;4.052879
3853.000000;4.169320
3852.000000;4.272213
3851.000000;4.193203
3850.000000;3.938753
3849.000000;3.762010
3848.000000;3.751355
3847.000000;3.764661
3846.000000;3.706178
3845.000000;3.695614
3844.000000;3.732957
3843.000000;3.700018
3842.000000;3.561626
3841.000000;3.469501
3840.000000;3.543839
3839.000000;3.821405
3838.000000;4.154054
3837.000000;4.190134
3836.000000;4.393895
3835.000000;4.333142
3834.000000;3.952075
3833.000000;3.934550
3832.000000;3.927617
3831.000000;3.739299
3830.000000;3.569164
3829.000000;3.551366
3828.000000;3.651817
3827.000000;3.813987
3826.000000;4.061688
3825.000000;4.238917
3824.000000;4.030339
3823.000000;3.765725
3822.000000;3.699019
3821.000000;3.765530
3820.000000;3.742199
3819.000000;3.581990
3818.000000;3.493128
3817.000000;3.625429
3816.000000;3.862210
3815.000000;3.616805
3814.000000;3.376609
3813.000000;3.269725
3812.000000;3.287407
3811.000000;3.409355
3810.000000;3.572260
3809.000000;3.694564
3808.000000;3.714035
3807.000000;3.695059
3806.000000;3.683261
3805.000000;3.642784
3804.000000;3.553830
3803.000000;3.479806
3802.000000;3.465394
3801.000000;3.499779
3800.000000;3.562369
3799.000000;3.649502
3798.000000;3.777763
3797.000000;4.017077
3796.000000;4.369990
3795.000000;4.163256
3794.000000;3.739523
3793.000000;3.478657
3792.000000;3.361490
3791.000000;3.497927
3790.000000;3.923249
3789.000000;3.650949
3788.000000;3.571277
3787.000000;3.636617
3786.000000;3.621143
3785.000000;3.663006
3784.000000;4.040249
3783.000000;4.111502
3782.000000;3.665709
3781.000000;3.570010
3780.000000;3.432849
3779.000000;3.326886
3778.000000;3.271629
3777.000000;3.200520
3776.000000;3.113554
3775.000000;3.065161
3774.000000;3.076205
3773.000000;3.127806
3772.000000;3.205458
3771.000000;3.297978
3770.000000;3.402198
3769.000000;3.521447
3768.000000;3.621729
3767.000000;3.610255
3766.000000;3.484097
3765.000000;3.378732
3764.000000;3.365518
3763.000000;3.409331
3762.000000;3.418468
3761.000000;3.370541
3760.000000;3.357101
3759.000000;3.457304
3758.000000;3.655447
3757.000000;3.674442
3756.000000;3.563997
3755.000000;3.573680
3754.000000;3.711445
3753.000000;3.978353
3752.000000;4.207812
3751.000000;4.127344
3750.000000;3.995361
3749.000000;3.883076
3748.000000;3.739661
3747.000000;3.572165
3746.000000;3.462425
3745.000000;3.434282
3744.000000;3.406409
3743.000000;3.324142
3742.000000;3.254575
3741.000000;3.300884
3740.000000;3.516036
3739.000000;3.815732
3738.000000;3.839418
3737.000000;3.752138
3736.000000;3.745521
3735.000000;3.803640
3734.000000;3.924523
3733.000000;4.099716
3732.000000;4.294234
3731.000000;4.583020
3730.000000;4.283257
3729.000000;3.978496
3728.000000;3.947443
3727.000000;4.217271
3726.000000;4.412028
3725.000000;4.022605
3724.000000;4.497305
3723.000000;3.937809
3722.000000;3.433990
3721.000000;3.252157
3720.000000;3.155878
3719.000000;3.199075
3718.000000;3.403486
3717.000000;3.825830
3716.000000;4.428523
3715.000000;4.092206
3714.000000;4.095876
3713.000000;4.207716
3712.000000;4.017064
3711.000000;3.798807
3710.000000;3.636178
3709.000000;3.550655
3708.000000;3.514676
3707.000000;3.533008
3706.000000;3.612072
3705.000000;3.817778
3704.000000;4.279016
3703.000000;4.097446
3702.000000;3.816706
3701.000000;3.869008
3700.000000;4.387315
3699.000000;4.369640
3698.000000;3.851354
3697.000000;3.951026
3696.000000;4.511677
3695.000000;4.229468
3694.000000;3.963338
3693.000000;4.080614
3692.000000;4.098545
3691.000000;3.965095
3690.000000;3.936706
3689.000000;4.036267
3688.000000;4.817200
3687.000000;3.862653
3686.000000;3.442168
3685.000000;3.293912
3684.000000;3.255083
3683.000000;3.206661
3682.000000;3.183310
3681.000000;3.267477
3680.000000;3.443273
3679.000000;3.586256
3678.000000;3.605346
3677.000000;3.702941
3676.000000;3.949350
3675.000000;4.190756
3674.000000;4.259951
3673.000000;4.134621
3672.000000;4.398176
3671.000000;4.364044
3670.000000;3.893944
3669.000000;3.752019
3668.000000;3.742659
3667.000000;3.871965
3666.000000;3.966243
3665.000000;3.956608
3664.000000;3.815743
3663.000000;3.533194
3662.000000;3.333149
3661.000000;3.291502
3660.000000;3.380316
3659.000000;3.720461
3658.000000;4.212159
3657.000000;3.665357
3656.000000;3.615952
3655.000000;3.773060
3654.000000;3.961408
3653.000000;4.300690
3652.000000;4.281717
3651.000000;4.082381
3650.000000;4.334162
3649.000000;4.301453
3648.000000;3.818016
3647.000000;3.651306
3646.000000;3.505132
3645.000000;3.450390
3644.000000;3.541391
3643.000000;3.482581
3642.000000;3.308557
3641.000000;3.161058
3640.000000;3.035611
3639.000000;3.015664
3638.000000;3.127351
3637.000000;3.277758
3636.000000;3.327277
3635.000000;3.430867
3634.000000;3.755536
3633.000000;4.051925
3632.000000;3.966755
3631.000000;3.915673
3630.000000;3.908425
3629.000000;3.920039
3628.000000;3.893013
3627.000000;3.929617
3626.000000;3.713095
3625.000000;3.382178
3624.000000;3.353106
3623.000000;3.502399
3622.000000;3.581316
3621.000000;3.558000
3620.000000;3.515014
3619.000000;3.418190
3618.000000;3.305981
3617.000000;3.252489
3616.000000;3.279900
3615.000000;3.343076
3614.000000;3.365343
3613.000000;3.350661
3612.000000;3.331305
3611.000000;3.347541
3610.000000;3.436494
3609.000000;3.606168
3608.000000;3.772688
3607.000000;3.556210
3606.000000;3.309896
3605.000000;3.256949
3604.000000;3.386545
3603.000000;3.581473
3602.000000;3.548878
3601.000000;3.470759
3600.000000;3.596279
3599.000000;3.632893
3598.000000;3.446111
3597.000000;3.439988
3596.000000;3.536189
3595.000000;3.653582
3594.000000;3.706204
3593.000000;3.629044
3592.000000;3.593374
3591.000000;3.596640
3590.000000;3.493125
3589.000000;3.342814
3588.000000;3.269295
3587.000000;3.235673
3586.000000;3.164338
3585.000000;3.052138
3584.000000;2.986071
3583.000000;3.029264
3582.000000;3.161464
3581.000000;3.238932
3580.000000;3.240320
3579.000000;3.270716
3578.000000;3.264967
3577.000000;3.202339
3576.000000;3.149134
3575.000000;3.156802
3574.000000;3.274900
3573.000000;3.441809
3572.000000;3.441322
3571.000000;3.340395
3570.000000;3.289408
3569.000000;3.301886
3568.000000;3.303454
3567.000000;3.272802
3566.000000;3.218809
3565.000000;3.126272
3564.000000;3.066307
3563.000000;3.061499
3562.000000;3.086192
3561.000000;3.132221
3560.000000;3.154597
3559.000000;3.101443
3558.000000;3.032718
3557.000000;3.002615
3556.000000;3.001722
3555.000000;2.987748
3554.000000;2.939566
3553.000000;2.910038
3552.000000;2.933288
3551.000000;2.979818
3550.000000;3.007333
3549.000000;3.015558
3548.000000;3.032437
3547.000000;3.066655
3546.000000;3.110478
3545.000000;3.163221
3544.000000;3.243251
3543.000000;3.359445
3542.000000;3.396191
3541.000000;3.253597
3540.000000;3.072484
3539.000000;2.958012
3538.000000;2.922755
3537.000000;2.921748
3536.000000;2.926296
3535.000000;2.969990
3534.000000;3.094977
3533.000000;3.264412
3532.000000;3.319872
3531.000000;3.271168
3530.000000;3.319452
3529.000000;3.541737
3528.000000;3.696882
3527.000000;3.820728
3526.000000;4.021088
3525.000000;3.611871
3524.000000;3.340355
3523.000000;3.235180
3522.000000;3.271483
3521.000000;3.380412
3520.000000;3.252744
3519.000000;3.080200
3518.000000;3.024156
3517.000000;3.058082
3516.000000;3.183556
3515.000000;3.304138
3514.000000;3.271549
3513.000000;3.223994
3512.000000;3.376730
3511.000000;3.934592
3510.000000;3.864803
3509.000000;3.699915
3508.000000;3.904308
3507.000000;3.718845
3506.000000;3.563143
3505.000000;3.462893
3504.000000;3.351215
3503.000000;3.209704
3502.000000;3.126043
3501.000000;3.129774
3500.000000;3.278396
3499.000000;3.717877
3498.000000;3.530207
3497.000000;3.258056
3496.000000;3.212606
3495.000000;3.246376
3494.000000;3.313527
3493.000000;3.541809
3492.000000;3.755340
3491.000000;3.366392
3490.000000;3.220996
3489.000000;3.164913
3488.000000;3.077311
3487.000000;3.023221
3486.000000;3.023492
3485.000000;3.090946
3484.000000;3.195832
3483.000000;3.379546
3482.000000;3.727735
3481.000000;3.687709
3480.000000;3.459946
3479.000000;3.357528
3478.000000;3.245073
3477.000000;3.307584
3476.000000;3.750447
3475.000000;3.958798
3474.000000;3.919449
3473.000000;3.838602
3472.000000;3.467737
3471.000000;3.371939
3470.000000;3.380169
3469.000000;3.324195
3468.000000;3.177956
3467.000000;3.030598
3466.000000;2.963403
3465.000000;2.978735
3464.000000;3.020980
3463.000000;3.036122
3462.000000;3.073118
3461.000000;3.183686
3460.000000;3.374393
3459.000000;3.673412
3458.000000;4.027549
3457.000000;4.146244
3456.000000;3.928895
3455.000000;3.597697
3454.000000;3.352074
3453.000000;3.185181
3452.000000;3.113827
3451.000000;3.154876
3450.000000;3.310078
3449.000000;3.474315
3448.000000;3.385331
3447.000000;3.240295
3446.000000;3.213167
3445.000000;3.302301
3444.000000;3.597607
3443.000000;4.314774
3442.000000;4.387409
3441.000000;4.082429
3440.000000;3.763924
3439.000000;3.466081
3438.000000;3.281052
3437.000000;3.380035
3436.000000;3.359132
3435.000000;3.038278
3434.000000;2.948908
3433.000000;3.036002
3432.000000;3.199717
3431.000000;3.150542
3430.000000;2.960736
3429.000000;2.853550
3428.000000;2.814100
3427.000000;2.825376
3426.000000;2.836687
3425.000000;2.813828
3424.000000;2.767496
3423.000000;2.726424
3422.000000;2.720990
3421.000000;2.759015
3420.000000;2.804905
3419.000000;2.823701
3418.000000;2.838556
3417.000000;2.889381
3416.000000;2.971535
3415.000000;3.053305
3414.000000;3.158410
3413.000000;3.208812
3412.000000;3.155687
3411.000000;3.123772
3410.000000;3.138743
3409.000000;3.162340
3408.000000;3.201063
3407.000000;3.194998
3406.000000;3.133282
3405.000000;3.088402
3404.000000;3.200514
3403.000000;3.586456
3402.000000;3.701341
3401.000000;4.126420
3400.000000;3.645293
3399.000000;3.115802
3398.000000;3.030116
3397.000000;3.101476
3396.000000;3.311912
3395.000000;3.532455
3394.000000;3.469468
3393.000000;3.301736
3392.000000;3.161577
3391.000000;3.089401
3390.000000;3.099157
3389.000000;3.195607
3388.000000;3.282779
3387.000000;3.288861
3386.000000;3.252345
3385.000000;3.160069
3384.000000;3.065167
3383.000000;3.055861
3382.000000;3.164525
3381.000000;3.332333
3380.000000;3.503525
3379.000000;3.622471
3378.000000;3.571804
3377.000000;3.453303
3376.000000;3.363882
3375.000000;3.274933
3374.000000;3.267939
3373.000000;3.501568
3372.000000;3.391743
3371.000000;3.051837
3370.000000;2.914003
3369.000000;2.859078
3368.000000;2.827802
3367.000000;2.816319
3366.000000;2.834816
3365.000000;2.837523
3364.000000;2.771922
3363.000000;2.701043
3362.000000;2.680322
3361.000000;2.697507
3360.000000;2.718133
3359.000000;2.747686
3358.000000;2.825278
3357.000000;2.981697
3356.000000;3.164547
3355.000000;3.203092
3354.000000;3.138256
3353.000000;3.105831
3352.000000;3.172869
3351.000000;3.320791
3350.000000;3.397091
3349.000000;3.506832
3348.000000;3.706445
3347.000000;3.801180
3346.000000;3.639112
3345.000000;3.249099
3344.000000;3.033721
3343.000000;2.974488
3342.000000;3.008531
3341.000000;3.074389
3340.000000;3.107828
3339.000000;3.169216
3338.000000;3.133662
3337.000000;3.060533
3336.000000;3.042853
3335.000000;2.961273
3334.000000;2.919898
3333.000000;2.990283
3332.000000;3.152660
3331.000000;3.384909
3330.000000;3.479242
3329.000000;3.290996
3328.000000;3.166588
3327.000000;3.166894
3326.000000;3.195423
3325.000000;3.376029
3324.000000;3.575323
3323.000000;3.385464
3322.000000;3.387068
3321.000000;3.623280
3320.000000;3.698003
3319.000000;3.531492
3318.000000;3.342119
3317.000000;3.138073
3316.000000;2.937834
3315.000000;2.802987
3314.000000;2.761409
3313.000000;2.793230
3312.000000;2.834265
3311.000000;2.833899
3310.000000;2.852711
3309.000000;2.959410
3308.000000;3.201596
3307.000000;3.499692
3306.000000;3.668369
3305.000000;3.826832
3304.000000;3.807588
3303.000000;3.777416
3302.000000;3.478235
3301.000000;3.298009
3300.000000;3.335630
3299.000000;3.391232
3298.000000;3.405797
3297.000000;3.321423
3296.000000;3.332402
3295.000000;3.425862
3294.000000;3.217727
3293.000000;3.066666
3292.000000;3.061313
3291.000000;3.051647
3290.000000;2.986856
3289.000000;2.908469
3288.000000;2.874468
3287.000000;2.891242
3286.000000;2.915098
3285.000000;2.916992
3284.000000;2.936373
3283.000000;2.996328
3282.000000;3.072282
3281.000000;3.106051
3280.000000;3.030842
3279.000000;2.894954
3278.000000;2.768805
3277.000000;2.678880
3276.000000;2.646831
3275.000000;2.685586
3274.000000;2.774507
3273.000000;2.863357
3272.000000;2.918994
3271.000000;2.972181
3270.000000;3.074230
3269.000000;3.199759
3268.000000;3.236036
3267.000000;3.132387
3266.000000;2.990479
3265.000000;2.902954
3264.000000;2.877125
3263.000000;2.931406
3262.000000;3.034509
3261.000000;3.001195
3260.000000;2.898178
3259.000000;2.882812
3258.000000;2.955689
3257.000000;3.037338
3256.000000;3.101399
3255.000000;3.187872
3254.000000;3.198404
3253.000000;3.136487
3252.000000;3.098500
3251.000000;3.042390
3250.000000;2.933030
3249.000000;2.849668
3248.000000;2.815709
3247.000000;2.770653
3246.000000;2.698350
3245.000000;2.646683
3244.000000;2.635098
3243.000000;2.647810
3242.000000;2.666323
3241.000000;2.685882
3240.000000;2.712141
3239.000000;2.732597
3238.000000;2.727969
3237.000000;2.724195
3236.000000;2.755256
3235.000000;2.799864
3234.000000;2.811895
3233.000000;2.805653
3232.000000;2.827237
3231.000000;2.891347
3230.000000;2.992565
3229.000000;3.166289
3228.000000;3.479707
3227.000000;3.569377
3226.000000;3.423170
3225.000000;3.394404
3224.000000;3.255307
3223.000000;3.108057
3222.000000;3.039230
3221.000000;3.008721
3220.000000;2.999313
3219.000000;2.989229
3218.000000;2.970989
3217.000000;2.967521
3216.000000;3.017202
3215.000000;3.109179
3214.000000;3.135337
3213.000000;3.059098
3212.000000;2.966325
3211.000000;2.885396
3210.000000;2.829546
3209.000000;2.816747
3208.000000;2.849269
3207.000000;2.905568
3206.000000;2.943638
3205.000000;2.933133
3204.000000;2.868045
3203.000000;2.816010
3202.000000;2.840761
3201.000000;3.013300
3200.000000;3.340800
3199.000000;3.659876
3198.000000;3.787841
3197.000000;3.493491
3196.000000;3.382551
3195.000000;3.427676
3194.000000;3.460092
3193.000000;3.421643
3192.000000;3.222583
3191.000000;3.007227
3190.000000;2.885371
3189.000000;2.869074
3188.000000;2.908148
3187.000000;2.953439
3186.000000;3.004240
3185.000000;3.067435
3184.000000;3.084101
3183.000000;3.021305
3182.000000;2.989612
3181.000000;3.076551
3180.000000;3.347185
3179.000000;3.668723
3178.000000;3.404476
3177.000000;3.149321
3176.000000;3.021770
3175.000000;2.963924
3174.000000;2.961376
3173.000000;2.972652
3172.000000;2.941587
3171.000000;2.857396
3170.000000;2.773350
3169.000000;2.717935
3168.000000;2.692391
3167.000000;2.693536
3166.000000;2.720777
3165.000000;2.768855
3164.000000;2.813138
3163.000000;2.827383
3162.000000;2.834470
3161.000000;2.852067
3160.000000;2.847208
3159.000000;2.815981
3158.000000;2.788216
3157.000000;2.773033
3156.000000;2.768536
3155.000000;2.767419
3154.000000;2.742827
3153.000000;2.689337
3152.000000;2.651929
3151.000000;2.664098
3150.000000;2.712793
3149.000000;2.757805
3148.000000;2.782702
3147.000000;2.810641
3146.000000;2.834732
3145.000000;2.794966
3144.000000;2.722686
3143.000000;2.711299
3142.000000;2.803241
3141.000000;2.972631
3140.000000;3.147682
3139.000000;3.139236
3138.000000;2.919310
3137.000000;2.779876
3136.000000;2.767226
3135.000000;2.814693
3134.000000;2.830392
3133.000000;2.787689
3132.000000;2.764093
3131.000000;2.794940
3130.000000;2.818491
3129.000000;2.791572
3128.000000;2.772256
3127.000000;2.776940
3126.000000;2.759293
3125.000000;2.716986
3124.000000;2.712873
3123.000000;2.786614
3122.000000;2.874044
3121.000000;2.866658
3120.000000;2.816662
3119.000000;2.790795
3118.000000;2.768352
3117.000000;2.729863
3116.000000;2.738404
3115.000000;2.879451
3114.000000;3.064112
3113.000000;3.005286
3112.000000;2.905340
3111.000000;2.965319
3110.000000;3.100271
3109.000000;3.009668
3108.000000;2.874390
3107.000000;2.843021
3106.000000;2.850725
3105.000000;2.906396
3104.000000;3.018158
3103.000000;3.195676
3102.000000;3.511386
3101.000000;3.615813
3100.000000;3.271209
3099.000000;3.029714
3098.000000;2.899547
3097.000000;2.844238
3096.000000;2.857365
3095.000000;2.930004
3094.000000;3.035493
3093.000000;3.077145
3092.000000;3.004700
3091.000000;2.917925
3090.000000;2.847397
3089.000000;2.778506
3088.000000;2.719768
3087.000000;2.681119
3086.000000;2.652361
3085.000000;2.609131
3084.000000;2.549163
3083.000000;2.499364
3082.000000;2.481249
3081.000000;2.492364
3080.000000;2.511652
3079.000000;2.519453
3078.000000;2.523341
3077.000000;2.543602
3076.000000;2.588566
3075.000000;2.643155
3074.000000;2.697633
3073.000000;2.766698
3072.000000;2.899394
3071.000000;3.107708
3070.000000;3.406121
3069.000000;3.778629
3068.000000;3.394085
3067.000000;3.122561
3066.000000;3.111010
3065.000000;3.291424
3064.000000;3.372707
3063.000000;3.157883
3062.000000;3.055401
3061.000000;3.078355
3060.000000;3.138025
3059.000000;3.087983
3058.000000;2.952259
3057.000000;2.872332
3056.000000;2.881970
3055.000000;2.943502
3054.000000;2.969493
3053.000000;2.894809
3052.000000;2.801080
3051.000000;2.785760
3050.000000;2.852471
3049.000000;2.919168
3048.000000;2.897307
3047.000000;2.831727
3046.000000;2.781578
3045.000000;2.737595
3044.000000;2.679103
3043.000000;2.628915
3042.000000;2.625173
3041.000000;2.670652
3040.000000;2.723734
3039.000000;2.755868
3038.000000;2.809106
3037.000000;2.938907
3036.000000;3.118212
3035.000000;3.146231
3034.000000;3.002363
3033.000000;2.872885
3032.000000;2.798845
3031.000000;2.767592
3030.000000;2.767984
3029.000000;2.793349
3028.000000;2.829203
3027.000000;2.835656
3026.000000;2.791910
3025.000000;2.735281
3024.000000;2.696513
3023.000000;2.690653
3022.000000;2.728272
3021.000000;2.803516
3020.000000;2.912086
3019.000000;3.050728
3018.000000;3.121448
3017.000000;3.040236
3016.000000;2.916851
3015.000000;2.881713
3014.000000;2.927564
3013.000000;3.068779
3012.000000;3.311273
3011.000000;3.137113
3010.000000;2.894097
3009.000000;2.796014
3008.000000;2.741211
3007.000000;2.686993
3006.000000;2.642612
3005.000000;2.644018
3004.000000;2.682719
3003.000000;2.703825
3002.000000;2.684156
3001.000000;2.666408
3000.000000;2.666314
2999.000000;2.658521
2998.000000;2.633908
2997.000000;2.620058
2996.000000;2.646919
2995.000000;2.711221
2994.000000;2.760507
2993.000000;2.744911
2992.000000;2.690247
2991.000000;2.632592
2990.000000;2.582947
2989.000000;2.550597
2988.000000;2.543552
2987.000000;2.560780
2986.000000;2.595194
2985.000000;2.645949
2984.000000;2.719973
2983.000000;2.830948
2982.000000;2.951776
2981.000000;3.002132
2980.000000;3.025577
2979.000000;3.123840
2978.000000;3.311086
2977.000000;3.294122
2976.000000;3.119265
2975.000000;3.063543
2974.000000;3.154048
2973.000000;3.389443
2972.000000;3.487706
2971.000000;3.667735
2970.000000;3.681363
2969.000000;3.228696
2968.000000;3.032515
2967.000000;3.006994
2966.000000;3.069850
2965.000000;2.985108
2964.000000;2.808880
2963.000000;2.709383
2962.000000;2.661812
2961.000000;2.622509
2960.000000;2.579421
2959.000000;2.560460
2958.000000;2.580046
2957.000000;2.620919
2956.000000;2.660277
2955.000000;2.701626
2954.000000;2.774179
2953.000000;2.873264
2952.000000;2.935743
2951.000000;2.925859
2950.000000;2.869059
2949.000000;2.829915
2948.000000;2.847310
2947.000000;2.895987
2946.000000;2.931487
2945.000000;2.943398
2944.000000;2.964326
2943.000000;3.023565
2942.000000;3.097579
2941.000000;3.099456
2940.000000;3.053470
2939.000000;3.058219
2938.000000;3.153493
2937.000000;3.229496
2936.000000;3.171401
2935.000000;3.102005
2934.000000;3.201857
2933.000000;3.543264
2932.000000;3.559891
2931.000000;3.491478
2930.000000;3.433269
2929.000000;3.214104
2928.000000;3.074483
2927.000000;2.966035
2926.000000;2.883868
2925.000000;2.883583
2924.000000;2.994636
2923.000000;3.152677
2922.000000;3.242590
2921.000000;3.317284
2920.000000;3.335431
2919.000000;3.148014
2918.000000;2.917263
2917.000000;2.773770
2916.000000;2.715725
2915.000000;2.690355
2914.000000;2.667656
2913.000000;2.662997
2912.000000;2.662778
2911.000000;2.649613
2910.000000;2.652424
2909.000000;2.686569
2908.000000;2.726121
2907.000000;2.780195
2906.000000;2.893591
2905.000000;2.920008
2904.000000;2.810719
2903.000000;2.770373
2902.000000;2.794486
2901.000000;2.785134
2900.000000;2.725872
2899.000000;2.687657
2898.000000;2.695568
2897.000000;2.718410
2896.000000;2.727710
2895.000000;2.716060
2894.000000;2.670982
2893.000000;2.593066
2892.000000;2.524076
2891.000000;2.487210
2890.000000;2.478118
2889.000000;2.495221
2888.000000;2.543682
2887.000000;2.606970
2886.000000;2.618473
2885.000000;2.555962
2884.000000;2.492482
2883.000000;2.476297
2882.000000;2.507392
2881.000000;2.561377
2880.000000;2.605924
2879.000000;2.624183
2878.000000;2.634391
2877.000000;2.664838
2876.000000;2.708078
2875.000000;2.720803
2874.000000;2.687018
2873.000000;2.646502
2872.000000;2.618973
2871.000000;2.595655
2870.000000;2.592969
2869.000000;2.637470
2868.000000;2.724465
2867.000000;2.782894
2866.000000;2.782194
2865.000000;2.771872
2864.000000;2.735716
2863.000000;2.700779
2862.000000;2.706384
2861.000000;2.703686
2860.000000;2.659562
2859.000000;2.635101
2858.000000;2.663421
2857.000000;2.690056
2856.000000;2.699428
2855.000000;2.751307
2854.000000;2.843605
2853.000000;2.915950
2852.000000;2.972223
2851.000000;3.017039
2850.000000;2.981755
2849.000000;2.906190
2848.000000;2.910744
2847.000000;3.035046
2846.000000;3.370593
2845.000000;3.737067
2844.000000;3.297058
2843.000000;3.071823
2842.000000;3.014994
2841.000000;3.077863
2840.000000;3.270052
2839.000000;3.340655
2838.000000;3.174642
2837.000000;3.088641
2836.000000;3.101294
2835.000000;3.340802
2834.000000;3.675798
2833.000000;3.341321
2832.000000;3.242066
2831.000000;3.147440
2830.000000;3.008116
2829.000000;2.997907
2828.000000;3.020949
2827.000000;2.911152
2826.000000;2.761203
2825.000000;2.712726
2824.000000;2.764523
2823.000000;2.807042
2822.000000;2.744002
2821.000000;2.671759
2820.000000;2.658028
2819.000000;2.704335
2818.000000;2.807329
2817.000000;2.970785
2816.000000;3.084375
2815.000000;2.962746
2814.000000;2.799457
2813.000000;2.708041
2812.000000;2.685499
2811.000000;2.727242
2810.000000;2.817096
2809.000000;2.922921
2808.000000;3.015753
2807.000000;3.112701
2806.000000;3.195448
2805.000000;3.156478
2804.000000;3.103500
2803.000000;3.162074
2802.000000;3.384094
2801.000000;3.468715
2800.000000;3.271714
2799.000000;3.221517
2798.000000;3.496406
2797.000000;3.795469
2796.000000;3.159059
2795.000000;2.910008
2794.000000;2.810650
2793.000000;2.821985
2792.000000;2.949327
2791.000000;3.132421
2790.000000;3.273212
2789.000000;3.180654
2788.000000;3.205443
2787.000000;3.277988
2786.000000;3.064660
2785.000000;2.960217
2784.000000;3.077642
2783.000000;3.400595
2782.000000;3.294182
2781.000000;3.030683
2780.000000;2.960879
2779.000000;3.003304
2778.000000;3.187330
2777.000000;3.592352
2776.000000;4.289330
2775.000000;3.862655
2774.000000;3.461135
2773.000000;3.135497
2772.000000;2.908366
2771.000000;2.829260
2770.000000;2.880244
2769.000000;2.957440
2768.000000;2.935702
2767.000000;2.914464
2766.000000;2.931129
2765.000000;2.848078
2764.000000;2.704821
2763.000000;2.619848
2762.000000;2.567366
2761.000000;2.524886
2760.000000;2.517851
2759.000000;2.551583
2758.000000;2.596745
2757.000000;2.633104
2756.000000;2.685821
2755.000000;2.760927
2754.000000;2.807690
2753.000000;2.811134
2752.000000;2.797113
2751.000000;2.765286
2750.000000;2.739366
2749.000000;2.769356
2748.000000;2.888882
2747.000000;3.095273
2746.000000;3.285039
2745.000000;3.262159
2744.000000;3.104376
2743.000000;2.983115
2742.000000;2.948395
2741.000000;3.006847
2740.000000;3.143282
2739.000000;3.241723
2738.000000;3.123921
2737.000000;2.926572
2736.000000;2.790696
2735.000000;2.716682
2734.000000;2.652647
2733.000000;2.594829
2732.000000;2.596332
2731.000000;2.687280
2730.000000;2.836853
2729.000000;2.907607
2728.000000;2.915845
2727.000000;3.014565
2726.000000;3.227826
2725.000000;3.454115
2724.000000;3.364767
2723.000000;3.248102
2722.000000;3.299743
2721.000000;3.485492
2720.000000;3.918762
2719.000000;3.880056
2718.000000;3.604226
2717.000000;3.452781
2716.000000;3.519207
2715.000000;3.931853
2714.000000;3.481538
2713.000000;3.397546
2712.000000;3.651630
2711.000000;3.413897
2710.000000;3.100916
2709.000000;2.975503
2708.000000;2.899990
2707.000000;2.802579
2706.000000;2.721488
2705.000000;2.663159
2704.000000;2.598426
2703.000000;2.553200
2702.000000;2.554746
2701.000000;2.578938
2700.000000;2.590446
2699.000000;2.593453
2698.000000;2.593928
2697.000000;2.572518
2696.000000;2.553315
2695.000000;2.574145
2694.000000;2.615557
2693.000000;2.634466
2692.000000;2.678778
2691.000000;2.819759
2690.000000;3.115169
2689.000000;3.503044
2688.000000;3.217544
2687.000000;2.918545
2686.000000;2.806591
2685.000000;2.861282
2684.000000;3.014316
2683.000000;3.029986
2682.000000;2.988269
2681.000000;2.994753
2680.000000;2.956421
2679.000000;2.947940
2678.000000;3.077917
2677.000000;3.255098
2676.000000;3.227121
2675.000000;3.100530
2674.000000;3.033699
2673.000000;3.077254
2672.000000;3.215362
2671.000000;3.401152
2670.000000;3.304341
2669.000000;3.055011
2668.000000;2.942984
2667.000000;2.898751
2666.000000;2.883889
2665.000000;2.949836
2664.000000;3.138363
2663.000000;3.348521
2662.000000;3.206780
2661.000000;2.933250
2660.000000;2.766710
2659.000000;2.689222
2658.000000;2.630852
2657.000000;2.560081
2656.000000;2.515557
2655.000000;2.516328
2654.000000;2.541792
2653.000000;2.579126
2652.000000;2.644990
2651.000000;2.758195
2650.000000;2.917833
2649.000000;3.122316
2648.000000;3.349949
2647.000000;3.327740
2646.000000;3.108260
2645.000000;2.942103
2644.000000;2.829407
2643.000000;2.730522
2642.000000;2.636621
2641.000000;2.581209
2640.000000;2.572436
2639.000000;2.558956
2638.000000;2.513549
2637.000000;2.486679
2636.000000;2.501646
2635.000000;2.532634
2634.000000;2.571950
2633.000000;2.658203
2632.000000;2.831593
2631.000000;3.061564
2630.000000;3.217678
2629.000000;3.146488
2628.000000;2.904716
2627.000000;2.735444
2626.000000;2.659786
2625.000000;2.642889
2624.000000;2.641669
2623.000000;2.625613
2622.000000;2.615262
2621.000000;2.646909
2620.000000;2.728496
2619.000000;2.818177
2618.000000;2.851078
2617.000000;2.821865
2616.000000;2.784002
2615.000000;2.779520
2614.000000;2.797684
2613.000000;2.792408
2612.000000;2.771570
2611.000000;2.783585
2610.000000;2.839550
2609.000000;2.921750
2608.000000;3.004383
2607.000000;3.033525
2606.000000;2.977162
2605.000000;2.878814
2604.000000;2.794332
2603.000000;2.727490
2602.000000;2.664435
2601.000000;2.614704
2600.000000;2.599122
2599.000000;2.625210
2598.000000;2.657375
2597.000000;2.672425
2596.000000;2.733712
2595.000000;2.880565
2594.000000;3.072504
2593.000000;3.179745
2592.000000;3.308954
2591.000000;3.514131
2590.000000;3.096302
2589.000000;2.815366
2588.000000;2.727934
2587.000000;2.723598
2586.000000;2.685736
2585.000000;2.609108
2584.000000;2.593202
2583.000000;2.640745
2582.000000;2.698002
2581.000000;2.754961
2580.000000;2.884596
2579.000000;3.196819
2578.000000;3.159053
2577.000000;2.778514
2576.000000;2.606529
2575.000000;2.540074
2574.000000;2.535749
2573.000000;2.547609
2572.000000;2.568097
2571.000000;2.611645
2570.000000;2.638077
2569.000000;2.633182
2568.000000;2.673640
2567.000000;2.745603
2566.000000;2.733849
2565.000000;2.721807
2564.000000;2.840472
2563.000000;3.124109
2562.000000;3.247951
2561.000000;3.246657
2560.000000;3.528005
2559.000000;3.766335
2558.000000;3.390514
2557.000000;3.187823
2556.000000;3.073288
2555.000000;2.974702
2554.000000;2.931090
2553.000000;2.937573
2552.000000;2.957448
2551.000000;3.011070
2550.000000;3.187727
2549.000000;3.627015
2548.000000;3.935866
2547.000000;3.481987
2546.000000;3.392708
2545.000000;3.642824
2544.000000;3.489818
2543.000000;3.275493
2542.000000;3.346626
2541.000000;3.453326
2540.000000;3.481988
2539.000000;3.052613
2538.000000;2.801540
2537.000000;2.730498
2536.000000;2.706018
2535.000000;2.670549
2534.000000;2.624794
2533.000000;2.588157
2532.000000;2.542253
2531.000000;2.481130
2530.000000;2.437590
2529.000000;2.439105
2528.000000;2.494586
2527.000000;2.603930
2526.000000;2.738220
2525.000000;2.832615
2524.000000;2.966141
2523.000000;3.256453
2522.000000;3.345717
2521.000000;3.214512
2520.000000;3.048377
2519.000000;2.809291
2518.000000;2.681491
2517.000000;2.673600
2516.000000;2.686055
2515.000000;2.597056
2514.000000;2.507435
2513.000000;2.504500
2512.000000;2.557713
2511.000000;2.588491
2510.000000;2.617545
2509.000000;2.726588
2508.000000;2.898810
2507.000000;2.985846
2506.000000;3.017759
2505.000000;3.163890
2504.000000;3.221540
2503.000000;3.021723
2502.000000;2.925054
2501.000000;2.940591
2500.000000;3.047660
2499.000000;3.368821
2498.000000;4.241848
2497.000000;3.664214
2496.000000;3.528553
2495.000000;3.364704
2494.000000;3.367482
2493.000000;3.417604
2492.000000;3.175738
2491.000000;2.921655
2490.000000;2.842984
2489.000000;2.891492
2488.000000;3.006308
2487.000000;3.069027
2486.000000;3.081720
2485.000000;3.251606
2484.000000;3.512948
2483.000000;3.382049
2482.000000;3.754997
2481.000000;3.532462
2480.000000;3.145041
2479.000000;3.051091
2478.000000;2.946531
2477.000000;2.840103
2476.000000;2.825810
2475.000000;2.931084
2474.000000;3.085484
2473.000000;2.975146
2472.000000;2.845007
2471.000000;2.850595
2470.000000;2.854710
2469.000000;2.761677
2468.000000;2.710133
2467.000000;2.775743
2466.000000;2.931029
2465.000000;3.054374
2464.000000;3.025894
2463.000000;2.868802
2462.000000;2.714129
2461.000000;2.627889
2460.000000;2.607542
2459.000000;2.649116
2458.000000;2.748564
2457.000000;2.895108
2456.000000;3.092091
2455.000000;3.347174
2454.000000;3.749881
2453.000000;3.478162
2452.000000;3.030254
2451.000000;2.807318
2450.000000;2.739122
2449.000000;2.776977
2448.000000;2.820706
2447.000000;2.814588
2446.000000;2.851466
2445.000000;2.945993
2444.000000;2.952414
2443.000000;2.947888
2442.000000;3.098544
2441.000000;3.070608
2440.000000;2.837969
2439.000000;2.769856
2438.000000;2.754413
2437.000000;2.720033
2436.000000;2.692574
2435.000000;2.687625
2434.000000;2.660913
2433.000000;2.624328
2432.000000;2.640286
2431.000000;2.731255
2430.000000;2.835935
2429.000000;2.844504
2428.000000;2.850743
2427.000000;2.987287
2426.000000;3.220362
2425.000000;3.053193
2424.000000;2.858811
2423.000000;2.757078
2422.000000;2.704548
2421.000000;2.681499
2420.000000;2.640770
2419.000000;2.575985
2418.000000;2.533518
2417.000000;2.530402
2416.000000;2.543154
2415.000000;2.543128
2414.000000;2.541282
2413.000000;2.569506
2412.000000;2.637133
2411.000000;2.734227
2410.000000;2.857990
2409.000000;2.999676
2408.000000;3.055044
2407.000000;3.048283
2406.000000;3.091183
2405.000000;3.061789
2404.000000;2.997094
2403.000000;3.029397
2402.000000;3.136069
2401.000000;3.214445
2400.000000;3.182930
2399.000000;3.014437
2398.000000;2.882302
2397.000000;2.833364
2396.000000;2.817220
2395.000000;2.783630
2394.000000;2.761515
2393.000000;2.819529
2392.000000;2.998443
2391.000000;3.308664
2390.000000;3.680758
2389.000000;3.581051
2388.000000;3.107287
2387.000000;2.870592
2386.000000;2.756621
2385.000000;2.703717
2384.000000;2.672540
2383.000000;2.658945
2382.000000;2.675824
2381.000000;2.723885
2380.000000;2.775496
2379.000000;2.814600
2378.000000;2.845710
2377.000000;2.853143
2376.000000;2.883163
2375.000000;2.989629
2374.000000;3.090089
2373.000000;3.136097
2372.000000;3.228372
2371.000000;2.956229
2370.000000;2.716472
2369.000000;2.646089
2368.000000;2.677327
2367.000000;2.773547
2366.000000;2.907661
2365.000000;2.983722
2364.000000;2.948591
2363.000000;2.880535
2362.000000;2.828295
2361.000000;2.838005
2360.000000;2.940947
2359.000000;3.197484
2358.000000;3.612586
2357.000000;3.455339
2356.000000;3.265591
2355.000000;3.299398
2354.000000;3.391714
2353.000000;3.312236
2352.000000;3.127487
2351.000000;3.000825
2350.000000;2.926336
2349.000000;2.877917
2348.000000;2.884983
2347.000000;2.913562
2346.000000;2.883145
2345.000000;2.780805
2344.000000;2.698833
2343.000000;2.680414
2342.000000;2.692717
2341.000000;2.688520
2340.000000;2.687490
2339.000000;2.765031
2338.000000;2.999047
2337.000000;3.225585
2336.000000;2.986794
2335.000000;2.962937
2334.000000;3.090704
2333.000000;3.217669
2332.000000;3.127300
2331.000000;2.980781
2330.000000;2.878989
2329.000000;2.877732
2328.000000;2.859396
2327.000000;2.706505
2326.000000;2.606212
2325.000000;2.604376
2324.000000;2.655030
2323.000000;2.707889
2322.000000;2.776269
2321.000000;2.895113
2320.000000;3.319510
2319.000000;3.349035
2318.000000;2.904373
2317.000000;2.792342
2316.000000;2.792232
2315.000000;2.739354
2314.000000;2.660219
2313.000000;2.668542
2312.000000;2.789957
2311.000000;2.988307
2310.000000;2.962011
2309.000000;2.837984
2308.000000;2.801508
2307.000000;2.791941
2306.000000;2.714199
2305.000000;2.635320
2304.000000;2.654124
2303.000000;2.734142
2302.000000;2.706019
2301.000000;2.622753
2300.000000;2.602140
2299.000000;2.627303
2298.000000;2.619549
2297.000000;2.573802
2296.000000;2.559179
2295.000000;2.599432
2294.000000;2.665886
2293.000000;2.709936
2292.000000;2.712106
2291.000000;2.703960
2290.000000;2.707624
2289.000000;2.687922
2288.000000;2.633247
2287.000000;2.592394
2286.000000;2.606084
2285.000000;2.651009
2284.000000;2.645601
2283.000000;2.617985
2282.000000;2.631784
2281.000000;2.640817
2280.000000;2.607512
2279.000000;2.599434
2278.000000;2.646309
2277.000000;2.681375
2276.000000;2.640191
2275.000000;2.592243
2274.000000;2.598832
2273.000000;2.654748
2272.000000;2.700318
2271.000000;2.701556
2270.000000;2.693244
2269.000000;2.693015
2268.000000;2.674885
2267.000000;2.625267
2266.000000;2.593889
2265.000000;2.627273
2264.000000;2.733075
2263.000000;2.878671
2262.000000;3.006698
2261.000000;3.076780
2260.000000;3.085382
2259.000000;3.072372
2258.000000;3.042018
2257.000000;2.972944
2256.000000;2.941006
2255.000000;3.044001
2254.000000;3.349838
2253.000000;3.346434
2252.000000;3.031498
2251.000000;2.862663
2250.000000;2.725125
2249.000000;2.629838
2248.000000;2.565549
2247.000000;2.515887
2246.000000;2.473815
2245.000000;2.451310
2244.000000;2.455218
2243.000000;2.480974
2242.000000;2.518851
2241.000000;2.558950
2240.000000;2.596032
2239.000000;2.635078
2238.000000;2.689635
2237.000000;2.758634
2236.000000;2.861283
2235.000000;3.055232
2234.000000;3.663539
2233.000000;3.446882
2232.000000;3.220026
2231.000000;3.270445
2230.000000;3.363775
2229.000000;3.265326
2228.000000;3.180262
2227.000000;3.162100
2226.000000;3.135607
2225.000000;3.074049
2224.000000;3.013483
2223.000000;2.990347
2222.000000;3.004175
2221.000000;3.003949
2220.000000;2.953287
2219.000000;2.888865
2218.000000;2.841861
2217.000000;2.819495
2216.000000;2.788671
2215.000000;2.712187
2214.000000;2.624668
2213.000000;2.575111
2212.000000;2.578929
2211.000000;2.611873
2210.000000;2.636392
2209.000000;2.665278
2208.000000;2.730746
2207.000000;2.811794
2206.000000;2.853752
2205.000000;2.876365
2204.000000;2.910121
2203.000000;2.930958
2202.000000;2.920021
2201.000000;2.895041
2200.000000;2.877035
2199.000000;2.862240
2198.000000;2.829079
2197.000000;2.786238
2196.000000;2.768209
2195.000000;2.796751
2194.000000;2.872933
2193.000000;2.980279
2192.000000;3.087053
2191.000000;3.174829
2190.000000;3.253897
2189.000000;3.296438
2188.000000;3.267064
2187.000000;3.214760
2186.000000;3.182627
2185.000000;3.135047
2184.000000;3.033599
2183.000000;2.921195
2182.000000;2.838324
2181.000000;2.786365
2180.000000;2.759777
2179.000000;2.759789
2178.000000;2.785563
2177.000000;2.826870
2176.000000;2.874529
2175.000000;2.923231
2174.000000;2.961897
2173.000000;2.977648
2172.000000;2.945836
2171.000000;2.876377
2170.000000;2.812594
2169.000000;2.772052
2168.000000;2.751310
2167.000000;2.764286
2166.000000;2.857358
2165.000000;3.094890
2164.000000;3.588307
2163.000000;3.388032
2162.000000;3.083285
2161.000000;2.918967
2160.000000;2.777764
2159.000000;2.690739
2158.000000;2.627538
2157.000000;2.581337
2156.000000;2.576034
2155.000000;2.622306
2154.000000;2.680181
2153.000000;2.704111
2152.000000;2.720763
2151.000000;2.763053
2150.000000;2.837354
2149.000000;2.950080
2148.000000;3.032304
2147.000000;2.984415
2146.000000;2.976758
2145.000000;3.039054
2144.000000;2.976861
2143.000000;2.848052
2142.000000;2.785568
2141.000000;2.755984
2140.000000;2.717588
2139.000000;2.658442
2138.000000;2.595356
2137.000000;2.546209
2136.000000;2.528942
2135.000000;2.559018
2134.000000;2.640649
2133.000000;2.750997
2132.000000;2.821877
2131.000000;2.799268
2130.000000;2.734313
2129.000000;2.689645
2128.000000;2.680673
2127.000000;2.700596
2126.000000;2.735507
2125.000000;2.774129
2124.000000;2.825780
2123.000000;2.890106
2122.000000;2.910483
2121.000000;2.853974
2120.000000;2.789531
2119.000000;2.778352
2118.000000;2.820965
2117.000000;2.862792
2116.000000;2.834031
2115.000000;2.752850
2114.000000;2.688919
2113.000000;2.664461
2112.000000;2.670873
2111.000000;2.689345
2110.000000;2.700440
2109.000000;2.705381
2108.000000;2.714561
2107.000000;2.707258
2106.000000;2.666060
2105.000000;2.637292
2104.000000;2.652495
2103.000000;2.673907
2102.000000;2.663801
2101.000000;2.652947
2100.000000;2.675299
2099.000000;2.730858
2098.000000;2.741461
2097.000000;2.664524
2096.000000;2.612697
2095.000000;2.611429
2094.000000;2.592641
2093.000000;2.547753
2092.000000;2.554813
2091.000000;2.638071
2090.000000;2.715102
2089.000000;2.683630
2088.000000;2.647641
2087.000000;2.676299
2086.000000;2.753542
2085.000000;2.832592
2084.000000;2.837912
2083.000000;2.772375
2082.000000;2.708046
2081.000000;2.667077
2080.000000;2.648107
2079.000000;2.662593
2078.000000;2.721184
2077.000000;2.781420
2076.000000;2.793689
2075.000000;2.825355
2074.000000;2.942693
2073.000000;3.137055
2072.000000;3.262286
2071.000000;3.245794
2070.000000;3.229603
2069.000000;3.213627
2068.000000;3.115406
2067.000000;2.937008
2066.000000;2.771101
2065.000000;2.665389
2064.000000;2.611364
2063.000000;2.576587
2062.000000;2.542140
2061.000000;2.515082
2060.000000;2.506215
2059.000000;2.523623
2058.000000;2.574581
2057.000000;2.657684
2056.000000;2.752025
2055.000000;2.834444
2054.000000;2.910502
2053.000000;2.980958
2052.000000;3.003584
2051.000000;2.958980
2050.000000;2.895430
2049.000000;2.872483
2048.000000;2.927711
2047.000000;3.059467
2046.000000;3.053065
2045.000000;2.906816
2044.000000;2.830553
2043.000000;2.836431
2042.000000;2.865779
2041.000000;2.825221
2040.000000;2.728389
2039.000000;2.661312
2038.000000;2.669553
2037.000000;2.724275
2036.000000;2.713505
2035.000000;2.660998
2034.000000;2.674422
2033.000000;2.763976
2032.000000;2.859207
2031.000000;2.859636
2030.000000;2.793234
2029.000000;2.725956
2028.000000;2.678275
2027.000000;2.636159
2026.000000;2.608038
2025.000000;2.633134
2024.000000;2.742718
2023.000000;2.859858
2022.000000;2.784262
2021.000000;2.687801
2020.000000;2.652472
2019.000000;2.641770
2018.000000;2.635748
2017.000000;2.613986
2016.000000;2.560250
2015.000000;2.510341
2014.000000;2.503302
2013.000000;2.538042
2012.000000;2.562503
2011.000000;2.532909
2010.000000;2.488375
2009.000000;2.459533
2008.000000;2.446700
2007.000000;2.458278
2006.000000;2.508411
2005.000000;2.588974
2004.000000;2.644417
2003.000000;2.653960
2002.000000;2.678972
2001.000000;2.753543
2000.000000;2.851960
1999.000000;2.881802
1998.000000;2.840807
1997.000000;2.808745
1996.000000;2.801203
1995.000000;2.818759
1994.000000;2.858874
1993.000000;2.892356
1992.000000;2.920549
1991.000000;2.996810
1990.000000;3.109114
1989.000000;3.150446
1988.000000;3.104066
1987.000000;3.110313
1986.000000;3.316229
1985.000000;3.316310
1984.000000;2.973573
1983.000000;2.845947
1982.000000;2.846237
1981.000000;2.860502
1980.000000;2.771253
1979.000000;2.718736
1978.000000;2.746554
1977.000000;2.739014
1976.000000;2.722127
1975.000000;2.818032
1974.000000;3.222888
1973.000000;3.634922
1972.000000;3.301616
1971.000000;3.135417
1970.000000;2.969735
1969.000000;2.879202
1968.000000;2.865458
1967.000000;2.792061
1966.000000;2.680138
1965.000000;2.627578
1964.000000;2.628461
1963.000000;2.639760
1962.000000;2.643949
1961.000000;2.666424
1960.000000;2.718434
1959.000000;2.778415
1958.000000;2.838698
1957.000000;2.930879
1956.000000;3.136659
1955.000000;3.215981
1954.000000;2.936026
1953.000000;2.780207
1952.000000;2.726077
1951.000000;2.730692
1950.000000;2.744367
1949.000000;2.749573
1948.000000;2.758636
1947.000000;2.760543
1946.000000;2.726657
1945.000000;2.666257
1944.000000;2.612564
1943.000000;2.579965
1942.000000;2.565635
1941.000000;2.566943
1940.000000;2.575726
1939.000000;2.575997
1938.000000;2.573973
1937.000000;2.595941
1936.000000;2.656316
1935.000000;2.739261
1934.000000;2.789869
1933.000000;2.762594
1932.000000;2.671985
1931.000000;2.589491
1930.000000;2.557744
1929.000000;2.574715
1928.000000;2.624364
1927.000000;2.688123
1926.000000;2.732756
1925.000000;2.722560
1924.000000;2.673648
1923.000000;2.652989
1922.000000;2.700724
1921.000000;2.819043
1920.000000;2.955384
1919.000000;3.003517
1918.000000;3.053474
1917.000000;3.221988
1916.000000;3.696637
1915.000000;3.379678
1914.000000;3.188853
1913.000000;3.073138
1912.000000;2.854583
1911.000000;2.711906
1910.000000;2.652126
1909.000000;2.629659
1908.000000;2.597077
1907.000000;2.547126
1906.000000;2.502467
1905.000000;2.474531
1904.000000;2.448033
1903.000000;2.402910
1902.000000;2.357329
1901.000000;2.352061
1900.000000;2.404711
1899.000000;2.488459
1898.000000;2.550155
1897.000000;2.591409
1896.000000;2.654032
1895.000000;2.749941
1894.000000;2.831210
1893.000000;2.821599
1892.000000;2.744516
1891.000000;2.667692
1890.000000;2.610599
1889.000000;2.577992
1888.000000;2.577349
1887.000000;2.588358
1886.000000;2.568136
1885.000000;2.541542
1884.000000;2.576507
1883.000000;2.684658
1882.000000;2.775580
1881.000000;2.789463
1880.000000;2.868931
1879.000000;3.086717
1878.000000;3.128104
1877.000000;2.977920
1876.000000;3.051486
1875.000000;3.359639
1874.000000;3.462495
1873.000000;3.144204
1872.000000;2.946118
1871.000000;2.856639
1870.000000;2.856434
1869.000000;2.840544
1868.000000;2.799198
1867.000000;2.795560
1866.000000;2.847338
1865.000000;2.858770
1864.000000;2.742748
1863.000000;2.648191
1862.000000;2.631840
1861.000000;2.672573
1860.000000;2.703909
1859.000000;2.642697
1858.000000;2.576091
1857.000000;2.578546
1856.000000;2.630027
1855.000000;2.653128
1854.000000;2.614738
1853.000000;2.576199
1852.000000;2.587908
1851.000000;2.640659
1850.000000;2.614129
1849.000000;2.512115
1848.000000;2.481862
1847.000000;2.517157
1846.000000;2.538555
1845.000000;2.551158
1844.000000;2.669747
1843.000000;2.984581
1842.000000;3.039493
1841.000000;2.864687
1840.000000;2.888814
1839.000000;2.976844
1838.000000;3.131818
1837.000000;3.183466
1836.000000;2.990697
1835.000000;2.897531
1834.000000;2.940801
1833.000000;3.060016
1832.000000;3.142237
1831.000000;3.096983
1830.000000;3.063266
1829.000000;3.136949
1828.000000;3.134786
1827.000000;3.001957
1826.000000;3.027534
1825.000000;3.398785
1824.000000;3.680985
1823.000000;3.228772
1822.000000;3.243661
1821.000000;3.253165
1820.000000;3.213647
1819.000000;3.433599
1818.000000;3.411769
1817.000000;3.194382
1816.000000;3.139593
1815.000000;2.920606
1814.000000;2.775163
1813.000000;2.738802
1812.000000;2.742498
1811.000000;2.751977
1810.000000;2.814596
1809.000000;3.007040
1808.000000;3.263389
1807.000000;3.358098
1806.000000;3.277820
1805.000000;2.989364
1804.000000;2.830230
1803.000000;2.809161
1802.000000;2.807398
1801.000000;2.819777
1800.000000;2.935517
1799.000000;2.927210
1798.000000;2.761438
1797.000000;2.715444
1796.000000;2.774846
1795.000000;2.874944
1794.000000;2.949761
1793.000000;2.980651
1792.000000;2.894540
1791.000000;2.752065
1790.000000;2.676651
1789.000000;2.671917
1788.000000;2.717896
1787.000000;2.747341
1786.000000;2.682395
1785.000000;2.621622
1784.000000;2.640584
1783.000000;2.717149
1782.000000;2.826460
1781.000000;2.938014
1780.000000;2.979606
1779.000000;2.946253
1778.000000;2.908263
1777.000000;2.873070
1776.000000;2.839692
1775.000000;2.809341
1774.000000;2.777916
1773.000000;2.763238
1772.000000;2.761748
1771.000000;2.734079
1770.000000;2.651521
1769.000000;2.551125
1768.000000;2.502529
1767.000000;2.513125
1766.000000;2.541436
1765.000000;2.562184
1764.000000;2.590455
1763.000000;2.632088
1762.000000;2.666023
1761.000000;2.718996
1760.000000;2.853064
1759.000000;3.197960
1758.000000;3.207342
1757.000000;2.992841
1756.000000;3.062700
1755.000000;3.330755
1754.000000;3.289249
1753.000000;3.048851
1752.000000;2.927771
1751.000000;2.836480
1750.000000;2.771817
1749.000000;2.758683
1748.000000;2.776722
1747.000000;2.735490
1746.000000;2.627925
1745.000000;2.570278
1744.000000;2.603438
1743.000000;2.657442
1742.000000;2.649102
1741.000000;2.626819
1740.000000;2.652940
1739.000000;2.720384
1738.000000;2.799646
1737.000000;2.898023
1736.000000;3.049571
1735.000000;3.327481
1734.000000;3.317397
1733.000000;3.072968
1732.000000;2.919546
1731.000000;2.805773
1730.000000;2.729763
1729.000000;2.729055
1728.000000;2.836848
1727.000000;3.069252
1726.000000;4.142787
1725.000000;3.174981
1724.000000;2.770242
1723.000000;2.614471
1722.000000;2.557615
1721.000000;2.555289
1720.000000;2.558794
1719.000000;2.567537
1718.000000;2.586635
1717.000000;2.606502
1716.000000;2.623274
1715.000000;2.655739
1714.000000;2.731340
1713.000000;2.876274
1712.000000;3.117028
1711.000000;3.175372
1710.000000;2.993055
1709.000000;2.941655
1708.000000;3.059614
1707.000000;3.273500
1706.000000;3.115857
1705.000000;2.992874
1704.000000;3.018371
1703.000000;2.926753
1702.000000;2.763699
1701.000000;2.726135
1700.000000;2.791330
1699.000000;2.809830
1698.000000;2.747564
1697.000000;2.664142
1696.000000;2.617562
1695.000000;2.609520
1694.000000;2.616619
1693.000000;2.657095
1692.000000;2.760724
1691.000000;2.883188
1690.000000;2.975017
1689.000000;3.197782
1688.000000;3.148585
1687.000000;2.854731
1686.000000;2.710999
1685.000000;2.624721
1684.000000;2.573045
1683.000000;2.559334
1682.000000;2.599422
1681.000000;2.701810
1680.000000;2.837324
1679.000000;2.978195
1678.000000;3.089319
1677.000000;3.129227
1676.000000;3.245446
1675.000000;3.092768
1674.000000;2.890465
1673.000000;2.839288
1672.000000;2.907566
1671.000000;3.094791
1670.000000;3.096506
1669.000000;2.914582
1668.000000;2.818092
1667.000000;2.821035
1666.000000;2.938273
1665.000000;3.282335
1664.000000;3.566881
1663.000000;3.192966
1662.000000;3.085055
1661.000000;3.031496
1660.000000;3.053346
1659.000000;3.105741
1658.000000;3.091595
1657.000000;3.016896
1656.000000;2.896971
1655.000000;2.821742
1654.000000;2.813731
1653.000000;2.809925
1652.000000;2.775629
1651.000000;2.728255
1650.000000;2.709782
1649.000000;2.741948
1648.000000;2.804493
1647.000000;2.888389
1646.000000;3.018488
1645.000000;3.139358
1644.000000;3.165760
1643.000000;3.194526
1642.000000;3.400552
1641.000000;3.854971
1640.000000;3.633602
1639.000000;3.484180
1638.000000;3.460335
1637.000000;3.410379
1636.000000;3.291722
1635.000000;3.200447
1634.000000;3.246419
1633.000000;3.327909
1632.000000;3.260011
1631.000000;3.431182
1630.000000;3.353447
1629.000000;2.949011
1628.000000;2.814196
1627.000000;2.812023
1626.000000;2.831192
1625.000000;2.796891
1624.000000;2.781752
1623.000000;2.840207
1622.000000;2.912656
1621.000000;2.917552
1620.000000;2.902994
1619.000000;2.908643
1618.000000;2.879134
1617.000000;2.784064
1616.000000;2.659685
1615.000000;2.547491
1614.000000;2.459628
1613.000000;2.395912
1612.000000;2.367434
1611.000000;2.381392
1610.000000;2.417929
1609.000000;2.457441
1608.000000;2.523144
1607.000000;2.677002
1606.000000;2.952772
1605.000000;2.979802
1604.000000;2.805761
1603.000000;2.747857
1602.000000;2.685824
1601.000000;2.622578
1600.000000;2.589825
1599.000000;2.570225
1598.000000;2.557115
1597.000000;2.582920
1596.000000;2.667825
1595.000000;2.759473
1594.000000;2.782100
1593.000000;2.766796
1592.000000;2.776247
1591.000000;2.796144
1590.000000;2.785750
1589.000000;2.775882
1588.000000;2.779490
1587.000000;2.750009
1586.000000;2.680850
1585.000000;2.627088
1584.000000;2.639293
1583.000000;2.707841
1582.000000;2.748064
1581.000000;2.760226
1580.000000;2.870012
1579.000000;3.050704
1578.000000;3.013327
1577.000000;2.899275
1576.000000;2.903969
1575.000000;2.946325
1574.000000;2.903724
1573.000000;2.844718
1572.000000;2.862402
1571.000000;2.962347
1570.000000;3.084151
1569.000000;3.146252
1568.000000;3.217726
1567.000000;3.177904
1566.000000;3.027530
1565.000000;2.995972
1564.000000;3.070952
1563.000000;3.113468
1562.000000;3.054112
1561.000000;2.998182
1560.000000;3.004335
1559.000000;2.973761
1558.000000;2.866387
1557.000000;2.744233
1556.000000;2.658716
1555.000000;2.675794
1554.000000;2.805263
1553.000000;2.870126
1552.000000;2.779902
1551.000000;2.680690
1550.000000;2.618114
1549.000000;2.627142
1548.000000;2.710188
1547.000000;2.855215
1546.000000;3.069691
1545.000000;3.223297
1544.000000;3.251120
1543.000000;3.256646
1542.000000;3.212108
1541.000000;3.166780
1540.000000;3.145930
1539.000000;3.153711
1538.000000;3.080728
1537.000000;2.905807
1536.000000;2.736279
1535.000000;2.612055
1534.000000;2.577454
1533.000000;2.662830
1532.000000;2.872255
1531.000000;3.124609
1530.000000;3.173339
1529.000000;2.973262
1528.000000;2.760879
1527.000000;2.640281
1526.000000;2.610426
1525.000000;2.655361
1524.000000;2.737531
1523.000000;2.816927
1522.000000;2.854488
1521.000000;2.849127
1520.000000;2.854340
1519.000000;2.944771
1518.000000;3.050327
1517.000000;2.802119
1516.000000;2.596307
1515.000000;2.565812
1514.000000;2.597889
1513.000000;2.547195
1512.000000;2.473419
1511.000000;2.471567
1510.000000;2.485317
1509.000000;2.507053
1508.000000;2.610155
1507.000000;2.762267
1506.000000;2.822656
1505.000000;2.787761
1504.000000;2.768849
1503.000000;2.800491
1502.000000;2.850581
1501.000000;2.832928
1500.000000;2.784167
1499.000000;2.802148
1498.000000;2.890091
1497.000000;2.912598
1496.000000;2.865309
1495.000000;2.848910
1494.000000;2.797690
1493.000000;2.733818
1492.000000;2.737319
1491.000000;2.827732
1490.000000;2.899515
1489.000000;2.897521
1488.000000;2.947415
1487.000000;3.033254
1486.000000;2.966655
1485.000000;2.848436
1484.000000;2.817942
1483.000000;2.879736
1482.000000;2.958689
1481.000000;2.908199
1480.000000;2.806369
1479.000000;2.777878
1478.000000;2.791162
1477.000000;2.749017
1476.000000;2.734354
1475.000000;2.861980
1474.000000;2.904825
1473.000000;2.664347
1472.000000;2.535610
1471.000000;2.529862
1470.000000;2.545315
1469.000000;2.525772
1468.000000;2.524099
1467.000000;2.566937
1466.000000;2.580226
1465.000000;2.578803
1464.000000;2.668488
1463.000000;2.875246
1462.000000;3.005574
1461.000000;2.968023
1460.000000;3.146762
1459.000000;3.566330
1458.000000;3.045592
1457.000000;2.803552
1456.000000;2.727829
1455.000000;2.695093
1454.000000;2.792965
1453.000000;2.864380
1452.000000;2.691621
1451.000000;2.597120
1450.000000;2.630020
1449.000000;2.742233
1448.000000;2.877142
1447.000000;2.937654
1446.000000;2.952195
1445.000000;2.968273
1444.000000;2.946601
1443.000000;2.815951
1442.000000;2.698099
1441.000000;2.687078
1440.000000;2.789322
1439.000000;3.078088
1438.000000;3.648293
1437.000000;3.701860
1436.000000;3.402810
1435.000000;3.073923
1434.000000;2.977127
1433.000000;3.193099
1432.000000;3.117868
1431.000000;2.903277
1430.000000;2.942606
1429.000000;3.046764
1428.000000;2.987067
1427.000000;2.923446
1426.000000;2.897965
1425.000000;2.871378
1424.000000;2.876932
1423.000000;2.926755
1422.000000;2.968877
1421.000000;2.914076
1420.000000;2.808821
1419.000000;2.778319
1418.000000;2.817060
1417.000000;2.816379
1416.000000;2.762243
1415.000000;2.723950
1414.000000;2.691780
1413.000000;2.627654
1412.000000;2.557268
1411.000000;2.527463
1410.000000;2.529052
1409.000000;2.512457
1408.000000;2.486975
1407.000000;2.494615
1406.000000;2.547695
1405.000000;2.626610
1404.000000;2.690078
1403.000000;2.715028
1402.000000;2.677511
1401.000000;2.608129
1400.000000;2.600437
1399.000000;2.681884
1398.000000;2.792682
1397.000000;2.818948
1396.000000;2.756628
1395.000000;2.743848
1394.000000;2.786393
1393.000000;2.806226
1392.000000;2.859044
1391.000000;3.014665
1390.000000;3.147406
1389.000000;3.054157
1388.000000;2.889847
1387.000000;2.719667
1386.000000;2.684322
1385.000000;2.799383
1384.000000;2.696036
1383.000000;2.479346
1382.000000;2.422904
1381.000000;2.489361
1380.000000;2.499713
1379.000000;2.442823
1378.000000;2.464441
1377.000000;2.486323
1376.000000;2.437134
1375.000000;2.429794
1374.000000;2.452496
1373.000000;2.398267
1372.000000;2.333442
1371.000000;2.342906
1370.000000;2.425906
1369.000000;2.532293
1368.000000;2.622461
1367.000000;2.727303
1366.000000;2.811219
1365.000000;2.812398
1364.000000;2.801235
1363.000000;2.732095
1362.000000;2.573729
1361.000000;2.454473
1360.000000;2.416036
1359.000000;2.417812
1358.000000;2.412923
1357.000000;2.418359
1356.000000;2.502322
1355.000000;2.673576
1354.000000;2.747770
1353.000000;2.724374
1352.000000;2.802195
1351.000000;3.018184
1350.000000;3.322833
1349.000000;3.365256
1348.000000;3.203673
1347.000000;3.087735
1346.000000;3.058071
1345.000000;3.054845
1344.000000;2.909277
1343.000000;2.729675
1342.000000;2.632086
1341.000000;2.619874
1340.000000;2.687298
1339.000000;2.796479
1338.000000;2.949850
1337.000000;3.381558
1336.000000;3.320269
1335.000000;2.861329
1334.000000;2.714758
1333.000000;2.677272
1332.000000;2.683085
1331.000000;2.672324
1330.000000;2.682936
1329.000000;2.761342
1328.000000;2.853748
1327.000000;2.841183
1326.000000;2.742714
1325.000000;2.733146
1324.000000;2.841314
1323.000000;2.966976
1322.000000;3.020211
1321.000000;3.173171
1320.000000;3.214496
1319.000000;2.949590
1318.000000;2.808778
1317.000000;2.682410
1316.000000;2.566983
1315.000000;2.548097
1314.000000;2.639740
1313.000000;2.687993
1312.000000;2.597514
1311.000000;2.613080
1310.000000;2.780234
1309.000000;2.937876
1308.000000;2.847024
1307.000000;2.638974
1306.000000;2.494616
1305.000000;2.471544
1304.000000;2.593916
1303.000000;2.649185
1302.000000;2.524472
1301.000000;2.494260
1300.000000;2.574774
1299.000000;2.646136
1298.000000;2.675623
1297.000000;2.665805
1296.000000;2.596526
1295.000000;2.548615
1294.000000;2.563761
1293.000000;2.609638
1292.000000;2.650737
1291.000000;2.690311
1290.000000;2.737241
1289.000000;2.759409
1288.000000;2.778646
1287.000000;2.799762
1286.000000;2.788919
1285.000000;2.762500
1284.000000;2.777066
1283.000000;2.927002
1282.000000;2.879638
1281.000000;2.598937
1280.000000;2.465527
1279.000000;2.435073
1278.000000;2.436967
1277.000000;2.424960
1276.000000;2.406371
1275.000000;2.390444
1274.000000;2.354958
1273.000000;2.331217
1272.000000;2.365357
1271.000000;2.478788
1270.000000;2.670553
1269.000000;2.900823
1268.000000;3.040102
1267.000000;3.030226
1266.000000;2.913223
1265.000000;2.744300
1264.000000;2.617692
1263.000000;2.560859
1262.000000;2.546005
1261.000000;2.542704
1260.000000;2.562657
1259.000000;2.595952
1258.000000;2.562470
1257.000000;2.490836
1256.000000;2.487876
1255.000000;2.488938
1254.000000;2.406490
1253.000000;2.346404
1252.000000;2.380744
1251.000000;2.454138
1250.000000;2.506852
1249.000000;2.568527
1248.000000;2.748515
1247.000000;3.315771
1246.000000;3.378611
1245.000000;3.143467
1244.000000;3.358609
1243.000000;3.068478
1242.000000;2.761714
1241.000000;2.591545
1240.000000;2.495568
1239.000000;2.457037
1238.000000;2.459941
1237.000000;2.490639
1236.000000;2.512379
1235.000000;2.523491
1234.000000;2.568721
1233.000000;2.669259
1232.000000;2.805735
1231.000000;2.901255
1230.000000;2.894542
1229.000000;2.851785
1228.000000;2.758227
1227.000000;2.648077
1226.000000;2.589713
1225.000000;2.571420
1224.000000;2.541062
1223.000000;2.492696
1222.000000;2.491733
1221.000000;2.564687
1220.000000;2.644110
1219.000000;2.653135
1218.000000;2.645420
1217.000000;2.720316
1216.000000;2.802802
1215.000000;2.698792
1214.000000;2.637208
1213.000000;2.662203
1212.000000;2.593631
1211.000000;2.514959
1210.000000;2.531982
1209.000000;2.561029
1208.000000;2.496361
1207.000000;2.464942
1206.000000;2.572208
1205.000000;2.780050
1204.000000;3.140842
1203.000000;3.215741
1202.000000;2.768422
1201.000000;2.560121
1200.000000;2.443284
