Criado como novo conjunto de dados;"1909daniel.spp","-4280744.6 Secs"
cm-1;Abs
10000.000000;1.284861
9999.000000;1.284361
9998.000000;1.283710
9997.000000;1.282074
9996.000000;1.279780
9995.000000;1.277812
9994.000000;1.276735
9993.000000;1.276433
9992.000000;1.276491
9991.000000;1.276462
9990.000000;1.276009
9989.000000;1.275143
9988.000000;1.274146
9987.000000;1.273051
9986.000000;1.271503
9985.000000;1.269374
9984.000000;1.267238
9983.000000;1.265889
9982.000000;1.265611
9981.000000;1.266132
9980.000000;1.266928
9979.000000;1.267298
9978.000000;1.266608
9977.000000;1.265011
9976.000000;1.263621
9975.000000;1.263391
9974.000000;1.264029
9973.000000;1.264507
9972.000000;1.264389
9971.000000;1.263983
9970.000000;1.263402
9969.000000;1.262375
9968.000000;1.261008
9967.000000;1.259870
9966.000000;1.259078
9965.000000;1.258049
9964.000000;1.256502
9963.000000;1.255088
9962.000000;1.254527
9961.000000;1.254635
9960.000000;1.254670
9959.000000;1.254267
9958.000000;1.253589
9957.000000;1.252841
9956.000000;1.252123
9955.000000;1.251623
9954.000000;1.251507
9953.000000;1.251637
9952.000000;1.251611
9951.000000;1.251074
9950.000000;1.249925
9949.000000;1.248381
9948.000000;1.246936
9947.000000;1.246081
9946.000000;1.245836
9945.000000;1.245715
9944.000000;1.245388
9943.000000;1.245133
9942.000000;1.245303
9941.000000;1.245583
9940.000000;1.245294
9939.000000;1.244295
9938.000000;1.243096
9937.000000;1.242108
9936.000000;1.241206
9935.000000;1.240075
9934.000000;1.238617
9933.000000;1.236966
9932.000000;1.235423
9931.000000;1.234423
9930.000000;1.234151
9929.000000;1.234069
9928.000000;1.233277
9927.000000;1.231581
9926.000000;1.229759
9925.000000;1.228533
9924.000000;1.227746
9923.000000;1.226887
9922.000000;1.226001
9921.000000;1.225515
9920.000000;1.225451
9919.000000;1.225449
9918.000000;1.225487
9917.000000;1.225835
9916.000000;1.226167
9915.000000;1.225499
9914.000000;1.223445
9913.000000;1.220965
9912.000000;1.219361
9911.000000;1.218878
9910.000000;1.218727
9909.000000;1.218197
9908.000000;1.217226
9907.000000;1.216071
9906.000000;1.215092
9905.000000;1.214811
9904.000000;1.215502
9903.000000;1.216576
9902.000000;1.216879
9901.000000;1.215910
9900.000000;1.214377
9899.000000;1.213296
9898.000000;1.212892
9897.000000;1.212676
9896.000000;1.212257
9895.000000;1.211699
9894.000000;1.211181
9893.000000;1.210651
9892.000000;1.209877
9891.000000;1.208730
9890.000000;1.207437
9889.000000;1.206520
9888.000000;1.206285
9887.000000;1.206305
9886.000000;1.205692
9885.000000;1.204049
9884.000000;1.201901
9883.000000;1.200003
9882.000000;1.198483
9881.000000;1.197007
9880.000000;1.195548
9879.000000;1.194517
9878.000000;1.194218
9877.000000;1.194588
9876.000000;1.195482
9875.000000;1.196740
9874.000000;1.197836
9873.000000;1.197951
9872.000000;1.196784
9871.000000;1.195044
9870.000000;1.193773
9869.000000;1.193272
9868.000000;1.192976
9867.000000;1.192215
9866.000000;1.190772
9865.000000;1.188805
9864.000000;1.186675
9863.000000;1.184983
9862.000000;1.184349
9861.000000;1.184823
9860.000000;1.185622
9859.000000;1.185729
9858.000000;1.184720
9857.000000;1.182892
9856.000000;1.180722
9855.000000;1.178602
9854.000000;1.177022
9853.000000;1.176472
9852.000000;1.176899
9851.000000;1.177580
9850.000000;1.177882
9849.000000;1.177946
9848.000000;1.178200
9847.000000;1.178385
9846.000000;1.177627
9845.000000;1.175601
9844.000000;1.173110
9843.000000;1.171223
9842.000000;1.170193
9841.000000;1.169561
9840.000000;1.169019
9839.000000;1.168699
9838.000000;1.168641
9837.000000;1.168433
9836.000000;1.167642
9835.000000;1.166402
9834.000000;1.165283
9833.000000;1.164612
9832.000000;1.164145
9831.000000;1.163488
9830.000000;1.162708
9829.000000;1.162322
9828.000000;1.162641
9827.000000;1.163302
9826.000000;1.163565
9825.000000;1.163059
9824.000000;1.162113
9823.000000;1.161335
9822.000000;1.160963
9821.000000;1.160672
9820.000000;1.159897
9819.000000;1.158337
9818.000000;1.156283
9817.000000;1.154494
9816.000000;1.153640
9815.000000;1.153777
9814.000000;1.154408
9813.000000;1.154971
9812.000000;1.155155
9811.000000;1.154775
9810.000000;1.153670
9809.000000;1.151905
9808.000000;1.149889
9807.000000;1.148092
9806.000000;1.146682
9805.000000;1.145570
9804.000000;1.144687
9803.000000;1.144031
9802.000000;1.143509
9801.000000;1.142950
9800.000000;1.142312
9799.000000;1.141713
9798.000000;1.141249
9797.000000;1.140876
9796.000000;1.140531
9795.000000;1.140246
9794.000000;1.140055
9793.000000;1.139825
9792.000000;1.139286
9791.000000;1.138268
9790.000000;1.136922
9789.000000;1.135668
9788.000000;1.134882
9787.000000;1.134595
9786.000000;1.134547
9785.000000;1.134514
9784.000000;1.134466
9783.000000;1.134336
9782.000000;1.133802
9781.000000;1.132555
9780.000000;1.130727
9779.000000;1.128851
9778.000000;1.127305
9777.000000;1.125974
9776.000000;1.124582
9775.000000;1.123251
9774.000000;1.122475
9773.000000;1.122530
9772.000000;1.123110
9771.000000;1.123663
9770.000000;1.123893
9769.000000;1.123696
9768.000000;1.122744
9767.000000;1.120604
9766.000000;1.117495
9765.000000;1.114590
9764.000000;1.113138
9763.000000;1.113344
9762.000000;1.114336
9761.000000;1.115167
9760.000000;1.115518
9759.000000;1.115408
9758.000000;1.114751
9757.000000;1.113546
9756.000000;1.112230
9755.000000;1.111381
9754.000000;1.111079
9753.000000;1.110827
9752.000000;1.110130
9751.000000;1.108945
9750.000000;1.107595
9749.000000;1.106487
9748.000000;1.105935
9747.000000;1.105943
9746.000000;1.106045
9745.000000;1.105609
9744.000000;1.104522
9743.000000;1.103430
9742.000000;1.103103
9741.000000;1.103638
9740.000000;1.104414
9739.000000;1.104749
9738.000000;1.104407
9737.000000;1.103491
9736.000000;1.102089
9735.000000;1.100210
9734.000000;1.098003
9733.000000;1.095873
9732.000000;1.094307
9731.000000;1.093536
9730.000000;1.093356
9729.000000;1.093300
9728.000000;1.093074
9727.000000;1.092786
9726.000000;1.092719
9725.000000;1.092900
9724.000000;1.093018
9723.000000;1.092751
9722.000000;1.092063
9721.000000;1.091135
9720.000000;1.090161
9719.000000;1.089287
9718.000000;1.088624
9717.000000;1.088169
9716.000000;1.087731
9715.000000;1.087034
9714.000000;1.085900
9713.000000;1.084346
9712.000000;1.082659
9711.000000;1.081392
9710.000000;1.081064
9709.000000;1.081605
9708.000000;1.082169
9707.000000;1.081799
9706.000000;1.080342
9705.000000;1.078550
9704.000000;1.077274
9703.000000;1.076743
9702.000000;1.076612
9701.000000;1.076455
9700.000000;1.076080
9699.000000;1.075530
9698.000000;1.074925
9697.000000;1.074287
9696.000000;1.073456
9695.000000;1.072257
9694.000000;1.070766
9693.000000;1.069324
9692.000000;1.068295
9691.000000;1.067894
9690.000000;1.068119
9689.000000;1.068630
9688.000000;1.068777
9687.000000;1.068051
9686.000000;1.066628
9685.000000;1.065242
9684.000000;1.064426
9683.000000;1.064054
9682.000000;1.063718
9681.000000;1.063226
9680.000000;1.062617
9679.000000;1.061941
9678.000000;1.061259
9677.000000;1.060618
9676.000000;1.059854
9675.000000;1.058683
9674.000000;1.057202
9673.000000;1.056031
9672.000000;1.055590
9671.000000;1.055490
9670.000000;1.055030
9669.000000;1.054131
9668.000000;1.053324
9667.000000;1.052890
9666.000000;1.052500
9665.000000;1.051784
9664.000000;1.050806
9663.000000;1.049783
9662.000000;1.048705
9661.000000;1.047490
9660.000000;1.046333
9659.000000;1.045666
9658.000000;1.045777
9657.000000;1.046492
9656.000000;1.047197
9655.000000;1.047245
9654.000000;1.046453
9653.000000;1.045192
9652.000000;1.043920
9651.000000;1.042798
9650.000000;1.041832
9649.000000;1.041087
9648.000000;1.040476
9647.000000;1.039599
9646.000000;1.038209
9645.000000;1.036669
9644.000000;1.035523
9643.000000;1.034782
9642.000000;1.034106
9641.000000;1.033613
9640.000000;1.033818
9639.000000;1.034667
9638.000000;1.035246
9637.000000;1.034818
9636.000000;1.033684
9635.000000;1.032641
9634.000000;1.031999
9633.000000;1.031501
9632.000000;1.030870
9631.000000;1.029996
9630.000000;1.028810
9629.000000;1.027402
9628.000000;1.026167
9627.000000;1.025470
9626.000000;1.025208
9625.000000;1.024973
9624.000000;1.024532
9623.000000;1.023947
9622.000000;1.023330
9621.000000;1.022794
9620.000000;1.022514
9619.000000;1.022526
9618.000000;1.022487
9617.000000;1.021925
9616.000000;1.020737
9615.000000;1.019251
9614.000000;1.017843
9613.000000;1.016704
9612.000000;1.015913
9611.000000;1.015438
9610.000000;1.015079
9609.000000;1.014656
9608.000000;1.014253
9607.000000;1.014045
9606.000000;1.013871
9605.000000;1.013304
9604.000000;1.012275
9603.000000;1.011359
9602.000000;1.011195
9601.000000;1.011726
9600.000000;1.012181
9599.000000;1.011814
9598.000000;1.010560
9597.000000;1.008986
9596.000000;1.007704
9595.000000;1.006897
9594.000000;1.006342
9593.000000;1.005791
9592.000000;1.005177
9591.000000;1.004467
9590.000000;1.003550
9589.000000;1.002464
9588.000000;1.001591
9587.000000;1.001307
9586.000000;1.001450
9585.000000;1.001368
9584.000000;1.000610
9583.000000;0.999355
9582.000000;0.998065
9581.000000;0.996945
9580.000000;0.995959
9579.000000;0.995177
9578.000000;0.994761
9577.000000;0.994590
9576.000000;0.994191
9575.000000;0.993234
9574.000000;0.991966
9573.000000;0.990950
9572.000000;0.990456
9571.000000;0.990292
9570.000000;0.990210
9569.000000;0.990221
9568.000000;0.990332
9567.000000;0.990186
9566.000000;0.989336
9565.000000;0.987909
9564.000000;0.986664
9563.000000;0.986203
9562.000000;0.986270
9561.000000;0.986014
9560.000000;0.984898
9559.000000;0.983195
9558.000000;0.981654
9557.000000;0.980889
9556.000000;0.981069
9555.000000;0.981931
9554.000000;0.982888
9553.000000;0.983283
9552.000000;0.982772
9551.000000;0.981529
9550.000000;0.980037
9549.000000;0.978707
9548.000000;0.977709
9547.000000;0.977045
9546.000000;0.976600
9545.000000;0.976129
9544.000000;0.975410
9543.000000;0.974525
9542.000000;0.973840
9541.000000;0.973570
9540.000000;0.973452
9539.000000;0.973025
9538.000000;0.972216
9537.000000;0.971397
9536.000000;0.970846
9535.000000;0.970364
9534.000000;0.969579
9533.000000;0.968449
9532.000000;0.967276
9531.000000;0.966336
9530.000000;0.965679
9529.000000;0.965223
9528.000000;0.964814
9527.000000;0.964251
9526.000000;0.963434
9525.000000;0.962560
9524.000000;0.961970
9523.000000;0.961753
9522.000000;0.961622
9521.000000;0.961231
9520.000000;0.960523
9519.000000;0.959710
9518.000000;0.959019
9517.000000;0.958470
9516.000000;0.957842
9515.000000;0.956887
9514.000000;0.955709
9513.000000;0.954855
9512.000000;0.954813
9511.000000;0.955380
9510.000000;0.955763
9509.000000;0.955417
9508.000000;0.954581
9507.000000;0.953813
9506.000000;0.953269
9505.000000;0.952691
9504.000000;0.951917
9503.000000;0.951060
9502.000000;0.950247
9501.000000;0.949486
9500.000000;0.948791
9499.000000;0.948169
9498.000000;0.947498
9497.000000;0.946678
9496.000000;0.945916
9495.000000;0.945551
9494.000000;0.945518
9493.000000;0.945334
9492.000000;0.944760
9491.000000;0.944151
9490.000000;0.943897
9489.000000;0.943833
9488.000000;0.943510
9487.000000;0.942843
9486.000000;0.942074
9485.000000;0.941229
9484.000000;0.940136
9483.000000;0.939001
9482.000000;0.938406
9481.000000;0.938524
9480.000000;0.938719
9479.000000;0.938270
9478.000000;0.937234
9477.000000;0.936268
9476.000000;0.935801
9475.000000;0.935725
9474.000000;0.935699
9473.000000;0.935402
9472.000000;0.934556
9471.000000;0.933142
9470.000000;0.931613
9469.000000;0.930562
9468.000000;0.930068
9467.000000;0.929645
9466.000000;0.928927
9465.000000;0.928124
9464.000000;0.927685
9463.000000;0.927759
9462.000000;0.928139
9461.000000;0.928503
9460.000000;0.928507
9459.000000;0.927868
9458.000000;0.926594
9457.000000;0.925074
9456.000000;0.923771
9455.000000;0.922861
9454.000000;0.922262
9453.000000;0.921866
9452.000000;0.921619
9451.000000;0.921489
9450.000000;0.921520
9449.000000;0.921834
9448.000000;0.922416
9447.000000;0.922974
9446.000000;0.923099
9445.000000;0.922514
9444.000000;0.921159
9443.000000;0.919223
9442.000000;0.917193
9441.000000;0.915631
9440.000000;0.914702
9439.000000;0.914080
9438.000000;0.913506
9437.000000;0.913215
9436.000000;0.913535
9435.000000;0.914273
9434.000000;0.914858
9433.000000;0.914947
9432.000000;0.914523
9431.000000;0.913499
9430.000000;0.911751
9429.000000;0.909631
9428.000000;0.907972
9427.000000;0.907336
9426.000000;0.907505
9425.000000;0.907868
9424.000000;0.908055
9423.000000;0.907968
9422.000000;0.907504
9421.000000;0.906626
9420.000000;0.905609
9419.000000;0.904884
9418.000000;0.904586
9417.000000;0.904426
9416.000000;0.904060
9415.000000;0.903428
9414.000000;0.902700
9413.000000;0.902017
9412.000000;0.901359
9411.000000;0.900636
9410.000000;0.899812
9409.000000;0.898924
9408.000000;0.898041
9407.000000;0.897296
9406.000000;0.896931
9405.000000;0.897152
9404.000000;0.897802
9403.000000;0.898301
9402.000000;0.898111
9401.000000;0.897271
9400.000000;0.896257
9399.000000;0.895368
9398.000000;0.894515
9397.000000;0.893649
9396.000000;0.893040
9395.000000;0.892894
9394.000000;0.892922
9393.000000;0.892581
9392.000000;0.891691
9391.000000;0.890599
9390.000000;0.889780
9389.000000;0.889458
9388.000000;0.889563
9387.000000;0.889786
9386.000000;0.889665
9385.000000;0.888892
9384.000000;0.887661
9383.000000;0.886576
9382.000000;0.886112
9381.000000;0.886248
9380.000000;0.886609
9379.000000;0.886801
9378.000000;0.886514
9377.000000;0.885545
9376.000000;0.883978
9375.000000;0.882307
9374.000000;0.881130
9373.000000;0.880649
9372.000000;0.880573
9371.000000;0.880509
9370.000000;0.880295
9369.000000;0.879943
9368.000000;0.879482
9367.000000;0.878967
9366.000000;0.878486
9365.000000;0.877993
9364.000000;0.877274
9363.000000;0.876259
9362.000000;0.875293
9361.000000;0.874826
9360.000000;0.874857
9359.000000;0.874874
9358.000000;0.874441
9357.000000;0.873666
9356.000000;0.872985
9355.000000;0.872605
9354.000000;0.872313
9353.000000;0.871770
9352.000000;0.870888
9351.000000;0.869942
9350.000000;0.869324
9349.000000;0.869180
9348.000000;0.869252
9347.000000;0.869115
9346.000000;0.868572
9345.000000;0.867789
9344.000000;0.867082
9343.000000;0.866690
9342.000000;0.866680
9341.000000;0.866900
9340.000000;0.866971
9339.000000;0.866541
9338.000000;0.865645
9337.000000;0.864666
9336.000000;0.863885
9335.000000;0.863206
9334.000000;0.862406
9333.000000;0.861492
9332.000000;0.860670
9331.000000;0.860104
9330.000000;0.859860
9329.000000;0.859985
9328.000000;0.860444
9327.000000;0.860956
9326.000000;0.861065
9325.000000;0.860453
9324.000000;0.859230
9323.000000;0.857921
9322.000000;0.857114
9321.000000;0.856963
9320.000000;0.856970
9319.000000;0.856437
9318.000000;0.855242
9317.000000;0.854055
9316.000000;0.853628
9315.000000;0.853991
9314.000000;0.854470
9313.000000;0.854448
9312.000000;0.853930
9311.000000;0.853375
9310.000000;0.853098
9309.000000;0.852916
9308.000000;0.852344
9307.000000;0.851182
9306.000000;0.849844
9305.000000;0.849002
9304.000000;0.848869
9303.000000;0.848999
9302.000000;0.848846
9301.000000;0.848342
9300.000000;0.847819
9299.000000;0.847538
9298.000000;0.847476
9297.000000;0.847455
9296.000000;0.847273
9295.000000;0.846805
9294.000000;0.846114
9293.000000;0.845432
9292.000000;0.844892
9291.000000;0.844377
9290.000000;0.843724
9289.000000;0.842930
9288.000000;0.842040
9287.000000;0.841064
9286.000000;0.840194
9285.000000;0.839899
9284.000000;0.840427
9283.000000;0.841294
9282.000000;0.841601
9281.000000;0.840932
9280.000000;0.839700
9279.000000;0.838594
9278.000000;0.837954
9277.000000;0.837752
9276.000000;0.837861
9275.000000;0.838118
9274.000000;0.838276
9273.000000;0.838086
9272.000000;0.837456
9271.000000;0.836476
9270.000000;0.835383
9269.000000;0.834549
9268.000000;0.834286
9267.000000;0.834525
9266.000000;0.834768
9265.000000;0.834560
9264.000000;0.833994
9263.000000;0.833570
9262.000000;0.833499
9261.000000;0.833363
9260.000000;0.832619
9259.000000;0.831349
9258.000000;0.830234
9257.000000;0.829762
9256.000000;0.829711
9255.000000;0.829556
9254.000000;0.829136
9253.000000;0.828645
9252.000000;0.828181
9251.000000;0.827693
9250.000000;0.827355
9249.000000;0.827499
9248.000000;0.828036
9247.000000;0.828297
9246.000000;0.827711
9245.000000;0.826393
9244.000000;0.824919
9243.000000;0.823742
9242.000000;0.823002
9241.000000;0.822647
9240.000000;0.822475
9239.000000;0.822243
9238.000000;0.821976
9237.000000;0.822003
9236.000000;0.822465
9235.000000;0.823002
9234.000000;0.823135
9233.000000;0.822793
9232.000000;0.822189
9231.000000;0.821403
9230.000000;0.820421
9229.000000;0.819416
9228.000000;0.818651
9227.000000;0.818172
9226.000000;0.817881
9225.000000;0.817787
9224.000000;0.817865
9223.000000;0.817835
9222.000000;0.817446
9221.000000;0.816902
9220.000000;0.816611
9219.000000;0.816539
9218.000000;0.816231
9217.000000;0.815488
9216.000000;0.814639
9215.000000;0.814060
9214.000000;0.813781
9213.000000;0.813644
9212.000000;0.813548
9211.000000;0.813413
9210.000000;0.813182
9209.000000;0.812937
9208.000000;0.812816
9207.000000;0.812752
9206.000000;0.812513
9205.000000;0.812009
9204.000000;0.811365
9203.000000;0.810684
9202.000000;0.810046
9201.000000;0.809711
9200.000000;0.809969
9199.000000;0.810670
9198.000000;0.811238
9197.000000;0.811248
9196.000000;0.810751
9195.000000;0.809918
9194.000000;0.808758
9193.000000;0.807367
9192.000000;0.806139
9191.000000;0.805451
9190.000000;0.805275
9189.000000;0.805325
9188.000000;0.805408
9187.000000;0.805466
9186.000000;0.805428
9185.000000;0.805210
9184.000000;0.804772
9183.000000;0.804118
9182.000000;0.803367
9181.000000;0.802873
9180.000000;0.803020
9179.000000;0.803728
9178.000000;0.804326
9177.000000;0.804138
9176.000000;0.803138
9175.000000;0.801895
9174.000000;0.800967
9173.000000;0.800482
9172.000000;0.800205
9171.000000;0.799868
9170.000000;0.799448
9169.000000;0.799179
9168.000000;0.799229
9167.000000;0.799406
9166.000000;0.799323
9165.000000;0.798880
9164.000000;0.798362
9163.000000;0.797999
9162.000000;0.797640
9161.000000;0.797036
9160.000000;0.796284
9159.000000;0.795754
9158.000000;0.795620
9157.000000;0.795630
9156.000000;0.795362
9155.000000;0.794652
9154.000000;0.793755
9153.000000;0.793079
9152.000000;0.792725
9151.000000;0.792379
9150.000000;0.791741
9149.000000;0.790955
9148.000000;0.790406
9147.000000;0.790191
9146.000000;0.790078
9145.000000;0.789955
9144.000000;0.790005
9143.000000;0.790317
9142.000000;0.790644
9141.000000;0.790732
9140.000000;0.790634
9139.000000;0.790510
9138.000000;0.790342
9137.000000;0.790055
9136.000000;0.789721
9135.000000;0.789399
9134.000000;0.788922
9133.000000;0.788128
9132.000000;0.787223
9131.000000;0.786643
9130.000000;0.786563
9129.000000;0.786707
9128.000000;0.786646
9127.000000;0.786163
9126.000000;0.785385
9125.000000;0.784727
9124.000000;0.784645
9123.000000;0.785213
9122.000000;0.785953
9121.000000;0.786209
9120.000000;0.785720
9119.000000;0.784765
9118.000000;0.783830
9117.000000;0.783220
9116.000000;0.782942
9115.000000;0.782773
9114.000000;0.782450
9113.000000;0.781926
9112.000000;0.781449
9111.000000;0.781311
9110.000000;0.781509
9109.000000;0.781789
9108.000000;0.781973
9107.000000;0.782080
9106.000000;0.782118
9105.000000;0.781950
9104.000000;0.781496
9103.000000;0.780934
9102.000000;0.780568
9101.000000;0.780504
9100.000000;0.780552
9099.000000;0.780434
9098.000000;0.780007
9097.000000;0.779292
9096.000000;0.778411
9095.000000;0.777626
9094.000000;0.777301
9093.000000;0.777577
9092.000000;0.778034
9091.000000;0.777903
9090.000000;0.776828
9089.000000;0.775351
9088.000000;0.774394
9087.000000;0.774306
9086.000000;0.774585
9085.000000;0.774548
9084.000000;0.774064
9083.000000;0.773553
9082.000000;0.773416
9081.000000;0.773626
9080.000000;0.773784
9079.000000;0.773482
9078.000000;0.772649
9077.000000;0.771623
9076.000000;0.770863
9075.000000;0.770571
9074.000000;0.770598
9073.000000;0.770704
9072.000000;0.770825
9071.000000;0.771063
9070.000000;0.771493
9069.000000;0.772031
9068.000000;0.772422
9067.000000;0.772347
9066.000000;0.771669
9065.000000;0.770607
9064.000000;0.769587
9063.000000;0.768868
9062.000000;0.768358
9061.000000;0.767849
9060.000000;0.767323
9059.000000;0.766981
9058.000000;0.767041
9057.000000;0.767547
9056.000000;0.768282
9055.000000;0.768847
9054.000000;0.768925
9053.000000;0.768559
9052.000000;0.768081
9051.000000;0.767720
9050.000000;0.767386
9049.000000;0.766905
9048.000000;0.766327
9047.000000;0.765874
9046.000000;0.765643
9045.000000;0.765512
9044.000000;0.765328
9043.000000;0.765096
9042.000000;0.764947
9041.000000;0.764960
9040.000000;0.765034
9039.000000;0.764939
9038.000000;0.764533
9037.000000;0.763928
9036.000000;0.763374
9035.000000;0.762993
9034.000000;0.762723
9033.000000;0.762561
9032.000000;0.762654
9031.000000;0.763025
9030.000000;0.763308
9029.000000;0.763002
9028.000000;0.762029
9027.000000;0.760919
9026.000000;0.760341
9025.000000;0.760475
9024.000000;0.760882
9023.000000;0.760929
9022.000000;0.760309
9021.000000;0.759224
9020.000000;0.758171
9019.000000;0.757599
9018.000000;0.757677
9017.000000;0.758232
9016.000000;0.758815
9015.000000;0.758941
9014.000000;0.758422
9013.000000;0.757530
9012.000000;0.756786
9011.000000;0.756554
9010.000000;0.756798
9009.000000;0.757161
9008.000000;0.757204
9007.000000;0.756678
9006.000000;0.755703
9005.000000;0.754740
9004.000000;0.754276
9003.000000;0.754436
9002.000000;0.754914
9001.000000;0.755277
9000.000000;0.755336
8999.000000;0.755236
8998.000000;0.755259
8997.000000;0.755523
8996.000000;0.755822
8995.000000;0.755769
8994.000000;0.755180
8993.000000;0.754302
8992.000000;0.753589
8991.000000;0.753249
8990.000000;0.753065
8989.000000;0.752672
8988.000000;0.751926
8987.000000;0.751012
8986.000000;0.750280
8985.000000;0.750004
8984.000000;0.750200
8983.000000;0.750631
8982.000000;0.751049
8981.000000;0.751438
8980.000000;0.751927
8979.000000;0.752483
8978.000000;0.752840
8977.000000;0.752781
8976.000000;0.752390
8975.000000;0.751977
8974.000000;0.751803
8973.000000;0.751905
8972.000000;0.752084
8971.000000;0.751988
8970.000000;0.751355
8969.000000;0.750312
8968.000000;0.749359
8967.000000;0.748923
8966.000000;0.748918
8965.000000;0.748868
8964.000000;0.748488
8963.000000;0.748010
8962.000000;0.747897
8961.000000;0.748278
8960.000000;0.748778
8959.000000;0.748881
8958.000000;0.748416
8957.000000;0.747627
8956.000000;0.746839
8955.000000;0.746150
8954.000000;0.745498
8953.000000;0.744921
8952.000000;0.744604
8951.000000;0.744658
8950.000000;0.744939
8949.000000;0.745168
8948.000000;0.745227
8947.000000;0.745270
8946.000000;0.745509
8945.000000;0.745892
8944.000000;0.746064
8943.000000;0.745762
8942.000000;0.745200
8941.000000;0.744890
8940.000000;0.745029
8939.000000;0.745231
8938.000000;0.745009
8937.000000;0.744372
8936.000000;0.743783
8935.000000;0.743603
8934.000000;0.743778
8933.000000;0.744003
8932.000000;0.743974
8931.000000;0.743501
8930.000000;0.742660
8929.000000;0.741869
8928.000000;0.741594
8927.000000;0.741847
8926.000000;0.742151
8925.000000;0.742127
8924.000000;0.741919
8923.000000;0.741887
8922.000000;0.742087
8921.000000;0.742262
8920.000000;0.742240
8919.000000;0.742091
8918.000000;0.741926
8917.000000;0.741763
8916.000000;0.741608
8915.000000;0.741483
8914.000000;0.741349
8913.000000;0.741148
8912.000000;0.740952
8911.000000;0.740906
8910.000000;0.740962
8909.000000;0.740838
8908.000000;0.740400
8907.000000;0.739961
8906.000000;0.740007
8905.000000;0.740633
8904.000000;0.741383
8903.000000;0.741663
8902.000000;0.741205
8901.000000;0.740153
8900.000000;0.738895
8899.000000;0.737910
8898.000000;0.737581
8897.000000;0.737903
8896.000000;0.738381
8895.000000;0.738441
8894.000000;0.738028
8893.000000;0.737670
8892.000000;0.737858
8891.000000;0.738447
8890.000000;0.738794
8889.000000;0.738403
8888.000000;0.737332
8887.000000;0.736027
8886.000000;0.734942
8885.000000;0.734317
8884.000000;0.734174
8883.000000;0.734383
8882.000000;0.734752
8881.000000;0.735141
8880.000000;0.735510
8879.000000;0.735853
8878.000000;0.736116
8877.000000;0.736216
8876.000000;0.736142
8875.000000;0.736015
8874.000000;0.735988
8873.000000;0.736050
8872.000000;0.735967
8871.000000;0.735554
8870.000000;0.735000
8869.000000;0.734791
8868.000000;0.735201
8867.000000;0.735962
8866.000000;0.736525
8865.000000;0.736581
8864.000000;0.736225
8863.000000;0.735705
8862.000000;0.735206
8861.000000;0.734865
8860.000000;0.734764
8859.000000;0.734844
8858.000000;0.734943
8857.000000;0.734963
8856.000000;0.734927
8855.000000;0.734844
8854.000000;0.734670
8853.000000;0.734418
8852.000000;0.734156
8851.000000;0.733855
8850.000000;0.733434
8849.000000;0.733040
8848.000000;0.733095
8847.000000;0.733845
8846.000000;0.734942
8845.000000;0.735696
8844.000000;0.735730
8843.000000;0.735240
8842.000000;0.734636
8841.000000;0.734164
8840.000000;0.733896
8839.000000;0.733863
8838.000000;0.734004
8837.000000;0.734099
8836.000000;0.733918
8835.000000;0.733472
8834.000000;0.733016
8833.000000;0.732821
8832.000000;0.732979
8831.000000;0.733418
8830.000000;0.734002
8829.000000;0.734592
8828.000000;0.735065
8827.000000;0.735336
8826.000000;0.735339
8825.000000;0.735029
8824.000000;0.734448
8823.000000;0.733778
8822.000000;0.733276
8821.000000;0.733102
8820.000000;0.733226
8819.000000;0.733477
8818.000000;0.733644
8817.000000;0.733574
8816.000000;0.733273
8815.000000;0.732921
8814.000000;0.732699
8813.000000;0.732585
8812.000000;0.732450
8811.000000;0.732352
8810.000000;0.732561
8809.000000;0.733170
8808.000000;0.733857
8807.000000;0.734242
8806.000000;0.734342
8805.000000;0.734451
8804.000000;0.734632
8803.000000;0.734662
8802.000000;0.734484
8801.000000;0.734412
8800.000000;0.734695
8799.000000;0.735127
8798.000000;0.735328
8797.000000;0.735274
8796.000000;0.735287
8795.000000;0.735585
8794.000000;0.736017
8793.000000;0.736252
8792.000000;0.736039
8791.000000;0.735333
8790.000000;0.734395
8789.000000;0.733800
8788.000000;0.734092
8787.000000;0.735215
8786.000000;0.736400
8785.000000;0.736800
8784.000000;0.736291
8783.000000;0.735546
8782.000000;0.735316
8781.000000;0.735735
8780.000000;0.736341
8779.000000;0.736677
8778.000000;0.736745
8777.000000;0.736880
8776.000000;0.737292
8775.000000;0.737806
8774.000000;0.738057
8773.000000;0.737871
8772.000000;0.737442
8771.000000;0.737132
8770.000000;0.737130
8769.000000;0.737296
8768.000000;0.737356
8767.000000;0.737213
8766.000000;0.737017
8765.000000;0.736963
8764.000000;0.737095
8763.000000;0.737353
8762.000000;0.737727
8761.000000;0.738251
8760.000000;0.738893
8759.000000;0.739518
8758.000000;0.739989
8757.000000;0.740235
8756.000000;0.740259
8755.000000;0.740150
8754.000000;0.740040
8753.000000;0.739989
8752.000000;0.739924
8751.000000;0.739802
8750.000000;0.739761
8749.000000;0.739981
8748.000000;0.740403
8747.000000;0.740733
8746.000000;0.740788
8745.000000;0.740734
8744.000000;0.740879
8743.000000;0.741320
8742.000000;0.741830
8741.000000;0.742066
8740.000000;0.741887
8739.000000;0.741528
8738.000000;0.741454
8737.000000;0.741930
8736.000000;0.742708
8735.000000;0.743236
8734.000000;0.743179
8733.000000;0.742689
8732.000000;0.742166
8731.000000;0.741912
8730.000000;0.741993
8729.000000;0.742259
8728.000000;0.742423
8727.000000;0.742280
8726.000000;0.741958
8725.000000;0.741827
8724.000000;0.742074
8723.000000;0.742476
8722.000000;0.742708
8721.000000;0.742777
8720.000000;0.742977
8719.000000;0.743449
8718.000000;0.743947
8717.000000;0.744082
8716.000000;0.743754
8715.000000;0.743281
8714.000000;0.743103
8713.000000;0.743366
8712.000000;0.743845
8711.000000;0.744303
8710.000000;0.744766
8709.000000;0.745335
8708.000000;0.745834
8707.000000;0.745943
8706.000000;0.745682
8705.000000;0.745480
8704.000000;0.745630
8703.000000;0.745932
8702.000000;0.746042
8701.000000;0.745969
8700.000000;0.745988
8699.000000;0.746174
8698.000000;0.746319
8697.000000;0.746274
8696.000000;0.746158
8695.000000;0.746196
8694.000000;0.746493
8693.000000;0.746996
8692.000000;0.747546
8691.000000;0.747955
8690.000000;0.748105
8689.000000;0.748018
8688.000000;0.747785
8687.000000;0.747494
8686.000000;0.747242
8685.000000;0.747153
8684.000000;0.747242
8683.000000;0.747321
8682.000000;0.747143
8681.000000;0.746672
8680.000000;0.746152
8679.000000;0.745906
8678.000000;0.746087
8677.000000;0.746603
8676.000000;0.747214
8675.000000;0.747717
8674.000000;0.748062
8673.000000;0.748286
8672.000000;0.748385
8671.000000;0.748343
8670.000000;0.748263
8669.000000;0.748322
8668.000000;0.748554
8667.000000;0.748795
8666.000000;0.748894
8665.000000;0.748866
8664.000000;0.748768
8663.000000;0.748574
8662.000000;0.748282
8661.000000;0.747993
8660.000000;0.747776
8659.000000;0.747567
8658.000000;0.747347
8657.000000;0.747285
8656.000000;0.747529
8655.000000;0.747940
8654.000000;0.748211
8653.000000;0.748211
8652.000000;0.748056
8651.000000;0.747891
8650.000000;0.747754
8649.000000;0.747665
8648.000000;0.747662
8647.000000;0.747717
8646.000000;0.747729
8645.000000;0.747633
8644.000000;0.747452
8643.000000;0.747225
8642.000000;0.746975
8641.000000;0.746766
8640.000000;0.746699
8639.000000;0.746812
8638.000000;0.747011
8637.000000;0.747152
8636.000000;0.747200
8635.000000;0.747288
8634.000000;0.747547
8633.000000;0.747846
8632.000000;0.747803
8631.000000;0.747186
8630.000000;0.746274
8629.000000;0.745626
8628.000000;0.745513
8627.000000;0.745740
8626.000000;0.746040
8625.000000;0.746376
8624.000000;0.746741
8623.000000;0.746928
8622.000000;0.746754
8621.000000;0.746381
8620.000000;0.746167
8619.000000;0.746246
8618.000000;0.746456
8617.000000;0.746628
8616.000000;0.746739
8615.000000;0.746805
8614.000000;0.746785
8613.000000;0.746625
8612.000000;0.746285
8611.000000;0.745758
8610.000000;0.745165
8609.000000;0.744764
8608.000000;0.744729
8607.000000;0.744963
8606.000000;0.745240
8605.000000;0.745476
8604.000000;0.745699
8603.000000;0.745827
8602.000000;0.745684
8601.000000;0.745250
8600.000000;0.744743
8599.000000;0.744399
8598.000000;0.744308
8597.000000;0.744467
8596.000000;0.744851
8595.000000;0.745368
8594.000000;0.745830
8593.000000;0.746034
8592.000000;0.745860
8591.000000;0.745332
8590.000000;0.744655
8589.000000;0.744132
8588.000000;0.743927
8587.000000;0.743919
8586.000000;0.743853
8585.000000;0.743627
8584.000000;0.743324
8583.000000;0.743044
8582.000000;0.742821
8581.000000;0.742674
8580.000000;0.742597
8579.000000;0.742513
8578.000000;0.742352
8577.000000;0.742184
8576.000000;0.742168
8575.000000;0.742337
8574.000000;0.742552
8573.000000;0.742669
8572.000000;0.742687
8571.000000;0.742695
8570.000000;0.742751
8569.000000;0.742829
8568.000000;0.742835
8567.000000;0.742696
8566.000000;0.742479
8565.000000;0.742384
8564.000000;0.742518
8563.000000;0.742724
8562.000000;0.742723
8561.000000;0.742434
8560.000000;0.742045
8559.000000;0.741767
8558.000000;0.741615
8557.000000;0.741474
8556.000000;0.741289
8555.000000;0.741129
8554.000000;0.741050
8553.000000;0.740961
8552.000000;0.740693
8551.000000;0.740259
8550.000000;0.739957
8549.000000;0.740088
8548.000000;0.740575
8547.000000;0.741015
8546.000000;0.741123
8545.000000;0.740960
8544.000000;0.740682
8543.000000;0.740269
8542.000000;0.739702
8541.000000;0.739189
8540.000000;0.738990
8539.000000;0.739071
8538.000000;0.739192
8537.000000;0.739269
8536.000000;0.739410
8535.000000;0.739576
8534.000000;0.739468
8533.000000;0.738916
8532.000000;0.738240
8531.000000;0.738046
8530.000000;0.738639
8529.000000;0.739656
8528.000000;0.740326
8527.000000;0.740139
8526.000000;0.739292
8525.000000;0.738462
8524.000000;0.738111
8523.000000;0.738130
8522.000000;0.738149
8521.000000;0.738014
8520.000000;0.737820
8519.000000;0.737645
8518.000000;0.737502
8517.000000;0.737459
8516.000000;0.737604
8515.000000;0.737863
8514.000000;0.738055
8513.000000;0.738109
8512.000000;0.738086
8511.000000;0.737966
8510.000000;0.737609
8509.000000;0.736984
8508.000000;0.736297
8507.000000;0.735813
8506.000000;0.735646
8505.000000;0.735736
8504.000000;0.735930
8503.000000;0.736072
8502.000000;0.736089
8501.000000;0.736056
8500.000000;0.736100
8499.000000;0.736239
8498.000000;0.736365
8497.000000;0.736355
8496.000000;0.736130
8495.000000;0.735672
8494.000000;0.735100
8493.000000;0.734705
8492.000000;0.734721
8491.000000;0.735079
8490.000000;0.735503
8489.000000;0.735823
8488.000000;0.736034
8487.000000;0.736074
8486.000000;0.735790
8485.000000;0.735208
8484.000000;0.734642
8483.000000;0.734384
8482.000000;0.734411
8481.000000;0.734526
8480.000000;0.734678
8479.000000;0.734966
8478.000000;0.735369
8477.000000;0.735642
8476.000000;0.735549
8475.000000;0.735097
8474.000000;0.734468
8473.000000;0.733797
8472.000000;0.733117
8471.000000;0.732539
8470.000000;0.732346
8469.000000;0.732740
8468.000000;0.733531
8467.000000;0.734224
8466.000000;0.734514
8465.000000;0.734550
8464.000000;0.734620
8463.000000;0.734728
8462.000000;0.734656
8461.000000;0.734350
8460.000000;0.733994
8459.000000;0.733747
8458.000000;0.733596
8457.000000;0.733521
8456.000000;0.733579
8455.000000;0.733758
8454.000000;0.733898
8453.000000;0.733875
8452.000000;0.733716
8451.000000;0.733460
8450.000000;0.733021
8449.000000;0.732341
8448.000000;0.731578
8447.000000;0.731028
8446.000000;0.730860
8445.000000;0.731000
8444.000000;0.731239
8443.000000;0.731399
8442.000000;0.731441
8441.000000;0.731453
8440.000000;0.731520
8439.000000;0.731594
8438.000000;0.731566
8437.000000;0.731484
8436.000000;0.731578
8435.000000;0.731952
8434.000000;0.732377
8433.000000;0.732519
8432.000000;0.732345
8431.000000;0.732106
8430.000000;0.731959
8429.000000;0.731787
8428.000000;0.731483
8427.000000;0.731201
8426.000000;0.731160
8425.000000;0.731286
8424.000000;0.731248
8423.000000;0.730866
8422.000000;0.730329
8421.000000;0.729963
8420.000000;0.729917
8419.000000;0.730094
8418.000000;0.730280
8417.000000;0.730275
8416.000000;0.730025
8415.000000;0.729723
8414.000000;0.729669
8413.000000;0.729919
8412.000000;0.730147
8411.000000;0.730001
8410.000000;0.729528
8409.000000;0.729117
8408.000000;0.729069
8407.000000;0.729360
8406.000000;0.729766
8405.000000;0.730044
8404.000000;0.730029
8403.000000;0.729762
8402.000000;0.729518
8401.000000;0.729518
8400.000000;0.729607
8399.000000;0.729437
8398.000000;0.729009
8397.000000;0.728753
8396.000000;0.728958
8395.000000;0.729389
8394.000000;0.729646
8393.000000;0.729698
8392.000000;0.729784
8391.000000;0.729962
8390.000000;0.730026
8389.000000;0.729836
8388.000000;0.729506
8387.000000;0.729229
8386.000000;0.729096
8385.000000;0.729084
8384.000000;0.729105
8383.000000;0.729052
8382.000000;0.728906
8381.000000;0.728760
8380.000000;0.728665
8379.000000;0.728512
8378.000000;0.728200
8377.000000;0.727824
8376.000000;0.727558
8375.000000;0.727410
8374.000000;0.727275
8373.000000;0.727177
8372.000000;0.727255
8371.000000;0.727487
8370.000000;0.727639
8369.000000;0.727566
8368.000000;0.727405
8367.000000;0.727367
8366.000000;0.727464
8365.000000;0.727531
8364.000000;0.727467
8363.000000;0.727329
8362.000000;0.727231
8361.000000;0.727197
8360.000000;0.727139
8359.000000;0.726968
8358.000000;0.726710
8357.000000;0.726496
8356.000000;0.726431
8355.000000;0.726507
8354.000000;0.726647
8353.000000;0.726749
8352.000000;0.726708
8351.000000;0.726486
8350.000000;0.726250
8349.000000;0.726277
8348.000000;0.726609
8347.000000;0.726891
8346.000000;0.726741
8345.000000;0.726228
8344.000000;0.725819
8343.000000;0.725839
8342.000000;0.726145
8341.000000;0.726369
8340.000000;0.726321
8339.000000;0.726085
8338.000000;0.725849
8337.000000;0.725727
8336.000000;0.725697
8335.000000;0.725623
8334.000000;0.725365
8333.000000;0.724899
8332.000000;0.724331
8331.000000;0.723820
8330.000000;0.723523
8329.000000;0.723571
8328.000000;0.723977
8327.000000;0.724529
8326.000000;0.724877
8325.000000;0.724823
8324.000000;0.724523
8323.000000;0.724311
8322.000000;0.724322
8321.000000;0.724329
8320.000000;0.724017
8319.000000;0.723388
8318.000000;0.722810
8317.000000;0.722635
8316.000000;0.722841
8315.000000;0.723144
8314.000000;0.723374
8313.000000;0.723582
8312.000000;0.723807
8311.000000;0.723919
8310.000000;0.723780
8309.000000;0.723437
8308.000000;0.723059
8307.000000;0.722785
8306.000000;0.722691
8305.000000;0.722797
8304.000000;0.722996
8303.000000;0.723063
8302.000000;0.722867
8301.000000;0.722515
8300.000000;0.722221
8299.000000;0.722082
8298.000000;0.722054
8297.000000;0.722064
8296.000000;0.722048
8295.000000;0.721968
8294.000000;0.721873
8293.000000;0.721866
8292.000000;0.721944
8291.000000;0.721975
8290.000000;0.721917
8289.000000;0.721916
8288.000000;0.722056
8287.000000;0.722150
8286.000000;0.721952
8285.000000;0.721506
8284.000000;0.721096
8283.000000;0.720914
8282.000000;0.720939
8281.000000;0.721071
8280.000000;0.721206
8279.000000;0.721219
8278.000000;0.721076
8277.000000;0.720940
8276.000000;0.720989
8275.000000;0.721139
8274.000000;0.721122
8273.000000;0.720841
8272.000000;0.720459
8271.000000;0.720131
8270.000000;0.719874
8269.000000;0.719701
8268.000000;0.719689
8267.000000;0.719805
8266.000000;0.719852
8265.000000;0.719679
8264.000000;0.719385
8263.000000;0.719189
8262.000000;0.719198
8261.000000;0.719312
8260.000000;0.719339
8259.000000;0.719155
8258.000000;0.718841
8257.000000;0.718631
8256.000000;0.718658
8255.000000;0.718767
8254.000000;0.718695
8253.000000;0.718402
8252.000000;0.718106
8251.000000;0.718011
8250.000000;0.718142
8249.000000;0.718413
8248.000000;0.718707
8247.000000;0.718885
8246.000000;0.718862
8245.000000;0.718718
8244.000000;0.718590
8243.000000;0.718458
8242.000000;0.718213
8241.000000;0.717926
8240.000000;0.717840
8239.000000;0.718036
8238.000000;0.718328
8237.000000;0.718546
8236.000000;0.718748
8235.000000;0.719007
8234.000000;0.719184
8233.000000;0.719086
8232.000000;0.718722
8231.000000;0.718265
8230.000000;0.717836
8229.000000;0.717478
8228.000000;0.717252
8227.000000;0.717212
8226.000000;0.717325
8225.000000;0.717515
8224.000000;0.717715
8223.000000;0.717805
8222.000000;0.717597
8221.000000;0.717039
8220.000000;0.716368
8219.000000;0.715925
8218.000000;0.715853
8217.000000;0.716066
8216.000000;0.716432
8215.000000;0.716834
8214.000000;0.717075
8213.000000;0.716930
8212.000000;0.716380
8211.000000;0.715704
8210.000000;0.715267
8209.000000;0.715224
8208.000000;0.715438
8207.000000;0.715620
8206.000000;0.715575
8205.000000;0.715338
8204.000000;0.715093
8203.000000;0.714954
8202.000000;0.714873
8201.000000;0.714782
8200.000000;0.714728
8199.000000;0.714794
8198.000000;0.714961
8197.000000;0.715148
8196.000000;0.715328
8195.000000;0.715477
8194.000000;0.715460
8193.000000;0.715145
8192.000000;0.714651
8191.000000;0.714301
8190.000000;0.714256
8189.000000;0.714351
8188.000000;0.714368
8187.000000;0.714323
8186.000000;0.714339
8185.000000;0.714332
8184.000000;0.714071
8183.000000;0.713537
8182.000000;0.713047
8181.000000;0.712939
8180.000000;0.713238
8179.000000;0.713707
8178.000000;0.714122
8177.000000;0.714386
8176.000000;0.714459
8175.000000;0.714322
8174.000000;0.714049
8173.000000;0.713790
8172.000000;0.713641
8171.000000;0.713567
8170.000000;0.713484
8169.000000;0.713375
8168.000000;0.713296
8167.000000;0.713297
8166.000000;0.713377
8165.000000;0.713472
8164.000000;0.713479
8163.000000;0.713329
8162.000000;0.713071
8161.000000;0.712865
8160.000000;0.712840
8159.000000;0.712962
8158.000000;0.713070
8157.000000;0.713042
8156.000000;0.712886
8155.000000;0.712690
8154.000000;0.712495
8153.000000;0.712249
8152.000000;0.711890
8151.000000;0.711490
8150.000000;0.711268
8149.000000;0.711404
8148.000000;0.711819
8147.000000;0.712206
8146.000000;0.712305
8145.000000;0.712119
8144.000000;0.711825
8143.000000;0.711547
8142.000000;0.711295
8141.000000;0.711096
8140.000000;0.711034
8139.000000;0.711123
8138.000000;0.711195
8137.000000;0.711038
8136.000000;0.710640
8135.000000;0.710257
8134.000000;0.710184
8133.000000;0.710472
8132.000000;0.710889
8131.000000;0.711147
8130.000000;0.711123
8129.000000;0.710880
8128.000000;0.710539
8127.000000;0.710210
8126.000000;0.709994
8125.000000;0.709948
8124.000000;0.710006
8123.000000;0.710005
8122.000000;0.709851
8121.000000;0.709634
8120.000000;0.709556
8119.000000;0.709735
8118.000000;0.710083
8117.000000;0.710352
8116.000000;0.710316
8115.000000;0.709972
8114.000000;0.709566
8113.000000;0.709383
8112.000000;0.709489
8111.000000;0.709702
8110.000000;0.709803
8109.000000;0.709699
8108.000000;0.709412
8107.000000;0.709032
8106.000000;0.708734
8105.000000;0.708729
8104.000000;0.709077
8103.000000;0.709581
8102.000000;0.709928
8101.000000;0.709945
8100.000000;0.709670
8099.000000;0.709256
8098.000000;0.708857
8097.000000;0.708597
8096.000000;0.708518
8095.000000;0.708569
8094.000000;0.708654
8093.000000;0.708712
8092.000000;0.708718
8091.000000;0.708639
8090.000000;0.708478
8089.000000;0.708319
8088.000000;0.708271
8087.000000;0.708354
8086.000000;0.708476
8085.000000;0.708530
8084.000000;0.708478
8083.000000;0.708335
8082.000000;0.708128
8081.000000;0.707894
8080.000000;0.707669
8079.000000;0.707486
8078.000000;0.707380
8077.000000;0.707388
8076.000000;0.707526
8075.000000;0.707748
8074.000000;0.707960
8073.000000;0.708071
8072.000000;0.708062
8071.000000;0.707985
8070.000000;0.707907
8069.000000;0.707847
8068.000000;0.707788
8067.000000;0.707740
8066.000000;0.707734
8065.000000;0.707728
8064.000000;0.707596
8063.000000;0.707296
8062.000000;0.706994
8061.000000;0.706908
8060.000000;0.707039
8059.000000;0.707178
8058.000000;0.707185
8057.000000;0.707114
8056.000000;0.707050
8055.000000;0.706956
8054.000000;0.706774
8053.000000;0.706555
8052.000000;0.706367
8051.000000;0.706193
8050.000000;0.706004
8049.000000;0.705867
8048.000000;0.705848
8047.000000;0.705888
8046.000000;0.705889
8045.000000;0.705875
8044.000000;0.705916
8043.000000;0.705957
8042.000000;0.705863
8041.000000;0.705641
8040.000000;0.705458
8039.000000;0.705415
8038.000000;0.705445
8037.000000;0.705473
8036.000000;0.705555
8035.000000;0.705766
8034.000000;0.706046
8033.000000;0.706238
8032.000000;0.706251
8031.000000;0.706107
8030.000000;0.705871
8029.000000;0.705594
8028.000000;0.705320
8027.000000;0.705096
8026.000000;0.704951
8025.000000;0.704880
8024.000000;0.704854
8023.000000;0.704861
8022.000000;0.704919
8021.000000;0.705055
8020.000000;0.705249
8019.000000;0.705416
8018.000000;0.705444
8017.000000;0.705285
8016.000000;0.704996
8015.000000;0.704711
8014.000000;0.704549
8013.000000;0.704530
8012.000000;0.704591
8011.000000;0.704673
8010.000000;0.704789
8009.000000;0.704977
8008.000000;0.705201
8007.000000;0.705360
8006.000000;0.705383
8005.000000;0.705290
8004.000000;0.705155
8003.000000;0.705063
8002.000000;0.705076
8001.000000;0.705186
8000.000000;0.705280
7999.000000;0.705239
7998.000000;0.705065
7997.000000;0.704861
7996.000000;0.704683
7995.000000;0.704491
7994.000000;0.704272
7993.000000;0.704113
7992.000000;0.704091
7991.000000;0.704181
7990.000000;0.704326
7989.000000;0.704510
7988.000000;0.704711
7987.000000;0.704836
7986.000000;0.704814
7985.000000;0.704685
7984.000000;0.704540
7983.000000;0.704408
7982.000000;0.704274
7981.000000;0.704157
7980.000000;0.704085
7979.000000;0.704025
7978.000000;0.703926
7977.000000;0.703812
7976.000000;0.703753
7975.000000;0.703761
7974.000000;0.703796
7973.000000;0.703843
7972.000000;0.703919
7971.000000;0.703996
7970.000000;0.703995
7969.000000;0.703890
7968.000000;0.703758
7967.000000;0.703714
7966.000000;0.703806
7965.000000;0.703975
7964.000000;0.704107
7963.000000;0.704117
7962.000000;0.704010
7961.000000;0.703862
7960.000000;0.703737
7959.000000;0.703657
7958.000000;0.703620
7957.000000;0.703622
7956.000000;0.703637
7955.000000;0.703627
7954.000000;0.703578
7953.000000;0.703489
7952.000000;0.703351
7951.000000;0.703199
7950.000000;0.703175
7949.000000;0.703401
7948.000000;0.703774
7947.000000;0.704001
7946.000000;0.703914
7945.000000;0.703640
7944.000000;0.703395
7943.000000;0.703239
7942.000000;0.703124
7941.000000;0.703079
7940.000000;0.703181
7939.000000;0.703376
7938.000000;0.703503
7937.000000;0.703469
7936.000000;0.703343
7935.000000;0.703243
7934.000000;0.703239
7933.000000;0.703334
7932.000000;0.703462
7931.000000;0.703517
7930.000000;0.703444
7929.000000;0.703298
7928.000000;0.703167
7927.000000;0.703078
7926.000000;0.703048
7925.000000;0.703143
7924.000000;0.703394
7923.000000;0.703676
7922.000000;0.703818
7921.000000;0.703818
7920.000000;0.703843
7919.000000;0.703980
7918.000000;0.704111
7917.000000;0.704058
7916.000000;0.703782
7915.000000;0.703410
7914.000000;0.703120
7913.000000;0.703013
7912.000000;0.703035
7911.000000;0.703013
7910.000000;0.702828
7909.000000;0.702568
7908.000000;0.702457
7907.000000;0.702622
7906.000000;0.702975
7905.000000;0.703335
7904.000000;0.703598
7903.000000;0.703753
7902.000000;0.703787
7901.000000;0.703668
7900.000000;0.703418
7899.000000;0.703173
7898.000000;0.703098
7897.000000;0.703229
7896.000000;0.703420
7895.000000;0.703469
7894.000000;0.703324
7893.000000;0.703101
7892.000000;0.702936
7891.000000;0.702865
7890.000000;0.702855
7889.000000;0.702877
7888.000000;0.702899
7887.000000;0.702900
7886.000000;0.702943
7885.000000;0.703136
7884.000000;0.703466
7883.000000;0.703728
7882.000000;0.703735
7881.000000;0.703532
7880.000000;0.703326
7879.000000;0.703224
7878.000000;0.703158
7877.000000;0.703060
7876.000000;0.702985
7875.000000;0.703037
7874.000000;0.703236
7873.000000;0.703513
7872.000000;0.703765
7871.000000;0.703906
7870.000000;0.703896
7869.000000;0.703763
7868.000000;0.703604
7867.000000;0.703523
7866.000000;0.703558
7865.000000;0.703643
7864.000000;0.703690
7863.000000;0.703718
7862.000000;0.703852
7861.000000;0.704138
7860.000000;0.704413
7859.000000;0.704467
7858.000000;0.704309
7857.000000;0.704146
7856.000000;0.704081
7855.000000;0.704020
7854.000000;0.703902
7853.000000;0.703840
7852.000000;0.703921
7851.000000;0.704028
7850.000000;0.704006
7849.000000;0.703902
7848.000000;0.703871
7847.000000;0.703934
7846.000000;0.703989
7845.000000;0.704015
7844.000000;0.704088
7843.000000;0.704219
7842.000000;0.704327
7841.000000;0.704344
7840.000000;0.704256
7839.000000;0.704060
7838.000000;0.703811
7837.000000;0.703678
7836.000000;0.703788
7835.000000;0.704053
7834.000000;0.704268
7833.000000;0.704361
7832.000000;0.704407
7831.000000;0.704414
7830.000000;0.704283
7829.000000;0.704022
7828.000000;0.703821
7827.000000;0.703842
7826.000000;0.704041
7825.000000;0.704258
7824.000000;0.704392
7823.000000;0.704452
7822.000000;0.704515
7821.000000;0.704696
7820.000000;0.705043
7819.000000;0.705438
7818.000000;0.705660
7817.000000;0.705598
7816.000000;0.705360
7815.000000;0.705140
7814.000000;0.705055
7813.000000;0.705105
7812.000000;0.705209
7811.000000;0.705251
7810.000000;0.705178
7809.000000;0.705080
7808.000000;0.705113
7807.000000;0.705289
7806.000000;0.705438
7805.000000;0.705415
7804.000000;0.705265
7803.000000;0.705124
7802.000000;0.705036
7801.000000;0.704937
7800.000000;0.704801
7799.000000;0.704711
7798.000000;0.704783
7797.000000;0.705028
7796.000000;0.705292
7795.000000;0.705357
7794.000000;0.705153
7793.000000;0.704858
7792.000000;0.704751
7791.000000;0.704955
7790.000000;0.705374
7789.000000;0.705832
7788.000000;0.706208
7787.000000;0.706458
7786.000000;0.706594
7785.000000;0.706668
7784.000000;0.706712
7783.000000;0.706686
7782.000000;0.706566
7781.000000;0.706451
7780.000000;0.706485
7779.000000;0.706674
7778.000000;0.706872
7777.000000;0.706993
7776.000000;0.707108
7775.000000;0.707298
7774.000000;0.707498
7773.000000;0.707577
7772.000000;0.707503
7771.000000;0.707367
7770.000000;0.707257
7769.000000;0.707182
7768.000000;0.707096
7767.000000;0.706967
7766.000000;0.706835
7765.000000;0.706798
7764.000000;0.706903
7763.000000;0.707071
7762.000000;0.707179
7761.000000;0.707228
7760.000000;0.707336
7759.000000;0.707559
7758.000000;0.707805
7757.000000;0.707968
7756.000000;0.708055
7755.000000;0.708132
7754.000000;0.708220
7753.000000;0.708297
7752.000000;0.708372
7751.000000;0.708473
7750.000000;0.708607
7749.000000;0.708761
7748.000000;0.708923
7747.000000;0.709049
7746.000000;0.709054
7745.000000;0.708905
7744.000000;0.708701
7743.000000;0.708594
7742.000000;0.708651
7741.000000;0.708801
7740.000000;0.708926
7739.000000;0.708961
7738.000000;0.708942
7737.000000;0.708964
7736.000000;0.709096
7735.000000;0.709290
7734.000000;0.709427
7733.000000;0.709451
7732.000000;0.709436
7731.000000;0.709511
7730.000000;0.709725
7729.000000;0.710019
7728.000000;0.710293
7727.000000;0.710464
7726.000000;0.710492
7725.000000;0.710406
7724.000000;0.710307
7723.000000;0.710312
7722.000000;0.710467
7721.000000;0.710721
7720.000000;0.710963
7719.000000;0.711094
7718.000000;0.711080
7717.000000;0.710977
7716.000000;0.710903
7715.000000;0.710966
7714.000000;0.711212
7713.000000;0.711594
7712.000000;0.712008
7711.000000;0.712333
7710.000000;0.712494
7709.000000;0.712493
7708.000000;0.712390
7707.000000;0.712261
7706.000000;0.712161
7705.000000;0.712115
7704.000000;0.712130
7703.000000;0.712214
7702.000000;0.712405
7701.000000;0.712720
7700.000000;0.713066
7699.000000;0.713264
7698.000000;0.713209
7697.000000;0.713011
7696.000000;0.712911
7695.000000;0.713054
7694.000000;0.713380
7693.000000;0.713716
7692.000000;0.713918
7691.000000;0.713932
7690.000000;0.713785
7689.000000;0.713564
7688.000000;0.713392
7687.000000;0.713395
7686.000000;0.713642
7685.000000;0.714105
7684.000000;0.714640
7683.000000;0.715062
7682.000000;0.715281
7681.000000;0.715371
7680.000000;0.715477
7679.000000;0.715665
7678.000000;0.715888
7677.000000;0.716064
7676.000000;0.716135
7675.000000;0.716074
7674.000000;0.715907
7673.000000;0.715739
7672.000000;0.715712
7671.000000;0.715886
7670.000000;0.716189
7669.000000;0.716467
7668.000000;0.716599
7667.000000;0.716567
7666.000000;0.716487
7665.000000;0.716545
7664.000000;0.716847
7663.000000;0.717313
7662.000000;0.717739
7661.000000;0.717975
7660.000000;0.718016
7659.000000;0.717962
7658.000000;0.717928
7657.000000;0.717984
7656.000000;0.718117
7655.000000;0.718257
7654.000000;0.718370
7653.000000;0.718519
7652.000000;0.718778
7651.000000;0.719104
7650.000000;0.719363
7649.000000;0.719499
7648.000000;0.719603
7647.000000;0.719799
7646.000000;0.720089
7645.000000;0.720364
7644.000000;0.720516
7643.000000;0.720541
7642.000000;0.720544
7641.000000;0.720664
7640.000000;0.720963
7639.000000;0.721371
7638.000000;0.721754
7637.000000;0.722031
7636.000000;0.722205
7635.000000;0.722317
7634.000000;0.722410
7633.000000;0.722529
7632.000000;0.722702
7631.000000;0.722909
7630.000000;0.723104
7629.000000;0.723261
7628.000000;0.723387
7627.000000;0.723491
7626.000000;0.723607
7625.000000;0.723798
7624.000000;0.724070
7623.000000;0.724310
7622.000000;0.724384
7621.000000;0.724326
7620.000000;0.724307
7619.000000;0.724424
7618.000000;0.724589
7617.000000;0.724697
7616.000000;0.724795
7615.000000;0.725019
7614.000000;0.725396
7613.000000;0.725821
7612.000000;0.726185
7611.000000;0.726475
7610.000000;0.726745
7609.000000;0.727057
7608.000000;0.727445
7607.000000;0.727880
7606.000000;0.728255
7605.000000;0.728465
7604.000000;0.728527
7603.000000;0.728588
7602.000000;0.728781
7601.000000;0.729092
7600.000000;0.729402
7599.000000;0.729640
7598.000000;0.729834
7597.000000;0.730011
7596.000000;0.730115
7595.000000;0.730084
7594.000000;0.729995
7593.000000;0.730035
7592.000000;0.730336
7591.000000;0.730868
7590.000000;0.731502
7589.000000;0.732112
7588.000000;0.732588
7587.000000;0.732855
7586.000000;0.732940
7585.000000;0.732971
7584.000000;0.733054
7583.000000;0.733174
7582.000000;0.733284
7581.000000;0.733426
7580.000000;0.733685
7579.000000;0.734044
7578.000000;0.734388
7577.000000;0.734652
7576.000000;0.734879
7575.000000;0.735114
7574.000000;0.735326
7573.000000;0.735467
7572.000000;0.735549
7571.000000;0.735627
7570.000000;0.735756
7569.000000;0.735995
7568.000000;0.736390
7567.000000;0.736918
7566.000000;0.737481
7565.000000;0.737973
7564.000000;0.738357
7563.000000;0.738654
7562.000000;0.738911
7561.000000;0.739183
7560.000000;0.739518
7559.000000;0.739912
7558.000000;0.740301
7557.000000;0.740626
7556.000000;0.740891
7555.000000;0.741151
7554.000000;0.741435
7553.000000;0.741702
7552.000000;0.741881
7551.000000;0.741958
7550.000000;0.742026
7549.000000;0.742214
7548.000000;0.742562
7547.000000;0.742997
7546.000000;0.743431
7545.000000;0.743856
7544.000000;0.744292
7543.000000;0.744702
7542.000000;0.744994
7541.000000;0.745133
7540.000000;0.745190
7539.000000;0.745293
7538.000000;0.745553
7537.000000;0.746009
7536.000000;0.746611
7535.000000;0.747247
7534.000000;0.747822
7533.000000;0.748316
7532.000000;0.748751
7531.000000;0.749130
7530.000000;0.749435
7529.000000;0.749659
7528.000000;0.749805
7527.000000;0.749882
7526.000000;0.749946
7525.000000;0.750120
7524.000000;0.750499
7523.000000;0.751058
7522.000000;0.751680
7521.000000;0.752270
7520.000000;0.752804
7519.000000;0.753282
7518.000000;0.753703
7517.000000;0.754067
7516.000000;0.754375
7515.000000;0.754618
7514.000000;0.754811
7513.000000;0.755012
7512.000000;0.755266
7511.000000;0.755556
7510.000000;0.755864
7509.000000;0.756236
7508.000000;0.756707
7507.000000;0.757212
7506.000000;0.757630
7505.000000;0.757935
7504.000000;0.758213
7503.000000;0.758547
7502.000000;0.758944
7501.000000;0.759385
7500.000000;0.759852
7499.000000;0.760303
7498.000000;0.760684
7497.000000;0.760999
7496.000000;0.761313
7495.000000;0.761683
7494.000000;0.762116
7493.000000;0.762595
7492.000000;0.763096
7491.000000;0.763571
7490.000000;0.763953
7489.000000;0.764205
7488.000000;0.764352
7487.000000;0.764485
7486.000000;0.764748
7485.000000;0.765255
7484.000000;0.765952
7483.000000;0.766604
7482.000000;0.766999
7481.000000;0.767152
7480.000000;0.767262
7479.000000;0.767484
7478.000000;0.767834
7477.000000;0.768259
7476.000000;0.768698
7475.000000;0.769081
7474.000000;0.769384
7473.000000;0.769703
7472.000000;0.770169
7471.000000;0.770797
7470.000000;0.771479
7469.000000;0.772125
7468.000000;0.772708
7467.000000;0.773192
7466.000000;0.773545
7465.000000;0.773832
7464.000000;0.774184
7463.000000;0.774622
7462.000000;0.775028
7461.000000;0.775341
7460.000000;0.775648
7459.000000;0.776049
7458.000000;0.776515
7457.000000;0.776969
7456.000000;0.777419
7455.000000;0.777917
7454.000000;0.778426
7453.000000;0.778838
7452.000000;0.779094
7451.000000;0.779259
7450.000000;0.779475
7449.000000;0.779860
7448.000000;0.780416
7447.000000;0.781025
7446.000000;0.781554
7445.000000;0.781963
7444.000000;0.782278
7443.000000;0.782487
7442.000000;0.782565
7441.000000;0.782580
7440.000000;0.782674
7439.000000;0.782934
7438.000000;0.783337
7437.000000;0.783845
7436.000000;0.784439
7435.000000;0.785043
7434.000000;0.785524
7433.000000;0.785838
7432.000000;0.786090
7431.000000;0.786414
7430.000000;0.786855
7429.000000;0.787384
7428.000000;0.787936
7427.000000;0.788417
7426.000000;0.788767
7425.000000;0.789059
7424.000000;0.789427
7423.000000;0.789874
7422.000000;0.790225
7421.000000;0.790351
7420.000000;0.790335
7419.000000;0.790368
7418.000000;0.790537
7417.000000;0.790815
7416.000000;0.791204
7415.000000;0.791770
7414.000000;0.792530
7413.000000;0.793370
7412.000000;0.794104
7411.000000;0.794604
7410.000000;0.794876
7409.000000;0.795016
7408.000000;0.795083
7407.000000;0.795056
7406.000000;0.794957
7405.000000;0.794951
7404.000000;0.795232
7403.000000;0.795808
7402.000000;0.796472
7401.000000;0.797018
7400.000000;0.797405
7399.000000;0.797703
7398.000000;0.797970
7397.000000;0.798243
7396.000000;0.798515
7395.000000;0.798716
7394.000000;0.798847
7393.000000;0.799119
7392.000000;0.799743
7391.000000;0.800623
7390.000000;0.801425
7389.000000;0.801990
7388.000000;0.802416
7387.000000;0.802744
7386.000000;0.802898
7385.000000;0.802975
7384.000000;0.803190
7383.000000;0.803450
7382.000000;0.803354
7381.000000;0.802809
7380.000000;0.802350
7379.000000;0.802509
7378.000000;0.803135
7377.000000;0.803651
7376.000000;0.803807
7375.000000;0.803940
7374.000000;0.804522
7373.000000;0.805612
7372.000000;0.806828
7371.000000;0.807667
7370.000000;0.807821
7369.000000;0.807452
7368.000000;0.807159
7367.000000;0.807420
7366.000000;0.808181
7365.000000;0.809145
7364.000000;0.810114
7363.000000;0.810920
7362.000000;0.811393
7361.000000;0.811567
7360.000000;0.811745
7359.000000;0.812134
7358.000000;0.812557
7357.000000;0.812680
7356.000000;0.812434
7355.000000;0.812133
7354.000000;0.812163
7353.000000;0.812701
7352.000000;0.813634
7351.000000;0.814570
7350.000000;0.815006
7349.000000;0.814812
7348.000000;0.814479
7347.000000;0.814580
7346.000000;0.815053
7345.000000;0.815342
7344.000000;0.815129
7343.000000;0.814514
7342.000000;0.813652
7341.000000;0.812742
7340.000000;0.812413
7339.000000;0.813527
7338.000000;0.816183
7337.000000;0.819443
7336.000000;0.822220
7335.000000;0.824026
7334.000000;0.824936
7333.000000;0.825239
7332.000000;0.825209
7331.000000;0.825011
7330.000000;0.824554
7329.000000;0.823605
7328.000000;0.822377
7327.000000;0.821826
7326.000000;0.822737
7325.000000;0.824725
7324.000000;0.826784
7323.000000;0.828418
7322.000000;0.829832
7321.000000;0.831260
7320.000000;0.832599
7319.000000;0.833644
7318.000000;0.834283
7317.000000;0.834543
7316.000000;0.834668
7315.000000;0.835008
7314.000000;0.835640
7313.000000;0.836118
7312.000000;0.835984
7311.000000;0.835529
7310.000000;0.835564
7309.000000;0.836330
7308.000000;0.837210
7307.000000;0.837752
7306.000000;0.838409
7305.000000;0.839807
7304.000000;0.841802
7303.000000;0.843807
7302.000000;0.845446
7301.000000;0.846588
7300.000000;0.847169
7299.000000;0.847344
7298.000000;0.847597
7297.000000;0.848251
7296.000000;0.849032
7295.000000;0.849389
7294.000000;0.849363
7293.000000;0.849774
7292.000000;0.851197
7291.000000;0.853231
7290.000000;0.855027
7289.000000;0.856111
7288.000000;0.856679
7287.000000;0.857353
7286.000000;0.858655
7285.000000;0.860569
7284.000000;0.862604
7283.000000;0.864348
7282.000000;0.865805
7281.000000;0.867206
7280.000000;0.868628
7279.000000;0.869914
7278.000000;0.870967
7277.000000;0.871887
7276.000000;0.872814
7275.000000;0.873819
7274.000000;0.874969
7273.000000;0.876319
7272.000000;0.877842
7271.000000;0.879460
7270.000000;0.881080
7269.000000;0.882589
7268.000000;0.883903
7267.000000;0.885129
7266.000000;0.886502
7265.000000;0.888034
7264.000000;0.889384
7263.000000;0.890303
7262.000000;0.891109
7261.000000;0.892430
7260.000000;0.894508
7259.000000;0.896985
7258.000000;0.899348
7257.000000;0.901326
7256.000000;0.902892
7255.000000;0.904111
7254.000000;0.905161
7253.000000;0.906447
7252.000000;0.908486
7251.000000;0.911417
7250.000000;0.914773
7249.000000;0.917821
7248.000000;0.920067
7247.000000;0.921548
7246.000000;0.922611
7245.000000;0.923393
7244.000000;0.923711
7243.000000;0.923742
7242.000000;0.924560
7241.000000;0.927300
7240.000000;0.931816
7239.000000;0.936824
7238.000000;0.941102
7237.000000;0.944152
7236.000000;0.946075
7235.000000;0.947125
7234.000000;0.947519
7233.000000;0.947736
7232.000000;0.948828
7231.000000;0.951824
7230.000000;0.956708
7229.000000;0.962327
7228.000000;0.967281
7227.000000;0.970923
7226.000000;0.973764
7225.000000;0.976875
7224.000000;0.980725
7223.000000;0.984835
7222.000000;0.988510
7221.000000;0.991531
7220.000000;0.994205
7219.000000;0.997091
7218.000000;1.000622
7217.000000;1.004776
7216.000000;1.009123
7215.000000;1.013262
7214.000000;1.017167
7213.000000;1.021069
7212.000000;1.025089
7211.000000;1.029149
7210.000000;1.033202
7209.000000;1.037263
7208.000000;1.041173
7207.000000;1.044624
7206.000000;1.047573
7205.000000;1.050467
7204.000000;1.053923
7203.000000;1.058265
7202.000000;1.063402
7201.000000;1.068971
7200.000000;1.074535
7199.000000;1.079799
7198.000000;1.084761
7197.000000;1.089606
7196.000000;1.094484
7195.000000;1.099457
7194.000000;1.104613
7193.000000;1.109947
7192.000000;1.115201
7191.000000;1.120054
7190.000000;1.124546
7189.000000;1.129061
7188.000000;1.133883
7187.000000;1.138966
7186.000000;1.144162
7185.000000;1.149422
7184.000000;1.154579
7183.000000;1.159241
7182.000000;1.163280
7181.000000;1.167346
7180.000000;1.172403
7179.000000;1.178712
7178.000000;1.185680
7177.000000;1.192521
7176.000000;1.198803
7175.000000;1.204569
7174.000000;1.210175
7173.000000;1.215935
7172.000000;1.221801
7171.000000;1.227390
7170.000000;1.232452
7169.000000;1.237221
7168.000000;1.242281
7167.000000;1.248001
7166.000000;1.254173
7165.000000;1.260330
7164.000000;1.266195
7163.000000;1.271749
7162.000000;1.277143
7161.000000;1.282751
7160.000000;1.289076
7159.000000;1.296266
7158.000000;1.303912
7157.000000;1.311430
7156.000000;1.318470
7155.000000;1.324972
7154.000000;1.331041
7153.000000;1.336866
7152.000000;1.342754
7151.000000;1.348922
7150.000000;1.355258
7149.000000;1.361475
7148.000000;1.367463
7147.000000;1.373257
7146.000000;1.378805
7145.000000;1.384042
7144.000000;1.389144
7143.000000;1.394515
7142.000000;1.400421
7141.000000;1.406728
7140.000000;1.413065
7139.000000;1.419264
7138.000000;1.425588
7137.000000;1.432391
7136.000000;1.439647
7135.000000;1.446891
7134.000000;1.453622
7133.000000;1.459683
7132.000000;1.465282
7131.000000;1.470721
7130.000000;1.476222
7129.000000;1.481908
7128.000000;1.487790
7127.000000;1.493819
7126.000000;1.500018
7125.000000;1.506394
7124.000000;1.512666
7123.000000;1.518329
7122.000000;1.523240
7121.000000;1.527862
7120.000000;1.532632
7119.000000;1.537397
7118.000000;1.541931
7117.000000;1.546777
7116.000000;1.552808
7115.000000;1.559959
7114.000000;1.567131
7113.000000;1.573330
7112.000000;1.578391
7111.000000;1.582681
7110.000000;1.586644
7109.000000;1.590705
7108.000000;1.595201
7107.000000;1.600171
7106.000000;1.605394
7105.000000;1.610729
7104.000000;1.616161
7103.000000;1.621421
7102.000000;1.626089
7101.000000;1.630221
7100.000000;1.634408
7099.000000;1.639064
7098.000000;1.644012
7097.000000;1.648873
7096.000000;1.653539
7095.000000;1.658172
7094.000000;1.663024
7093.000000;1.668258
7092.000000;1.673619
7091.000000;1.678353
7090.000000;1.681920
7089.000000;1.684783
7088.000000;1.688035
7087.000000;1.692183
7086.000000;1.696685
7085.000000;1.700712
7084.000000;1.703947
7083.000000;1.706635
7082.000000;1.709417
7081.000000;1.713119
7080.000000;1.718044
7079.000000;1.723390
7078.000000;1.727953
7077.000000;1.731422
7076.000000;1.734421
7075.000000;1.737394
7074.000000;1.740199
7073.000000;1.742780
7072.000000;1.745426
7071.000000;1.748220
7070.000000;1.751030
7069.000000;1.754174
7068.000000;1.758280
7067.000000;1.763184
7066.000000;1.767701
7065.000000;1.770943
7064.000000;1.773228
7063.000000;1.775311
7062.000000;1.777423
7061.000000;1.779517
7060.000000;1.781770
7059.000000;1.784296
7058.000000;1.786864
7057.000000;1.789268
7056.000000;1.791565
7055.000000;1.793715
7054.000000;1.795476
7053.000000;1.796908
7052.000000;1.798479
7051.000000;1.800406
7050.000000;1.802372
7049.000000;1.804134
7048.000000;1.805908
7047.000000;1.807986
7046.000000;1.810477
7045.000000;1.813585
7044.000000;1.817462
7043.000000;1.821560
7042.000000;1.824764
7041.000000;1.826562
7040.000000;1.827534
7039.000000;1.828446
7038.000000;1.829616
7037.000000;1.831337
7036.000000;1.833981
7035.000000;1.837170
7034.000000;1.839616
7033.000000;1.840458
7032.000000;1.840290
7031.000000;1.840365
7030.000000;1.841307
7029.000000;1.843019
7028.000000;1.845196
7027.000000;1.847376
7026.000000;1.849092
7025.000000;1.850482
7024.000000;1.852195
7023.000000;1.854260
7022.000000;1.855751
7021.000000;1.856191
7020.000000;1.856522
7019.000000;1.857840
7018.000000;1.859753
7017.000000;1.860893
7016.000000;1.860802
7015.000000;1.860426
7014.000000;1.860846
7013.000000;1.862298
7012.000000;1.864400
7011.000000;1.866641
7010.000000;1.868551
7009.000000;1.869874
7008.000000;1.870724
7007.000000;1.871354
7006.000000;1.871821
7005.000000;1.872065
7004.000000;1.872182
7003.000000;1.872392
7002.000000;1.872879
7001.000000;1.873858
7000.000000;1.875603
6999.000000;1.878182
6998.000000;1.881193
6997.000000;1.883790
6996.000000;1.884962
6995.000000;1.884030
6994.000000;1.881377
6993.000000;1.878651
6992.000000;1.877641
6991.000000;1.878675
6990.000000;1.880431
6989.000000;1.881450
6988.000000;1.881472
6987.000000;1.881119
6986.000000;1.880896
6985.000000;1.880896
6984.000000;1.881069
6983.000000;1.881296
6982.000000;1.881419
6981.000000;1.881437
6980.000000;1.881561
6979.000000;1.882027
6978.000000;1.883111
6977.000000;1.885139
6976.000000;1.887890
6975.000000;1.889977
6974.000000;1.889775
6973.000000;1.887384
6972.000000;1.884902
6971.000000;1.884256
6970.000000;1.885416
6969.000000;1.887081
6968.000000;1.888379
6967.000000;1.889197
6966.000000;1.889462
6965.000000;1.889075
6964.000000;1.888449
6963.000000;1.888275
6962.000000;1.888655
6961.000000;1.888988
6960.000000;1.888796
6959.000000;1.888254
6958.000000;1.887848
6957.000000;1.887855
6956.000000;1.888202
6955.000000;1.888612
6954.000000;1.888844
6953.000000;1.888873
6952.000000;1.888758
6951.000000;1.888295
6950.000000;1.887111
6949.000000;1.885249
6948.000000;1.883403
6947.000000;1.882330
6946.000000;1.882250
6945.000000;1.882995
6944.000000;1.884373
6943.000000;1.886026
6942.000000;1.887233
6941.000000;1.887391
6940.000000;1.886672
6939.000000;1.885848
6938.000000;1.885415
6937.000000;1.885251
6936.000000;1.885153
6935.000000;1.885244
6934.000000;1.885689
6933.000000;1.886310
6932.000000;1.886731
6931.000000;1.886756
6930.000000;1.886385
6929.000000;1.885532
6928.000000;1.884096
6927.000000;1.882332
6926.000000;1.880852
6925.000000;1.880038
6924.000000;1.879683
6923.000000;1.879474
6922.000000;1.879610
6921.000000;1.880455
6920.000000;1.881588
6919.000000;1.881842
6918.000000;1.880645
6917.000000;1.878888
6916.000000;1.877956
6915.000000;1.878150
6914.000000;1.878519
6913.000000;1.878100
6912.000000;1.876857
6911.000000;1.875488
6910.000000;1.874770
6909.000000;1.875105
6908.000000;1.876302
6907.000000;1.877671
6906.000000;1.878514
6905.000000;1.878530
6904.000000;1.877762
6903.000000;1.876409
6902.000000;1.874864
6901.000000;1.873643
6900.000000;1.872974
6899.000000;1.872658
6898.000000;1.872571
6897.000000;1.872937
6896.000000;1.873725
6895.000000;1.874182
6894.000000;1.873555
6893.000000;1.872007
6892.000000;1.870200
6891.000000;1.868295
6890.000000;1.866084
6889.000000;1.863901
6888.000000;1.862541
6887.000000;1.862230
6886.000000;1.862404
6885.000000;1.862596
6884.000000;1.862929
6883.000000;1.863556
6882.000000;1.864162
6881.000000;1.864272
6880.000000;1.863609
6879.000000;1.862043
6878.000000;1.859673
6877.000000;1.857115
6876.000000;1.855312
6875.000000;1.854851
6874.000000;1.855680
6873.000000;1.857417
6872.000000;1.859470
6871.000000;1.860898
6870.000000;1.860784
6869.000000;1.859100
6868.000000;1.856822
6867.000000;1.854968
6866.000000;1.853826
6865.000000;1.853190
6864.000000;1.852876
6863.000000;1.852736
6862.000000;1.852464
6861.000000;1.851698
6860.000000;1.850312
6859.000000;1.848524
6858.000000;1.846739
6857.000000;1.845241
6856.000000;1.843901
6855.000000;1.842318
6854.000000;1.840379
6853.000000;1.838481
6852.000000;1.837025
6851.000000;1.835979
6850.000000;1.835182
6849.000000;1.834725
6848.000000;1.834656
6847.000000;1.834565
6846.000000;1.833966
6845.000000;1.832894
6844.000000;1.831664
6843.000000;1.830292
6842.000000;1.828683
6841.000000;1.827162
6840.000000;1.826186
6839.000000;1.825635
6838.000000;1.824962
6837.000000;1.823878
6836.000000;1.822377
6835.000000;1.820285
6834.000000;1.817540
6833.000000;1.814818
6832.000000;1.813105
6831.000000;1.812550
6830.000000;1.812354
6829.000000;1.811819
6828.000000;1.810869
6827.000000;1.809522
6826.000000;1.807629
6825.000000;1.805320
6824.000000;1.803018
6823.000000;1.800810
6822.000000;1.798457
6821.000000;1.796208
6820.000000;1.794828
6819.000000;1.794489
6818.000000;1.794276
6817.000000;1.793238
6816.000000;1.791370
6815.000000;1.789140
6814.000000;1.786644
6813.000000;1.783804
6812.000000;1.780932
6811.000000;1.778462
6810.000000;1.776366
6809.000000;1.774344
6808.000000;1.772411
6807.000000;1.770798
6806.000000;1.769386
6805.000000;1.767687
6804.000000;1.765417
6803.000000;1.762746
6802.000000;1.759951
6801.000000;1.757102
6800.000000;1.754198
6799.000000;1.751457
6798.000000;1.749264
6797.000000;1.747758
6796.000000;1.746510
6795.000000;1.744779
6794.000000;1.742187
6793.000000;1.738973
6792.000000;1.735512
6791.000000;1.731865
6790.000000;1.728110
6789.000000;1.724848
6788.000000;1.722810
6787.000000;1.721929
6786.000000;1.721188
6785.000000;1.719572
6784.000000;1.716914
6783.000000;1.713788
6782.000000;1.710881
6781.000000;1.708594
6780.000000;1.706886
6779.000000;1.705311
6778.000000;1.703339
6777.000000;1.700780
6776.000000;1.697847
6775.000000;1.694884
6774.000000;1.692198
6773.000000;1.689958
6772.000000;1.687931
6771.000000;1.685452
6770.000000;1.682124
6769.000000;1.678503
6768.000000;1.675585
6767.000000;1.673590
6766.000000;1.671755
6765.000000;1.669427
6764.000000;1.666860
6763.000000;1.664634
6762.000000;1.662744
6761.000000;1.660624
6760.000000;1.657879
6759.000000;1.654685
6758.000000;1.651547
6757.000000;1.648903
6756.000000;1.646823
6755.000000;1.644909
6754.000000;1.642593
6753.000000;1.639686
6752.000000;1.636546
6751.000000;1.633681
6750.000000;1.631355
6749.000000;1.629524
6748.000000;1.627857
6747.000000;1.625802
6746.000000;1.622973
6745.000000;1.619638
6744.000000;1.616523
6743.000000;1.613997
6742.000000;1.611698
6741.000000;1.609110
6740.000000;1.606210
6739.000000;1.603315
6738.000000;1.600544
6737.000000;1.597726
6736.000000;1.594741
6735.000000;1.591735
6734.000000;1.589006
6733.000000;1.586793
6732.000000;1.585078
6731.000000;1.583483
6730.000000;1.581493
6729.000000;1.578872
6728.000000;1.575815
6727.000000;1.572654
6726.000000;1.569617
6725.000000;1.566899
6724.000000;1.564710
6723.000000;1.563040
6722.000000;1.561504
6721.000000;1.559624
6720.000000;1.557254
6719.000000;1.554618
6718.000000;1.551996
6717.000000;1.549436
6716.000000;1.546772
6715.000000;1.543824
6714.000000;1.540713
6713.000000;1.537871
6712.000000;1.535599
6711.000000;1.533647
6710.000000;1.531456
6709.000000;1.528794
6708.000000;1.526033
6707.000000;1.523595
6706.000000;1.521357
6705.000000;1.518921
6704.000000;1.516192
6703.000000;1.513493
6702.000000;1.511150
6701.000000;1.509134
6700.000000;1.507104
6699.000000;1.504716
6698.000000;1.501899
6697.000000;1.498934
6696.000000;1.496257
6695.000000;1.494113
6694.000000;1.492397
6693.000000;1.490786
6692.000000;1.488957
6691.000000;1.486688
6690.000000;1.483946
6689.000000;1.480942
6688.000000;1.477995
6687.000000;1.475250
6686.000000;1.472605
6685.000000;1.469959
6684.000000;1.467397
6683.000000;1.465032
6682.000000;1.462801
6681.000000;1.460527
6680.000000;1.458159
6679.000000;1.455815
6678.000000;1.453599
6677.000000;1.451491
6676.000000;1.449410
6675.000000;1.447333
6674.000000;1.445322
6673.000000;1.443425
6672.000000;1.441567
6671.000000;1.439557
6670.000000;1.437270
6669.000000;1.434785
6668.000000;1.432311
6667.000000;1.429966
6666.000000;1.427685
6665.000000;1.425328
6664.000000;1.422789
6663.000000;1.420029
6662.000000;1.417123
6661.000000;1.414271
6660.000000;1.411697
6659.000000;1.409460
6658.000000;1.407426
6657.000000;1.405418
6656.000000;1.403347
6655.000000;1.401230
6654.000000;1.399172
6653.000000;1.397293
6652.000000;1.395589
6651.000000;1.393849
6650.000000;1.391829
6649.000000;1.389501
6648.000000;1.387056
6647.000000;1.384677
6646.000000;1.382432
6645.000000;1.380356
6644.000000;1.378485
6643.000000;1.376751
6642.000000;1.374987
6641.000000;1.373068
6640.000000;1.370950
6639.000000;1.368570
6638.000000;1.365873
6637.000000;1.363024
6636.000000;1.360423
6635.000000;1.358365
6634.000000;1.356728
6633.000000;1.355097
6632.000000;1.353168
6631.000000;1.350944
6630.000000;1.348644
6629.000000;1.346509
6628.000000;1.344668
6627.000000;1.343059
6626.000000;1.341463
6625.000000;1.339665
6624.000000;1.337609
6623.000000;1.335373
6622.000000;1.333047
6621.000000;1.330694
6620.000000;1.328409
6619.000000;1.326294
6618.000000;1.324342
6617.000000;1.322415
6616.000000;1.320379
6615.000000;1.318264
6614.000000;1.316236
6613.000000;1.314396
6612.000000;1.312653
6611.000000;1.310801
6610.000000;1.308728
6609.000000;1.306503
6608.000000;1.304300
6607.000000;1.302262
6606.000000;1.300437
6605.000000;1.298771
6604.000000;1.297135
6603.000000;1.295402
6602.000000;1.293547
6601.000000;1.291653
6600.000000;1.289802
6599.000000;1.287991
6598.000000;1.286174
6597.000000;1.284334
6596.000000;1.282474
6595.000000;1.280602
6594.000000;1.278754
6593.000000;1.276984
6592.000000;1.275272
6591.000000;1.273500
6590.000000;1.271585
6589.000000;1.269582
6588.000000;1.267601
6587.000000;1.265676
6586.000000;1.263790
6585.000000;1.261984
6584.000000;1.260317
6583.000000;1.258749
6582.000000;1.257144
6581.000000;1.255414
6580.000000;1.253582
6579.000000;1.251690
6578.000000;1.249747
6577.000000;1.247778
6576.000000;1.245872
6575.000000;1.244110
6574.000000;1.242482
6573.000000;1.240904
6572.000000;1.239319
6571.000000;1.237756
6570.000000;1.236269
6569.000000;1.234823
6568.000000;1.233280
6567.000000;1.231549
6566.000000;1.229724
6565.000000;1.227988
6564.000000;1.226385
6563.000000;1.224791
6562.000000;1.223116
6561.000000;1.221438
6560.000000;1.219859
6559.000000;1.218338
6558.000000;1.216761
6557.000000;1.215092
6556.000000;1.213362
6555.000000;1.211601
6554.000000;1.209868
6553.000000;1.208286
6552.000000;1.206908
6551.000000;1.205574
6550.000000;1.204040
6549.000000;1.202240
6548.000000;1.200324
6547.000000;1.198462
6546.000000;1.196732
6545.000000;1.195150
6544.000000;1.193698
6543.000000;1.192290
6542.000000;1.190824
6541.000000;1.189295
6540.000000;1.187792
6539.000000;1.186373
6538.000000;1.185026
6537.000000;1.183727
6536.000000;1.182447
6535.000000;1.181107
6534.000000;1.179650
6533.000000;1.178139
6532.000000;1.176685
6531.000000;1.175245
6530.000000;1.173630
6529.000000;1.171773
6528.000000;1.169876
6527.000000;1.168224
6526.000000;1.166897
6525.000000;1.165736
6524.000000;1.164513
6523.000000;1.163116
6522.000000;1.161591
6521.000000;1.160085
6520.000000;1.158716
6519.000000;1.157472
6518.000000;1.156238
6517.000000;1.154936
6516.000000;1.153580
6515.000000;1.152204
6514.000000;1.150797
6513.000000;1.149343
6512.000000;1.147857
6511.000000;1.146371
6510.000000;1.144914
6509.000000;1.143521
6508.000000;1.142214
6507.000000;1.140940
6506.000000;1.139592
6505.000000;1.138127
6504.000000;1.136630
6503.000000;1.135222
6502.000000;1.133931
6501.000000;1.132691
6500.000000;1.131458
6499.000000;1.130263
6498.000000;1.129139
6497.000000;1.128044
6496.000000;1.126875
6495.000000;1.125585
6494.000000;1.124246
6493.000000;1.122981
6492.000000;1.121810
6491.000000;1.120632
6490.000000;1.119342
6489.000000;1.117943
6488.000000;1.116512
6487.000000;1.115105
6486.000000;1.113746
6485.000000;1.112456
6484.000000;1.111226
6483.000000;1.109995
6482.000000;1.108726
6481.000000;1.107484
6480.000000;1.106368
6479.000000;1.105351
6478.000000;1.104278
6477.000000;1.103035
6476.000000;1.101673
6475.000000;1.100327
6474.000000;1.099090
6473.000000;1.097970
6472.000000;1.096925
6471.000000;1.095892
6470.000000;1.094812
6469.000000;1.093674
6468.000000;1.092534
6467.000000;1.091441
6466.000000;1.090371
6465.000000;1.089243
6464.000000;1.088011
6463.000000;1.086714
6462.000000;1.085436
6461.000000;1.084227
6460.000000;1.083070
6459.000000;1.081930
6458.000000;1.080811
6457.000000;1.079737
6456.000000;1.078695
6455.000000;1.077641
6454.000000;1.076567
6453.000000;1.075520
6452.000000;1.074513
6451.000000;1.073480
6450.000000;1.072367
6449.000000;1.071219
6448.000000;1.070130
6447.000000;1.069117
6446.000000;1.068100
6445.000000;1.066987
6444.000000;1.065753
6443.000000;1.064451
6442.000000;1.063185
6441.000000;1.062070
6440.000000;1.061132
6439.000000;1.060261
6438.000000;1.059312
6437.000000;1.058250
6436.000000;1.057168
6435.000000;1.056145
6434.000000;1.055165
6433.000000;1.054163
6432.000000;1.053105
6431.000000;1.052003
6430.000000;1.050882
6429.000000;1.049773
6428.000000;1.048704
6427.000000;1.047674
6426.000000;1.046659
6425.000000;1.045651
6424.000000;1.044661
6423.000000;1.043689
6422.000000;1.042723
6421.000000;1.041775
6420.000000;1.040889
6419.000000;1.040084
6418.000000;1.039315
6417.000000;1.038516
6416.000000;1.037671
6415.000000;1.036822
6414.000000;1.036007
6413.000000;1.035199
6412.000000;1.034311
6411.000000;1.033272
6410.000000;1.032112
6409.000000;1.030965
6408.000000;1.029964
6407.000000;1.029131
6406.000000;1.028369
6405.000000;1.027573
6404.000000;1.026709
6403.000000;1.025809
6402.000000;1.024908
6401.000000;1.024023
6400.000000;1.023176
6399.000000;1.022385
6398.000000;1.021622
6397.000000;1.020799
6396.000000;1.019839
6395.000000;1.018771
6394.000000;1.017726
6393.000000;1.016819
6392.000000;1.016055
6391.000000;1.015339
6390.000000;1.014580
6389.000000;1.013751
6388.000000;1.012873
6387.000000;1.011982
6386.000000;1.011114
6385.000000;1.010293
6384.000000;1.009511
6383.000000;1.008733
6382.000000;1.007924
6381.000000;1.007066
6380.000000;1.006169
6379.000000;1.005279
6378.000000;1.004456
6377.000000;1.003712
6376.000000;1.002985
6375.000000;1.002214
6374.000000;1.001409
6373.000000;1.000619
6372.000000;0.999843
6371.000000;0.999042
6370.000000;0.998227
6369.000000;0.997458
6368.000000;0.996743
6367.000000;0.996018
6366.000000;0.995239
6365.000000;0.994448
6364.000000;0.993702
6363.000000;0.993000
6362.000000;0.992315
6361.000000;0.991632
6360.000000;0.990929
6359.000000;0.990176
6358.000000;0.989409
6357.000000;0.988735
6356.000000;0.988203
6355.000000;0.987715
6354.000000;0.987112
6353.000000;0.986333
6352.000000;0.985435
6351.000000;0.984502
6350.000000;0.983607
6349.000000;0.982826
6348.000000;0.982201
6347.000000;0.981670
6346.000000;0.981098
6345.000000;0.980398
6344.000000;0.979594
6343.000000;0.978756
6342.000000;0.977920
6341.000000;0.977091
6340.000000;0.976289
6339.000000;0.975568
6338.000000;0.974966
6337.000000;0.974449
6336.000000;0.973916
6335.000000;0.973300
6334.000000;0.972649
6333.000000;0.972065
6332.000000;0.971563
6331.000000;0.971048
6330.000000;0.970429
6329.000000;0.969730
6328.000000;0.969044
6327.000000;0.968436
6326.000000;0.967893
6325.000000;0.967341
6324.000000;0.966673
6323.000000;0.965826
6322.000000;0.964881
6321.000000;0.964034
6320.000000;0.963404
6319.000000;0.962913
6318.000000;0.962404
6317.000000;0.961838
6316.000000;0.961290
6315.000000;0.960790
6314.000000;0.960254
6313.000000;0.959596
6312.000000;0.958837
6311.000000;0.958072
6310.000000;0.957375
6309.000000;0.956745
6308.000000;0.956120
6307.000000;0.955444
6306.000000;0.954734
6305.000000;0.954092
6304.000000;0.953608
6303.000000;0.953267
6302.000000;0.952954
6301.000000;0.952554
6300.000000;0.952023
6299.000000;0.951373
6298.000000;0.950648
6297.000000;0.949899
6296.000000;0.949174
6295.000000;0.948508
6294.000000;0.947930
6293.000000;0.947451
6292.000000;0.947031
6291.000000;0.946593
6290.000000;0.946104
6289.000000;0.945616
6288.000000;0.945191
6287.000000;0.944788
6286.000000;0.944303
6285.000000;0.943690
6284.000000;0.942999
6283.000000;0.942296
6282.000000;0.941603
6281.000000;0.940940
6280.000000;0.940366
6279.000000;0.939931
6278.000000;0.939608
6277.000000;0.939279
6276.000000;0.938826
6275.000000;0.938220
6274.000000;0.937545
6273.000000;0.936926
6272.000000;0.936425
6271.000000;0.936002
6270.000000;0.935585
6269.000000;0.935142
6268.000000;0.934683
6267.000000;0.934229
6266.000000;0.933792
6265.000000;0.933374
6264.000000;0.932948
6263.000000;0.932455
6262.000000;0.931869
6261.000000;0.931242
6260.000000;0.930668
6259.000000;0.930179
6258.000000;0.929719
6257.000000;0.929220
6256.000000;0.928671
6255.000000;0.928126
6254.000000;0.927647
6253.000000;0.927249
6252.000000;0.926878
6251.000000;0.926448
6250.000000;0.925925
6249.000000;0.925368
6248.000000;0.924865
6247.000000;0.924431
6246.000000;0.923998
6245.000000;0.923509
6244.000000;0.922998
6243.000000;0.922558
6242.000000;0.922238
6241.000000;0.921988
6240.000000;0.921706
6239.000000;0.921319
6238.000000;0.920829
6237.000000;0.920278
6236.000000;0.919707
6235.000000;0.919142
6234.000000;0.918610
6233.000000;0.918128
6232.000000;0.917691
6231.000000;0.917287
6230.000000;0.916919
6229.000000;0.916590
6228.000000;0.916259
6227.000000;0.915866
6226.000000;0.915396
6225.000000;0.914900
6224.000000;0.914430
6223.000000;0.913995
6222.000000;0.913581
6221.000000;0.913183
6220.000000;0.912780
6219.000000;0.912341
6218.000000;0.911862
6217.000000;0.911403
6216.000000;0.911028
6215.000000;0.910731
6214.000000;0.910434
6213.000000;0.910062
6212.000000;0.909610
6211.000000;0.909155
6210.000000;0.908794
6209.000000;0.908552
6208.000000;0.908339
6207.000000;0.908027
6206.000000;0.907579
6205.000000;0.907071
6204.000000;0.906602
6203.000000;0.906201
6202.000000;0.905856
6201.000000;0.905561
6200.000000;0.905297
6199.000000;0.905016
6198.000000;0.904681
6197.000000;0.904307
6196.000000;0.903923
6195.000000;0.903518
6194.000000;0.903083
6193.000000;0.902662
6192.000000;0.902311
6191.000000;0.902006
6190.000000;0.901648
6189.000000;0.901181
6188.000000;0.900647
6187.000000;0.900134
6186.000000;0.899696
6185.000000;0.899344
6184.000000;0.899075
6183.000000;0.898871
6182.000000;0.898683
6181.000000;0.898436
6180.000000;0.898092
6179.000000;0.897688
6178.000000;0.897308
6177.000000;0.897009
6176.000000;0.896769
6175.000000;0.896513
6174.000000;0.896178
6173.000000;0.895759
6172.000000;0.895303
6171.000000;0.894890
6170.000000;0.894580
6169.000000;0.894357
6168.000000;0.894145
6167.000000;0.893897
6166.000000;0.893658
6165.000000;0.893488
6164.000000;0.893338
6163.000000;0.893083
6162.000000;0.892674
6161.000000;0.892199
6160.000000;0.891774
6159.000000;0.891435
6158.000000;0.891166
6157.000000;0.890948
6156.000000;0.890735
6155.000000;0.890445
6154.000000;0.890045
6153.000000;0.889600
6152.000000;0.889196
6151.000000;0.888836
6150.000000;0.888473
6149.000000;0.888108
6148.000000;0.887797
6147.000000;0.887560
6146.000000;0.887346
6145.000000;0.887096
6144.000000;0.886781
6143.000000;0.886413
6142.000000;0.886026
6141.000000;0.885681
6140.000000;0.885422
6139.000000;0.885248
6138.000000;0.885119
6137.000000;0.885003
6136.000000;0.884870
6135.000000;0.884684
6134.000000;0.884416
6133.000000;0.884086
6132.000000;0.883738
6131.000000;0.883393
6130.000000;0.883052
6129.000000;0.882723
6128.000000;0.882428
6127.000000;0.882163
6126.000000;0.881909
6125.000000;0.881663
6124.000000;0.881437
6123.000000;0.881228
6122.000000;0.881008
6121.000000;0.880753
6120.000000;0.880466
6119.000000;0.880160
6118.000000;0.879847
6117.000000;0.879537
6116.000000;0.879237
6115.000000;0.878946
6114.000000;0.878665
6113.000000;0.878392
6112.000000;0.878118
6111.000000;0.877822
6110.000000;0.877501
6109.000000;0.877193
6108.000000;0.876948
6107.000000;0.876784
6106.000000;0.876671
6105.000000;0.876545
6104.000000;0.876350
6103.000000;0.876071
6102.000000;0.875757
6101.000000;0.875491
6100.000000;0.875311
6099.000000;0.875182
6098.000000;0.875039
6097.000000;0.874846
6096.000000;0.874611
6095.000000;0.874359
6094.000000;0.874123
6093.000000;0.873918
6092.000000;0.873717
6091.000000;0.873468
6090.000000;0.873167
6089.000000;0.872887
6088.000000;0.872701
6087.000000;0.872597
6086.000000;0.872486
6085.000000;0.872302
6084.000000;0.872057
6083.000000;0.871804
6082.000000;0.871581
6081.000000;0.871394
6080.000000;0.871227
6079.000000;0.871068
6078.000000;0.870918
6077.000000;0.870766
6076.000000;0.870584
6075.000000;0.870345
6074.000000;0.870071
6073.000000;0.869815
6072.000000;0.869582
6071.000000;0.869322
6070.000000;0.869005
6069.000000;0.868692
6068.000000;0.868466
6067.000000;0.868326
6066.000000;0.868189
6065.000000;0.867991
6064.000000;0.867749
6063.000000;0.867521
6062.000000;0.867355
6061.000000;0.867267
6060.000000;0.867229
6059.000000;0.867173
6058.000000;0.867033
6057.000000;0.866809
6056.000000;0.866558
6055.000000;0.866315
6054.000000;0.866068
6053.000000;0.865809
6052.000000;0.865582
6051.000000;0.865440
6050.000000;0.865353
6049.000000;0.865213
6048.000000;0.864946
6047.000000;0.864600
6046.000000;0.864303
6045.000000;0.864145
6044.000000;0.864101
6043.000000;0.864075
6042.000000;0.864005
6041.000000;0.863902
6040.000000;0.863809
6039.000000;0.863736
6038.000000;0.863645
6037.000000;0.863488
6036.000000;0.863263
6035.000000;0.863032
6034.000000;0.862865
6033.000000;0.862774
6032.000000;0.862696
6031.000000;0.862561
6030.000000;0.862364
6029.000000;0.862147
6028.000000;0.861943
6027.000000;0.861759
6026.000000;0.861617
6025.000000;0.861547
6024.000000;0.861545
6023.000000;0.861552
6022.000000;0.861514
6021.000000;0.861421
6020.000000;0.861297
6019.000000;0.861167
6018.000000;0.861052
6017.000000;0.860960
6016.000000;0.860866
6015.000000;0.860727
6014.000000;0.860549
6013.000000;0.860397
6012.000000;0.860337
6011.000000;0.860359
6010.000000;0.860391
6009.000000;0.860361
6008.000000;0.860249
6007.000000;0.860085
6006.000000;0.859924
6005.000000;0.859803
6004.000000;0.859710
6003.000000;0.859600
6002.000000;0.859464
6001.000000;0.859339
6000.000000;0.859252
5999.000000;0.859169
5998.000000;0.859033
5997.000000;0.858843
5996.000000;0.858660
5995.000000;0.858554
5994.000000;0.858548
5993.000000;0.858611
5992.000000;0.858672
5991.000000;0.858651
5990.000000;0.858508
5989.000000;0.858280
5988.000000;0.858063
5987.000000;0.857938
5986.000000;0.857912
5985.000000;0.857930
5984.000000;0.857933
5983.000000;0.857917
5982.000000;0.857918
5981.000000;0.857949
5980.000000;0.857963
5979.000000;0.857902
5978.000000;0.857773
5977.000000;0.857646
5976.000000;0.857581
5975.000000;0.857574
5974.000000;0.857590
5973.000000;0.857605
5972.000000;0.857615
5971.000000;0.857614
5970.000000;0.857600
5969.000000;0.857578
5968.000000;0.857547
5967.000000;0.857493
5966.000000;0.857400
5965.000000;0.857281
5964.000000;0.857166
5963.000000;0.857086
5962.000000;0.857061
5961.000000;0.857089
5960.000000;0.857140
5959.000000;0.857163
5958.000000;0.857134
5957.000000;0.857074
5956.000000;0.857021
5955.000000;0.856997
5954.000000;0.857007
5953.000000;0.857053
5952.000000;0.857128
5951.000000;0.857204
5950.000000;0.857247
5949.000000;0.857258
5948.000000;0.857260
5947.000000;0.857257
5946.000000;0.857217
5945.000000;0.857116
5944.000000;0.856982
5943.000000;0.856874
5942.000000;0.856821
5941.000000;0.856797
5940.000000;0.856779
5939.000000;0.856796
5938.000000;0.856886
5937.000000;0.857018
5936.000000;0.857110
5935.000000;0.857130
5934.000000;0.857137
5933.000000;0.857189
5932.000000;0.857273
5931.000000;0.857343
5930.000000;0.857399
5929.000000;0.857463
5928.000000;0.857527
5927.000000;0.857564
5926.000000;0.857578
5925.000000;0.857595
5924.000000;0.857605
5923.000000;0.857578
5922.000000;0.857527
5921.000000;0.857510
5920.000000;0.857571
5919.000000;0.857712
5918.000000;0.857916
5917.000000;0.858145
5916.000000;0.858328
5915.000000;0.858396
5914.000000;0.858364
5913.000000;0.858319
5912.000000;0.858336
5911.000000;0.858414
5910.000000;0.858513
5909.000000;0.858611
5908.000000;0.858702
5907.000000;0.858782
5906.000000;0.858855
5905.000000;0.858929
5904.000000;0.858998
5903.000000;0.859041
5902.000000;0.859061
5901.000000;0.859091
5900.000000;0.859169
5899.000000;0.859297
5898.000000;0.859450
5897.000000;0.859584
5896.000000;0.859669
5895.000000;0.859712
5894.000000;0.859765
5893.000000;0.859864
5892.000000;0.859979
5891.000000;0.860056
5890.000000;0.860091
5889.000000;0.860127
5888.000000;0.860195
5887.000000;0.860291
5886.000000;0.860418
5885.000000;0.860586
5884.000000;0.860763
5883.000000;0.860891
5882.000000;0.860956
5881.000000;0.861018
5880.000000;0.861131
5879.000000;0.861283
5878.000000;0.861427
5877.000000;0.861540
5876.000000;0.861623
5875.000000;0.861681
5874.000000;0.861723
5873.000000;0.861757
5872.000000;0.861795
5871.000000;0.861867
5870.000000;0.862036
5869.000000;0.862346
5868.000000;0.862757
5867.000000;0.863170
5866.000000;0.863507
5865.000000;0.863756
5864.000000;0.863919
5863.000000;0.863997
5862.000000;0.864019
5861.000000;0.864053
5860.000000;0.864146
5859.000000;0.864290
5858.000000;0.864457
5857.000000;0.864633
5856.000000;0.864815
5855.000000;0.865003
5854.000000;0.865205
5853.000000;0.865418
5852.000000;0.865598
5851.000000;0.865700
5850.000000;0.865757
5849.000000;0.865871
5848.000000;0.866104
5847.000000;0.866415
5846.000000;0.866725
5845.000000;0.866996
5844.000000;0.867232
5843.000000;0.867438
5842.000000;0.867627
5841.000000;0.867840
5840.000000;0.868114
5839.000000;0.868443
5838.000000;0.868795
5837.000000;0.869140
5836.000000;0.869460
5835.000000;0.869759
5834.000000;0.870067
5833.000000;0.870416
5832.000000;0.870790
5831.000000;0.871128
5830.000000;0.871403
5829.000000;0.871642
5828.000000;0.871886
5827.000000;0.872137
5826.000000;0.872389
5825.000000;0.872655
5824.000000;0.872944
5823.000000;0.873231
5822.000000;0.873488
5821.000000;0.873723
5820.000000;0.873966
5819.000000;0.874228
5818.000000;0.874498
5817.000000;0.874759
5816.000000;0.875004
5815.000000;0.875239
5814.000000;0.875487
5813.000000;0.875777
5812.000000;0.876125
5811.000000;0.876525
5810.000000;0.876960
5809.000000;0.877390
5808.000000;0.877764
5807.000000;0.878080
5806.000000;0.878409
5805.000000;0.878819
5804.000000;0.879285
5803.000000;0.879723
5802.000000;0.880101
5801.000000;0.880460
5800.000000;0.880824
5799.000000;0.881159
5798.000000;0.881446
5797.000000;0.881726
5796.000000;0.882048
5795.000000;0.882416
5794.000000;0.882819
5793.000000;0.883263
5792.000000;0.883741
5791.000000;0.884223
5790.000000;0.884693
5789.000000;0.885166
5788.000000;0.885646
5787.000000;0.886101
5786.000000;0.886513
5785.000000;0.886915
5784.000000;0.887333
5783.000000;0.887743
5782.000000;0.888106
5781.000000;0.888433
5780.000000;0.888775
5779.000000;0.889167
5778.000000;0.889614
5777.000000;0.890110
5776.000000;0.890639
5775.000000;0.891174
5774.000000;0.891694
5773.000000;0.892200
5772.000000;0.892695
5771.000000;0.893185
5770.000000;0.893688
5769.000000;0.894222
5768.000000;0.894770
5767.000000;0.895290
5766.000000;0.895760
5765.000000;0.896193
5764.000000;0.896610
5763.000000;0.897031
5762.000000;0.897493
5761.000000;0.898027
5760.000000;0.898604
5759.000000;0.899162
5758.000000;0.899703
5757.000000;0.900293
5756.000000;0.900950
5755.000000;0.901603
5754.000000;0.902177
5753.000000;0.902688
5752.000000;0.903203
5751.000000;0.903764
5750.000000;0.904382
5749.000000;0.905063
5748.000000;0.905786
5747.000000;0.906487
5746.000000;0.907107
5745.000000;0.907654
5744.000000;0.908188
5743.000000;0.908749
5742.000000;0.909343
5741.000000;0.909952
5740.000000;0.910557
5739.000000;0.911151
5738.000000;0.911758
5737.000000;0.912414
5736.000000;0.913114
5735.000000;0.913818
5734.000000;0.914501
5733.000000;0.915183
5732.000000;0.915879
5731.000000;0.916570
5730.000000;0.917231
5729.000000;0.917862
5728.000000;0.918475
5727.000000;0.919077
5726.000000;0.919690
5725.000000;0.920347
5724.000000;0.921052
5723.000000;0.921769
5722.000000;0.922475
5721.000000;0.923187
5720.000000;0.923922
5719.000000;0.924662
5718.000000;0.925383
5717.000000;0.926090
5716.000000;0.926796
5715.000000;0.927505
5714.000000;0.928225
5713.000000;0.928962
5712.000000;0.929683
5711.000000;0.930346
5710.000000;0.930978
5709.000000;0.931682
5708.000000;0.932523
5707.000000;0.933456
5706.000000;0.934395
5705.000000;0.935307
5704.000000;0.936187
5703.000000;0.937012
5702.000000;0.937760
5701.000000;0.938463
5700.000000;0.939177
5699.000000;0.939910
5698.000000;0.940631
5697.000000;0.941347
5696.000000;0.942109
5695.000000;0.942958
5694.000000;0.943874
5693.000000;0.944783
5692.000000;0.945620
5691.000000;0.946385
5690.000000;0.947144
5689.000000;0.947954
5688.000000;0.948791
5687.000000;0.949582
5686.000000;0.950320
5685.000000;0.951089
5684.000000;0.951952
5683.000000;0.952872
5682.000000;0.953770
5681.000000;0.954614
5680.000000;0.955407
5679.000000;0.956140
5678.000000;0.956812
5677.000000;0.957481
5676.000000;0.958220
5675.000000;0.959039
5674.000000;0.959891
5673.000000;0.960729
5672.000000;0.961538
5671.000000;0.962306
5670.000000;0.963022
5669.000000;0.963710
5668.000000;0.964423
5667.000000;0.965194
5666.000000;0.966007
5665.000000;0.966816
5664.000000;0.967582
5663.000000;0.968313
5662.000000;0.969066
5661.000000;0.969892
5660.000000;0.970776
5659.000000;0.971637
5658.000000;0.972422
5657.000000;0.973150
5656.000000;0.973889
5655.000000;0.974683
5654.000000;0.975534
5653.000000;0.976408
5652.000000;0.977246
5651.000000;0.978010
5650.000000;0.978709
5649.000000;0.979375
5648.000000;0.980014
5647.000000;0.980620
5646.000000;0.981228
5645.000000;0.981901
5644.000000;0.982634
5643.000000;0.983353
5642.000000;0.984010
5641.000000;0.984640
5640.000000;0.985292
5639.000000;0.985953
5638.000000;0.986592
5637.000000;0.987225
5636.000000;0.987885
5635.000000;0.988574
5634.000000;0.989265
5633.000000;0.989946
5632.000000;0.990601
5631.000000;0.991197
5630.000000;0.991721
5629.000000;0.992216
5628.000000;0.992745
5627.000000;0.993315
5626.000000;0.993879
5625.000000;0.994384
5624.000000;0.994826
5623.000000;0.995256
5622.000000;0.995742
5621.000000;0.996315
5620.000000;0.996933
5619.000000;0.997523
5618.000000;0.998063
5617.000000;0.998594
5616.000000;0.999146
5615.000000;0.999699
5614.000000;1.000215
5613.000000;1.000675
5612.000000;1.001059
5611.000000;1.001353
5610.000000;1.001599
5609.000000;1.001885
5608.000000;1.002270
5607.000000;1.002732
5606.000000;1.003216
5605.000000;1.003690
5604.000000;1.004124
5603.000000;1.004498
5602.000000;1.004843
5601.000000;1.005221
5600.000000;1.005636
5599.000000;1.006012
5598.000000;1.006306
5597.000000;1.006578
5596.000000;1.006900
5595.000000;1.007260
5594.000000;1.007599
5593.000000;1.007896
5592.000000;1.008155
5591.000000;1.008360
5590.000000;1.008513
5589.000000;1.008668
5588.000000;1.008873
5587.000000;1.009114
5586.000000;1.009355
5585.000000;1.009597
5584.000000;1.009836
5583.000000;1.010019
5582.000000;1.010111
5581.000000;1.010190
5580.000000;1.010376
5579.000000;1.010687
5578.000000;1.011015
5577.000000;1.011250
5576.000000;1.011377
5575.000000;1.011464
5574.000000;1.011589
5573.000000;1.011790
5572.000000;1.012029
5571.000000;1.012228
5570.000000;1.012349
5569.000000;1.012427
5568.000000;1.012514
5567.000000;1.012614
5566.000000;1.012700
5565.000000;1.012764
5564.000000;1.012825
5563.000000;1.012903
5562.000000;1.013015
5561.000000;1.013174
5560.000000;1.013352
5559.000000;1.013490
5558.000000;1.013561
5557.000000;1.013591
5556.000000;1.013614
5555.000000;1.013624
5554.000000;1.013605
5553.000000;1.013556
5552.000000;1.013484
5551.000000;1.013400
5550.000000;1.013339
5549.000000;1.013339
5548.000000;1.013381
5547.000000;1.013406
5546.000000;1.013407
5545.000000;1.013441
5544.000000;1.013532
5543.000000;1.013633
5542.000000;1.013713
5541.000000;1.013806
5540.000000;1.013943
5539.000000;1.014088
5538.000000;1.014179
5537.000000;1.014188
5536.000000;1.014125
5535.000000;1.014009
5534.000000;1.013881
5533.000000;1.013797
5532.000000;1.013787
5531.000000;1.013838
5530.000000;1.013922
5529.000000;1.014021
5528.000000;1.014111
5527.000000;1.014170
5526.000000;1.014208
5525.000000;1.014264
5524.000000;1.014341
5523.000000;1.014404
5522.000000;1.014456
5521.000000;1.014552
5520.000000;1.014738
5519.000000;1.014994
5518.000000;1.015257
5517.000000;1.015464
5516.000000;1.015556
5515.000000;1.015508
5514.000000;1.015376
5513.000000;1.015259
5512.000000;1.015214
5511.000000;1.015238
5510.000000;1.015315
5509.000000;1.015410
5508.000000;1.015473
5507.000000;1.015495
5506.000000;1.015559
5505.000000;1.015749
5504.000000;1.016016
5503.000000;1.016239
5502.000000;1.016408
5501.000000;1.016608
5500.000000;1.016865
5499.000000;1.017100
5498.000000;1.017240
5497.000000;1.017347
5496.000000;1.017541
5495.000000;1.017824
5494.000000;1.018038
5493.000000;1.018036
5492.000000;1.017886
5491.000000;1.017794
5490.000000;1.017901
5489.000000;1.018174
5488.000000;1.018492
5487.000000;1.018808
5486.000000;1.019157
5485.000000;1.019571
5484.000000;1.020000
5483.000000;1.020388
5482.000000;1.020784
5481.000000;1.021196
5480.000000;1.021508
5479.000000;1.021694
5478.000000;1.021922
5477.000000;1.022282
5476.000000;1.022561
5475.000000;1.022586
5474.000000;1.022610
5473.000000;1.022998
5472.000000;1.023760
5471.000000;1.024603
5470.000000;1.025297
5469.000000;1.025810
5468.000000;1.026214
5467.000000;1.026590
5466.000000;1.027001
5465.000000;1.027477
5464.000000;1.027981
5463.000000;1.028472
5462.000000;1.028975
5461.000000;1.029472
5460.000000;1.029872
5459.000000;1.030235
5458.000000;1.030816
5457.000000;1.031705
5456.000000;1.032650
5455.000000;1.033387
5454.000000;1.033976
5453.000000;1.034678
5452.000000;1.035592
5451.000000;1.036526
5450.000000;1.037260
5449.000000;1.037795
5448.000000;1.038372
5447.000000;1.039194
5446.000000;1.040122
5445.000000;1.040866
5444.000000;1.041456
5443.000000;1.042241
5442.000000;1.043406
5441.000000;1.044684
5440.000000;1.045696
5439.000000;1.046457
5438.000000;1.047372
5437.000000;1.048717
5436.000000;1.050251
5435.000000;1.051530
5434.000000;1.052424
5433.000000;1.053169
5432.000000;1.054112
5431.000000;1.055443
5430.000000;1.056950
5429.000000;1.058268
5428.000000;1.059408
5427.000000;1.060702
5426.000000;1.062342
5425.000000;1.064232
5424.000000;1.066148
5423.000000;1.067951
5422.000000;1.069686
5421.000000;1.071489
5420.000000;1.073358
5419.000000;1.075103
5418.000000;1.076669
5417.000000;1.078281
5416.000000;1.080140
5415.000000;1.082091
5414.000000;1.083852
5413.000000;1.085525
5412.000000;1.087458
5411.000000;1.089754
5410.000000;1.092197
5409.000000;1.094594
5408.000000;1.096977
5407.000000;1.099489
5406.000000;1.102220
5405.000000;1.105119
5404.000000;1.108044
5403.000000;1.110946
5402.000000;1.113819
5401.000000;1.116709
5400.000000;1.119719
5399.000000;1.122800
5398.000000;1.125826
5397.000000;1.128852
5396.000000;1.132069
5395.000000;1.135532
5394.000000;1.139085
5393.000000;1.142661
5392.000000;1.146332
5391.000000;1.150061
5390.000000;1.153797
5389.000000;1.157692
5388.000000;1.161972
5387.000000;1.166586
5386.000000;1.171212
5385.000000;1.175638
5384.000000;1.180053
5383.000000;1.184797
5382.000000;1.189880
5381.000000;1.195081
5380.000000;1.200349
5379.000000;1.205795
5378.000000;1.211386
5377.000000;1.216958
5376.000000;1.222569
5375.000000;1.228470
5374.000000;1.234739
5373.000000;1.241265
5372.000000;1.247948
5371.000000;1.254779
5370.000000;1.261814
5369.000000;1.269096
5368.000000;1.276617
5367.000000;1.284353
5366.000000;1.292304
5365.000000;1.300421
5364.000000;1.308648
5363.000000;1.317035
5362.000000;1.325709
5361.000000;1.334785
5360.000000;1.344240
5359.000000;1.353879
5358.000000;1.363542
5357.000000;1.373331
5356.000000;1.383520
5355.000000;1.394204
5354.000000;1.405190
5353.000000;1.416293
5352.000000;1.427589
5351.000000;1.439300
5350.000000;1.451494
5349.000000;1.463963
5348.000000;1.476503
5347.000000;1.489262
5346.000000;1.502623
5345.000000;1.516780
5344.000000;1.531567
5343.000000;1.546658
5342.000000;1.561885
5341.000000;1.577515
5340.000000;1.593821
5339.000000;1.610652
5338.000000;1.627799
5337.000000;1.645258
5336.000000;1.663016
5335.000000;1.681130
5334.000000;1.699905
5333.000000;1.719483
5332.000000;1.739520
5331.000000;1.759677
5330.000000;1.780184
5329.000000;1.801568
5328.000000;1.823839
5327.000000;1.846326
5326.000000;1.868475
5325.000000;1.890440
5324.000000;1.912791
5323.000000;1.936006
5322.000000;1.960185
5321.000000;1.984870
5320.000000;2.009344
5319.000000;2.033541
5318.000000;2.058331
5317.000000;2.084363
5316.000000;2.110960
5315.000000;2.136892
5314.000000;2.162015
5313.000000;2.187179
5312.000000;2.212855
5311.000000;2.238813
5310.000000;2.264663
5309.000000;2.289771
5308.000000;2.313228
5307.000000;2.335154
5306.000000;2.357195
5305.000000;2.380384
5304.000000;2.403510
5303.000000;2.424961
5302.000000;2.445093
5301.000000;2.465059
5300.000000;2.484477
5299.000000;2.502380
5298.000000;2.519479
5297.000000;2.537217
5296.000000;2.555175
5295.000000;2.571552
5294.000000;2.585636
5293.000000;2.597762
5292.000000;2.607839
5291.000000;2.615888
5290.000000;2.622867
5289.000000;2.628964
5288.000000;2.632664
5287.000000;2.633758
5286.000000;2.635238
5285.000000;2.640094
5284.000000;2.647986
5283.000000;2.656600
5282.000000;2.664818
5281.000000;2.672381
5280.000000;2.678009
5279.000000;2.680702
5278.000000;2.681596
5277.000000;2.682230
5276.000000;2.682529
5275.000000;2.682442
5274.000000;2.683413
5273.000000;2.685894
5272.000000;2.687546
5271.000000;2.686407
5270.000000;2.683910
5269.000000;2.682571
5268.000000;2.682386
5267.000000;2.681583
5266.000000;2.679914
5265.000000;2.678889
5264.000000;2.679346
5263.000000;2.680811
5262.000000;2.682548
5261.000000;2.683728
5260.000000;2.683645
5259.000000;2.682859
5258.000000;2.682802
5257.000000;2.683311
5256.000000;2.682398
5255.000000;2.679871
5254.000000;2.678942
5253.000000;2.682143
5252.000000;2.687832
5251.000000;2.692773
5250.000000;2.695950
5249.000000;2.697935
5248.000000;2.698612
5247.000000;2.697553
5246.000000;2.695423
5245.000000;2.693224
5244.000000;2.691165
5243.000000;2.689656
5242.000000;2.689782
5241.000000;2.691297
5240.000000;2.692050
5239.000000;2.690999
5238.000000;2.690019
5237.000000;2.690991
5236.000000;2.692611
5235.000000;2.692396
5234.000000;2.690631
5233.000000;2.689469
5232.000000;2.689405
5231.000000;2.689402
5230.000000;2.689563
5229.000000;2.691139
5228.000000;2.694026
5227.000000;2.696163
5226.000000;2.695733
5225.000000;2.693130
5224.000000;2.690543
5223.000000;2.690104
5222.000000;2.692354
5221.000000;2.695866
5220.000000;2.698554
5219.000000;2.699693
5218.000000;2.700007
5217.000000;2.699823
5216.000000;2.698950
5215.000000;2.698434
5214.000000;2.700048
5213.000000;2.703399
5212.000000;2.705433
5211.000000;2.703902
5210.000000;2.699937
5209.000000;2.696284
5208.000000;2.694712
5207.000000;2.695805
5206.000000;2.699030
5205.000000;2.701927
5204.000000;2.701762
5203.000000;2.699210
5202.000000;2.697735
5201.000000;2.698563
5200.000000;2.699005
5199.000000;2.696805
5198.000000;2.693352
5197.000000;2.690544
5196.000000;2.687471
5195.000000;2.682979
5194.000000;2.679076
5193.000000;2.678514
5192.000000;2.680519
5191.000000;2.681784
5190.000000;2.681158
5189.000000;2.680656
5188.000000;2.681859
5187.000000;2.683708
5186.000000;2.683970
5185.000000;2.681479
5184.000000;2.677308
5183.000000;2.674683
5182.000000;2.676894
5181.000000;2.683988
5180.000000;2.691886
5179.000000;2.696405
5178.000000;2.697715
5177.000000;2.698481
5176.000000;2.698986
5175.000000;2.697289
5174.000000;2.693314
5173.000000;2.689546
5172.000000;2.687647
5171.000000;2.686941
5170.000000;2.686552
5169.000000;2.686903
5168.000000;2.688318
5167.000000;2.689965
5166.000000;2.691129
5165.000000;2.692277
5164.000000;2.694033
5163.000000;2.695817
5162.000000;2.695935
5161.000000;2.692945
5160.000000;2.687434
5159.000000;2.682803
5158.000000;2.683384
5157.000000;2.690362
5156.000000;2.699236
5155.000000;2.702810
5154.000000;2.698069
5153.000000;2.688649
5152.000000;2.680106
5151.000000;2.675256
5150.000000;2.674133
5149.000000;2.675903
5148.000000;2.679374
5147.000000;2.682594
5146.000000;2.683587
5145.000000;2.681943
5144.000000;2.679399
5143.000000;2.678439
5142.000000;2.680171
5141.000000;2.683531
5140.000000;2.686607
5139.000000;2.688671
5138.000000;2.690354
5137.000000;2.692172
5136.000000;2.693864
5135.000000;2.695093
5134.000000;2.695684
5133.000000;2.694853
5132.000000;2.691566
5131.000000;2.686350
5130.000000;2.681707
5129.000000;2.679907
5128.000000;2.680797
5127.000000;2.682295
5126.000000;2.682645
5125.000000;2.681692
5124.000000;2.680396
5123.000000;2.679864
5122.000000;2.680695
5121.000000;2.682483
5120.000000;2.684211
5119.000000;2.685579
5118.000000;2.687417
5117.000000;2.690393
5116.000000;2.693773
5115.000000;2.695739
5114.000000;2.694746
5113.000000;2.690548
5112.000000;2.684557
5111.000000;2.679462
5110.000000;2.677572
5109.000000;2.678932
5108.000000;2.681579
5107.000000;2.683850
5106.000000;2.685519
5105.000000;2.686377
5104.000000;2.685381
5103.000000;2.682586
5102.000000;2.680706
5101.000000;2.682848
5100.000000;2.688961
5099.000000;2.695608
5098.000000;2.699234
5097.000000;2.698959
5096.000000;2.696155
5095.000000;2.692397
5094.000000;2.688395
5093.000000;2.684208
5092.000000;2.679947
5091.000000;2.676331
5090.000000;2.674548
5089.000000;2.675438
5088.000000;2.678848
5087.000000;2.683672
5086.000000;2.688234
5085.000000;2.691105
5084.000000;2.692321
5083.000000;2.693406
5082.000000;2.695178
5081.000000;2.695718
5080.000000;2.692008
5079.000000;2.684036
5078.000000;2.675562
5077.000000;2.670338
5076.000000;2.669205
5075.000000;2.671082
5074.000000;2.674997
5073.000000;2.679790
5072.000000;2.682884
5071.000000;2.682124
5070.000000;2.678896
5069.000000;2.676780
5068.000000;2.677333
5067.000000;2.678787
5066.000000;2.678487
5065.000000;2.675878
5064.000000;2.672940
5063.000000;2.672075
5062.000000;2.673791
5061.000000;2.676270
5060.000000;2.677161
5059.000000;2.675639
5058.000000;2.672524
5057.000000;2.668867
5056.000000;2.665232
5055.000000;2.662232
5054.000000;2.660748
5053.000000;2.661097
5052.000000;2.662471
5051.000000;2.663579
5050.000000;2.663554
5049.000000;2.662261
5048.000000;2.660326
5047.000000;2.659137
5046.000000;2.660067
5045.000000;2.663134
5044.000000;2.666924
5043.000000;2.669954
5042.000000;2.671420
5041.000000;2.670735
5040.000000;2.667712
5039.000000;2.663566
5038.000000;2.660318
5037.000000;2.658628
5036.000000;2.657236
5035.000000;2.654855
5034.000000;2.651625
5033.000000;2.648356
5032.000000;2.645651
5031.000000;2.644373
5030.000000;2.645572
5029.000000;2.648873
5028.000000;2.651813
5027.000000;2.652101
5026.000000;2.650088
5025.000000;2.647831
5024.000000;2.646603
5023.000000;2.646169
5022.000000;2.645524
5021.000000;2.643588
5020.000000;2.639667
5019.000000;2.634294
5018.000000;2.629241
5017.000000;2.625644
5016.000000;2.622842
5015.000000;2.620058
5014.000000;2.618243
5013.000000;2.618735
5012.000000;2.620458
5011.000000;2.620092
5010.000000;2.615611
5009.000000;2.608448
5008.000000;2.601568
5007.000000;2.596714
5006.000000;2.594019
5005.000000;2.593071
5004.000000;2.593284
5003.000000;2.593653
5002.000000;2.593132
5001.000000;2.591552
5000.000000;2.589815
4999.000000;2.588819
4998.000000;2.588369
4997.000000;2.587414
4996.000000;2.585360
4995.000000;2.582821
4994.000000;2.580964
4993.000000;2.580465
4992.000000;2.581201
4991.000000;2.582354
4990.000000;2.582358
4989.000000;2.579436
4988.000000;2.573241
4987.000000;2.565799
4986.000000;2.559990
4985.000000;2.557250
4984.000000;2.556944
4983.000000;2.557185
4982.000000;2.555770
4981.000000;2.551178
4980.000000;2.544064
4979.000000;2.537658
4978.000000;2.535107
4977.000000;2.536128
4976.000000;2.537210
4975.000000;2.535412
4974.000000;2.531265
4973.000000;2.527497
4972.000000;2.526004
4971.000000;2.526563
4970.000000;2.527297
4969.000000;2.525815
4968.000000;2.520895
4967.000000;2.513693
4966.000000;2.506719
4965.000000;2.501536
4964.000000;2.498017
4963.000000;2.495455
4962.000000;2.493233
4961.000000;2.490504
4960.000000;2.486663
4959.000000;2.482428
4958.000000;2.479019
4957.000000;2.475927
4956.000000;2.471148
4955.000000;2.464345
4954.000000;2.458162
4953.000000;2.455262
4952.000000;2.455282
4951.000000;2.455620
4950.000000;2.454349
4949.000000;2.451338
4948.000000;2.447238
4947.000000;2.442742
4946.000000;2.438504
4945.000000;2.434595
4944.000000;2.430223
4943.000000;2.424800
4942.000000;2.418927
4941.000000;2.413798
4940.000000;2.410122
4939.000000;2.407987
4938.000000;2.407023
4937.000000;2.406015
4936.000000;2.403138
4935.000000;2.397655
4934.000000;2.390896
4933.000000;2.384698
4932.000000;2.379626
4931.000000;2.375487
4930.000000;2.372575
4929.000000;2.371144
4928.000000;2.370160
4927.000000;2.367940
4926.000000;2.363942
4925.000000;2.358676
4924.000000;2.352131
4923.000000;2.343915
4922.000000;2.334996
4921.000000;2.327735
4920.000000;2.323576
4919.000000;2.321606
4918.000000;2.319790
4917.000000;2.317041
4916.000000;2.313598
4915.000000;2.309903
4914.000000;2.305860
4913.000000;2.301174
4912.000000;2.296017
4911.000000;2.291134
4910.000000;2.287237
4909.000000;2.284259
4908.000000;2.281334
4907.000000;2.277623
4906.000000;2.273031
4905.000000;2.267958
4904.000000;2.262706
4903.000000;2.257476
4902.000000;2.252547
4901.000000;2.248003
4900.000000;2.243539
4899.000000;2.238999
4898.000000;2.234846
4897.000000;2.231519
4896.000000;2.228513
4895.000000;2.224782
4894.000000;2.220011
4893.000000;2.214865
4892.000000;2.209986
4891.000000;2.205416
4890.000000;2.201053
4889.000000;2.196967
4888.000000;2.193012
4887.000000;2.188693
4886.000000;2.183773
4885.000000;2.178630
4884.000000;2.173699
4883.000000;2.168900
4882.000000;2.163974
4881.000000;2.159051
4880.000000;2.154542
4879.000000;2.150599
4878.000000;2.147024
4877.000000;2.143663
4876.000000;2.140501
4875.000000;2.137295
4874.000000;2.133440
4873.000000;2.128566
4872.000000;2.123232
4871.000000;2.118666
4870.000000;2.115544
4869.000000;2.113151
4868.000000;2.110031
4867.000000;2.105456
4866.000000;2.099932
4865.000000;2.094275
4864.000000;2.088718
4863.000000;2.083206
4862.000000;2.078031
4861.000000;2.073653
4860.000000;2.070053
4859.000000;2.066777
4858.000000;2.063549
4857.000000;2.060426
4856.000000;2.057296
4855.000000;2.053627
4854.000000;2.048883
4853.000000;2.043061
4852.000000;2.036736
4851.000000;2.030742
4850.000000;2.025759
4849.000000;2.021911
4848.000000;2.018629
4847.000000;2.015066
4846.000000;2.010807
4845.000000;2.006128
4844.000000;2.001597
4843.000000;1.997519
4842.000000;1.993697
4841.000000;1.989646
4840.000000;1.985126
4839.000000;1.980577
4838.000000;1.976780
4837.000000;1.973920
4836.000000;1.971175
4835.000000;1.967559
4834.000000;1.963041
4833.000000;1.958468
4832.000000;1.954504
4831.000000;1.951060
4830.000000;1.947715
4829.000000;1.944225
4828.000000;1.940488
4827.000000;1.936443
4826.000000;1.932209
4825.000000;1.928063
4824.000000;1.924067
4823.000000;1.919954
4822.000000;1.915556
4821.000000;1.911114
4820.000000;1.906981
4819.000000;1.903199
4818.000000;1.899592
4817.000000;1.896109
4816.000000;1.892845
4815.000000;1.889803
4814.000000;1.886821
4813.000000;1.883688
4812.000000;1.880189
4811.000000;1.876148
4810.000000;1.871567
4809.000000;1.866705
4808.000000;1.861911
4807.000000;1.857426
4806.000000;1.853372
4805.000000;1.849775
4804.000000;1.846485
4803.000000;1.843191
4802.000000;1.839671
4801.000000;1.835952
4800.000000;1.832113
4799.000000;1.828069
4798.000000;1.823751
4797.000000;1.819395
4796.000000;1.815398
4795.000000;1.811868
4794.000000;1.808491
4793.000000;1.804933
4792.000000;1.801222
4791.000000;1.797616
4790.000000;1.794215
4789.000000;1.790851
4788.000000;1.787373
4787.000000;1.783892
4786.000000;1.780659
4785.000000;1.777708
4784.000000;1.774726
4783.000000;1.771368
4782.000000;1.767653
4781.000000;1.763938
4780.000000;1.760494
4779.000000;1.757248
4778.000000;1.753972
4777.000000;1.750585
4776.000000;1.747143
4775.000000;1.743641
4774.000000;1.739999
4773.000000;1.736202
4772.000000;1.732316
4771.000000;1.728415
4770.000000;1.724596
4769.000000;1.721048
4768.000000;1.717906
4767.000000;1.715046
4766.000000;1.712192
4765.000000;1.709232
4764.000000;1.706245
4763.000000;1.703184
4762.000000;1.699810
4761.000000;1.696101
4760.000000;1.692510
4759.000000;1.689500
4758.000000;1.686938
4757.000000;1.684216
4756.000000;1.680988
4755.000000;1.677526
4754.000000;1.674294
4753.000000;1.671415
4752.000000;1.668670
4751.000000;1.665833
4750.000000;1.662827
4749.000000;1.659657
4748.000000;1.656387
4747.000000;1.653142
4746.000000;1.650005
4745.000000;1.646980
4744.000000;1.644122
4743.000000;1.641583
4742.000000;1.639323
4741.000000;1.636883
4740.000000;1.633732
4739.000000;1.629933
4738.000000;1.626237
4737.000000;1.623348
4736.000000;1.621217
4735.000000;1.619164
4734.000000;1.616631
4733.000000;1.613661
4732.000000;1.610694
4731.000000;1.608060
4730.000000;1.605728
4729.000000;1.603444
4728.000000;1.601004
4727.000000;1.598378
4726.000000;1.595636
4725.000000;1.592835
4724.000000;1.590008
4723.000000;1.587221
4722.000000;1.584541
4721.000000;1.581924
4720.000000;1.579209
4719.000000;1.576298
4718.000000;1.573304
4717.000000;1.570496
4716.000000;1.568068
4715.000000;1.565972
4714.000000;1.563952
4713.000000;1.561732
4712.000000;1.559234
4711.000000;1.556627
4710.000000;1.554134
4709.000000;1.551795
4708.000000;1.549459
4707.000000;1.547007
4706.000000;1.544491
4705.000000;1.542027
4704.000000;1.539647
4703.000000;1.537322
4702.000000;1.535059
4701.000000;1.532888
4700.000000;1.530789
4699.000000;1.528712
4698.000000;1.526628
4697.000000;1.524509
4696.000000;1.522282
4695.000000;1.519919
4694.000000;1.517548
4693.000000;1.515393
4692.000000;1.513585
4691.000000;1.512069
4690.000000;1.510659
4689.000000;1.509118
4688.000000;1.507231
4687.000000;1.504940
4686.000000;1.502420
4685.000000;1.499951
4684.000000;1.497661
4683.000000;1.495456
4682.000000;1.493189
4681.000000;1.490845
4680.000000;1.488532
4679.000000;1.486373
4678.000000;1.484431
4677.000000;1.482668
4676.000000;1.480953
4675.000000;1.479173
4674.000000;1.477365
4673.000000;1.475687
4672.000000;1.474212
4671.000000;1.472826
4670.000000;1.471350
4669.000000;1.469705
4668.000000;1.467909
4667.000000;1.465966
4666.000000;1.463850
4665.000000;1.461583
4664.000000;1.459274
4663.000000;1.457090
4662.000000;1.455171
4661.000000;1.453555
4660.000000;1.452163
4659.000000;1.450875
4658.000000;1.449621
4657.000000;1.448356
4656.000000;1.446958
4655.000000;1.445294
4654.000000;1.443421
4653.000000;1.441627
4652.000000;1.440183
4651.000000;1.439074
4650.000000;1.438035
4649.000000;1.436805
4648.000000;1.435285
4647.000000;1.433500
4646.000000;1.431528
4645.000000;1.429466
4644.000000;1.427411
4643.000000;1.425458
4642.000000;1.423741
4641.000000;1.422408
4640.000000;1.421467
4639.000000;1.420683
4638.000000;1.419734
4637.000000;1.418493
4636.000000;1.417082
4635.000000;1.415661
4634.000000;1.414234
4633.000000;1.412702
4632.000000;1.411038
4631.000000;1.409362
4630.000000;1.407841
4629.000000;1.406549
4628.000000;1.405402
4627.000000;1.404221
4626.000000;1.402874
4625.000000;1.401351
4624.000000;1.399731
4623.000000;1.398104
4622.000000;1.396589
4621.000000;1.395342
4620.000000;1.394449
4619.000000;1.393782
4618.000000;1.393016
4617.000000;1.391860
4616.000000;1.390302
4615.000000;1.388620
4614.000000;1.387173
4613.000000;1.386127
4612.000000;1.385361
4611.000000;1.384626
4610.000000;1.383820
4609.000000;1.383024
4608.000000;1.382260
4607.000000;1.381320
4606.000000;1.379974
4605.000000;1.378302
4604.000000;1.376676
4603.000000;1.375375
4602.000000;1.374328
4601.000000;1.373279
4600.000000;1.372094
4599.000000;1.370840
4598.000000;1.369640
4597.000000;1.368559
4596.000000;1.367618
4595.000000;1.366814
4594.000000;1.366124
4593.000000;1.365507
4592.000000;1.364909
4591.000000;1.364248
4590.000000;1.363450
4589.000000;1.362522
4588.000000;1.361573
4587.000000;1.360721
4586.000000;1.359970
4585.000000;1.359212
4584.000000;1.358309
4583.000000;1.357195
4582.000000;1.355936
4581.000000;1.354725
4580.000000;1.353754
4579.000000;1.353031
4578.000000;1.352351
4577.000000;1.351522
4576.000000;1.350592
4575.000000;1.349781
4574.000000;1.349200
4573.000000;1.348713
4572.000000;1.348089
4571.000000;1.347216
4570.000000;1.346143
4569.000000;1.344991
4568.000000;1.343902
4567.000000;1.343019
4566.000000;1.342399
4565.000000;1.341927
4564.000000;1.341410
4563.000000;1.340773
4562.000000;1.340105
4561.000000;1.339472
4560.000000;1.338761
4559.000000;1.337815
4558.000000;1.336684
4557.000000;1.335629
4556.000000;1.334841
4555.000000;1.334240
4554.000000;1.333594
4553.000000;1.332775
4552.000000;1.331851
4551.000000;1.330985
4550.000000;1.330301
4549.000000;1.329828
4548.000000;1.329477
4547.000000;1.329110
4546.000000;1.328662
4545.000000;1.328196
4544.000000;1.327777
4543.000000;1.327317
4542.000000;1.326655
4541.000000;1.325774
4540.000000;1.324875
4539.000000;1.324174
4538.000000;1.323702
4537.000000;1.323328
4536.000000;1.322936
4535.000000;1.322522
4534.000000;1.322147
4533.000000;1.321817
4532.000000;1.321430
4531.000000;1.320852
4530.000000;1.320074
4529.000000;1.319302
4528.000000;1.318823
4527.000000;1.318758
4526.000000;1.318945
4525.000000;1.319075
4524.000000;1.318946
4523.000000;1.318600
4522.000000;1.318246
4521.000000;1.318040
4520.000000;1.317897
4519.000000;1.317570
4518.000000;1.316939
4517.000000;1.316211
4516.000000;1.315732
4515.000000;1.315631
4514.000000;1.315737
4513.000000;1.315849
4512.000000;1.315964
4511.000000;1.316153
4510.000000;1.316349
4509.000000;1.316390
4508.000000;1.316241
4507.000000;1.316054
4506.000000;1.315993
4505.000000;1.316058
4504.000000;1.316136
4503.000000;1.316135
4502.000000;1.316045
4501.000000;1.315884
4500.000000;1.315653
4499.000000;1.315372
4498.000000;1.315167
4497.000000;1.315230
4496.000000;1.315639
4495.000000;1.316206
4494.000000;1.316582
4493.000000;1.316582
4492.000000;1.316361
4491.000000;1.316267
4490.000000;1.316533
4489.000000;1.317123
4488.000000;1.317805
4487.000000;1.318331
4486.000000;1.318589
4485.000000;1.318668
4484.000000;1.318755
4483.000000;1.318928
4482.000000;1.319081
4481.000000;1.319110
4480.000000;1.319112
4479.000000;1.319303
4478.000000;1.319750
4477.000000;1.320302
4476.000000;1.320811
4475.000000;1.321298
4474.000000;1.321849
4473.000000;1.322424
4472.000000;1.322908
4471.000000;1.323274
4470.000000;1.323599
4469.000000;1.323919
4468.000000;1.324203
4467.000000;1.324487
4466.000000;1.324909
4465.000000;1.325550
4464.000000;1.326318
4463.000000;1.327063
4462.000000;1.327761
4461.000000;1.328492
4460.000000;1.329286
4459.000000;1.330083
4458.000000;1.330818
4457.000000;1.331469
4456.000000;1.332009
4455.000000;1.332432
4454.000000;1.332854
4453.000000;1.333504
4452.000000;1.334541
4451.000000;1.335880
4450.000000;1.337250
4449.000000;1.338392
4448.000000;1.339209
4447.000000;1.339764
4446.000000;1.340169
4445.000000;1.340491
4444.000000;1.340763
4443.000000;1.341073
4442.000000;1.341587
4441.000000;1.342414
4440.000000;1.343503
4439.000000;1.344740
4438.000000;1.346083
4437.000000;1.347501
4436.000000;1.348807
4435.000000;1.349737
4434.000000;1.350256
4433.000000;1.350644
4432.000000;1.351199
4431.000000;1.351958
4430.000000;1.352766
4429.000000;1.353532
4428.000000;1.354305
4427.000000;1.355192
4426.000000;1.356284
4425.000000;1.357610
4424.000000;1.359069
4423.000000;1.360448
4422.000000;1.361580
4421.000000;1.362461
4420.000000;1.363207
4419.000000;1.363992
4418.000000;1.365036
4417.000000;1.366482
4416.000000;1.368201
4415.000000;1.369850
4414.000000;1.371223
4413.000000;1.372420
4412.000000;1.373592
4411.000000;1.374722
4410.000000;1.375793
4409.000000;1.376934
4408.000000;1.378164
4407.000000;1.379204
4406.000000;1.379868
4405.000000;1.380507
4404.000000;1.381696
4403.000000;1.383487
4402.000000;1.385334
4401.000000;1.386768
4400.000000;1.387831
4399.000000;1.388767
4398.000000;1.389634
4397.000000;1.390433
4396.000000;1.391310
4395.000000;1.392367
4394.000000;1.393419
4393.000000;1.394183
4392.000000;1.394663
4391.000000;1.395177
4390.000000;1.396058
4389.000000;1.397454
4388.000000;1.399383
4387.000000;1.401781
4386.000000;1.404416
4385.000000;1.406846
4384.000000;1.408612
4383.000000;1.409633
4382.000000;1.410430
4381.000000;1.411782
4380.000000;1.413960
4379.000000;1.416362
4378.000000;1.418057
4377.000000;1.418680
4376.000000;1.418688
4375.000000;1.418780
4374.000000;1.419292
4373.000000;1.420109
4372.000000;1.420908
4371.000000;1.421454
4370.000000;1.421909
4369.000000;1.422891
4368.000000;1.424965
4367.000000;1.427905
4366.000000;1.430710
4365.000000;1.432518
4364.000000;1.433358
4363.000000;1.433876
4362.000000;1.434568
4361.000000;1.435524
4360.000000;1.436721
4359.000000;1.438223
4358.000000;1.440065
4357.000000;1.442168
4356.000000;1.444390
4355.000000;1.446573
4354.000000;1.448513
4353.000000;1.450045
4352.000000;1.451180
4351.000000;1.452066
4350.000000;1.452824
4349.000000;1.453514
4348.000000;1.454217
4347.000000;1.455058
4346.000000;1.456163
4345.000000;1.457619
4344.000000;1.459475
4343.000000;1.461699
4342.000000;1.464119
4341.000000;1.466383
4340.000000;1.468079
4339.000000;1.469048
4338.000000;1.469602
4337.000000;1.470244
4336.000000;1.471104
4335.000000;1.471890
4334.000000;1.472531
4333.000000;1.473556
4332.000000;1.475475
4331.000000;1.477950
4330.000000;1.480014
4329.000000;1.481165
4328.000000;1.481894
4327.000000;1.483108
4326.000000;1.485343
4325.000000;1.488530
4324.000000;1.492007
4323.000000;1.494655
4322.000000;1.495610
4321.000000;1.495292
4320.000000;1.495392
4319.000000;1.497411
4318.000000;1.501261
4317.000000;1.505362
4316.000000;1.507915
4315.000000;1.508093
4314.000000;1.506461
4313.000000;1.504599
4312.000000;1.504048
4311.000000;1.505096
4310.000000;1.506603
4309.000000;1.507312
4308.000000;1.507237
4307.000000;1.507370
4306.000000;1.508274
4305.000000;1.509519
4304.000000;1.510547
4303.000000;1.511457
4302.000000;1.512602
4301.000000;1.513893
4300.000000;1.515028
4299.000000;1.516230
4298.000000;1.518098
4297.000000;1.520536
4296.000000;1.522324
4295.000000;1.522363
4294.000000;1.521307
4293.000000;1.521252
4292.000000;1.523595
4291.000000;1.527682
4290.000000;1.531676
4289.000000;1.534324
4288.000000;1.535612
4287.000000;1.536103
4286.000000;1.536259
4285.000000;1.536423
4284.000000;1.536751
4283.000000;1.537052
4282.000000;1.537188
4281.000000;1.537453
4280.000000;1.537966
4279.000000;1.538000
4278.000000;1.536875
4277.000000;1.535387
4276.000000;1.535128
4275.000000;1.536174
4274.000000;1.536686
4273.000000;1.535443
4272.000000;1.533774
4271.000000;1.533909
4270.000000;1.536274
4269.000000;1.539414
4268.000000;1.541837
4267.000000;1.542754
4266.000000;1.541573
4265.000000;1.538329
4264.000000;1.534493
4263.000000;1.531797
4262.000000;1.530137
4261.000000;1.527920
4260.000000;1.524720
4259.000000;1.522311
4258.000000;1.522536
4257.000000;1.525245
4256.000000;1.528865
4255.000000;1.532104
4254.000000;1.534234
4253.000000;1.534479
4252.000000;1.532428
4251.000000;1.528607
4250.000000;1.523558
4249.000000;1.517662
4248.000000;1.511473
4247.000000;1.506139
4246.000000;1.502596
4245.000000;1.500868
4244.000000;1.500375
4243.000000;1.500355
4242.000000;1.499749
4241.000000;1.497362
4240.000000;1.493009
4239.000000;1.487953
4238.000000;1.483073
4237.000000;1.477161
4236.000000;1.468508
4235.000000;1.458111
4234.000000;1.449770
4233.000000;1.446345
4232.000000;1.446524
4231.000000;1.445614
4230.000000;1.439586
4229.000000;1.428085
4228.000000;1.413687
4227.000000;1.399239
4226.000000;1.386299
4225.000000;1.375465
4224.000000;1.367248
4223.000000;1.361904
4222.000000;1.358474
4221.000000;1.354859
4220.000000;1.349621
4219.000000;1.342965
4218.000000;1.334627
4217.000000;1.321860
4216.000000;1.301386
4215.000000;1.273430
4214.000000;1.242099
4213.000000;1.211616
4212.000000;1.183304
4211.000000;1.155978
4210.000000;1.128271
4209.000000;1.099669
4208.000000;1.070236
4207.000000;1.040013
4206.000000;1.008027
4205.000000;0.972142
4204.000000;0.930110
4203.000000;0.880100
4202.000000;0.820472
4201.000000;0.752168
4200.000000;0.684911
4199.000000;0.639352
4198.000000;0.634453
4197.000000;0.671685
4196.000000;0.735665
4195.000000;0.805732
4194.000000;0.870812
4193.000000;0.933066
4192.000000;0.997546
4191.000000;1.063625
4190.000000;1.125991
4189.000000;1.179696
4188.000000;1.223329
4187.000000;1.260459
4186.000000;1.298121
4185.000000;1.340838
4184.000000;1.385467
4183.000000;1.424025
4182.000000;1.453631
4181.000000;1.480437
4180.000000;1.511373
4179.000000;1.546663
4178.000000;1.580927
4177.000000;1.608022
4176.000000;1.625624
4175.000000;1.636935
4174.000000;1.648107
4173.000000;1.663922
4172.000000;1.685170
4171.000000;1.710114
4170.000000;1.738441
4169.000000;1.771792
4168.000000;1.809422
4167.000000;1.845622
4166.000000;1.873035
4165.000000;1.890827
4164.000000;1.908483
4163.000000;1.934644
4162.000000;1.968284
4161.000000;2.001204
4160.000000;2.022923
4159.000000;2.027901
4158.000000;2.020159
4157.000000;2.011534
4156.000000;2.014576
4155.000000;2.034776
4154.000000;2.068578
4153.000000;2.105128
4152.000000;2.131508
4151.000000;2.141812
4150.000000;2.140654
4149.000000;2.135969
4148.000000;2.132740
4147.000000;2.134229
4146.000000;2.144739
4145.000000;2.168350
4144.000000;2.201741
4143.000000;2.230876
4142.000000;2.243478
4141.000000;2.242953
4140.000000;2.240383
4139.000000;2.237775
4138.000000;2.227697
4137.000000;2.210490
4136.000000;2.199967
4135.000000;2.207157
4134.000000;2.229865
4133.000000;2.256801
4132.000000;2.282121
4131.000000;2.312417
4130.000000;2.352175
4129.000000;2.390445
4128.000000;2.409638
4127.000000;2.408788
4126.000000;2.405664
4125.000000;2.414031
4124.000000;2.432086
4123.000000;2.450076
4122.000000;2.463433
4121.000000;2.478060
4120.000000;2.496335
4119.000000;2.502403
4118.000000;2.487922
4117.000000;2.469464
4116.000000;2.462185
4115.000000;2.471281
4114.000000;2.494828
4113.000000;2.524831
4112.000000;2.552122
4111.000000;2.571495
4110.000000;2.585902
4109.000000;2.598648
4108.000000;2.596574
4107.000000;2.565036
4106.000000;2.520556
4105.000000;2.493996
4104.000000;2.497638
4103.000000;2.521837
4102.000000;2.548878
4101.000000;2.568835
4100.000000;2.581450
4099.000000;2.585426
4098.000000;2.578818
4097.000000;2.566315
4096.000000;2.556344
4095.000000;2.558569
4094.000000;2.583729
4093.000000;2.636540
4092.000000;2.703659
4091.000000;2.752695
4090.000000;2.759284
4089.000000;2.727220
4088.000000;2.683210
4087.000000;2.654921
4086.000000;2.654295
4085.000000;2.681851
4084.000000;2.732337
4083.000000;2.790368
4082.000000;2.824974
4081.000000;2.812413
4080.000000;2.764227
4079.000000;2.715806
4078.000000;2.699465
4077.000000;2.723254
4076.000000;2.766988
4075.000000;2.792453
4074.000000;2.778212
4073.000000;2.743714
4072.000000;2.719639
4071.000000;2.717481
4070.000000;2.731748
4069.000000;2.753481
4068.000000;2.773703
4067.000000;2.780723
4066.000000;2.768439
4065.000000;2.747461
4064.000000;2.738518
4063.000000;2.758951
4062.000000;2.813059
4061.000000;2.878285
4060.000000;2.907726
4059.000000;2.884168
4058.000000;2.842997
4057.000000;2.823596
4056.000000;2.830667
4055.000000;2.841514
4054.000000;2.846271
4053.000000;2.859788
4052.000000;2.892730
4051.000000;2.931833
4050.000000;2.954671
4049.000000;2.960686
4048.000000;2.957691
4047.000000;2.941599
4046.000000;2.915492
4045.000000;2.904699
4044.000000;2.941814
4043.000000;3.041164
4042.000000;3.144671
4041.000000;3.111574
4040.000000;2.974774
4039.000000;2.841675
4038.000000;2.758347
4037.000000;2.738130
4036.000000;2.774391
4035.000000;2.848292
4034.000000;2.930854
4033.000000;3.000267
4032.000000;3.051072
4031.000000;3.053654
4030.000000;3.017886
4029.000000;3.014259
4028.000000;3.066077
4027.000000;3.139933
4026.000000;3.163204
4025.000000;3.108998
4024.000000;3.038345
4023.000000;3.003283
4022.000000;3.010717
4021.000000;3.039675
4020.000000;3.088487
4019.000000;3.186255
4018.000000;3.244401
4017.000000;3.166714
4016.000000;3.090501
4015.000000;3.069025
4014.000000;3.065432
4013.000000;3.040397
4012.000000;2.996286
4011.000000;2.970860
4010.000000;2.992486
4009.000000;3.056401
4008.000000;3.088415
4007.000000;3.039456
4006.000000;2.982681
4005.000000;2.954709
4004.000000;2.958143
4003.000000;2.991137
4002.000000;3.042875
4001.000000;3.110504
4000.000000;3.205576
3999.000000;3.318722
3998.000000;3.358003
3997.000000;3.262334
3996.000000;3.155683
3995.000000;3.124395
3994.000000;3.153026
3993.000000;3.153651
3992.000000;3.131988
3991.000000;3.173871
3990.000000;3.243371
3989.000000;3.222056
3988.000000;3.160449
3987.000000;3.135453
3986.000000;3.153373
3985.000000;3.204276
3984.000000;3.241323
3983.000000;3.193431
3982.000000;3.075429
3981.000000;2.969663
3980.000000;2.917640
3979.000000;2.915669
3978.000000;2.945127
3977.000000;2.984361
3976.000000;3.007743
3975.000000;3.017965
3974.000000;3.052976
3973.000000;3.119575
3972.000000;3.183422
3971.000000;3.226721
3970.000000;3.153074
3969.000000;2.999685
3968.000000;2.917205
3967.000000;2.922371
3966.000000;2.996215
3965.000000;3.112742
3964.000000;3.200969
3963.000000;3.200668
3962.000000;3.163814
3961.000000;3.151248
3960.000000;3.195508
3959.000000;3.310496
3958.000000;3.492605
3957.000000;3.716842
3956.000000;3.910478
3955.000000;4.076190
3954.000000;4.278345
3953.000000;4.376333
3952.000000;4.085155
3951.000000;3.747979
3950.000000;3.487734
3949.000000;3.336238
3948.000000;3.297193
3947.000000;3.343811
3946.000000;3.416727
3945.000000;3.425589
3944.000000;3.350590
3943.000000;3.257752
3942.000000;3.180958
3941.000000;3.128969
3940.000000;3.122646
3939.000000;3.186562
3938.000000;3.326501
3937.000000;3.408089
3936.000000;3.370640
3935.000000;3.423764
3934.000000;3.649581
3933.000000;3.947916
3932.000000;3.877056
3931.000000;3.608957
3930.000000;3.416873
3929.000000;3.327551
3928.000000;3.321411
3927.000000;3.371263
3926.000000;3.456123
3925.000000;3.527259
3924.000000;3.510652
3923.000000;3.418081
3922.000000;3.324807
3921.000000;3.291846
3920.000000;3.351289
3919.000000;3.487025
3918.000000;3.605424
3917.000000;3.642182
3916.000000;3.675744
3915.000000;3.736067
3914.000000;3.733616
3913.000000;3.715328
3912.000000;3.770135
3911.000000;3.823749
3910.000000;3.854496
3909.000000;3.877691
3908.000000;3.803896
3907.000000;3.632542
3906.000000;3.483646
3905.000000;3.418364
3904.000000;3.477500
3903.000000;3.696574
3902.000000;3.549769
3901.000000;3.303396
3900.000000;3.229240
3899.000000;3.273682
3898.000000;3.390294
3897.000000;3.696184
3896.000000;4.353183
3895.000000;3.611202
3894.000000;3.384638
3893.000000;3.361564
3892.000000;3.426182
3891.000000;3.483924
3890.000000;3.561879
3889.000000;3.713223
3888.000000;3.711923
3887.000000;3.564801
3886.000000;3.440446
3885.000000;3.381762
3884.000000;3.385675
3883.000000;3.569640
3882.000000;4.147083
3881.000000;3.778367
3880.000000;3.597336
3879.000000;3.665075
3878.000000;3.806330
3877.000000;4.049558
3876.000000;4.363888
3875.000000;4.639604
3874.000000;3.969352
3873.000000;3.657509
3872.000000;3.588405
3871.000000;3.739949
3870.000000;3.975896
3869.000000;4.011683
3868.000000;3.939912
3867.000000;3.881912
3866.000000;3.781755
3865.000000;3.632866
3864.000000;3.522752
3863.000000;3.476596
3862.000000;3.522142
3861.000000;3.674972
3860.000000;3.841084
3859.000000;3.892513
3858.000000;3.836656
3857.000000;3.794828
3856.000000;3.781732
3855.000000;3.903867
3854.000000;4.396661
3853.000000;4.166308
3852.000000;3.716299
3851.000000;3.503888
3850.000000;3.418031
3849.000000;3.507561
3848.000000;3.795087
3847.000000;3.690462
3846.000000;3.523220
3845.000000;3.591065
3844.000000;3.806337
3843.000000;4.127790
3842.000000;4.623264
3841.000000;4.815526
3840.000000;4.235599
3839.000000;4.160781
3838.000000;4.461203
3837.000000;4.187734
3836.000000;3.706186
3835.000000;3.538246
3834.000000;3.482064
3833.000000;3.524128
3832.000000;3.618844
3831.000000;3.646446
3830.000000;3.562708
3829.000000;3.517295
3828.000000;3.584253
3827.000000;3.728451
3826.000000;3.851351
3825.000000;3.996447
3824.000000;4.701530
3823.000000;4.142211
3822.000000;3.818683
3821.000000;3.753633
3820.000000;3.678707
3819.000000;3.600587
3818.000000;3.554442
3817.000000;3.644953
3816.000000;3.664355
3815.000000;3.446288
3814.000000;3.376868
3813.000000;3.477702
3812.000000;3.687522
3811.000000;3.944232
3810.000000;4.113196
3809.000000;4.162573
3808.000000;4.211158
3807.000000;4.288571
3806.000000;4.204668
3805.000000;3.991543
3804.000000;3.799969
3803.000000;3.692596
3802.000000;3.673506
3801.000000;3.714160
3800.000000;3.788537
3799.000000;3.840066
3798.000000;3.777830
3797.000000;3.691215
3796.000000;3.710815
3795.000000;3.965828
3794.000000;4.285680
3793.000000;3.957388
3792.000000;3.856758
3791.000000;3.779723
3790.000000;3.624741
3789.000000;3.569834
3788.000000;3.579350
3787.000000;3.607244
3786.000000;3.650932
3785.000000;3.702076
3784.000000;3.711700
3783.000000;3.655443
3782.000000;3.643295
3781.000000;3.783065
3780.000000;3.785751
3779.000000;3.594892
3778.000000;3.532389
3777.000000;3.537308
3776.000000;3.507907
3775.000000;3.420764
3774.000000;3.328918
3773.000000;3.301217
3772.000000;3.381467
3771.000000;3.589160
3770.000000;3.892261
3769.000000;4.134106
3768.000000;4.006164
3767.000000;3.837663
3766.000000;3.805979
3765.000000;4.049167
3764.000000;4.209482
3763.000000;3.743163
3762.000000;3.610956
3761.000000;3.650923
3760.000000;3.775946
3759.000000;3.967052
3758.000000;4.194651
3757.000000;4.360999
3756.000000;4.278938
3755.000000;4.599278
3754.000000;4.858171
3753.000000;4.247402
3752.000000;4.084281
3751.000000;4.115895
3750.000000;4.238905
3749.000000;4.106088
3748.000000;3.780958
3747.000000;3.489641
3746.000000;3.622184
3745.000000;4.247528
3744.000000;4.217317
3743.000000;4.122280
3742.000000;4.275133
3741.000000;4.443655
3740.000000;4.166115
3739.000000;3.989212
3738.000000;3.972878
3737.000000;3.966441
3736.000000;3.932393
3735.000000;3.861056
3734.000000;3.786910
3733.000000;3.839118
3732.000000;3.985091
3731.000000;4.183628
3730.000000;4.324614
3729.000000;3.886124
3728.000000;3.632322
3727.000000;3.620592
3726.000000;3.821613
3725.000000;3.912667
3724.000000;3.644567
3723.000000;3.559949
3722.000000;3.610658
3721.000000;3.536223
3720.000000;3.430425
3719.000000;3.452480
3718.000000;3.570949
3717.000000;3.723881
3716.000000;3.806978
3715.000000;3.807977
3714.000000;3.843846
3713.000000;3.911135
3712.000000;4.044239
3711.000000;4.092624
3710.000000;4.286809
3709.000000;4.080974
3708.000000;3.682982
3707.000000;3.536480
3706.000000;3.441028
3705.000000;3.431815
3704.000000;3.729647
3703.000000;3.805379
3702.000000;3.461521
3701.000000;3.417189
3700.000000;3.467753
3699.000000;3.580179
3698.000000;3.687186
3697.000000;3.598866
3696.000000;3.515932
3695.000000;3.529897
3694.000000;3.634360
3693.000000;3.745726
3692.000000;3.781817
3691.000000;3.752639
3690.000000;3.768680
3689.000000;3.800905
3688.000000;3.799854
3687.000000;3.832002
3686.000000;3.857190
3685.000000;3.774103
3684.000000;3.653499
3683.000000;3.597973
3682.000000;3.622324
3681.000000;3.715875
3680.000000;3.838222
3679.000000;4.153569
3678.000000;4.689104
3677.000000;4.145452
3676.000000;3.940047
3675.000000;3.928055
3674.000000;4.157451
3673.000000;4.356354
3672.000000;3.885253
3671.000000;3.718375
3670.000000;3.566778
3669.000000;3.375470
3668.000000;3.286290
3667.000000;3.290532
3666.000000;3.332083
3665.000000;3.367112
3664.000000;3.422078
3663.000000;3.510348
3662.000000;3.562769
3661.000000;3.593606
3660.000000;3.774778
3659.000000;3.746370
3658.000000;3.708858
3657.000000;4.019729
3656.000000;4.521616
3655.000000;4.536523
3654.000000;3.892206
3653.000000;3.745631
3652.000000;3.864271
3651.000000;4.002048
3650.000000;3.907239
3649.000000;3.594536
3648.000000;3.507327
3647.000000;3.523974
3646.000000;3.465226
3645.000000;3.454394
3644.000000;3.492434
3643.000000;3.606287
3642.000000;3.658386
3641.000000;3.503758
3640.000000;3.418426
3639.000000;3.536194
3638.000000;3.934635
3637.000000;3.845688
3636.000000;3.601372
3635.000000;3.580850
3634.000000;3.510001
3633.000000;3.513538
3632.000000;3.739606
3631.000000;3.411285
3630.000000;3.207479
3629.000000;3.309562
3628.000000;3.474654
3627.000000;3.515500
3626.000000;3.504544
3625.000000;3.623983
3624.000000;3.780898
3623.000000;3.785691
3622.000000;3.581857
3621.000000;3.363297
3620.000000;3.281334
3619.000000;3.326491
3618.000000;3.426877
3617.000000;3.518948
3616.000000;3.587594
3615.000000;3.668726
3614.000000;3.754008
3613.000000;3.932558
3612.000000;4.078105
3611.000000;4.005406
3610.000000;3.909572
3609.000000;3.637855
3608.000000;3.428321
3607.000000;3.339155
3606.000000;3.336123
3605.000000;3.405996
3604.000000;3.510986
3603.000000;3.593933
3602.000000;3.590397
3601.000000;3.557424
3600.000000;3.597504
3599.000000;3.971061
3598.000000;3.954725
3597.000000;3.435697
3596.000000;3.325789
3595.000000;3.352746
3594.000000;3.484418
3593.000000;3.755606
3592.000000;3.724872
3591.000000;3.863918
3590.000000;3.993488
3589.000000;3.467254
3588.000000;3.252491
3587.000000;3.236130
3586.000000;3.318869
3585.000000;3.435540
3584.000000;3.443228
3583.000000;3.355905
3582.000000;3.287860
3581.000000;3.280401
3580.000000;3.335007
3579.000000;3.436909
3578.000000;3.629533
3577.000000;4.022891
3576.000000;3.967645
3575.000000;3.622665
3574.000000;3.479776
3573.000000;3.447678
3572.000000;3.484569
3571.000000;3.562486
3570.000000;3.727989
3569.000000;4.143722
3568.000000;4.547004
3567.000000;4.097222
3566.000000;3.913319
3565.000000;3.724548
3564.000000;3.481174
3563.000000;3.344782
3562.000000;3.375876
3561.000000;3.501205
3560.000000;3.507251
3559.000000;3.466220
3558.000000;3.482418
3557.000000;3.625847
3556.000000;3.744018
3555.000000;3.689076
3554.000000;3.959202
3553.000000;3.869805
3552.000000;3.381728
3551.000000;3.186807
3550.000000;3.119401
3549.000000;3.132147
3548.000000;3.220688
3547.000000;3.328532
3546.000000;3.350922
3545.000000;3.326164
3544.000000;3.322334
3543.000000;3.316675
3542.000000;3.348219
3541.000000;3.465321
3540.000000;3.594716
3539.000000;3.570906
3538.000000;3.446246
3537.000000;3.391425
3536.000000;3.444756
3535.000000;3.570620
3534.000000;3.962829
3533.000000;4.017292
3532.000000;3.546268
3531.000000;3.408977
3530.000000;3.419193
3529.000000;3.490002
3528.000000;3.576659
3527.000000;3.627491
3526.000000;3.572767
3525.000000;3.426819
3524.000000;3.290312
3523.000000;3.206236
3522.000000;3.224338
3521.000000;3.255705
3520.000000;3.171609
3519.000000;3.153941
3518.000000;3.391922
3517.000000;3.561141
3516.000000;3.343262
3515.000000;3.363855
3514.000000;3.439999
3513.000000;3.324636
3512.000000;3.213177
3511.000000;3.215720
3510.000000;3.354475
3509.000000;3.575834
3508.000000;3.709493
3507.000000;3.663770
3506.000000;3.581520
3505.000000;3.519695
3504.000000;3.529226
3503.000000;3.670348
3502.000000;3.920839
3501.000000;3.772705
3500.000000;3.489124
3499.000000;3.370284
3498.000000;3.419095
3497.000000;3.560074
3496.000000;3.541978
3495.000000;3.344576
3494.000000;3.149859
3493.000000;3.077805
3492.000000;3.128878
3491.000000;3.227767
3490.000000;3.312771
3489.000000;3.393975
3488.000000;3.492534
3487.000000;3.536990
3486.000000;3.506178
3485.000000;3.483420
3484.000000;3.517100
3483.000000;3.624689
3482.000000;3.902957
3481.000000;4.420595
3480.000000;4.329456
3479.000000;4.041206
3478.000000;3.819874
3477.000000;3.632108
3476.000000;3.424688
3475.000000;3.242196
3474.000000;3.183065
3473.000000;3.258352
3472.000000;3.431797
3471.000000;3.513649
3470.000000;3.353999
3469.000000;3.169895
3468.000000;3.057886
3467.000000;3.029830
3466.000000;3.043178
3465.000000;3.022561
3464.000000;3.000756
3463.000000;3.058996
3462.000000;3.191846
3461.000000;3.331377
3460.000000;3.327629
3459.000000;3.285945
3458.000000;3.385155
3457.000000;3.405498
3456.000000;3.211615
3455.000000;3.171748
3454.000000;3.480696
3453.000000;3.497316
3452.000000;3.137277
3451.000000;3.021525
3450.000000;3.014768
3449.000000;3.077088
3448.000000;3.180645
3447.000000;3.272625
3446.000000;3.311881
3445.000000;3.330314
3444.000000;3.399060
3443.000000;3.539973
3442.000000;3.640761
3441.000000;3.473733
3440.000000;3.258380
3439.000000;3.119332
3438.000000;3.062631
3437.000000;3.090462
3436.000000;3.169558
3435.000000;3.290192
3434.000000;3.407893
3433.000000;3.648729
3432.000000;3.931371
3431.000000;3.629616
3430.000000;3.857430
3429.000000;3.765851
3428.000000;3.201919
3427.000000;3.009445
3426.000000;2.955423
3425.000000;2.996145
3424.000000;3.095938
3423.000000;3.196605
3422.000000;3.299701
3421.000000;3.308005
3420.000000;3.236543
3419.000000;3.158704
3418.000000;3.084164
3417.000000;3.073780
3416.000000;3.204584
3415.000000;3.547047
3414.000000;3.568319
3413.000000;3.283920
3412.000000;3.157647
3411.000000;3.063924
3410.000000;3.012587
3409.000000;3.021138
3408.000000;3.056986
3407.000000;3.065754
3406.000000;3.025819
3405.000000;2.984593
3404.000000;2.974448
3403.000000;2.998126
3402.000000;3.042517
3401.000000;3.094041
3400.000000;3.131758
3399.000000;3.168163
3398.000000;3.202902
3397.000000;3.171334
3396.000000;3.132111
3395.000000;3.143596
3394.000000;3.145538
3393.000000;3.129788
3392.000000;3.113337
3391.000000;3.073114
3390.000000;3.063156
3389.000000;3.156828
3388.000000;3.334270
3387.000000;3.454651
3386.000000;3.445758
3385.000000;3.446025
3384.000000;3.435397
3383.000000;3.241788
3382.000000;3.077843
3381.000000;3.064218
3380.000000;3.166151
3379.000000;3.294235
3378.000000;3.294256
3377.000000;3.288468
3376.000000;3.367800
3375.000000;3.208097
3374.000000;3.010269
3373.000000;2.972382
3372.000000;3.080491
3371.000000;3.349937
3370.000000;3.742290
3369.000000;4.104735
3368.000000;3.934918
3367.000000;3.474345
3366.000000;3.291042
3365.000000;3.241714
3364.000000;3.431253
3363.000000;3.840927
3362.000000;3.315676
3361.000000;3.089094
3360.000000;3.050503
3359.000000;3.076085
3358.000000;3.162853
3357.000000;3.332515
3356.000000;3.265846
3355.000000;2.953106
3354.000000;2.805170
3353.000000;2.769135
3352.000000;2.805752
3351.000000;2.895695
3350.000000;3.033294
3349.000000;3.230291
3348.000000;3.310119
3347.000000;3.237839
3346.000000;3.265757
3345.000000;3.428614
3344.000000;3.429312
3343.000000;3.255393
3342.000000;3.134186
3341.000000;3.053316
3340.000000;2.990283
3339.000000;2.977115
3338.000000;3.047588
3337.000000;3.263233
3336.000000;3.747330
3335.000000;3.902151
3334.000000;3.670709
3333.000000;3.636334
3332.000000;3.499367
3331.000000;3.328103
3330.000000;3.231489
3329.000000;3.271265
3328.000000;3.379434
3327.000000;3.311089
3326.000000;3.482897
3325.000000;3.778103
3324.000000;3.259310
3323.000000;3.065484
3322.000000;3.057522
3321.000000;3.093097
3320.000000;3.112326
3319.000000;3.127760
3318.000000;3.214268
3317.000000;3.486852
3316.000000;3.635362
3315.000000;3.220367
3314.000000;3.014314
3313.000000;2.970082
3312.000000;2.996551
3311.000000;3.044441
3310.000000;3.068132
3309.000000;3.105465
3308.000000;3.184562
3307.000000;3.169550
3306.000000;3.074050
3305.000000;3.126714
3304.000000;3.360145
3303.000000;3.278698
3302.000000;3.037000
3301.000000;3.017374
3300.000000;3.161042
3299.000000;3.316705
3298.000000;3.658685
3297.000000;3.919046
3296.000000;3.382624
3295.000000;3.221460
3294.000000;3.189685
3293.000000;3.199617
3292.000000;3.276380
3291.000000;3.404048
3290.000000;3.529090
3289.000000;3.823089
3288.000000;4.072631
3287.000000;3.535199
3286.000000;3.258500
3285.000000;3.131057
3284.000000;3.099883
3283.000000;3.138133
3282.000000;3.214501
3281.000000;3.279224
3280.000000;3.372985
3279.000000;3.457520
3278.000000;3.209680
3277.000000;3.002995
3276.000000;2.944987
3275.000000;2.997967
3274.000000;3.112990
3273.000000;3.185342
3272.000000;3.205342
3271.000000;3.254731
3270.000000;3.345055
3269.000000;3.364293
3268.000000;3.235781
3267.000000;3.101754
3266.000000;3.061289
3265.000000;3.135877
3264.000000;3.321347
3263.000000;3.385595
3262.000000;3.227715
3261.000000;3.112048
3260.000000;3.082033
3259.000000;3.125702
3258.000000;3.239736
3257.000000;3.409217
3256.000000;3.537878
3255.000000;3.592906
3254.000000;3.596855
3253.000000;3.817401
3252.000000;3.914089
3251.000000;3.437127
3250.000000;3.326094
3249.000000;3.340047
3248.000000;3.351518
3247.000000;3.254153
3246.000000;3.114407
3245.000000;3.069417
3244.000000;3.226570
3243.000000;3.621470
3242.000000;3.406875
3241.000000;3.174767
3240.000000;3.223561
3239.000000;3.487307
3238.000000;3.504184
3237.000000;3.263166
3236.000000;3.199271
3235.000000;3.191970
3234.000000;3.161310
3233.000000;3.119890
3232.000000;3.143950
3231.000000;3.291825
3230.000000;3.472460
3229.000000;3.440631
3228.000000;3.322535
3227.000000;3.233341
3226.000000;3.137673
3225.000000;3.058394
3224.000000;3.044498
3223.000000;3.095862
3222.000000;3.167398
3221.000000;3.159915
3220.000000;3.088368
3219.000000;3.068128
3218.000000;3.127092
3217.000000;3.146786
3216.000000;3.123847
3215.000000;3.152079
3214.000000;3.248771
3213.000000;3.745333
3212.000000;3.544310
3211.000000;3.080376
3210.000000;2.937485
3209.000000;2.874134
3208.000000;2.835939
3207.000000;2.762031
3206.000000;2.677927
3205.000000;2.630971
3204.000000;2.619636
3203.000000;2.633522
3202.000000;2.677174
3201.000000;2.756370
3200.000000;2.860402
3199.000000;2.971657
3198.000000;3.059770
3197.000000;3.143398
3196.000000;3.337695
3195.000000;3.360834
3194.000000;3.072965
3193.000000;2.917449
3192.000000;2.848318
3191.000000;2.803558
3190.000000;2.733919
3189.000000;2.656530
3188.000000;2.616195
3187.000000;2.614130
3186.000000;2.631169
3185.000000;2.658131
3184.000000;2.721693
3183.000000;2.848981
3182.000000;2.948183
3181.000000;2.945963
3180.000000;2.960194
3179.000000;3.009622
3178.000000;3.026328
3177.000000;3.006864
3176.000000;3.012615
3175.000000;3.084784
3174.000000;3.164726
3173.000000;3.110098
3172.000000;3.021666
3171.000000;2.998228
3170.000000;3.009805
3169.000000;3.007193
3168.000000;3.021321
3167.000000;3.114797
3166.000000;3.316357
3165.000000;3.486770
3164.000000;3.421131
3163.000000;3.395897
3162.000000;3.439346
3161.000000;3.526292
3160.000000;3.747863
3159.000000;3.509487
3158.000000;3.151838
3157.000000;2.929792
3156.000000;2.802434
3155.000000;2.792100
3154.000000;2.914927
3153.000000;3.038014
3152.000000;2.964980
3151.000000;2.955880
3150.000000;3.054142
3149.000000;3.083835
3148.000000;3.128005
3147.000000;3.250611
3146.000000;3.213059
3145.000000;3.085591
3144.000000;3.052219
3143.000000;3.067309
3142.000000;3.055021
3141.000000;3.022304
3140.000000;2.989564
3139.000000;3.001636
3138.000000;3.120333
3137.000000;3.406586
3136.000000;3.550389
3135.000000;3.328142
3134.000000;3.201597
3133.000000;3.118251
3132.000000;3.093961
3131.000000;3.208544
3130.000000;3.173102
3129.000000;2.968359
3128.000000;2.870252
3127.000000;2.861336
3126.000000;2.933170
3125.000000;3.078563
3124.000000;3.191424
3123.000000;3.239463
3122.000000;3.320210
3121.000000;3.394131
3120.000000;3.420218
3119.000000;3.329346
3118.000000;3.116189
3117.000000;2.947848
3116.000000;2.845202
3115.000000;2.784198
3114.000000;2.741162
3113.000000;2.698728
3112.000000;2.673093
3111.000000;2.713030
3110.000000;2.859855
3109.000000;3.169623
3108.000000;3.328633
3107.000000;3.049586
3106.000000;2.858623
3105.000000;2.777904
3104.000000;2.809361
3103.000000;2.940192
3102.000000;3.254507
3101.000000;3.551494
3100.000000;3.197571
3099.000000;3.023846
3098.000000;2.942320
3097.000000;2.883002
3096.000000;2.889284
3095.000000;2.963731
3094.000000;3.076030
3093.000000;3.180872
3092.000000;3.253533
3091.000000;3.247771
3090.000000;3.135875
3089.000000;2.985658
3088.000000;2.884971
3087.000000;2.868379
3086.000000;2.930485
3085.000000;3.094027
3084.000000;3.258637
3083.000000;3.122130
3082.000000;3.003490
3081.000000;3.035996
3080.000000;3.160533
3079.000000;3.264801
3078.000000;3.276376
3077.000000;3.275550
3076.000000;3.301253
3075.000000;3.348268
3074.000000;3.463182
3073.000000;3.724242
3072.000000;3.501034
3071.000000;3.241014
3070.000000;3.121094
3069.000000;3.100915
3068.000000;3.216477
3067.000000;3.404453
3066.000000;3.342433
3065.000000;3.233012
3064.000000;3.238234
3063.000000;3.290110
3062.000000;3.238806
3061.000000;3.197814
3060.000000;3.182312
3059.000000;3.152831
3058.000000;3.281953
3057.000000;3.293131
3056.000000;3.042515
3055.000000;3.007667
3054.000000;3.128519
3053.000000;3.157047
3052.000000;3.286062
3051.000000;3.550320
3050.000000;3.146635
3049.000000;3.005071
3048.000000;3.257167
3047.000000;3.704574
3046.000000;3.307465
3045.000000;3.129810
3044.000000;3.004279
3043.000000;2.890176
3042.000000;2.841765
3041.000000;2.826743
3040.000000;2.793808
3039.000000;2.703815
3038.000000;2.630172
3037.000000;2.634066
3036.000000;2.720113
3035.000000;2.870461
3034.000000;2.999742
3033.000000;3.016152
3032.000000;3.052161
3031.000000;3.159164
3030.000000;3.192759
3029.000000;3.114606
3028.000000;3.047278
3027.000000;3.028481
3026.000000;3.090324
3025.000000;3.223132
3024.000000;3.774824
3023.000000;3.734996
3022.000000;3.197263
3021.000000;2.996608
3020.000000;2.902122
3019.000000;2.920441
3018.000000;3.010892
3017.000000;3.064528
3016.000000;3.125087
3015.000000;3.220101
3014.000000;3.106102
3013.000000;2.961977
3012.000000;2.892375
3011.000000;2.890290
3010.000000;2.969577
3009.000000;3.144243
3008.000000;3.361946
3007.000000;3.507337
3006.000000;3.750339
3005.000000;3.572476
3004.000000;3.080623
3003.000000;2.846449
3002.000000;2.787090
3001.000000;2.890091
3000.000000;3.347170
2999.000000;3.538307
2998.000000;3.171068
2997.000000;3.192149
2996.000000;3.047768
2995.000000;2.880248
2994.000000;2.863499
2993.000000;3.018245
2992.000000;3.149934
2991.000000;3.019243
2990.000000;2.964456
2989.000000;3.022698
2988.000000;3.003771
2987.000000;2.891785
2986.000000;2.797927
2985.000000;2.739303
2984.000000;2.740157
2983.000000;2.829117
2982.000000;2.962113
2981.000000;2.980105
2980.000000;2.895769
2979.000000;2.836824
2978.000000;2.857707
2977.000000;2.936611
2976.000000;3.009666
2975.000000;3.076778
2974.000000;3.235533
2973.000000;3.619784
2972.000000;3.671734
2971.000000;3.460390
2970.000000;3.476167
2969.000000;3.600734
2968.000000;3.561143
2967.000000;3.429876
2966.000000;3.376299
2965.000000;3.345459
2964.000000;3.691891
2963.000000;3.587524
2962.000000;3.308973
2961.000000;3.464312
2960.000000;3.754143
2959.000000;4.101428
2958.000000;3.369439
2957.000000;3.074731
2956.000000;3.108671
2955.000000;3.430345
2954.000000;3.382841
2953.000000;3.179733
2952.000000;3.201621
2951.000000;3.220527
2950.000000;3.222624
2949.000000;3.231735
2948.000000;3.190677
2947.000000;3.133562
2946.000000;3.390092
2945.000000;3.421342
2944.000000;3.074868
2943.000000;2.950127
2942.000000;2.896402
2941.000000;2.945583
2940.000000;3.056625
2939.000000;3.096772
2938.000000;3.003091
2937.000000;2.929376
2936.000000;2.947701
2935.000000;3.034366
2934.000000;3.189587
2933.000000;3.475490
2932.000000;3.305719
2931.000000;3.129861
2930.000000;3.121133
2929.000000;3.169121
2928.000000;3.139691
2927.000000;3.055754
2926.000000;3.019204
2925.000000;3.076076
2924.000000;3.211187
2923.000000;3.253717
2922.000000;3.192794
2921.000000;3.175242
2920.000000;3.168532
2919.000000;3.156313
2918.000000;3.145595
2917.000000;3.036407
2916.000000;2.889941
2915.000000;2.835470
2914.000000;2.883038
2913.000000;3.035631
2912.000000;3.273536
2911.000000;3.879764
2910.000000;3.765153
2909.000000;3.428974
2908.000000;3.462378
2907.000000;3.868137
2906.000000;3.501584
2905.000000;3.309543
2904.000000;3.258562
2903.000000;3.113265
2902.000000;2.933534
2901.000000;2.803178
2900.000000;2.747236
2899.000000;2.793171
2898.000000;2.946858
2897.000000;3.125816
2896.000000;3.153664
2895.000000;3.071720
2894.000000;3.005829
2893.000000;3.013408
2892.000000;3.096008
2891.000000;3.192210
2890.000000;3.233094
2889.000000;3.273185
2888.000000;3.258968
2887.000000;3.107046
2886.000000;2.953889
2885.000000;2.851622
2884.000000;2.797767
2883.000000;2.794153
2882.000000;2.866522
2881.000000;3.066424
2880.000000;3.399562
2879.000000;3.063062
2878.000000;2.928212
2877.000000;3.013029
2876.000000;3.386306
2875.000000;4.809062
2874.000000;3.520992
2873.000000;3.540808
2872.000000;3.471279
2871.000000;3.203285
2870.000000;2.950924
2869.000000;2.821824
2868.000000;2.798996
2867.000000;2.881901
2866.000000;3.082984
2865.000000;3.202089
2864.000000;3.121509
2863.000000;3.157836
2862.000000;3.338129
2861.000000;3.447633
2860.000000;3.258406
2859.000000;3.061924
2858.000000;2.985912
2857.000000;3.008771
2856.000000;3.059670
2855.000000;3.087087
2854.000000;3.160997
2853.000000;3.354768
2852.000000;3.409578
2851.000000;3.334163
2850.000000;3.395228
2849.000000;3.496992
2848.000000;3.335785
2847.000000;3.094511
2846.000000;2.938523
2845.000000;2.895735
2844.000000;3.010722
2843.000000;3.316185
2842.000000;3.217728
2841.000000;2.927638
2840.000000;2.804926
2839.000000;2.781660
2838.000000;2.877609
2837.000000;3.286486
2836.000000;3.728196
2835.000000;3.391421
2834.000000;3.540287
2833.000000;3.887442
2832.000000;3.581593
2831.000000;3.229307
2830.000000;2.963148
2829.000000;2.823347
2828.000000;2.838722
2827.000000;3.013159
2826.000000;3.338472
2825.000000;3.159178
2824.000000;2.944304
2823.000000;2.851469
2822.000000;2.841760
2821.000000;2.895540
2820.000000;3.002226
2819.000000;3.134614
2818.000000;3.201517
2817.000000;3.073217
2816.000000;2.895817
2815.000000;2.829793
2814.000000;2.919193
2813.000000;3.118183
2812.000000;3.055040
2811.000000;2.918385
2810.000000;2.925174
2809.000000;2.993552
2808.000000;3.130629
2807.000000;3.346804
2806.000000;3.694836
2805.000000;3.744373
2804.000000;3.175288
2803.000000;2.968692
2802.000000;2.957874
2801.000000;3.058613
2800.000000;3.274921
2799.000000;3.515489
2798.000000;3.194034
2797.000000;3.010107
2796.000000;2.956279
2795.000000;3.015749
2794.000000;3.191885
2793.000000;3.283736
2792.000000;3.292854
2791.000000;3.563703
2790.000000;4.243491
2789.000000;3.725889
2788.000000;3.181011
2787.000000;2.966994
2786.000000;2.912962
2785.000000;2.903638
2784.000000;2.873341
2783.000000;2.875527
2782.000000;2.925716
2781.000000;2.988824
2780.000000;2.986581
2779.000000;2.868589
2778.000000;2.746447
2777.000000;2.699426
2776.000000;2.726576
2775.000000;2.807573
2774.000000;2.952150
2773.000000;3.217519
2772.000000;3.203408
2771.000000;3.106439
2770.000000;3.158513
2769.000000;3.196179
2768.000000;3.228035
2767.000000;3.234727
2766.000000;3.312953
2765.000000;3.724683
2764.000000;3.520384
2763.000000;3.291318
2762.000000;3.386405
2761.000000;3.335887
2760.000000;3.138312
2759.000000;3.035396
2758.000000;3.030989
2757.000000;3.143742
2756.000000;3.298833
2755.000000;3.762220
2754.000000;3.291055
2753.000000;2.903495
2752.000000;2.816250
2751.000000;2.886107
2750.000000;3.064786
2749.000000;3.145405
2748.000000;3.159293
2747.000000;3.176722
2746.000000;3.031702
2745.000000;2.860090
2744.000000;2.781551
2743.000000;2.765428
2742.000000;2.766009
2741.000000;2.788094
2740.000000;2.892329
2739.000000;3.068630
2738.000000;2.994558
2737.000000;2.841762
2736.000000;2.830735
2735.000000;2.935623
2734.000000;3.224798
2733.000000;3.338002
2732.000000;3.009097
2731.000000;2.882864
2730.000000;2.902533
2729.000000;3.049786
2728.000000;3.261127
2727.000000;3.483969
2726.000000;4.165983
2725.000000;3.639002
2724.000000;3.325075
2723.000000;3.270264
2722.000000;3.172429
2721.000000;3.012480
2720.000000;2.912891
2719.000000;2.924371
2718.000000;3.038929
2717.000000;3.165289
2716.000000;3.155498
2715.000000;3.156583
2714.000000;3.244455
2713.000000;3.398255
2712.000000;3.685598
2711.000000;4.160839
2710.000000;3.891312
2709.000000;3.446002
2708.000000;3.169176
2707.000000;2.972581
2706.000000;2.821422
2705.000000;2.744962
2704.000000;2.771736
2703.000000;2.946544
2702.000000;3.009984
2701.000000;2.842180
2700.000000;2.763337
2699.000000;2.748888
2698.000000;2.756873
2697.000000;2.795249
2696.000000;2.869683
2695.000000;2.894466
2694.000000;2.833969
2693.000000;2.796120
2692.000000;2.820571
2691.000000;2.892367
2690.000000;2.927333
2689.000000;2.859998
2688.000000;2.801920
2687.000000;2.818622
2686.000000;2.913699
2685.000000;3.042506
2684.000000;3.129962
2683.000000;3.197111
2682.000000;3.396600
2681.000000;3.691220
2680.000000;3.525835
2679.000000;3.418101
2678.000000;3.533279
2677.000000;3.707109
2676.000000;3.458474
2675.000000;3.264455
2674.000000;3.287693
2673.000000;3.488603
2672.000000;3.358209
2671.000000;3.175694
2670.000000;3.204853
2669.000000;3.327796
2668.000000;3.247314
2667.000000;3.100358
2666.000000;3.052089
2665.000000;3.101401
2664.000000;3.212225
2663.000000;3.335546
2662.000000;3.283008
2661.000000;3.048337
2660.000000;2.888272
2659.000000;2.823628
2658.000000;2.846944
2657.000000;2.944162
2656.000000;3.089898
2655.000000;3.312176
2654.000000;3.776618
2653.000000;3.563039
2652.000000;3.199819
2651.000000;3.120134
2650.000000;3.150092
2649.000000;3.363359
2648.000000;3.275749
2647.000000;3.059802
2646.000000;3.044452
2645.000000;3.163386
2644.000000;3.402798
2643.000000;3.730468
2642.000000;3.859480
2641.000000;3.512398
2640.000000;3.250717
2639.000000;3.049584
2638.000000;2.880367
2637.000000;2.787519
2636.000000;2.762551
2635.000000;2.782333
2634.000000;2.981487
2633.000000;3.647115
2632.000000;3.095243
2631.000000;2.966579
2630.000000;3.150608
2629.000000;3.611097
2628.000000;3.275256
2627.000000;2.990322
2626.000000;2.886401
2625.000000;2.861456
2624.000000;2.962055
2623.000000;3.220496
2622.000000;3.505038
2621.000000;3.371068
2620.000000;3.131728
2619.000000;2.999016
2618.000000;2.924740
2617.000000;2.867512
2616.000000;2.825768
2615.000000;2.817000
2614.000000;2.846904
2613.000000;2.891964
2612.000000;2.944693
2611.000000;3.057468
2610.000000;3.343644
2609.000000;3.492084
2608.000000;3.302430
2607.000000;3.359917
2606.000000;3.370511
2605.000000;3.258378
2604.000000;3.304963
2603.000000;3.584637
2602.000000;3.457302
2601.000000;3.125497
2600.000000;3.028944
2599.000000;3.031819
2598.000000;3.060019
2597.000000;3.030446
2596.000000;3.006052
2595.000000;3.007273
2594.000000;2.967335
2593.000000;2.931608
2592.000000;2.962139
2591.000000;3.064017
2590.000000;3.256924
2589.000000;3.280508
2588.000000;3.086260
2587.000000;3.023678
2586.000000;3.144125
2585.000000;3.228445
2584.000000;3.088908
2583.000000;3.120308
2582.000000;3.317870
2581.000000;3.094018
2580.000000;2.914442
2579.000000;2.917051
2578.000000;3.062694
2577.000000;3.159631
2576.000000;3.035910
2575.000000;2.951120
2574.000000;2.931866
2573.000000;2.958915
2572.000000;3.025030
2571.000000;3.241725
2570.000000;3.725203
2569.000000;3.470203
2568.000000;3.317703
2567.000000;3.551029
2566.000000;3.864084
2565.000000;4.150818
2564.000000;3.553107
2563.000000;3.265286
2562.000000;3.234971
2561.000000;3.302567
2560.000000;3.260609
2559.000000;3.116571
2558.000000;3.035313
2557.000000;3.030021
2556.000000;3.037444
2555.000000;3.044923
2554.000000;3.119166
2553.000000;3.288988
2552.000000;3.488800
2551.000000;3.552058
2550.000000;3.535051
2549.000000;3.610016
2548.000000;3.726761
2547.000000;3.935834
2546.000000;3.926997
2545.000000;3.300407
2544.000000;2.991579
2543.000000;2.868120
2542.000000;2.833644
2541.000000;2.841000
2540.000000;2.871788
2539.000000;2.920644
2538.000000;2.979971
2537.000000;3.048602
2536.000000;3.090730
2535.000000;3.068251
2534.000000;3.040642
2533.000000;3.075181
2532.000000;3.070772
2531.000000;2.964009
2530.000000;2.902558
2529.000000;2.926152
2528.000000;3.032153
2527.000000;3.218423
2526.000000;3.479288
2525.000000;3.728376
2524.000000;3.382155
2523.000000;3.093337
2522.000000;3.027234
2521.000000;3.204134
2520.000000;3.650578
2519.000000;3.408795
2518.000000;3.118499
2517.000000;3.003159
2516.000000;2.938173
2515.000000;2.951221
2514.000000;3.045186
2513.000000;3.204737
2512.000000;3.509327
2511.000000;3.452817
2510.000000;3.106686
2509.000000;2.967920
2508.000000;2.986938
2507.000000;3.173537
2506.000000;3.457347
2505.000000;3.344484
2504.000000;3.213655
2503.000000;3.149542
2502.000000;3.074444
2501.000000;3.055844
2500.000000;3.107683
2499.000000;3.402958
2498.000000;3.953600
2497.000000;3.449501
2496.000000;3.392763
2495.000000;3.183995
2494.000000;3.066464
2493.000000;3.115389
2492.000000;3.189313
2491.000000;3.184416
2490.000000;3.059970
2489.000000;2.932222
2488.000000;2.863997
2487.000000;2.848352
2486.000000;2.877469
2485.000000;2.972705
2484.000000;3.103460
2483.000000;3.087444
2482.000000;3.007466
2481.000000;3.009094
2480.000000;3.045914
2479.000000;3.023123
2478.000000;2.933931
2477.000000;2.875417
2476.000000;2.900486
2475.000000;3.048132
2474.000000;3.304552
2473.000000;3.169484
2472.000000;2.895048
2471.000000;2.750563
2470.000000;2.723304
2469.000000;2.835801
2468.000000;2.965497
2467.000000;2.903867
2466.000000;2.886804
2465.000000;3.010008
2464.000000;3.207515
2463.000000;3.311879
2462.000000;3.262132
2461.000000;3.186895
2460.000000;3.167504
2459.000000;3.154543
2458.000000;3.002235
2457.000000;2.890999
2456.000000;2.938719
2455.000000;3.172983
2454.000000;3.507762
2453.000000;3.393273
2452.000000;3.273093
2451.000000;3.286537
2450.000000;3.420422
2449.000000;3.621662
2448.000000;3.378734
2447.000000;3.265379
2446.000000;3.211296
2445.000000;2.996420
2444.000000;2.860816
2443.000000;2.849712
2442.000000;2.907146
2441.000000;2.988078
2440.000000;3.085793
2439.000000;3.353019
2438.000000;3.813311
2437.000000;3.458240
2436.000000;3.244408
2435.000000;3.321185
2434.000000;3.638074
2433.000000;3.376719
2432.000000;3.056468
2431.000000;2.905027
2430.000000;2.820485
2429.000000;2.833782
2428.000000;2.991954
2427.000000;3.532700
2426.000000;3.510800
2425.000000;3.110170
2424.000000;2.965219
2423.000000;2.901532
2422.000000;2.956733
2421.000000;3.166376
2420.000000;3.572930
2419.000000;3.794741
2418.000000;3.357344
2417.000000;3.061542
2416.000000;2.891593
2415.000000;2.814184
2414.000000;2.835025
2413.000000;2.925592
2412.000000;3.008628
2411.000000;3.030981
2410.000000;3.057582
2409.000000;3.051423
2408.000000;2.904293
2407.000000;2.765672
2406.000000;2.719226
2405.000000;2.766087
2404.000000;2.916409
2403.000000;3.206277
2402.000000;3.583772
2401.000000;3.401216
2400.000000;3.095417
2399.000000;2.927230
2398.000000;2.843372
2397.000000;2.860257
2396.000000;2.977464
2395.000000;3.281176
2394.000000;4.085767
2393.000000;3.516595
2392.000000;3.127921
2391.000000;2.919832
2390.000000;2.813155
2389.000000;2.784010
2388.000000;2.768805
2387.000000;2.760761
2386.000000;2.783210
2385.000000;2.938797
2384.000000;3.158750
2383.000000;2.954094
2382.000000;2.787221
2381.000000;2.789484
2380.000000;2.921479
2379.000000;3.227026
2378.000000;3.096319
2377.000000;2.784909
2376.000000;2.584982
2375.000000;2.451968
2374.000000;2.447163
2373.000000;2.546344
2372.000000;3.011516
2371.000000;3.363626
2370.000000;3.195082
2369.000000;3.412918
2368.000000;3.550828
2367.000000;3.838800
2366.000000;3.573935
2365.000000;3.472115
2364.000000;3.540035
2363.000000;3.408679
2362.000000;3.309248
2361.000000;3.389841
2360.000000;3.387990
2359.000000;3.269892
2358.000000;3.281553
2357.000000;3.307423
2356.000000;3.293210
2355.000000;3.356826
2354.000000;3.343410
2353.000000;3.280293
2352.000000;3.219832
2351.000000;3.074385
2350.000000;2.947454
2349.000000;2.896321
2348.000000;2.910971
2347.000000;3.019693
2346.000000;3.203360
2345.000000;3.186420
2344.000000;3.096039
2343.000000;3.111002
2342.000000;3.150950
2341.000000;3.152418
2340.000000;3.128495
2339.000000;3.156193
2338.000000;3.239763
2337.000000;3.370375
2336.000000;3.447520
2335.000000;3.257297
2334.000000;3.098212
2333.000000;3.067548
2332.000000;3.062585
2331.000000;2.992197
2330.000000;2.981166
2329.000000;3.042075
2328.000000;3.306148
2327.000000;3.120449
2326.000000;2.988201
2325.000000;2.934125
2324.000000;2.811151
2323.000000;2.748419
2322.000000;2.707723
2321.000000;2.679630
2320.000000;2.644488
2319.000000;2.621479
2318.000000;2.635623
2317.000000;2.701490
2316.000000;2.875587
2315.000000;3.210275
2314.000000;3.336473
2313.000000;3.142682
2312.000000;3.213928
2311.000000;3.546385
2310.000000;3.173456
2309.000000;3.002468
2308.000000;3.239297
2307.000000;3.836527
2306.000000;3.463797
2305.000000;3.064041
2304.000000;2.914717
2303.000000;2.867811
2302.000000;2.872842
2301.000000;2.888440
2300.000000;2.964116
2299.000000;3.169570
2298.000000;3.170002
2297.000000;2.975797
2296.000000;2.899933
2295.000000;2.899666
2294.000000;2.966437
2293.000000;3.092942
2292.000000;3.207173
2291.000000;3.235728
2290.000000;3.231750
2289.000000;3.488008
2288.000000;3.527634
2287.000000;3.056963
2286.000000;2.903335
2285.000000;2.919838
2284.000000;3.012030
2283.000000;3.104432
2282.000000;3.086776
2281.000000;3.017696
2280.000000;2.993287
2279.000000;3.069455
2278.000000;3.147180
2277.000000;3.104041
2276.000000;3.071663
2275.000000;3.149554
2274.000000;3.274543
2273.000000;3.266854
2272.000000;3.179445
2271.000000;3.251807
2270.000000;3.596833
2269.000000;3.870203
2268.000000;4.045574
2267.000000;3.715686
2266.000000;3.195017
2265.000000;2.968529
2264.000000;2.916118
2263.000000;3.006403
2262.000000;3.216540
2261.000000;3.423361
2260.000000;3.429903
2259.000000;3.332746
2258.000000;3.240414
2257.000000;3.212766
2256.000000;3.217117
2255.000000;3.106859
2254.000000;2.996429
2253.000000;3.019878
2252.000000;3.154883
2251.000000;3.251435
2250.000000;3.250111
2249.000000;3.316577
2248.000000;3.702418
2247.000000;3.775326
2246.000000;3.259223
2245.000000;3.039960
2244.000000;2.929228
2243.000000;2.895709
2242.000000;2.938033
2241.000000;3.071837
2240.000000;3.373483
2239.000000;3.639171
2238.000000;3.536264
2237.000000;3.508271
2236.000000;3.517469
2235.000000;3.330466
2234.000000;3.234057
2233.000000;3.223193
2232.000000;3.481379
2231.000000;3.963799
2230.000000;3.222516
2229.000000;2.933662
2228.000000;2.823365
2227.000000;2.828751
2226.000000;2.996501
2225.000000;3.456834
2224.000000;3.804222
2223.000000;3.744663
2222.000000;3.884188
2221.000000;3.373042
2220.000000;3.309726
2219.000000;3.342738
2218.000000;3.289184
2217.000000;3.250929
2216.000000;3.297698
2215.000000;3.554564
2214.000000;3.295491
2213.000000;2.950654
2212.000000;2.816359
2211.000000;2.810869
2210.000000;2.865632
2209.000000;2.919642
2208.000000;3.004582
2207.000000;3.114558
2206.000000;3.233341
2205.000000;3.324766
2204.000000;3.254807
2203.000000;3.184712
2202.000000;3.183021
2201.000000;3.264748
2200.000000;3.434244
2199.000000;3.500460
2198.000000;3.428562
2197.000000;3.315974
2196.000000;3.249106
2195.000000;3.202364
2194.000000;3.126989
2193.000000;3.074107
2192.000000;3.001716
2191.000000;2.941435
2190.000000;2.993675
2189.000000;3.311982
2188.000000;3.727217
2187.000000;3.297863
2186.000000;3.103674
2185.000000;3.069963
2184.000000;3.074333
2183.000000;3.060457
2182.000000;3.005950
2181.000000;2.968519
2180.000000;2.997731
2179.000000;3.113602
2178.000000;3.078827
2177.000000;2.952289
2176.000000;2.971478
2175.000000;3.115670
2174.000000;3.275796
2173.000000;3.351856
2172.000000;3.357990
2171.000000;3.271408
2170.000000;3.164300
2169.000000;3.083700
2168.000000;3.003158
2167.000000;2.930665
2166.000000;2.892916
2165.000000;2.918330
2164.000000;3.044717
2163.000000;3.413136
2162.000000;3.716929
2161.000000;3.291475
2160.000000;3.073382
2159.000000;2.957988
2158.000000;2.892151
2157.000000;2.902176
2156.000000;3.012427
2155.000000;3.180067
2154.000000;3.225293
2153.000000;3.120677
2152.000000;2.959168
2151.000000;2.852725
2150.000000;2.836863
2149.000000;2.892195
2148.000000;3.004333
2147.000000;3.188797
2146.000000;3.427703
2145.000000;3.437766
2144.000000;3.249065
2143.000000;3.103851
2142.000000;3.057638
2141.000000;3.062308
2140.000000;3.032746
2139.000000;3.026999
2138.000000;3.102202
2137.000000;3.298205
2136.000000;3.430351
2135.000000;3.255091
2134.000000;3.148138
2133.000000;3.200068
2132.000000;3.275923
2131.000000;3.121491
2130.000000;2.932386
2129.000000;2.849075
2128.000000;2.853858
2127.000000;2.946619
2126.000000;3.097749
2125.000000;3.278222
2124.000000;3.367918
2123.000000;3.160522
2122.000000;2.968041
2121.000000;2.905441
2120.000000;2.959711
2119.000000;3.096585
2118.000000;3.215923
2117.000000;3.176325
2116.000000;3.059626
2115.000000;3.048848
2114.000000;3.213912
2113.000000;3.642251
2112.000000;3.685033
2111.000000;3.308330
2110.000000;3.134010
2109.000000;3.041806
2108.000000;3.003071
2107.000000;2.987884
2106.000000;3.000762
2105.000000;3.065028
2104.000000;3.152763
2103.000000;3.199487
2102.000000;3.215135
2101.000000;3.149490
2100.000000;3.017423
2099.000000;2.958356
2098.000000;2.971198
2097.000000;2.972219
2096.000000;2.920804
2095.000000;2.870223
2094.000000;2.874515
2093.000000;2.944189
2092.000000;3.071070
2091.000000;3.229402
2090.000000;3.220265
2089.000000;3.080966
2088.000000;3.059427
2087.000000;3.188678
2086.000000;3.458531
2085.000000;3.420937
2084.000000;3.235297
2083.000000;3.222366
2082.000000;3.385988
2081.000000;4.130137
2080.000000;3.818596
2079.000000;3.218150
2078.000000;2.957783
2077.000000;2.815775
2076.000000;2.773759
2075.000000;2.800710
2074.000000;2.900220
2073.000000;2.991344
2072.000000;2.998544
2071.000000;3.031421
2070.000000;3.153380
2069.000000;3.219376
2068.000000;3.107827
2067.000000;3.083750
2066.000000;3.233728
2065.000000;3.310028
2064.000000;3.405852
2063.000000;3.580709
2062.000000;3.195351
2061.000000;2.967892
2060.000000;2.938263
2059.000000;2.996467
2058.000000;3.097078
2057.000000;3.226646
2056.000000;3.290868
2055.000000;3.173459
2054.000000;3.115090
2053.000000;3.159646
2052.000000;3.178731
2051.000000;3.214489
2050.000000;3.299163
2049.000000;3.536993
2048.000000;3.843637
2047.000000;3.284586
2046.000000;2.995383
2045.000000;2.880444
2044.000000;2.847952
2043.000000;2.899350
2042.000000;3.034681
2041.000000;3.309411
2040.000000;3.268724
2039.000000;2.986738
2038.000000;2.886610
2037.000000;2.890347
2036.000000;2.960029
2035.000000;3.095736
2034.000000;3.294554
2033.000000;3.495743
2032.000000;3.606230
2031.000000;3.623388
2030.000000;3.391203
2029.000000;3.182832
2028.000000;3.145105
2027.000000;3.241943
2026.000000;3.288200
2025.000000;3.181926
2024.000000;3.046203
2023.000000;2.950397
2022.000000;2.953984
2021.000000;3.041640
2020.000000;3.058681
2019.000000;2.972680
2018.000000;2.948400
2017.000000;3.006739
2016.000000;3.235578
2015.000000;3.553003
2014.000000;3.239160
2013.000000;3.041035
2012.000000;2.990977
2011.000000;3.011012
2010.000000;3.072884
2009.000000;3.056357
2008.000000;2.943844
2007.000000;2.833207
2006.000000;2.791378
2005.000000;2.816610
2004.000000;2.873760
2003.000000;2.903024
2002.000000;2.877903
2001.000000;2.855979
2000.000000;2.886472
1999.000000;2.996012
1998.000000;3.164691
1997.000000;3.398249
1996.000000;3.704206
1995.000000;3.381076
1994.000000;3.066170
1993.000000;2.933339
1992.000000;2.895045
1991.000000;2.910602
1990.000000;2.969290
1989.000000;3.121121
1988.000000;3.257062
1987.000000;3.084132
1986.000000;2.858301
1985.000000;2.756999
1984.000000;2.788508
1983.000000;3.013512
1982.000000;3.143854
1981.000000;2.903121
1980.000000;2.812244
1979.000000;2.874339
1978.000000;3.115639
1977.000000;3.390190
1976.000000;3.264939
1975.000000;3.187031
1974.000000;3.212954
1973.000000;3.374632
1972.000000;3.706573
1971.000000;3.720966
1970.000000;3.586487
1969.000000;3.617399
1968.000000;3.571988
1967.000000;3.475005
1966.000000;3.573150
1965.000000;3.724023
1964.000000;3.558398
1963.000000;3.440780
1962.000000;3.382350
1961.000000;3.313832
1960.000000;3.274776
1959.000000;3.353248
1958.000000;3.548332
1957.000000;3.451382
1956.000000;3.282673
1955.000000;3.306629
1954.000000;3.464200
1953.000000;3.727883
1952.000000;3.927954
1951.000000;3.776619
1950.000000;3.605465
1949.000000;3.474200
1948.000000;3.344778
1947.000000;3.217579
1946.000000;3.108275
1945.000000;3.069055
1944.000000;3.091234
1943.000000;3.148217
1942.000000;3.134952
1941.000000;3.122360
1940.000000;3.169683
1939.000000;3.380785
1938.000000;4.130848
1937.000000;3.449685
1936.000000;3.144977
1935.000000;3.118831
1934.000000;3.289128
1933.000000;3.825770
1932.000000;3.716452
1931.000000;3.474080
1930.000000;3.400612
1929.000000;3.312020
1928.000000;3.323527
1927.000000;3.457743
1926.000000;3.833175
1925.000000;4.049787
1924.000000;3.584737
1923.000000;3.410063
1922.000000;3.292693
1921.000000;3.082067
1920.000000;2.882874
1919.000000;2.767322
1918.000000;2.745764
1917.000000;2.798239
1916.000000;2.884230
1915.000000;2.988149
1914.000000;3.100575
1913.000000;3.192806
1912.000000;3.307781
1911.000000;3.599777
1910.000000;3.636992
1909.000000;3.270961
1908.000000;3.179562
1907.000000;3.255878
1906.000000;3.287200
1905.000000;3.210130
1904.000000;3.192942
1903.000000;3.257379
1902.000000;3.292140
1901.000000;3.270974
1900.000000;3.200696
1899.000000;3.122359
1898.000000;3.146080
1897.000000;3.274160
1896.000000;3.327672
1895.000000;3.262757
1894.000000;3.226147
1893.000000;3.246116
1892.000000;3.387747
1891.000000;3.527703
1890.000000;3.470835
1889.000000;3.611065
1888.000000;3.333542
1887.000000;2.958557
1886.000000;2.836667
1885.000000;2.919944
1884.000000;3.287090
1883.000000;3.729507
1882.000000;3.539281
1881.000000;3.370275
1880.000000;3.180927
1879.000000;3.141722
1878.000000;3.175648
1877.000000;3.143218
1876.000000;3.112752
1875.000000;3.185622
1874.000000;3.381931
1873.000000;3.472070
1872.000000;3.352986
1871.000000;3.272127
1870.000000;3.437535
1869.000000;3.601456
1868.000000;3.345686
1867.000000;3.334800
1866.000000;3.261673
1865.000000;3.079992
1864.000000;3.056628
1863.000000;3.178734
1862.000000;3.376117
1861.000000;3.663464
1860.000000;3.958749
1859.000000;3.494328
1858.000000;3.258481
1857.000000;3.149292
1856.000000;3.073771
1855.000000;3.024213
1854.000000;2.953823
1853.000000;2.893394
1852.000000;2.903977
1851.000000;3.016139
1850.000000;3.186487
1849.000000;3.192427
1848.000000;3.026017
1847.000000;2.932992
1846.000000;2.938714
1845.000000;2.996092
1844.000000;3.059317
1843.000000;3.098049
1842.000000;3.124279
1841.000000;3.152295
1840.000000;3.128495
1839.000000;3.082780
1838.000000;3.142732
1837.000000;3.428922
1836.000000;4.025490
1835.000000;4.163144
1834.000000;3.849979
1833.000000;3.582888
1832.000000;3.510390
1831.000000;3.360611
1830.000000;3.106336
1829.000000;2.985778
1828.000000;2.997041
1827.000000;3.100804
1826.000000;3.103187
1825.000000;2.933529
1824.000000;2.850695
1823.000000;2.893565
1822.000000;2.974446
1821.000000;2.994822
1820.000000;2.985943
1819.000000;2.998693
1818.000000;3.033117
1817.000000;3.047098
1816.000000;2.985548
1815.000000;2.921570
1814.000000;2.916059
1813.000000;2.927578
1812.000000;2.890236
1811.000000;2.853003
1810.000000;2.912996
1809.000000;3.061432
1808.000000;3.110765
1807.000000;3.098248
1806.000000;3.184500
1805.000000;3.255818
1804.000000;3.173408
1803.000000;3.077725
1802.000000;3.032768
1801.000000;3.150512
1800.000000;3.561669
1799.000000;3.478668
1798.000000;3.254061
1797.000000;3.234615
1796.000000;3.231870
1795.000000;3.229069
1794.000000;3.396799
1793.000000;3.521833
1792.000000;3.139191
1791.000000;2.959917
1790.000000;2.953558
1789.000000;3.066561
1788.000000;3.292022
1787.000000;3.248587
1786.000000;3.007056
1785.000000;2.843468
1784.000000;2.736124
1783.000000;2.689711
1782.000000;2.718458
1781.000000;2.838661
1780.000000;3.059203
1779.000000;3.209989
1778.000000;3.096774
1777.000000;2.933936
1776.000000;2.807016
1775.000000;2.725465
1774.000000;2.692237
1773.000000;2.743665
1772.000000;2.965024
1771.000000;3.203448
1770.000000;3.095326
1769.000000;3.087695
1768.000000;3.175232
1767.000000;3.181827
1766.000000;3.071047
1765.000000;3.018316
1764.000000;3.014510
1763.000000;2.988992
1762.000000;2.942913
1761.000000;2.922685
1760.000000;2.971840
1759.000000;3.102676
1758.000000;3.299716
1757.000000;3.388465
1756.000000;3.164167
1755.000000;2.974249
1754.000000;2.910285
1753.000000;2.905280
1752.000000;2.910358
1751.000000;2.916495
1750.000000;2.945098
1749.000000;3.001391
1748.000000;3.067889
1747.000000;3.175842
1746.000000;3.192153
1745.000000;3.016634
1744.000000;2.896483
1743.000000;2.867965
1742.000000;2.915548
1741.000000;3.017228
1740.000000;3.185042
1739.000000;3.378364
1738.000000;3.348667
1737.000000;3.293711
1736.000000;3.301517
1735.000000;3.257953
1734.000000;3.163178
1733.000000;3.095006
1732.000000;3.059958
1731.000000;2.991901
1730.000000;2.952680
1729.000000;3.018603
1728.000000;3.218863
1727.000000;3.355685
1726.000000;3.209118
1725.000000;3.074693
1724.000000;2.976092
1723.000000;2.911770
1722.000000;2.939703
1721.000000;3.122207
1720.000000;3.450759
1719.000000;3.444922
1718.000000;3.376842
1717.000000;3.403079
1716.000000;3.690430
1715.000000;3.838050
1714.000000;3.176965
1713.000000;3.038416
1712.000000;3.056242
1711.000000;3.158359
1710.000000;3.233095
1709.000000;3.199131
1708.000000;3.087687
1707.000000;2.995849
1706.000000;2.997216
1705.000000;3.006236
1704.000000;2.961746
1703.000000;2.958528
1702.000000;2.989678
1701.000000;3.005195
1700.000000;3.028712
1699.000000;3.201258
1698.000000;3.378399
1697.000000;3.172359
1696.000000;3.015901
1695.000000;2.922313
1694.000000;2.928199
1693.000000;3.023637
1692.000000;3.043142
1691.000000;3.038058
1690.000000;3.187824
1689.000000;3.289260
1688.000000;3.098707
1687.000000;2.970405
1686.000000;2.867593
1685.000000;2.873781
1684.000000;2.920924
1683.000000;2.803792
1682.000000;2.763322
1681.000000;2.862118
1680.000000;3.093096
1679.000000;3.118350
1678.000000;2.908829
1677.000000;2.762957
1676.000000;2.636244
1675.000000;2.548647
1674.000000;2.538260
1673.000000;2.610786
1672.000000;2.733593
1671.000000;2.883005
1670.000000;3.053238
1669.000000;3.148817
1668.000000;3.034629
1667.000000;2.854440
1666.000000;2.753674
1665.000000;2.735800
1664.000000;2.760166
1663.000000;2.780473
1662.000000;2.802055
1661.000000;2.887400
1660.000000;2.937950
1659.000000;2.860821
1658.000000;2.840485
1657.000000;2.910261
1656.000000;2.979336
1655.000000;2.961686
1654.000000;2.957678
1653.000000;3.052561
1652.000000;3.201938
1651.000000;3.194152
1650.000000;2.905132
1649.000000;2.760404
1648.000000;2.804780
1647.000000;3.259726
1646.000000;3.085226
1645.000000;2.776573
1644.000000;2.673446
1643.000000;2.634559
1642.000000;2.611902
1641.000000;2.598237
1640.000000;2.617408
1639.000000;2.681950
1638.000000;2.780702
1637.000000;2.943621
1636.000000;3.052148
1635.000000;2.887648
1634.000000;2.818255
1633.000000;2.856047
1632.000000;2.953829
1631.000000;3.048537
1630.000000;3.053370
1629.000000;2.945859
1628.000000;2.835205
1627.000000;2.786707
1626.000000;2.782964
1625.000000;2.805404
1624.000000;2.892732
1623.000000;3.000611
1622.000000;2.908663
1621.000000;2.778720
1620.000000;2.756293
1619.000000;2.838790
1618.000000;3.032273
1617.000000;3.146141
1616.000000;3.003559
1615.000000;2.953641
1614.000000;3.015901
1613.000000;3.063355
1612.000000;2.969359
1611.000000;2.853218
1610.000000;2.809521
1609.000000;2.849643
1608.000000;2.947300
1607.000000;3.054579
1606.000000;3.212800
1605.000000;3.338464
1604.000000;3.143528
1603.000000;2.976895
1602.000000;2.904349
1601.000000;2.859900
1600.000000;2.833120
1599.000000;2.821085
1598.000000;2.789997
1597.000000;2.746847
1596.000000;2.750716
1595.000000;2.844863
1594.000000;3.043353
1593.000000;3.300885
1592.000000;3.338756
1591.000000;3.275237
1590.000000;3.311010
1589.000000;3.460226
1588.000000;3.521332
1587.000000;3.227113
1586.000000;3.034354
1585.000000;2.903646
1584.000000;2.798485
1583.000000;2.753751
1582.000000;2.799324
1581.000000;2.886980
1580.000000;2.875441
1579.000000;2.783588
1578.000000;2.685821
1577.000000;2.641042
1576.000000;2.714758
1575.000000;2.904326
1574.000000;3.002769
1573.000000;2.922165
1572.000000;2.877654
1571.000000;2.892412
1570.000000;3.175323
1569.000000;3.038729
1568.000000;2.671590
1567.000000;2.513173
1566.000000;2.465195
1565.000000;2.512756
1564.000000;2.649149
1563.000000;2.853714
1562.000000;3.075884
1561.000000;3.242252
1560.000000;3.466897
1559.000000;3.452653
1558.000000;3.107372
1557.000000;3.005953
1556.000000;3.022449
1555.000000;3.095944
1554.000000;3.163640
1553.000000;3.163679
1552.000000;3.145100
1551.000000;3.246379
1550.000000;3.450041
1549.000000;3.299895
1548.000000;3.100617
1547.000000;3.106625
1546.000000;3.287880
1545.000000;3.224425
1544.000000;2.977342
1543.000000;2.995327
1542.000000;3.334236
1541.000000;3.285724
1540.000000;3.184460
1539.000000;3.058295
1538.000000;3.001236
1537.000000;3.093553
1536.000000;3.238766
1535.000000;3.353389
1534.000000;3.630162
1533.000000;3.526261
1532.000000;3.153108
1531.000000;3.067753
1530.000000;3.073607
1529.000000;3.101932
1528.000000;3.274647
1527.000000;3.248023
1526.000000;2.867474
1525.000000;2.724436
1524.000000;2.706111
1523.000000;2.769625
1522.000000;2.861297
1521.000000;3.207605
1520.000000;3.470971
1519.000000;3.012001
1518.000000;2.950578
1517.000000;2.997913
1516.000000;3.067647
1515.000000;3.213251
1514.000000;3.407492
1513.000000;3.427059
1512.000000;3.486799
1511.000000;3.421368
1510.000000;3.292966
1509.000000;3.328916
1508.000000;3.282659
1507.000000;3.041432
1506.000000;3.040981
1505.000000;3.378463
1504.000000;3.523675
1503.000000;2.977970
1502.000000;2.768314
1501.000000;2.633175
1500.000000;2.590200
1499.000000;2.662706
1498.000000;2.907309
1497.000000;3.327520
1496.000000;3.094196
1495.000000;2.770267
1494.000000;2.642003
1493.000000;2.628372
1492.000000;2.723167
1491.000000;2.928204
1490.000000;3.336158
1489.000000;3.604714
1488.000000;3.192519
1487.000000;2.878334
1486.000000;2.697266
1485.000000;2.623491
1484.000000;2.640258
1483.000000;2.741398
1482.000000;2.938807
1481.000000;3.120076
1480.000000;3.023108
1479.000000;2.910055
1478.000000;2.834425
1477.000000;2.800898
1476.000000;2.841248
1475.000000;3.086368
1474.000000;3.617518
1473.000000;3.066378
1472.000000;2.981476
1471.000000;3.185085
1470.000000;3.223261
1469.000000;2.930828
1468.000000;2.834836
1467.000000;2.791737
1466.000000;2.784912
1465.000000;2.788679
1464.000000;2.762996
1463.000000;2.718167
1462.000000;2.740872
1461.000000;2.877413
1460.000000;3.108124
1459.000000;3.276262
1458.000000;3.234316
1457.000000;3.133485
1456.000000;3.088978
1455.000000;3.151589
1454.000000;3.231570
1453.000000;3.222318
1452.000000;3.327851
1451.000000;3.588609
1450.000000;3.415835
1449.000000;3.242052
1448.000000;3.185695
1447.000000;3.142082
1446.000000;3.066243
1445.000000;3.049798
1444.000000;3.085233
1443.000000;3.074088
1442.000000;3.044098
1441.000000;3.093206
1440.000000;3.197044
1439.000000;3.245772
1438.000000;3.228884
1437.000000;3.189387
1436.000000;3.196115
1435.000000;3.080221
1434.000000;2.873382
1433.000000;2.803201
1432.000000;2.850352
1431.000000;2.817270
1430.000000;2.717613
1429.000000;2.697440
1428.000000;2.749757
1427.000000;2.851670
1426.000000;2.975034
1425.000000;2.967805
1424.000000;2.829079
1423.000000;2.757937
1422.000000;2.783184
1421.000000;2.863342
1420.000000;2.963106
1419.000000;3.077882
1418.000000;3.174432
1417.000000;3.168991
1416.000000;3.107670
1415.000000;3.123480
1414.000000;3.371811
1413.000000;3.482126
1412.000000;3.223873
1411.000000;3.172533
1410.000000;3.216920
1409.000000;3.176081
1408.000000;3.015633
1407.000000;2.975219
1406.000000;3.071507
1405.000000;3.712809
1404.000000;3.454475
1403.000000;3.090552
1402.000000;3.023953
1401.000000;3.006103
1400.000000;2.844411
1399.000000;2.645880
1398.000000;2.545487
1397.000000;2.553918
1396.000000;2.649139
1395.000000;2.810298
1394.000000;3.036560
1393.000000;3.331578
1392.000000;3.744321
1391.000000;3.864948
1390.000000;3.454079
1389.000000;3.781241
1388.000000;4.018072
1387.000000;3.336407
1386.000000;3.191282
1385.000000;3.164008
1384.000000;3.242953
1383.000000;3.150218
1382.000000;3.012302
1381.000000;3.028914
1380.000000;3.238374
1379.000000;3.263515
1378.000000;3.108384
1377.000000;2.960480
1376.000000;2.843812
1375.000000;2.818006
1374.000000;2.837574
1373.000000;2.820161
1372.000000;2.781930
1371.000000;2.801409
1370.000000;2.899144
1369.000000;3.009517
1368.000000;3.055478
1367.000000;3.081967
1366.000000;3.070022
1365.000000;3.017807
1364.000000;2.976821
1363.000000;2.977241
1362.000000;3.054928
1361.000000;3.413874
1360.000000;3.383098
1359.000000;2.943104
1358.000000;2.770506
1357.000000;2.682255
1356.000000;2.711923
1355.000000;2.936884
1354.000000;3.439026
1353.000000;3.045743
1352.000000;2.910651
1351.000000;3.135977
1350.000000;3.461752
1349.000000;3.175985
1348.000000;2.991486
1347.000000;2.892611
1346.000000;2.873262
1345.000000;2.898961
1344.000000;2.817446
1343.000000;2.709636
1342.000000;2.674908
1341.000000;2.704382
1340.000000;2.782285
1339.000000;2.913469
1338.000000;3.118678
1337.000000;3.198011
1336.000000;3.411660
1335.000000;3.603772
1334.000000;3.010168
1333.000000;2.865347
1332.000000;2.846731
1331.000000;2.912996
1330.000000;3.026778
1329.000000;3.267675
1328.000000;3.335489
1327.000000;3.322618
1326.000000;3.145451
1325.000000;2.896229
1324.000000;2.852785
1323.000000;3.323234
1322.000000;3.055373
1321.000000;2.688674
1320.000000;2.567723
1319.000000;2.546802
1318.000000;2.576308
1317.000000;2.606474
1316.000000;2.612542
1315.000000;2.616557
1314.000000;2.634781
1313.000000;2.667699
1312.000000;2.719601
1311.000000;2.807182
1310.000000;2.909911
1309.000000;3.192291
1308.000000;3.640850
1307.000000;3.127329
1306.000000;3.006190
1305.000000;3.135571
1304.000000;3.529529
1303.000000;3.240073
1302.000000;2.884752
1301.000000;2.800135
1300.000000;2.848854
1299.000000;2.985016
1298.000000;3.372686
1297.000000;3.327390
1296.000000;3.089911
1295.000000;3.173581
1294.000000;4.232165
1293.000000;3.283733
1292.000000;3.118400
1291.000000;3.124111
1290.000000;3.175540
1289.000000;3.235239
1288.000000;3.287577
1287.000000;3.376047
1286.000000;3.345937
1285.000000;3.413323
1284.000000;3.528670
1283.000000;3.433118
1282.000000;3.136625
1281.000000;2.948178
1280.000000;2.914502
1279.000000;2.925616
1278.000000;2.910518
1277.000000;2.873505
1276.000000;2.829510
1275.000000;2.800979
1274.000000;2.813932
1273.000000;2.864953
1272.000000;2.897589
1271.000000;2.854679
1270.000000;2.754055
1269.000000;2.652724
1268.000000;2.584726
1267.000000;2.561073
1266.000000;2.592396
1265.000000;2.679689
1264.000000;2.755925
1263.000000;2.727263
1262.000000;2.694323
1261.000000;2.754214
1260.000000;2.930278
1259.000000;3.135756
1258.000000;3.073531
1257.000000;2.895273
1256.000000;2.795276
1255.000000;2.778052
1254.000000;2.853074
1253.000000;3.004858
1252.000000;3.599622
1251.000000;3.682161
1250.000000;3.152129
1249.000000;3.128784
1248.000000;2.970633
1247.000000;2.843287
1246.000000;2.837865
1245.000000;2.933524
1244.000000;3.056056
1243.000000;3.181938
1242.000000;3.531671
1241.000000;3.710523
1240.000000;3.216362
1239.000000;3.072674
1238.000000;3.016608
1237.000000;2.839145
1236.000000;2.716156
1235.000000;2.748047
1234.000000;2.924982
1233.000000;3.006518
1232.000000;2.906306
1231.000000;2.837325
1230.000000;2.788036
1229.000000;2.805536
1228.000000;2.973575
1227.000000;3.475977
1226.000000;3.344465
1225.000000;3.052715
1224.000000;3.252449
1223.000000;3.626136
1222.000000;3.239853
1221.000000;2.990262
1220.000000;2.927221
1219.000000;2.882788
1218.000000;2.860755
1217.000000;2.842848
1216.000000;2.813531
1215.000000;2.823903
1214.000000;2.877247
1213.000000;2.823229
1212.000000;2.691031
1211.000000;2.606726
1210.000000;2.605001
1209.000000;2.710732
1208.000000;3.060066
1207.000000;3.820015
1206.000000;3.068815
1205.000000;3.062372
1204.000000;3.290861
1203.000000;3.348239
1202.000000;3.002581
1201.000000;2.946679
1200.000000;2.941901
