Criado como novo conjunto de dados;"1909daniel.spp","-4276244.6 Secs"
cm-1;Abs
10000.000000;1.416250
9999.000000;1.413892
9998.000000;1.412391
9997.000000;1.410914
9996.000000;1.408791
9995.000000;1.406909
9994.000000;1.406461
9993.000000;1.407617
9992.000000;1.409121
9991.000000;1.409748
9990.000000;1.409307
9989.000000;1.408419
9988.000000;1.407729
9987.000000;1.407646
9986.000000;1.408325
9985.000000;1.409459
9984.000000;1.410253
9983.000000;1.409941
9982.000000;1.408344
9981.000000;1.405803
9980.000000;1.402740
9979.000000;1.399613
9978.000000;1.397160
9977.000000;1.396278
9976.000000;1.397318
9975.000000;1.399501
9974.000000;1.401243
9973.000000;1.401350
9972.000000;1.400032
9971.000000;1.398677
9970.000000;1.398503
9969.000000;1.399438
9968.000000;1.400219
9967.000000;1.399495
9966.000000;1.396897
9965.000000;1.393289
9964.000000;1.390216
9963.000000;1.388879
9962.000000;1.389214
9961.000000;1.389868
9960.000000;1.389402
9959.000000;1.387659
9958.000000;1.385760
9957.000000;1.384710
9956.000000;1.384373
9955.000000;1.383944
9954.000000;1.383067
9953.000000;1.382132
9952.000000;1.381577
9951.000000;1.381338
9950.000000;1.381118
9949.000000;1.380974
9948.000000;1.381361
9947.000000;1.382478
9946.000000;1.383673
9945.000000;1.383689
9944.000000;1.381735
9943.000000;1.378343
9942.000000;1.375025
9941.000000;1.373078
9940.000000;1.372734
9939.000000;1.373265
9938.000000;1.373669
9937.000000;1.373338
9936.000000;1.372377
9935.000000;1.371431
9934.000000;1.371017
9933.000000;1.370934
9932.000000;1.370437
9931.000000;1.369135
9930.000000;1.367489
9929.000000;1.366209
9928.000000;1.365297
9927.000000;1.364052
9926.000000;1.362005
9925.000000;1.359539
9924.000000;1.357452
9923.000000;1.356208
9922.000000;1.355780
9921.000000;1.355955
9920.000000;1.356418
9919.000000;1.356675
9918.000000;1.356361
9917.000000;1.355735
9916.000000;1.355466
9915.000000;1.355714
9914.000000;1.355729
9913.000000;1.354681
9912.000000;1.352681
9911.000000;1.350639
9910.000000;1.349305
9909.000000;1.348891
9908.000000;1.349456
9907.000000;1.350973
9906.000000;1.352850
9905.000000;1.353948
9904.000000;1.353511
9903.000000;1.351796
9902.000000;1.349521
9901.000000;1.347094
9900.000000;1.344706
9899.000000;1.342736
9898.000000;1.341565
9897.000000;1.341118
9896.000000;1.341021
9895.000000;1.341103
9894.000000;1.341241
9893.000000;1.340860
9892.000000;1.339318
9891.000000;1.337007
9890.000000;1.335419
9889.000000;1.335610
9888.000000;1.336798
9887.000000;1.336954
9886.000000;1.334834
9885.000000;1.331220
9884.000000;1.328120
9883.000000;1.326971
9882.000000;1.327665
9881.000000;1.329028
9880.000000;1.329944
9879.000000;1.329984
9878.000000;1.329280
9877.000000;1.328252
9876.000000;1.327497
9875.000000;1.327502
9874.000000;1.328157
9873.000000;1.328757
9872.000000;1.328731
9871.000000;1.328158
9870.000000;1.327368
9869.000000;1.326323
9868.000000;1.324750
9867.000000;1.322719
9866.000000;1.320694
9865.000000;1.319143
9864.000000;1.318381
9863.000000;1.318581
9862.000000;1.319437
9861.000000;1.319929
9860.000000;1.319009
9859.000000;1.316635
9858.000000;1.313760
9857.000000;1.311318
9856.000000;1.309656
9855.000000;1.308864
9854.000000;1.309012
9853.000000;1.309849
9852.000000;1.310717
9851.000000;1.311113
9850.000000;1.311050
9849.000000;1.310633
9848.000000;1.309658
9847.000000;1.307990
9846.000000;1.306014
9845.000000;1.304349
9844.000000;1.303262
9843.000000;1.302585
9842.000000;1.302039
9841.000000;1.301392
9840.000000;1.300498
9839.000000;1.299423
9838.000000;1.298489
9837.000000;1.297987
9836.000000;1.297904
9835.000000;1.297969
9834.000000;1.297860
9833.000000;1.297361
9832.000000;1.296531
9831.000000;1.295739
9830.000000;1.295292
9829.000000;1.294976
9828.000000;1.294250
9827.000000;1.293001
9826.000000;1.291766
9825.000000;1.291057
9824.000000;1.290792
9823.000000;1.290619
9822.000000;1.290474
9821.000000;1.290477
9820.000000;1.290460
9819.000000;1.289963
9818.000000;1.288674
9817.000000;1.286767
9816.000000;1.284882
9815.000000;1.283855
9814.000000;1.284128
9813.000000;1.285156
9812.000000;1.285681
9811.000000;1.284918
9810.000000;1.283307
9809.000000;1.281799
9808.000000;1.280692
9807.000000;1.279588
9806.000000;1.278267
9805.000000;1.277051
9804.000000;1.276246
9803.000000;1.275668
9802.000000;1.274897
9801.000000;1.273809
9800.000000;1.272742
9799.000000;1.272182
9798.000000;1.272216
9797.000000;1.272231
9796.000000;1.271352
9795.000000;1.269389
9794.000000;1.267170
9793.000000;1.265669
9792.000000;1.265044
9791.000000;1.264793
9790.000000;1.264624
9789.000000;1.264686
9788.000000;1.264948
9787.000000;1.264895
9786.000000;1.264119
9785.000000;1.262929
9784.000000;1.262072
9783.000000;1.261955
9782.000000;1.262265
9781.000000;1.262299
9780.000000;1.261560
9779.000000;1.260152
9778.000000;1.258680
9777.000000;1.257742
9776.000000;1.257427
9775.000000;1.257318
9774.000000;1.256979
9773.000000;1.256407
9772.000000;1.255980
9771.000000;1.255936
9770.000000;1.255877
9769.000000;1.254932
9768.000000;1.252639
9767.000000;1.249620
9766.000000;1.247100
9765.000000;1.245714
9764.000000;1.245054
9763.000000;1.244480
9762.000000;1.244002
9761.000000;1.244014
9760.000000;1.244421
9759.000000;1.244533
9758.000000;1.243863
9757.000000;1.242692
9756.000000;1.241722
9755.000000;1.241391
9754.000000;1.241647
9753.000000;1.242158
9752.000000;1.242548
9751.000000;1.242516
9750.000000;1.241899
9749.000000;1.240773
9748.000000;1.239523
9747.000000;1.238672
9746.000000;1.238442
9745.000000;1.238426
9744.000000;1.237897
9743.000000;1.236514
9742.000000;1.234573
9741.000000;1.232549
9740.000000;1.230707
9739.000000;1.229239
9738.000000;1.228377
9737.000000;1.228069
9736.000000;1.227794
9735.000000;1.227058
9734.000000;1.225959
9733.000000;1.225012
9732.000000;1.224559
9731.000000;1.224628
9730.000000;1.225101
9729.000000;1.225654
9728.000000;1.225688
9727.000000;1.224814
9726.000000;1.223369
9725.000000;1.222016
9724.000000;1.220840
9723.000000;1.219281
9722.000000;1.217045
9721.000000;1.214701
9720.000000;1.213167
9719.000000;1.212872
9718.000000;1.213527
9717.000000;1.214493
9716.000000;1.215225
9715.000000;1.215479
9714.000000;1.215235
9713.000000;1.214481
9712.000000;1.213198
9711.000000;1.211600
9710.000000;1.210191
9709.000000;1.209305
9708.000000;1.208764
9707.000000;1.208230
9706.000000;1.207715
9705.000000;1.207448
9704.000000;1.207445
9703.000000;1.207610
9702.000000;1.208040
9701.000000;1.208707
9700.000000;1.208947
9699.000000;1.207951
9698.000000;1.205886
9697.000000;1.203883
9696.000000;1.202704
9695.000000;1.201965
9694.000000;1.200932
9693.000000;1.199600
9692.000000;1.198558
9691.000000;1.198093
9690.000000;1.197866
9689.000000;1.197372
9688.000000;1.196473
9687.000000;1.195523
9686.000000;1.195053
9685.000000;1.195224
9684.000000;1.195527
9683.000000;1.195237
9682.000000;1.194167
9681.000000;1.192723
9680.000000;1.191281
9679.000000;1.189913
9678.000000;1.188715
9677.000000;1.187911
9676.000000;1.187469
9675.000000;1.187096
9674.000000;1.186823
9673.000000;1.187054
9672.000000;1.187696
9671.000000;1.187786
9670.000000;1.186549
9669.000000;1.184510
9668.000000;1.182958
9667.000000;1.182475
9666.000000;1.182402
9665.000000;1.181648
9664.000000;1.179681
9663.000000;1.176890
9662.000000;1.174388
9661.000000;1.173336
9660.000000;1.174039
9659.000000;1.175641
9658.000000;1.176878
9657.000000;1.177068
9656.000000;1.176249
9655.000000;1.174704
9654.000000;1.172811
9653.000000;1.171097
9652.000000;1.169943
9651.000000;1.169269
9650.000000;1.168831
9649.000000;1.168660
9648.000000;1.168825
9647.000000;1.168930
9646.000000;1.168415
9645.000000;1.167331
9644.000000;1.166329
9643.000000;1.165821
9642.000000;1.165602
9641.000000;1.165333
9640.000000;1.165016
9639.000000;1.164842
9638.000000;1.164813
9637.000000;1.164643
9636.000000;1.163894
9635.000000;1.162319
9634.000000;1.160268
9633.000000;1.158567
9632.000000;1.157650
9631.000000;1.157012
9630.000000;1.155965
9629.000000;1.154707
9628.000000;1.154022
9627.000000;1.153976
9626.000000;1.153658
9625.000000;1.152398
9624.000000;1.150648
9623.000000;1.149341
9622.000000;1.148923
9621.000000;1.149298
9620.000000;1.150187
9619.000000;1.151107
9618.000000;1.151355
9617.000000;1.150541
9616.000000;1.149022
9615.000000;1.147560
9614.000000;1.146672
9613.000000;1.146415
9612.000000;1.146443
9611.000000;1.146095
9610.000000;1.144835
9609.000000;1.142946
9608.000000;1.141472
9607.000000;1.141105
9606.000000;1.141394
9605.000000;1.141397
9604.000000;1.140765
9603.000000;1.139747
9602.000000;1.138443
9601.000000;1.136753
9600.000000;1.135012
9599.000000;1.133960
9598.000000;1.133880
9597.000000;1.134178
9596.000000;1.134053
9595.000000;1.133304
9594.000000;1.132317
9593.000000;1.131500
9592.000000;1.130975
9591.000000;1.130657
9590.000000;1.130415
9589.000000;1.130141
9588.000000;1.129765
9587.000000;1.129227
9586.000000;1.128492
9585.000000;1.127653
9584.000000;1.126932
9583.000000;1.126438
9582.000000;1.125984
9581.000000;1.125312
9580.000000;1.124426
9579.000000;1.123556
9578.000000;1.122830
9577.000000;1.122214
9576.000000;1.121721
9575.000000;1.121407
9574.000000;1.121086
9573.000000;1.120349
9572.000000;1.119041
9571.000000;1.117539
9570.000000;1.116409
9569.000000;1.115866
9568.000000;1.115713
9567.000000;1.115688
9566.000000;1.115679
9565.000000;1.115588
9564.000000;1.115190
9563.000000;1.114301
9562.000000;1.113073
9561.000000;1.111982
9560.000000;1.111355
9559.000000;1.110960
9558.000000;1.110220
9557.000000;1.108948
9556.000000;1.107704
9555.000000;1.107226
9554.000000;1.107543
9553.000000;1.107834
9552.000000;1.107228
9551.000000;1.105677
9550.000000;1.104003
9549.000000;1.103161
9548.000000;1.103489
9547.000000;1.104538
9546.000000;1.105492
9545.000000;1.105728
9544.000000;1.105059
9543.000000;1.103667
9542.000000;1.101966
9541.000000;1.100448
9540.000000;1.099381
9539.000000;1.098585
9538.000000;1.097683
9537.000000;1.096667
9536.000000;1.095960
9535.000000;1.095794
9534.000000;1.095780
9533.000000;1.095390
9532.000000;1.094685
9531.000000;1.094172
9530.000000;1.093958
9529.000000;1.093472
9528.000000;1.092165
9527.000000;1.090216
9526.000000;1.088355
9525.000000;1.087185
9524.000000;1.086843
9523.000000;1.087129
9522.000000;1.087658
9521.000000;1.087915
9520.000000;1.087450
9519.000000;1.086232
9518.000000;1.084840
9517.000000;1.084106
9516.000000;1.084428
9515.000000;1.085372
9514.000000;1.086001
9513.000000;1.085674
9512.000000;1.084484
9511.000000;1.082941
9510.000000;1.081411
9509.000000;1.079996
9508.000000;1.078747
9507.000000;1.077739
9506.000000;1.076960
9505.000000;1.076332
9504.000000;1.075849
9503.000000;1.075560
9502.000000;1.075411
9501.000000;1.075225
9500.000000;1.074848
9499.000000;1.074235
9498.000000;1.073448
9497.000000;1.072668
9496.000000;1.072108
9495.000000;1.071755
9494.000000;1.071322
9493.000000;1.070640
9492.000000;1.069955
9491.000000;1.069567
9490.000000;1.069321
9489.000000;1.068826
9488.000000;1.068117
9487.000000;1.067636
9486.000000;1.067481
9485.000000;1.067163
9484.000000;1.066350
9483.000000;1.065425
9482.000000;1.064942
9481.000000;1.064828
9480.000000;1.064550
9479.000000;1.063920
9478.000000;1.063312
9477.000000;1.063039
9476.000000;1.062889
9475.000000;1.062427
9474.000000;1.061564
9473.000000;1.060645
9472.000000;1.060012
9471.000000;1.059566
9470.000000;1.058879
9469.000000;1.057747
9468.000000;1.056527
9467.000000;1.055750
9466.000000;1.055482
9465.000000;1.055353
9464.000000;1.055149
9463.000000;1.054990
9462.000000;1.054768
9461.000000;1.053891
9460.000000;1.052005
9459.000000;1.049731
9458.000000;1.048206
9457.000000;1.047975
9456.000000;1.048664
9455.000000;1.049590
9454.000000;1.050224
9453.000000;1.050107
9452.000000;1.048875
9451.000000;1.046697
9450.000000;1.044402
9449.000000;1.042869
9448.000000;1.042396
9447.000000;1.042721
9446.000000;1.043435
9445.000000;1.044185
9444.000000;1.044662
9443.000000;1.044673
9442.000000;1.044183
9441.000000;1.043224
9440.000000;1.041860
9439.000000;1.040348
9438.000000;1.039181
9437.000000;1.038732
9436.000000;1.038866
9435.000000;1.039028
9434.000000;1.038772
9433.000000;1.038097
9432.000000;1.037275
9431.000000;1.036468
9430.000000;1.035577
9429.000000;1.034408
9428.000000;1.032985
9427.000000;1.031709
9426.000000;1.031159
9425.000000;1.031651
9424.000000;1.032919
9423.000000;1.034201
9422.000000;1.034714
9421.000000;1.034212
9420.000000;1.033183
9419.000000;1.032392
9418.000000;1.032086
9417.000000;1.031706
9416.000000;1.030573
9415.000000;1.028785
9414.000000;1.027157
9413.000000;1.026218
9412.000000;1.025623
9411.000000;1.024729
9410.000000;1.023497
9409.000000;1.022485
9408.000000;1.022083
9407.000000;1.022081
9406.000000;1.022029
9405.000000;1.021718
9404.000000;1.021237
9403.000000;1.020734
9402.000000;1.020258
9401.000000;1.019710
9400.000000;1.018916
9399.000000;1.017854
9398.000000;1.016801
9397.000000;1.016111
9396.000000;1.015806
9395.000000;1.015541
9394.000000;1.015003
9393.000000;1.014175
9392.000000;1.013169
9391.000000;1.012041
9390.000000;1.010886
9389.000000;1.009949
9388.000000;1.009442
9387.000000;1.009329
9386.000000;1.009420
9385.000000;1.009571
9384.000000;1.009682
9383.000000;1.009592
9382.000000;1.009194
9381.000000;1.008623
9380.000000;1.008154
9379.000000;1.007891
9378.000000;1.007701
9377.000000;1.007423
9376.000000;1.007040
9375.000000;1.006658
9374.000000;1.006442
9373.000000;1.006518
9372.000000;1.006756
9371.000000;1.006705
9370.000000;1.005987
9369.000000;1.004807
9368.000000;1.003826
9367.000000;1.003412
9366.000000;1.003234
9365.000000;1.002728
9364.000000;1.001777
9363.000000;1.000726
9362.000000;0.999864
9361.000000;0.999136
9360.000000;0.998357
9359.000000;0.997528
9358.000000;0.996896
9357.000000;0.996770
9356.000000;0.997183
9355.000000;0.997682
9354.000000;0.997534
9353.000000;0.996354
9352.000000;0.994505
9351.000000;0.992776
9350.000000;0.991693
9349.000000;0.991281
9348.000000;0.991361
9347.000000;0.991782
9346.000000;0.992298
9345.000000;0.992476
9344.000000;0.991966
9343.000000;0.990873
9342.000000;0.989744
9341.000000;0.989162
9340.000000;0.989272
9339.000000;0.989634
9338.000000;0.989572
9337.000000;0.988805
9336.000000;0.987709
9335.000000;0.986805
9334.000000;0.986070
9333.000000;0.985018
9332.000000;0.983503
9331.000000;0.982110
9330.000000;0.981547
9329.000000;0.981823
9328.000000;0.982265
9327.000000;0.982292
9326.000000;0.981901
9325.000000;0.981418
9324.000000;0.981019
9323.000000;0.980640
9322.000000;0.980189
9321.000000;0.979702
9320.000000;0.979265
9319.000000;0.978893
9318.000000;0.978525
9317.000000;0.978168
9316.000000;0.977965
9315.000000;0.978014
9314.000000;0.978085
9313.000000;0.977694
9312.000000;0.976639
9311.000000;0.975364
9310.000000;0.974565
9309.000000;0.974392
9308.000000;0.974285
9307.000000;0.973651
9306.000000;0.972537
9305.000000;0.971530
9304.000000;0.971112
9303.000000;0.971261
9302.000000;0.971589
9301.000000;0.971722
9300.000000;0.971540
9299.000000;0.971130
9298.000000;0.970565
9297.000000;0.969799
9296.000000;0.968860
9295.000000;0.968096
9294.000000;0.967948
9293.000000;0.968368
9292.000000;0.968657
9291.000000;0.968137
9290.000000;0.966872
9289.000000;0.965521
9288.000000;0.964631
9287.000000;0.964340
9286.000000;0.964629
9285.000000;0.965396
9284.000000;0.966174
9283.000000;0.966223
9282.000000;0.965233
9281.000000;0.963739
9280.000000;0.962576
9279.000000;0.962066
9278.000000;0.961943
9277.000000;0.961861
9276.000000;0.961652
9275.000000;0.961209
9274.000000;0.960512
9273.000000;0.959795
9272.000000;0.959359
9271.000000;0.959145
9270.000000;0.958813
9269.000000;0.958284
9268.000000;0.957817
9267.000000;0.957434
9266.000000;0.956691
9265.000000;0.955333
9264.000000;0.953876
9263.000000;0.953146
9262.000000;0.953348
9261.000000;0.953914
9260.000000;0.954187
9259.000000;0.953929
9258.000000;0.953226
9257.000000;0.952257
9256.000000;0.951282
9255.000000;0.950585
9254.000000;0.950237
9253.000000;0.950028
9252.000000;0.949724
9251.000000;0.949355
9250.000000;0.949172
9249.000000;0.949378
9248.000000;0.949860
9247.000000;0.950098
9246.000000;0.949470
9245.000000;0.947834
9244.000000;0.945855
9243.000000;0.944535
9242.000000;0.944350
9241.000000;0.944952
9240.000000;0.945690
9239.000000;0.946239
9238.000000;0.946622
9237.000000;0.946843
9236.000000;0.946677
9235.000000;0.945858
9234.000000;0.944394
9233.000000;0.942688
9232.000000;0.941290
9231.000000;0.940430
9230.000000;0.939886
9229.000000;0.939397
9228.000000;0.939110
9227.000000;0.939386
9226.000000;0.940218
9225.000000;0.941083
9224.000000;0.941428
9223.000000;0.941078
9222.000000;0.940175
9221.000000;0.939000
9220.000000;0.937958
9219.000000;0.937434
9218.000000;0.937417
9217.000000;0.937466
9216.000000;0.937201
9215.000000;0.936699
9214.000000;0.936275
9213.000000;0.936083
9212.000000;0.936097
9211.000000;0.936227
9210.000000;0.936214
9209.000000;0.935644
9208.000000;0.934413
9207.000000;0.933063
9206.000000;0.932334
9205.000000;0.932403
9204.000000;0.932803
9203.000000;0.933012
9202.000000;0.932881
9201.000000;0.932541
9200.000000;0.932218
9199.000000;0.932193
9198.000000;0.932585
9197.000000;0.933041
9196.000000;0.932888
9195.000000;0.931766
9194.000000;0.929998
9193.000000;0.928232
9192.000000;0.926902
9191.000000;0.926098
9190.000000;0.925759
9189.000000;0.925785
9188.000000;0.926024
9187.000000;0.926271
9186.000000;0.926315
9185.000000;0.925985
9184.000000;0.925254
9183.000000;0.924319
9182.000000;0.923489
9181.000000;0.922945
9180.000000;0.922658
9179.000000;0.922529
9178.000000;0.922497
9177.000000;0.922515
9176.000000;0.922558
9175.000000;0.922678
9174.000000;0.922916
9173.000000;0.923130
9172.000000;0.923058
9171.000000;0.922623
9170.000000;0.922019
9169.000000;0.921420
9168.000000;0.920792
9167.000000;0.920077
9166.000000;0.919372
9165.000000;0.918789
9164.000000;0.918237
9163.000000;0.917577
9162.000000;0.916924
9161.000000;0.916589
9160.000000;0.916673
9159.000000;0.916853
9158.000000;0.916668
9157.000000;0.915982
9156.000000;0.915114
9155.000000;0.914529
9154.000000;0.914426
9153.000000;0.914607
9152.000000;0.914695
9151.000000;0.914434
9150.000000;0.913793
9149.000000;0.912867
9148.000000;0.911843
9147.000000;0.911027
9146.000000;0.910689
9145.000000;0.910771
9144.000000;0.910871
9143.000000;0.910640
9142.000000;0.910181
9141.000000;0.909891
9140.000000;0.909940
9139.000000;0.910042
9138.000000;0.909834
9137.000000;0.909355
9136.000000;0.909000
9135.000000;0.908979
9134.000000;0.908995
9133.000000;0.908591
9132.000000;0.907769
9131.000000;0.907076
9130.000000;0.907015
9129.000000;0.907499
9128.000000;0.907955
9127.000000;0.907849
9126.000000;0.907053
9125.000000;0.905851
9124.000000;0.904761
9123.000000;0.904210
9122.000000;0.904200
9121.000000;0.904310
9120.000000;0.904172
9119.000000;0.903895
9118.000000;0.903841
9117.000000;0.904080
9116.000000;0.904310
9115.000000;0.904316
9114.000000;0.904196
9113.000000;0.904103
9112.000000;0.904003
9111.000000;0.903791
9110.000000;0.903416
9109.000000;0.902838
9108.000000;0.902092
9107.000000;0.901478
9106.000000;0.901384
9105.000000;0.901730
9104.000000;0.901879
9103.000000;0.901335
9102.000000;0.900356
9101.000000;0.899615
9100.000000;0.899459
9099.000000;0.899727
9098.000000;0.900091
9097.000000;0.900220
9096.000000;0.899772
9095.000000;0.898660
9094.000000;0.897356
9093.000000;0.896572
9092.000000;0.896516
9091.000000;0.896709
9090.000000;0.896591
9089.000000;0.896093
9088.000000;0.895509
9087.000000;0.895036
9086.000000;0.894593
9085.000000;0.894022
9084.000000;0.893332
9083.000000;0.892783
9082.000000;0.892681
9081.000000;0.893014
9080.000000;0.893338
9079.000000;0.893177
9078.000000;0.892536
9077.000000;0.891851
9076.000000;0.891446
9075.000000;0.891242
9074.000000;0.891020
9073.000000;0.890735
9072.000000;0.890492
9071.000000;0.890393
9070.000000;0.890516
9069.000000;0.890865
9068.000000;0.891232
9067.000000;0.891281
9066.000000;0.890908
9065.000000;0.890388
9064.000000;0.890057
9063.000000;0.889923
9062.000000;0.889711
9061.000000;0.889217
9060.000000;0.888486
9059.000000;0.887755
9058.000000;0.887307
9057.000000;0.887266
9056.000000;0.887405
9055.000000;0.887235
9054.000000;0.886489
9053.000000;0.885478
9052.000000;0.884798
9051.000000;0.884670
9050.000000;0.884747
9049.000000;0.884607
9048.000000;0.884289
9047.000000;0.884185
9046.000000;0.884487
9045.000000;0.884894
9044.000000;0.884933
9043.000000;0.884492
9042.000000;0.883930
9041.000000;0.883653
9040.000000;0.883656
9039.000000;0.883545
9038.000000;0.882969
9037.000000;0.881989
9036.000000;0.881054
9035.000000;0.880646
9034.000000;0.880892
9033.000000;0.881456
9032.000000;0.881842
9031.000000;0.881810
9030.000000;0.881461
9029.000000;0.880937
9028.000000;0.880234
9027.000000;0.879425
9026.000000;0.878862
9025.000000;0.878870
9024.000000;0.879301
9023.000000;0.879677
9022.000000;0.879764
9021.000000;0.879705
9020.000000;0.879532
9019.000000;0.878938
9018.000000;0.877770
9017.000000;0.876454
9016.000000;0.875631
9015.000000;0.875501
9014.000000;0.875759
9013.000000;0.876052
9012.000000;0.876216
9011.000000;0.876173
9010.000000;0.875895
9009.000000;0.875518
9008.000000;0.875259
9007.000000;0.875175
9006.000000;0.875160
9005.000000;0.875131
9004.000000;0.875045
9003.000000;0.874766
9002.000000;0.874188
9001.000000;0.873545
9000.000000;0.873349
8999.000000;0.873864
8998.000000;0.874757
8997.000000;0.875389
8996.000000;0.875377
8995.000000;0.874795
8994.000000;0.873945
8993.000000;0.873094
8992.000000;0.872409
8991.000000;0.871983
8990.000000;0.871840
8989.000000;0.871897
8988.000000;0.871944
8987.000000;0.871713
8986.000000;0.871088
8985.000000;0.870273
8984.000000;0.869689
8983.000000;0.869650
8982.000000;0.870130
8981.000000;0.870792
8980.000000;0.871202
8979.000000;0.871064
8978.000000;0.870433
8977.000000;0.869709
8976.000000;0.869323
8975.000000;0.869351
8974.000000;0.869530
8973.000000;0.869630
8972.000000;0.869642
8971.000000;0.869548
8970.000000;0.869174
8969.000000;0.868454
8968.000000;0.867696
8967.000000;0.867301
8966.000000;0.867233
8965.000000;0.867029
8964.000000;0.866409
8963.000000;0.865631
8962.000000;0.865145
8961.000000;0.865040
8960.000000;0.865020
8959.000000;0.864853
8958.000000;0.864633
8957.000000;0.864595
8956.000000;0.864807
8955.000000;0.865114
8954.000000;0.865306
8953.000000;0.865284
8952.000000;0.865092
8951.000000;0.864843
8950.000000;0.864597
8949.000000;0.864301
8948.000000;0.863890
8947.000000;0.863454
8946.000000;0.863210
8945.000000;0.863256
8944.000000;0.863419
8943.000000;0.863464
8942.000000;0.863384
8941.000000;0.863363
8940.000000;0.863434
8939.000000;0.863375
8938.000000;0.863000
8937.000000;0.862437
8936.000000;0.861961
8935.000000;0.861659
8934.000000;0.861370
8933.000000;0.860958
8932.000000;0.860495
8931.000000;0.860172
8930.000000;0.860099
8929.000000;0.860184
8928.000000;0.860172
8927.000000;0.859845
8926.000000;0.859268
8925.000000;0.858781
8924.000000;0.858696
8923.000000;0.859000
8922.000000;0.859447
8921.000000;0.859864
8920.000000;0.860221
8919.000000;0.860424
8918.000000;0.860263
8917.000000;0.859630
8916.000000;0.858677
8915.000000;0.857673
8914.000000;0.856835
8913.000000;0.856359
8912.000000;0.856425
8911.000000;0.856969
8910.000000;0.857542
8909.000000;0.857620
8908.000000;0.857118
8907.000000;0.856475
8906.000000;0.856177
8905.000000;0.856286
8904.000000;0.856491
8903.000000;0.856516
8902.000000;0.856367
8901.000000;0.856214
8900.000000;0.856141
8899.000000;0.856074
8898.000000;0.855941
8897.000000;0.855785
8896.000000;0.855692
8895.000000;0.855624
8894.000000;0.855446
8893.000000;0.855140
8892.000000;0.854872
8891.000000;0.854773
8890.000000;0.854720
8889.000000;0.854452
8888.000000;0.853903
8887.000000;0.853324
8886.000000;0.853032
8885.000000;0.853100
8884.000000;0.853326
8883.000000;0.853442
8882.000000;0.853326
8881.000000;0.853059
8880.000000;0.852864
8879.000000;0.852975
8878.000000;0.853455
8877.000000;0.854078
8876.000000;0.854460
8875.000000;0.854381
8874.000000;0.853994
8873.000000;0.853649
8872.000000;0.853509
8871.000000;0.853418
8870.000000;0.853177
8869.000000;0.852875
8868.000000;0.852783
8867.000000;0.852939
8866.000000;0.852967
8865.000000;0.852456
8864.000000;0.851474
8863.000000;0.850590
8862.000000;0.850375
8861.000000;0.850907
8860.000000;0.851743
8859.000000;0.852306
8858.000000;0.852320
8857.000000;0.851918
8856.000000;0.851397
8855.000000;0.850883
8854.000000;0.850241
8853.000000;0.849332
8852.000000;0.848323
8851.000000;0.847647
8850.000000;0.847638
8849.000000;0.848254
8848.000000;0.849190
8847.000000;0.850169
8846.000000;0.851034
8845.000000;0.851621
8844.000000;0.851758
8843.000000;0.851468
8842.000000;0.851054
8841.000000;0.850833
8840.000000;0.850810
8839.000000;0.850731
8838.000000;0.850425
8837.000000;0.849973
8836.000000;0.849526
8835.000000;0.849080
8834.000000;0.848534
8833.000000;0.847909
8832.000000;0.847404
8831.000000;0.847255
8830.000000;0.847601
8829.000000;0.848435
8828.000000;0.849569
8827.000000;0.850651
8826.000000;0.851320
8825.000000;0.851406
8824.000000;0.851012
8823.000000;0.850420
8822.000000;0.849956
8821.000000;0.849861
8820.000000;0.850167
8819.000000;0.850662
8818.000000;0.851038
8817.000000;0.851109
8816.000000;0.850874
8815.000000;0.850408
8814.000000;0.849793
8813.000000;0.849177
8812.000000;0.848781
8811.000000;0.848743
8810.000000;0.848966
8809.000000;0.849199
8808.000000;0.849275
8807.000000;0.849241
8806.000000;0.849243
8805.000000;0.849308
8804.000000;0.849284
8803.000000;0.849061
8802.000000;0.848828
8801.000000;0.848978
8800.000000;0.849645
8799.000000;0.850444
8798.000000;0.850859
8797.000000;0.850830
8796.000000;0.850775
8795.000000;0.851026
8794.000000;0.851464
8793.000000;0.851732
8792.000000;0.851608
8791.000000;0.851077
8790.000000;0.850295
8789.000000;0.849633
8788.000000;0.849506
8787.000000;0.849890
8786.000000;0.850182
8785.000000;0.849859
8784.000000;0.849209
8783.000000;0.849078
8782.000000;0.849842
8781.000000;0.850932
8780.000000;0.851480
8779.000000;0.851221
8778.000000;0.850614
8777.000000;0.850273
8776.000000;0.850449
8775.000000;0.850936
8774.000000;0.851303
8773.000000;0.851286
8772.000000;0.851065
8771.000000;0.851083
8770.000000;0.851555
8769.000000;0.852260
8768.000000;0.852897
8767.000000;0.853464
8766.000000;0.854123
8765.000000;0.854806
8764.000000;0.855227
8763.000000;0.855258
8762.000000;0.855074
8761.000000;0.854878
8760.000000;0.854661
8759.000000;0.854347
8758.000000;0.854028
8757.000000;0.853921
8756.000000;0.854116
8755.000000;0.854467
8754.000000;0.854757
8753.000000;0.854888
8752.000000;0.854877
8751.000000;0.854706
8750.000000;0.854304
8749.000000;0.853715
8748.000000;0.853238
8747.000000;0.853258
8746.000000;0.853901
8745.000000;0.854895
8744.000000;0.855807
8743.000000;0.856370
8742.000000;0.856567
8741.000000;0.856481
8740.000000;0.856177
8739.000000;0.855718
8738.000000;0.855223
8737.000000;0.854868
8736.000000;0.854818
8735.000000;0.855108
8734.000000;0.855565
8733.000000;0.855896
8732.000000;0.855937
8731.000000;0.855810
8730.000000;0.855799
8729.000000;0.856061
8728.000000;0.856490
8727.000000;0.856834
8726.000000;0.856932
8725.000000;0.856830
8724.000000;0.856693
8723.000000;0.856609
8722.000000;0.856523
8721.000000;0.856403
8720.000000;0.856401
8719.000000;0.856735
8718.000000;0.857398
8717.000000;0.858132
8716.000000;0.858757
8715.000000;0.859371
8714.000000;0.860102
8713.000000;0.860780
8712.000000;0.861078
8711.000000;0.860937
8710.000000;0.860625
8709.000000;0.860362
8708.000000;0.860126
8707.000000;0.859895
8706.000000;0.859852
8705.000000;0.860150
8704.000000;0.860596
8703.000000;0.860811
8702.000000;0.860668
8701.000000;0.860382
8700.000000;0.860156
8699.000000;0.859950
8698.000000;0.859685
8697.000000;0.859504
8696.000000;0.859640
8695.000000;0.860102
8694.000000;0.860632
8693.000000;0.860988
8692.000000;0.861124
8691.000000;0.861093
8690.000000;0.860926
8689.000000;0.860689
8688.000000;0.860567
8687.000000;0.860756
8686.000000;0.861297
8685.000000;0.862039
8684.000000;0.862715
8683.000000;0.863002
8682.000000;0.862630
8681.000000;0.861617
8680.000000;0.860371
8679.000000;0.859453
8678.000000;0.859184
8677.000000;0.859563
8676.000000;0.860466
8675.000000;0.861712
8674.000000;0.862991
8673.000000;0.863959
8672.000000;0.864517
8671.000000;0.864788
8670.000000;0.864768
8669.000000;0.864247
8668.000000;0.863244
8667.000000;0.862271
8666.000000;0.861868
8665.000000;0.861987
8664.000000;0.862088
8663.000000;0.861822
8662.000000;0.861348
8661.000000;0.860961
8660.000000;0.860722
8659.000000;0.860558
8658.000000;0.860502
8657.000000;0.860616
8656.000000;0.860800
8655.000000;0.860873
8654.000000;0.860799
8653.000000;0.860704
8652.000000;0.860676
8651.000000;0.860685
8650.000000;0.860688
8649.000000;0.860724
8648.000000;0.860834
8647.000000;0.860956
8646.000000;0.860994
8645.000000;0.860946
8644.000000;0.860905
8643.000000;0.860918
8642.000000;0.860886
8641.000000;0.860671
8640.000000;0.860264
8639.000000;0.859784
8638.000000;0.859354
8637.000000;0.859043
8636.000000;0.858915
8635.000000;0.858992
8634.000000;0.859142
8633.000000;0.859133
8632.000000;0.858886
8631.000000;0.858571
8630.000000;0.858396
8629.000000;0.858418
8628.000000;0.858632
8627.000000;0.859107
8626.000000;0.859823
8625.000000;0.860475
8624.000000;0.860655
8623.000000;0.860288
8622.000000;0.859719
8621.000000;0.859316
8620.000000;0.859121
8619.000000;0.858935
8618.000000;0.858635
8617.000000;0.858324
8616.000000;0.858245
8615.000000;0.858557
8614.000000;0.859154
8613.000000;0.859687
8612.000000;0.859840
8611.000000;0.859594
8610.000000;0.859152
8609.000000;0.858673
8608.000000;0.858195
8607.000000;0.857779
8606.000000;0.857553
8605.000000;0.857570
8604.000000;0.857753
8603.000000;0.857972
8602.000000;0.858057
8601.000000;0.857762
8600.000000;0.856940
8599.000000;0.855818
8598.000000;0.854938
8597.000000;0.854698
8596.000000;0.855069
8595.000000;0.855778
8594.000000;0.856590
8593.000000;0.857311
8592.000000;0.857722
8591.000000;0.857699
8590.000000;0.857326
8589.000000;0.856759
8588.000000;0.856076
8587.000000;0.855374
8586.000000;0.854896
8585.000000;0.854849
8584.000000;0.855140
8583.000000;0.855421
8582.000000;0.855399
8581.000000;0.855034
8580.000000;0.854509
8579.000000;0.854127
8578.000000;0.854165
8577.000000;0.854644
8576.000000;0.855259
8575.000000;0.855617
8574.000000;0.855547
8573.000000;0.855135
8572.000000;0.854573
8571.000000;0.854077
8570.000000;0.853852
8569.000000;0.853935
8568.000000;0.854065
8567.000000;0.853891
8566.000000;0.853334
8565.000000;0.852669
8564.000000;0.852262
8563.000000;0.852329
8562.000000;0.852848
8561.000000;0.853541
8560.000000;0.853971
8559.000000;0.853872
8558.000000;0.853421
8557.000000;0.853049
8556.000000;0.852976
8555.000000;0.853044
8554.000000;0.853007
8553.000000;0.852778
8552.000000;0.852390
8551.000000;0.851940
8550.000000;0.851637
8549.000000;0.851709
8548.000000;0.852117
8547.000000;0.852533
8546.000000;0.852701
8545.000000;0.852674
8544.000000;0.852554
8543.000000;0.852193
8542.000000;0.851416
8541.000000;0.850423
8540.000000;0.849713
8539.000000;0.849589
8538.000000;0.849902
8537.000000;0.850306
8536.000000;0.850562
8535.000000;0.850559
8534.000000;0.850241
8533.000000;0.849678
8532.000000;0.849106
8531.000000;0.848793
8530.000000;0.848847
8529.000000;0.849194
8528.000000;0.849670
8527.000000;0.850083
8526.000000;0.850263
8525.000000;0.850155
8524.000000;0.849905
8523.000000;0.849760
8522.000000;0.849825
8521.000000;0.849929
8520.000000;0.849759
8519.000000;0.849176
8518.000000;0.848396
8517.000000;0.847835
8516.000000;0.847722
8515.000000;0.847892
8514.000000;0.848001
8513.000000;0.847894
8512.000000;0.847684
8511.000000;0.847477
8510.000000;0.847204
8509.000000;0.846808
8508.000000;0.846471
8507.000000;0.846474
8506.000000;0.846841
8505.000000;0.847267
8504.000000;0.847440
8503.000000;0.847337
8502.000000;0.847130
8501.000000;0.846893
8500.000000;0.846525
8499.000000;0.845949
8498.000000;0.845295
8497.000000;0.844835
8496.000000;0.844766
8495.000000;0.845048
8494.000000;0.845424
8493.000000;0.845588
8492.000000;0.845423
8491.000000;0.845146
8490.000000;0.845161
8489.000000;0.845669
8488.000000;0.846409
8487.000000;0.846846
8486.000000;0.846691
8485.000000;0.846170
8484.000000;0.845744
8483.000000;0.845600
8482.000000;0.845542
8481.000000;0.845339
8480.000000;0.845055
8479.000000;0.844950
8478.000000;0.845154
8477.000000;0.845516
8476.000000;0.845762
8475.000000;0.845712
8474.000000;0.845366
8473.000000;0.844865
8472.000000;0.844399
8471.000000;0.844105
8470.000000;0.843971
8469.000000;0.843871
8468.000000;0.843700
8467.000000;0.843492
8466.000000;0.843394
8465.000000;0.843532
8464.000000;0.843892
8463.000000;0.844278
8462.000000;0.844415
8461.000000;0.844144
8460.000000;0.843555
8459.000000;0.842941
8458.000000;0.842627
8457.000000;0.842792
8456.000000;0.843365
8455.000000;0.844015
8454.000000;0.844336
8453.000000;0.844165
8452.000000;0.843718
8451.000000;0.843329
8450.000000;0.843057
8449.000000;0.842678
8448.000000;0.842056
8447.000000;0.841376
8446.000000;0.840934
8445.000000;0.840828
8444.000000;0.840951
8443.000000;0.841201
8442.000000;0.841541
8441.000000;0.841887
8440.000000;0.842062
8439.000000;0.841931
8438.000000;0.841543
8437.000000;0.841122
8436.000000;0.840920
8435.000000;0.841015
8434.000000;0.841230
8433.000000;0.841279
8432.000000;0.841068
8431.000000;0.840798
8430.000000;0.840740
8429.000000;0.840930
8428.000000;0.841166
8427.000000;0.841243
8426.000000;0.841140
8425.000000;0.840973
8424.000000;0.840846
8423.000000;0.840738
8422.000000;0.840497
8421.000000;0.840004
8420.000000;0.839362
8419.000000;0.838858
8418.000000;0.838678
8417.000000;0.838722
8416.000000;0.838806
8415.000000;0.838947
8414.000000;0.839285
8413.000000;0.839743
8412.000000;0.839952
8411.000000;0.839594
8410.000000;0.838733
8409.000000;0.837771
8408.000000;0.837150
8407.000000;0.837103
8406.000000;0.837550
8405.000000;0.838157
8404.000000;0.838556
8403.000000;0.838601
8402.000000;0.838408
8401.000000;0.838158
8400.000000;0.837934
8399.000000;0.837748
8398.000000;0.837632
8397.000000;0.837614
8396.000000;0.837665
8395.000000;0.837699
8394.000000;0.837640
8393.000000;0.837478
8392.000000;0.837298
8391.000000;0.837254
8390.000000;0.837431
8389.000000;0.837723
8388.000000;0.837904
8387.000000;0.837833
8386.000000;0.837566
8385.000000;0.837248
8384.000000;0.836984
8383.000000;0.836820
8382.000000;0.836766
8381.000000;0.836800
8380.000000;0.836872
8379.000000;0.836930
8378.000000;0.836913
8377.000000;0.836742
8376.000000;0.836386
8375.000000;0.835937
8374.000000;0.835557
8373.000000;0.835352
8372.000000;0.835365
8371.000000;0.835643
8370.000000;0.836175
8369.000000;0.836753
8368.000000;0.837067
8367.000000;0.836985
8366.000000;0.836636
8365.000000;0.836180
8364.000000;0.835668
8363.000000;0.835192
8362.000000;0.834967
8361.000000;0.835094
8360.000000;0.835347
8359.000000;0.835391
8358.000000;0.835169
8357.000000;0.834906
8356.000000;0.834783
8355.000000;0.834758
8354.000000;0.834735
8353.000000;0.834705
8352.000000;0.834677
8351.000000;0.834604
8350.000000;0.834456
8349.000000;0.834290
8348.000000;0.834144
8347.000000;0.833941
8346.000000;0.833622
8345.000000;0.833327
8344.000000;0.833316
8343.000000;0.833646
8342.000000;0.834013
8341.000000;0.834029
8340.000000;0.833640
8339.000000;0.833167
8338.000000;0.832919
8337.000000;0.832888
8336.000000;0.832892
8335.000000;0.832913
8334.000000;0.833089
8333.000000;0.833398
8332.000000;0.833536
8331.000000;0.833231
8330.000000;0.832586
8329.000000;0.832005
8328.000000;0.831831
8327.000000;0.832086
8326.000000;0.832490
8325.000000;0.832667
8324.000000;0.832394
8323.000000;0.831763
8322.000000;0.831084
8321.000000;0.830603
8320.000000;0.830344
8319.000000;0.830225
8318.000000;0.830215
8317.000000;0.830307
8316.000000;0.830439
8315.000000;0.830582
8314.000000;0.830814
8313.000000;0.831188
8312.000000;0.831540
8311.000000;0.831609
8310.000000;0.831365
8309.000000;0.831070
8308.000000;0.830971
8307.000000;0.831042
8306.000000;0.831099
8305.000000;0.831078
8304.000000;0.831083
8303.000000;0.831196
8302.000000;0.831334
8301.000000;0.831310
8300.000000;0.830993
8299.000000;0.830383
8298.000000;0.829621
8297.000000;0.828952
8296.000000;0.828625
8295.000000;0.828703
8294.000000;0.828957
8293.000000;0.829018
8292.000000;0.828729
8291.000000;0.828290
8290.000000;0.827987
8289.000000;0.827865
8288.000000;0.827768
8287.000000;0.827666
8286.000000;0.827732
8285.000000;0.828036
8284.000000;0.828349
8283.000000;0.828389
8282.000000;0.828164
8281.000000;0.827929
8280.000000;0.827845
8279.000000;0.827839
8278.000000;0.827771
8277.000000;0.827595
8276.000000;0.827329
8275.000000;0.826978
8274.000000;0.826553
8273.000000;0.826105
8272.000000;0.825715
8271.000000;0.825469
8270.000000;0.825426
8269.000000;0.825530
8268.000000;0.825607
8267.000000;0.825512
8266.000000;0.825312
8265.000000;0.825221
8264.000000;0.825351
8263.000000;0.825599
8262.000000;0.825795
8261.000000;0.825881
8260.000000;0.825899
8259.000000;0.825891
8258.000000;0.825888
8257.000000;0.825928
8256.000000;0.826010
8255.000000;0.826028
8254.000000;0.825854
8253.000000;0.825469
8252.000000;0.824999
8251.000000;0.824617
8250.000000;0.824440
8249.000000;0.824505
8248.000000;0.824775
8247.000000;0.825137
8246.000000;0.825450
8245.000000;0.825633
8244.000000;0.825692
8243.000000;0.825662
8242.000000;0.825556
8241.000000;0.825381
8240.000000;0.825159
8239.000000;0.824893
8238.000000;0.824544
8237.000000;0.824113
8236.000000;0.823708
8235.000000;0.823440
8234.000000;0.823260
8233.000000;0.822989
8232.000000;0.822572
8231.000000;0.822216
8230.000000;0.822193
8229.000000;0.822562
8228.000000;0.823141
8227.000000;0.823696
8226.000000;0.824081
8225.000000;0.824237
8224.000000;0.824162
8223.000000;0.823891
8222.000000;0.823456
8221.000000;0.822880
8220.000000;0.822284
8219.000000;0.821906
8218.000000;0.821894
8217.000000;0.822099
8216.000000;0.822198
8215.000000;0.822036
8214.000000;0.821722
8213.000000;0.821384
8212.000000;0.820993
8211.000000;0.820509
8210.000000;0.820075
8209.000000;0.819923
8208.000000;0.820154
8207.000000;0.820651
8206.000000;0.821192
8205.000000;0.821579
8204.000000;0.821722
8203.000000;0.821670
8202.000000;0.821530
8201.000000;0.821352
8200.000000;0.821112
8199.000000;0.820811
8198.000000;0.820502
8197.000000;0.820213
8196.000000;0.819971
8195.000000;0.819900
8194.000000;0.820146
8193.000000;0.820634
8192.000000;0.821015
8191.000000;0.820996
8190.000000;0.820617
8189.000000;0.820162
8188.000000;0.819877
8187.000000;0.819876
8186.000000;0.820180
8185.000000;0.820660
8184.000000;0.821010
8183.000000;0.820945
8182.000000;0.820458
8181.000000;0.819806
8180.000000;0.819272
8179.000000;0.818994
8178.000000;0.818940
8177.000000;0.818939
8176.000000;0.818803
8175.000000;0.818541
8174.000000;0.818421
8173.000000;0.818664
8172.000000;0.819124
8171.000000;0.819424
8170.000000;0.819414
8169.000000;0.819300
8168.000000;0.819306
8167.000000;0.819374
8166.000000;0.819287
8165.000000;0.818982
8164.000000;0.818627
8163.000000;0.818434
8162.000000;0.818475
8161.000000;0.818642
8160.000000;0.818754
8159.000000;0.818718
8158.000000;0.818600
8157.000000;0.818523
8156.000000;0.818501
8155.000000;0.818402
8154.000000;0.818090
8153.000000;0.817562
8152.000000;0.816971
8151.000000;0.816560
8150.000000;0.816552
8149.000000;0.816987
8148.000000;0.817634
8147.000000;0.818095
8146.000000;0.818095
8145.000000;0.817683
8144.000000;0.817154
8143.000000;0.816778
8142.000000;0.816589
8141.000000;0.816430
8140.000000;0.816160
8139.000000;0.815809
8138.000000;0.815488
8137.000000;0.815244
8136.000000;0.815052
8135.000000;0.814950
8134.000000;0.815038
8133.000000;0.815315
8132.000000;0.815620
8131.000000;0.815786
8130.000000;0.815751
8129.000000;0.815507
8128.000000;0.815067
8127.000000;0.814587
8126.000000;0.814344
8125.000000;0.814442
8124.000000;0.814641
8123.000000;0.814616
8122.000000;0.814328
8121.000000;0.813995
8120.000000;0.813792
8119.000000;0.813735
8118.000000;0.813797
8117.000000;0.813917
8116.000000;0.813961
8115.000000;0.813855
8114.000000;0.813771
8113.000000;0.813941
8112.000000;0.814286
8111.000000;0.814438
8110.000000;0.814186
8109.000000;0.813707
8108.000000;0.813273
8107.000000;0.812932
8106.000000;0.812603
8105.000000;0.812315
8104.000000;0.812189
8103.000000;0.812275
8102.000000;0.812529
8101.000000;0.812872
8100.000000;0.813169
8099.000000;0.813262
8098.000000;0.813111
8097.000000;0.812876
8096.000000;0.812749
8095.000000;0.812754
8094.000000;0.812788
8093.000000;0.812786
8092.000000;0.812766
8091.000000;0.812725
8090.000000;0.812609
8089.000000;0.812383
8088.000000;0.812117
8087.000000;0.811984
8086.000000;0.812136
8085.000000;0.812530
8084.000000;0.812858
8083.000000;0.812770
8082.000000;0.812231
8081.000000;0.811600
8080.000000;0.811298
8079.000000;0.811437
8078.000000;0.811795
8077.000000;0.812065
8076.000000;0.812089
8075.000000;0.811910
8074.000000;0.811683
8073.000000;0.811519
8072.000000;0.811401
8071.000000;0.811264
8070.000000;0.811125
8069.000000;0.811058
8068.000000;0.811070
8067.000000;0.811124
8066.000000;0.811248
8065.000000;0.811484
8064.000000;0.811684
8063.000000;0.811569
8062.000000;0.811078
8061.000000;0.810510
8060.000000;0.810182
8059.000000;0.810074
8058.000000;0.809963
8057.000000;0.809768
8056.000000;0.809598
8055.000000;0.809535
8054.000000;0.809555
8053.000000;0.809643
8052.000000;0.809805
8051.000000;0.809962
8050.000000;0.809977
8049.000000;0.809819
8048.000000;0.809610
8047.000000;0.809476
8046.000000;0.809450
8045.000000;0.809504
8044.000000;0.809584
8043.000000;0.809610
8042.000000;0.809558
8041.000000;0.809516
8040.000000;0.809572
8039.000000;0.809631
8038.000000;0.809464
8037.000000;0.808981
8036.000000;0.808372
8035.000000;0.807948
8034.000000;0.807916
8033.000000;0.808286
8032.000000;0.808878
8031.000000;0.809364
8030.000000;0.809444
8029.000000;0.809085
8028.000000;0.808548
8027.000000;0.808125
8026.000000;0.807896
8025.000000;0.807780
8024.000000;0.807731
8023.000000;0.807790
8022.000000;0.807995
8021.000000;0.808306
8020.000000;0.808621
8019.000000;0.808822
8018.000000;0.808824
8017.000000;0.808645
8016.000000;0.808404
8015.000000;0.808209
8014.000000;0.808064
8013.000000;0.807903
8012.000000;0.807717
8011.000000;0.807579
8010.000000;0.807564
8009.000000;0.807669
8008.000000;0.807816
8007.000000;0.807908
8006.000000;0.807882
8005.000000;0.807752
8004.000000;0.807601
8003.000000;0.807476
8002.000000;0.807324
8001.000000;0.807072
8000.000000;0.806797
7999.000000;0.806741
7998.000000;0.807075
7997.000000;0.807663
7996.000000;0.808142
7995.000000;0.808247
7994.000000;0.808005
7993.000000;0.807614
7992.000000;0.807201
7991.000000;0.806803
7990.000000;0.806489
7989.000000;0.806379
7988.000000;0.806508
7987.000000;0.806739
7986.000000;0.806865
7985.000000;0.806765
7984.000000;0.806460
7983.000000;0.806082
7982.000000;0.805809
7981.000000;0.805767
7980.000000;0.805925
7979.000000;0.806109
7978.000000;0.806169
7977.000000;0.806097
7976.000000;0.805980
7975.000000;0.805871
7974.000000;0.805779
7973.000000;0.805733
7972.000000;0.805773
7971.000000;0.805874
7970.000000;0.805930
7969.000000;0.805830
7968.000000;0.805541
7967.000000;0.805130
7966.000000;0.804745
7965.000000;0.804551
7964.000000;0.804610
7963.000000;0.804811
7962.000000;0.804967
7961.000000;0.805015
7960.000000;0.805061
7959.000000;0.805238
7958.000000;0.805548
7957.000000;0.805851
7956.000000;0.805985
7955.000000;0.805871
7954.000000;0.805567
7953.000000;0.805231
7952.000000;0.805017
7951.000000;0.804979
7950.000000;0.805080
7949.000000;0.805262
7948.000000;0.805453
7947.000000;0.805529
7946.000000;0.805355
7945.000000;0.804953
7944.000000;0.804576
7943.000000;0.804508
7942.000000;0.804794
7941.000000;0.805187
7940.000000;0.805381
7939.000000;0.805276
7938.000000;0.805014
7937.000000;0.804804
7936.000000;0.804740
7935.000000;0.804768
7934.000000;0.804790
7933.000000;0.804773
7932.000000;0.804747
7931.000000;0.804733
7930.000000;0.804711
7929.000000;0.804675
7928.000000;0.804664
7927.000000;0.804703
7926.000000;0.804739
7925.000000;0.804689
7924.000000;0.804547
7923.000000;0.804391
7922.000000;0.804291
7921.000000;0.804262
7920.000000;0.804324
7919.000000;0.804523
7918.000000;0.804828
7917.000000;0.805063
7916.000000;0.805027
7915.000000;0.804699
7914.000000;0.804244
7913.000000;0.803834
7912.000000;0.803521
7911.000000;0.803297
7910.000000;0.803175
7909.000000;0.803165
7908.000000;0.803236
7907.000000;0.803372
7906.000000;0.803617
7905.000000;0.803977
7904.000000;0.804331
7903.000000;0.804497
7902.000000;0.804416
7901.000000;0.804196
7900.000000;0.803980
7899.000000;0.803831
7898.000000;0.803749
7897.000000;0.803720
7896.000000;0.803710
7895.000000;0.803651
7894.000000;0.803497
7893.000000;0.803281
7892.000000;0.803099
7891.000000;0.803037
7890.000000;0.803098
7889.000000;0.803192
7888.000000;0.803226
7887.000000;0.803219
7886.000000;0.803302
7885.000000;0.803537
7884.000000;0.803794
7883.000000;0.803893
7882.000000;0.803840
7881.000000;0.803804
7880.000000;0.803852
7879.000000;0.803846
7878.000000;0.803685
7877.000000;0.803503
7876.000000;0.803503
7875.000000;0.803673
7874.000000;0.803821
7873.000000;0.803851
7872.000000;0.803875
7871.000000;0.804006
7870.000000;0.804187
7869.000000;0.804261
7868.000000;0.804147
7867.000000;0.803893
7866.000000;0.803625
7865.000000;0.803468
7864.000000;0.803489
7863.000000;0.803652
7862.000000;0.803845
7861.000000;0.803959
7860.000000;0.803953
7859.000000;0.803861
7858.000000;0.803769
7857.000000;0.803748
7856.000000;0.803773
7855.000000;0.803720
7854.000000;0.803522
7853.000000;0.803305
7852.000000;0.803263
7851.000000;0.803390
7850.000000;0.803452
7849.000000;0.803296
7848.000000;0.803065
7847.000000;0.803007
7846.000000;0.803147
7845.000000;0.803295
7844.000000;0.803344
7843.000000;0.803399
7842.000000;0.803577
7841.000000;0.803804
7840.000000;0.803918
7839.000000;0.803883
7838.000000;0.803787
7837.000000;0.803674
7836.000000;0.803506
7835.000000;0.803331
7834.000000;0.803349
7833.000000;0.803715
7832.000000;0.804315
7831.000000;0.804828
7830.000000;0.805014
7829.000000;0.804900
7828.000000;0.804679
7827.000000;0.804516
7826.000000;0.804474
7825.000000;0.804543
7824.000000;0.804656
7823.000000;0.804712
7822.000000;0.804659
7821.000000;0.804565
7820.000000;0.804551
7819.000000;0.804625
7818.000000;0.804644
7817.000000;0.804464
7816.000000;0.804109
7815.000000;0.803764
7814.000000;0.803616
7813.000000;0.803702
7812.000000;0.803880
7811.000000;0.803964
7810.000000;0.803898
7809.000000;0.803808
7808.000000;0.803850
7807.000000;0.804015
7806.000000;0.804140
7805.000000;0.804094
7804.000000;0.803913
7803.000000;0.803731
7802.000000;0.803651
7801.000000;0.803708
7800.000000;0.803891
7799.000000;0.804132
7798.000000;0.804310
7797.000000;0.804339
7796.000000;0.804251
7795.000000;0.804173
7794.000000;0.804211
7793.000000;0.804381
7792.000000;0.804623
7791.000000;0.804844
7790.000000;0.804975
7789.000000;0.805026
7788.000000;0.805063
7787.000000;0.805116
7786.000000;0.805128
7785.000000;0.805052
7784.000000;0.804954
7783.000000;0.804953
7782.000000;0.805080
7781.000000;0.805257
7780.000000;0.805426
7779.000000;0.805605
7778.000000;0.805808
7777.000000;0.805982
7776.000000;0.806054
7775.000000;0.805996
7774.000000;0.805824
7773.000000;0.805607
7772.000000;0.805474
7771.000000;0.805537
7770.000000;0.805751
7769.000000;0.805905
7768.000000;0.805825
7767.000000;0.805540
7766.000000;0.805217
7765.000000;0.804986
7764.000000;0.804885
7763.000000;0.804918
7762.000000;0.805070
7761.000000;0.805290
7760.000000;0.805536
7759.000000;0.805812
7758.000000;0.806103
7757.000000;0.806323
7756.000000;0.806428
7755.000000;0.806538
7754.000000;0.806798
7753.000000;0.807117
7752.000000;0.807229
7751.000000;0.807054
7750.000000;0.806856
7749.000000;0.806920
7748.000000;0.807177
7747.000000;0.807301
7746.000000;0.807120
7745.000000;0.806788
7744.000000;0.806575
7743.000000;0.806612
7742.000000;0.806849
7741.000000;0.807149
7740.000000;0.807352
7739.000000;0.807366
7738.000000;0.807252
7737.000000;0.807197
7736.000000;0.807346
7735.000000;0.807679
7734.000000;0.808054
7733.000000;0.808322
7732.000000;0.808408
7731.000000;0.808319
7730.000000;0.808144
7729.000000;0.807987
7728.000000;0.807881
7727.000000;0.807792
7726.000000;0.807717
7725.000000;0.807713
7724.000000;0.807810
7723.000000;0.807950
7722.000000;0.808079
7721.000000;0.808230
7720.000000;0.808447
7719.000000;0.808664
7718.000000;0.808757
7717.000000;0.808708
7716.000000;0.808630
7715.000000;0.808626
7714.000000;0.808689
7713.000000;0.808787
7712.000000;0.808962
7711.000000;0.809280
7710.000000;0.809706
7709.000000;0.810058
7708.000000;0.810127
7707.000000;0.809848
7706.000000;0.809371
7705.000000;0.808979
7704.000000;0.808887
7703.000000;0.809103
7702.000000;0.809474
7701.000000;0.809829
7700.000000;0.810084
7699.000000;0.810233
7698.000000;0.810319
7697.000000;0.810409
7696.000000;0.810550
7695.000000;0.810719
7694.000000;0.810843
7693.000000;0.810892
7692.000000;0.810901
7691.000000;0.810903
7690.000000;0.810882
7689.000000;0.810832
7688.000000;0.810819
7687.000000;0.810920
7686.000000;0.811146
7685.000000;0.811463
7684.000000;0.811840
7683.000000;0.812232
7682.000000;0.812529
7681.000000;0.812625
7680.000000;0.812529
7679.000000;0.812370
7678.000000;0.812264
7677.000000;0.812229
7676.000000;0.812247
7675.000000;0.812315
7674.000000;0.812415
7673.000000;0.812495
7672.000000;0.812559
7671.000000;0.812697
7670.000000;0.812974
7669.000000;0.813300
7668.000000;0.813503
7667.000000;0.813518
7666.000000;0.813439
7665.000000;0.813387
7664.000000;0.813401
7663.000000;0.813489
7662.000000;0.813678
7661.000000;0.813958
7660.000000;0.814217
7659.000000;0.814337
7658.000000;0.814337
7657.000000;0.814362
7656.000000;0.814515
7655.000000;0.814760
7654.000000;0.814995
7653.000000;0.815176
7652.000000;0.815325
7651.000000;0.815467
7650.000000;0.815604
7649.000000;0.815741
7648.000000;0.815895
7647.000000;0.816071
7646.000000;0.816274
7645.000000;0.816525
7644.000000;0.816855
7643.000000;0.817239
7642.000000;0.817577
7641.000000;0.817749
7640.000000;0.817713
7639.000000;0.817563
7638.000000;0.817483
7637.000000;0.817632
7636.000000;0.818004
7635.000000;0.818430
7634.000000;0.818724
7633.000000;0.818859
7632.000000;0.818953
7631.000000;0.819102
7630.000000;0.819269
7629.000000;0.819351
7628.000000;0.819324
7627.000000;0.819277
7626.000000;0.819323
7625.000000;0.819513
7624.000000;0.819810
7623.000000;0.820116
7622.000000;0.820311
7621.000000;0.820318
7620.000000;0.820177
7619.000000;0.820031
7618.000000;0.820037
7617.000000;0.820264
7616.000000;0.820654
7615.000000;0.821078
7614.000000;0.821436
7613.000000;0.821707
7612.000000;0.821917
7611.000000;0.822063
7610.000000;0.822112
7609.000000;0.822082
7608.000000;0.822088
7607.000000;0.822252
7606.000000;0.822599
7605.000000;0.823054
7604.000000;0.823529
7603.000000;0.823958
7602.000000;0.824277
7601.000000;0.824456
7600.000000;0.824569
7599.000000;0.824759
7598.000000;0.825078
7597.000000;0.825413
7596.000000;0.825609
7595.000000;0.825658
7594.000000;0.825689
7593.000000;0.825825
7592.000000;0.826076
7591.000000;0.826380
7590.000000;0.826670
7589.000000;0.826905
7588.000000;0.827107
7587.000000;0.827361
7586.000000;0.827738
7585.000000;0.828189
7584.000000;0.828573
7583.000000;0.828840
7582.000000;0.829093
7581.000000;0.829434
7580.000000;0.829794
7579.000000;0.830006
7578.000000;0.830031
7577.000000;0.830005
7576.000000;0.830084
7575.000000;0.830292
7574.000000;0.830572
7573.000000;0.830890
7572.000000;0.831236
7571.000000;0.831573
7570.000000;0.831843
7569.000000;0.832032
7568.000000;0.832175
7567.000000;0.832313
7566.000000;0.832464
7565.000000;0.832638
7564.000000;0.832824
7563.000000;0.833001
7562.000000;0.833179
7561.000000;0.833446
7560.000000;0.833888
7559.000000;0.834454
7558.000000;0.834961
7557.000000;0.835283
7556.000000;0.835510
7555.000000;0.835853
7554.000000;0.836386
7553.000000;0.836946
7552.000000;0.837307
7551.000000;0.837414
7550.000000;0.837396
7549.000000;0.837386
7548.000000;0.837409
7547.000000;0.837457
7546.000000;0.837590
7545.000000;0.837899
7544.000000;0.838375
7543.000000;0.838909
7542.000000;0.839414
7541.000000;0.839892
7540.000000;0.840346
7539.000000;0.840700
7538.000000;0.840870
7537.000000;0.840895
7536.000000;0.840933
7535.000000;0.841134
7534.000000;0.841543
7533.000000;0.842107
7532.000000;0.842702
7531.000000;0.843147
7530.000000;0.843318
7529.000000;0.843286
7528.000000;0.843287
7527.000000;0.843494
7526.000000;0.843835
7525.000000;0.844116
7524.000000;0.844298
7523.000000;0.844555
7522.000000;0.845064
7521.000000;0.845810
7520.000000;0.846625
7519.000000;0.847346
7518.000000;0.847880
7517.000000;0.848191
7516.000000;0.848315
7515.000000;0.848397
7514.000000;0.848612
7513.000000;0.849006
7512.000000;0.849456
7511.000000;0.849807
7510.000000;0.850025
7509.000000;0.850197
7508.000000;0.850416
7507.000000;0.850732
7506.000000;0.851174
7505.000000;0.851729
7504.000000;0.852271
7503.000000;0.852702
7502.000000;0.852949
7501.000000;0.853155
7500.000000;0.853518
7499.000000;0.854079
7498.000000;0.854659
7497.000000;0.855031
7496.000000;0.855135
7495.000000;0.855135
7494.000000;0.855272
7493.000000;0.855675
7492.000000;0.856284
7491.000000;0.856934
7490.000000;0.857488
7489.000000;0.857889
7488.000000;0.858124
7487.000000;0.858213
7486.000000;0.858256
7485.000000;0.858412
7484.000000;0.858788
7483.000000;0.859340
7482.000000;0.859924
7481.000000;0.860422
7480.000000;0.860800
7479.000000;0.861064
7478.000000;0.861236
7477.000000;0.861361
7476.000000;0.861509
7475.000000;0.861738
7474.000000;0.862069
7473.000000;0.862508
7472.000000;0.863048
7471.000000;0.863654
7470.000000;0.864264
7469.000000;0.864826
7468.000000;0.865313
7467.000000;0.865742
7466.000000;0.866166
7465.000000;0.866633
7464.000000;0.867127
7463.000000;0.867550
7462.000000;0.867818
7461.000000;0.867959
7460.000000;0.868110
7459.000000;0.868403
7458.000000;0.868863
7457.000000;0.869400
7456.000000;0.869875
7455.000000;0.870218
7454.000000;0.870481
7453.000000;0.870782
7452.000000;0.871171
7451.000000;0.871606
7450.000000;0.872070
7449.000000;0.872637
7448.000000;0.873339
7447.000000;0.874017
7446.000000;0.874436
7445.000000;0.874537
7444.000000;0.874499
7443.000000;0.874544
7442.000000;0.874745
7441.000000;0.875040
7440.000000;0.875339
7439.000000;0.875614
7438.000000;0.875937
7437.000000;0.876444
7436.000000;0.877167
7435.000000;0.877911
7434.000000;0.878385
7433.000000;0.878512
7432.000000;0.878544
7431.000000;0.878805
7430.000000;0.879367
7429.000000;0.880024
7428.000000;0.880525
7427.000000;0.880790
7426.000000;0.880920
7425.000000;0.881088
7424.000000;0.881385
7423.000000;0.881727
7422.000000;0.881918
7421.000000;0.881854
7420.000000;0.881670
7419.000000;0.881644
7418.000000;0.881950
7417.000000;0.882511
7416.000000;0.883116
7415.000000;0.883654
7414.000000;0.884221
7413.000000;0.884920
7412.000000;0.885638
7411.000000;0.886103
7410.000000;0.886201
7409.000000;0.886103
7408.000000;0.886017
7407.000000;0.885935
7406.000000;0.885788
7405.000000;0.885708
7404.000000;0.885893
7403.000000;0.886289
7402.000000;0.886635
7401.000000;0.886768
7400.000000;0.886735
7399.000000;0.886689
7398.000000;0.886763
7397.000000;0.887001
7396.000000;0.887284
7395.000000;0.887399
7394.000000;0.887349
7393.000000;0.887439
7392.000000;0.887870
7391.000000;0.888432
7390.000000;0.888808
7389.000000;0.889005
7388.000000;0.889191
7387.000000;0.889234
7386.000000;0.888865
7385.000000;0.888248
7384.000000;0.887837
7383.000000;0.887585
7382.000000;0.886950
7381.000000;0.885948
7380.000000;0.885566
7379.000000;0.886537
7378.000000;0.888192
7377.000000;0.889216
7376.000000;0.889240
7375.000000;0.889119
7374.000000;0.889769
7373.000000;0.891186
7372.000000;0.892650
7371.000000;0.893450
7370.000000;0.893345
7369.000000;0.892656
7368.000000;0.892049
7367.000000;0.891989
7366.000000;0.892393
7365.000000;0.893026
7364.000000;0.893888
7363.000000;0.894828
7362.000000;0.895261
7361.000000;0.894851
7360.000000;0.894214
7359.000000;0.894190
7358.000000;0.894628
7357.000000;0.894529
7356.000000;0.893429
7355.000000;0.892037
7354.000000;0.891357
7353.000000;0.891663
7352.000000;0.892422
7351.000000;0.892671
7350.000000;0.891557
7349.000000;0.889249
7348.000000;0.887220
7347.000000;0.886863
7346.000000;0.887912
7345.000000;0.888999
7344.000000;0.889586
7343.000000;0.890257
7342.000000;0.891243
7341.000000;0.891928
7340.000000;0.892378
7339.000000;0.893955
7338.000000;0.897447
7337.000000;0.901659
7336.000000;0.904705
7335.000000;0.905706
7334.000000;0.904973
7333.000000;0.903413
7332.000000;0.902159
7331.000000;0.901850
7330.000000;0.901767
7329.000000;0.900666
7328.000000;0.898966
7327.000000;0.899017
7326.000000;0.902234
7325.000000;0.907040
7324.000000;0.910805
7323.000000;0.912811
7322.000000;0.914294
7321.000000;0.916112
7320.000000;0.917670
7319.000000;0.918066
7318.000000;0.917120
7317.000000;0.915329
7316.000000;0.913680
7315.000000;0.913239
7314.000000;0.914016
7313.000000;0.914549
7312.000000;0.913633
7311.000000;0.912156
7310.000000;0.912053
7309.000000;0.913660
7308.000000;0.915436
7307.000000;0.916281
7306.000000;0.916871
7305.000000;0.918256
7304.000000;0.920367
7303.000000;0.922597
7302.000000;0.924551
7301.000000;0.925714
7300.000000;0.925575
7299.000000;0.924824
7298.000000;0.925296
7297.000000;0.927729
7296.000000;0.930546
7295.000000;0.931819
7294.000000;0.931856
7293.000000;0.932791
7292.000000;0.935743
7291.000000;0.939563
7290.000000;0.942445
7289.000000;0.943762
7288.000000;0.944245
7287.000000;0.944988
7286.000000;0.946592
7285.000000;0.948847
7284.000000;0.950975
7283.000000;0.952399
7282.000000;0.953251
7281.000000;0.954054
7280.000000;0.955046
7279.000000;0.956079
7278.000000;0.957057
7277.000000;0.958130
7276.000000;0.959408
7275.000000;0.960759
7274.000000;0.962028
7273.000000;0.963288
7272.000000;0.964741
7271.000000;0.966451
7270.000000;0.968235
7269.000000;0.969786
7268.000000;0.970983
7267.000000;0.972059
7266.000000;0.973339
7265.000000;0.974771
7264.000000;0.975936
7263.000000;0.976664
7262.000000;0.977451
7261.000000;0.978998
7260.000000;0.981384
7259.000000;0.983999
7258.000000;0.986267
7257.000000;0.988047
7256.000000;0.989253
7255.000000;0.989617
7254.000000;0.989114
7253.000000;0.988407
7252.000000;0.988650
7251.000000;0.990482
7250.000000;0.993247
7249.000000;0.995548
7248.000000;0.996725
7247.000000;0.997481
7246.000000;0.998679
7245.000000;0.999855
7244.000000;0.999764
7243.000000;0.998553
7242.000000;0.998509
7241.000000;1.001814
7240.000000;1.007887
7239.000000;1.013923
7238.000000;1.017782
7237.000000;1.019625
7236.000000;1.020822
7235.000000;1.022051
7234.000000;1.022858
7233.000000;1.022970
7232.000000;1.023695
7231.000000;1.027126
7230.000000;1.033750
7229.000000;1.041643
7228.000000;1.048234
7227.000000;1.052409
7226.000000;1.055037
7225.000000;1.057767
7224.000000;1.061432
7223.000000;1.065573
7222.000000;1.069236
7221.000000;1.072046
7220.000000;1.074616
7219.000000;1.077978
7218.000000;1.082548
7217.000000;1.087680
7216.000000;1.092317
7215.000000;1.096078
7214.000000;1.099520
7213.000000;1.103316
7212.000000;1.107493
7211.000000;1.111668
7210.000000;1.115678
7209.000000;1.119627
7208.000000;1.123406
7207.000000;1.126618
7206.000000;1.129132
7205.000000;1.131579
7204.000000;1.135051
7203.000000;1.140184
7202.000000;1.146600
7201.000000;1.153298
7200.000000;1.159494
7199.000000;1.165091
7198.000000;1.170355
7197.000000;1.175359
7196.000000;1.179894
7195.000000;1.183932
7194.000000;1.187823
7193.000000;1.191869
7192.000000;1.195961
7191.000000;1.199922
7190.000000;1.203991
7189.000000;1.208475
7188.000000;1.213116
7187.000000;1.217406
7186.000000;1.221476
7185.000000;1.226017
7184.000000;1.231193
7183.000000;1.236319
7182.000000;1.240962
7181.000000;1.245880
7180.000000;1.252210
7179.000000;1.259968
7178.000000;1.267934
7177.000000;1.274856
7176.000000;1.280336
7175.000000;1.284833
7174.000000;1.289130
7173.000000;1.293762
7172.000000;1.298569
7171.000000;1.302875
7170.000000;1.306437
7169.000000;1.309964
7168.000000;1.314404
7167.000000;1.320020
7166.000000;1.326526
7165.000000;1.333761
7164.000000;1.341552
7163.000000;1.349166
7162.000000;1.355783
7161.000000;1.361740
7160.000000;1.368517
7159.000000;1.376933
7158.000000;1.385998
7157.000000;1.394081
7156.000000;1.400603
7155.000000;1.406235
7154.000000;1.411884
7153.000000;1.417846
7152.000000;1.423749
7151.000000;1.429048
7150.000000;1.433599
7149.000000;1.437924
7148.000000;1.442811
7147.000000;1.448404
7146.000000;1.453889
7145.000000;1.458505
7144.000000;1.462710
7143.000000;1.467788
7142.000000;1.474243
7141.000000;1.481270
7140.000000;1.488046
7139.000000;1.494874
7138.000000;1.502434
7137.000000;1.510414
7136.000000;1.517732
7135.000000;1.524021
7134.000000;1.530157
7133.000000;1.537080
7132.000000;1.544621
7131.000000;1.551839
7130.000000;1.558142
7129.000000;1.563679
7128.000000;1.568857
7127.000000;1.573904
7126.000000;1.578863
7125.000000;1.583615
7124.000000;1.587975
7123.000000;1.592054
7122.000000;1.596489
7121.000000;1.601921
7120.000000;1.608161
7119.000000;1.614247
7118.000000;1.619520
7117.000000;1.624342
7116.000000;1.629565
7115.000000;1.635592
7114.000000;1.642135
7113.000000;1.648601
7112.000000;1.654538
7111.000000;1.659943
7110.000000;1.665344
7109.000000;1.671284
7108.000000;1.677460
7107.000000;1.682817
7106.000000;1.686831
7105.000000;1.690300
7104.000000;1.694469
7103.000000;1.699640
7102.000000;1.705054
7101.000000;1.709948
7100.000000;1.714273
7099.000000;1.718342
7098.000000;1.722208
7097.000000;1.725649
7096.000000;1.728761
7095.000000;1.732351
7094.000000;1.737474
7093.000000;1.744382
7092.000000;1.751991
7091.000000;1.758654
7090.000000;1.763502
7089.000000;1.766880
7088.000000;1.769537
7087.000000;1.771901
7086.000000;1.774299
7085.000000;1.777222
7084.000000;1.780835
7083.000000;1.784562
7082.000000;1.787717
7081.000000;1.790434
7080.000000;1.793439
7079.000000;1.796933
7078.000000;1.800277
7077.000000;1.802921
7076.000000;1.805128
7075.000000;1.807583
7074.000000;1.810600
7073.000000;1.813897
7072.000000;1.816982
7071.000000;1.819593
7070.000000;1.821893
7069.000000;1.824311
7068.000000;1.827221
7067.000000;1.830874
7066.000000;1.835559
7065.000000;1.841363
7064.000000;1.847529
7063.000000;1.852545
7062.000000;1.855449
7061.000000;1.856836
7060.000000;1.858067
7059.000000;1.859694
7058.000000;1.861318
7057.000000;1.862814
7056.000000;1.864837
7055.000000;1.867847
7054.000000;1.871349
7053.000000;1.874454
7052.000000;1.876778
7051.000000;1.878452
7050.000000;1.879674
7049.000000;1.880637
7048.000000;1.881614
7047.000000;1.882754
7046.000000;1.883951
7045.000000;1.885156
7044.000000;1.886661
7043.000000;1.888874
7042.000000;1.891833
7041.000000;1.895058
7040.000000;1.897854
7039.000000;1.899801
7038.000000;1.901140
7037.000000;1.902671
7036.000000;1.905076
7035.000000;1.908265
7034.000000;1.911424
7033.000000;1.913672
7032.000000;1.914667
7031.000000;1.914802
7030.000000;1.914989
7029.000000;1.916035
7028.000000;1.917921
7027.000000;1.919830
7026.000000;1.921067
7025.000000;1.921710
7024.000000;1.922152
7023.000000;1.922512
7022.000000;1.922964
7021.000000;1.924101
7020.000000;1.926270
7019.000000;1.928871
7018.000000;1.931023
7017.000000;1.932707
7016.000000;1.934447
7015.000000;1.936139
7014.000000;1.937137
7013.000000;1.937426
7012.000000;1.937674
7011.000000;1.938089
7010.000000;1.938224
7009.000000;1.938029
7008.000000;1.938071
7007.000000;1.938520
7006.000000;1.938863
7005.000000;1.938915
7004.000000;1.939205
7003.000000;1.940086
7002.000000;1.941393
7001.000000;1.943295
7000.000000;1.946351
6999.000000;1.950064
6998.000000;1.952522
6997.000000;1.952492
6996.000000;1.951063
6995.000000;1.950153
6994.000000;1.950174
6993.000000;1.950161
6992.000000;1.949449
6991.000000;1.948197
6990.000000;1.946763
6989.000000;1.945704
6988.000000;1.946045
6987.000000;1.948343
6986.000000;1.951452
6985.000000;1.953219
6984.000000;1.952813
6983.000000;1.951636
6982.000000;1.951641
6981.000000;1.953404
6980.000000;1.955953
6979.000000;1.957797
6978.000000;1.957912
6977.000000;1.956283
6976.000000;1.953917
6975.000000;1.952165
6974.000000;1.951779
6973.000000;1.952549
6972.000000;1.953693
6971.000000;1.954437
6970.000000;1.954488
6969.000000;1.954283
6968.000000;1.954653
6967.000000;1.956018
6966.000000;1.957968
6965.000000;1.959720
6964.000000;1.960797
6963.000000;1.961072
6962.000000;1.960471
6961.000000;1.959148
6960.000000;1.957818
6959.000000;1.957294
6958.000000;1.957590
6957.000000;1.957836
6956.000000;1.957271
6955.000000;1.956185
6954.000000;1.955696
6953.000000;1.956625
6952.000000;1.958581
6951.000000;1.960156
6950.000000;1.960145
6949.000000;1.958647
6948.000000;1.956795
6947.000000;1.955574
6946.000000;1.955245
6945.000000;1.955785
6944.000000;1.957200
6943.000000;1.959057
6942.000000;1.960216
6941.000000;1.959678
6940.000000;1.957519
6939.000000;1.954563
6938.000000;1.951457
6937.000000;1.948625
6936.000000;1.946762
6935.000000;1.946540
6934.000000;1.947789
6933.000000;1.949532
6932.000000;1.950981
6931.000000;1.952104
6930.000000;1.953093
6929.000000;1.953728
6928.000000;1.953599
6927.000000;1.952709
6926.000000;1.951585
6925.000000;1.950818
6924.000000;1.950578
6923.000000;1.950600
6922.000000;1.950566
6921.000000;1.950379
6920.000000;1.949991
6919.000000;1.949220
6918.000000;1.948073
6917.000000;1.947179
6916.000000;1.947400
6915.000000;1.948758
6914.000000;1.950114
6913.000000;1.950291
6912.000000;1.949251
6911.000000;1.947863
6910.000000;1.946775
6909.000000;1.945973
6908.000000;1.945295
6907.000000;1.944897
6906.000000;1.945006
6905.000000;1.945419
6904.000000;1.945427
6903.000000;1.944356
6902.000000;1.942301
6901.000000;1.940211
6900.000000;1.939014
6899.000000;1.938662
6898.000000;1.938351
6897.000000;1.937668
6896.000000;1.937038
6895.000000;1.936865
6894.000000;1.936785
6893.000000;1.936217
6892.000000;1.935258
6891.000000;1.934519
6890.000000;1.934302
6889.000000;1.934421
6888.000000;1.934629
6887.000000;1.934719
6886.000000;1.934358
6885.000000;1.933385
6884.000000;1.932191
6883.000000;1.931370
6882.000000;1.931099
6881.000000;1.931253
6880.000000;1.931856
6879.000000;1.932806
6878.000000;1.933295
6877.000000;1.932341
6876.000000;1.930105
6875.000000;1.927987
6874.000000;1.927048
6873.000000;1.926897
6872.000000;1.926503
6871.000000;1.925708
6870.000000;1.925292
6869.000000;1.925654
6868.000000;1.926075
6867.000000;1.925564
6866.000000;1.924073
6865.000000;1.922520
6864.000000;1.921715
6863.000000;1.921529
6862.000000;1.921160
6861.000000;1.920037
6860.000000;1.918273
6859.000000;1.916410
6858.000000;1.915005
6857.000000;1.914462
6856.000000;1.914861
6855.000000;1.915662
6854.000000;1.915787
6853.000000;1.914542
6852.000000;1.912487
6851.000000;1.910995
6850.000000;1.910755
6849.000000;1.911001
6848.000000;1.910378
6847.000000;1.908401
6846.000000;1.905797
6845.000000;1.903513
6844.000000;1.901775
6843.000000;1.900220
6842.000000;1.898650
6841.000000;1.897309
6840.000000;1.896420
6839.000000;1.895758
6838.000000;1.894877
6837.000000;1.893623
6836.000000;1.892165
6835.000000;1.890574
6834.000000;1.888708
6833.000000;1.886564
6832.000000;1.884443
6831.000000;1.882634
6830.000000;1.881104
6829.000000;1.879631
6828.000000;1.878082
6827.000000;1.876422
6826.000000;1.874625
6825.000000;1.872810
6824.000000;1.871271
6823.000000;1.870138
6822.000000;1.869119
6821.000000;1.867809
6820.000000;1.866136
6819.000000;1.864236
6818.000000;1.862040
6817.000000;1.859365
6816.000000;1.856445
6815.000000;1.853975
6814.000000;1.852452
6813.000000;1.851688
6812.000000;1.851082
6811.000000;1.850215
6810.000000;1.849030
6809.000000;1.847544
6808.000000;1.845596
6807.000000;1.842941
6806.000000;1.839586
6805.000000;1.835993
6804.000000;1.832844
6803.000000;1.830504
6802.000000;1.828752
6801.000000;1.827120
6800.000000;1.825421
6799.000000;1.823757
6798.000000;1.822111
6797.000000;1.820200
6796.000000;1.817846
6795.000000;1.815260
6794.000000;1.812741
6793.000000;1.810246
6792.000000;1.807482
6791.000000;1.804421
6790.000000;1.801472
6789.000000;1.798981
6788.000000;1.796694
6787.000000;1.793994
6786.000000;1.790738
6785.000000;1.787583
6784.000000;1.785274
6783.000000;1.783762
6782.000000;1.782283
6781.000000;1.780268
6780.000000;1.777868
6779.000000;1.775464
6778.000000;1.773034
6777.000000;1.770303
6776.000000;1.767329
6775.000000;1.764567
6774.000000;1.762316
6773.000000;1.760393
6772.000000;1.758422
6771.000000;1.756264
6770.000000;1.754008
6769.000000;1.751697
6768.000000;1.749193
6767.000000;1.746373
6766.000000;1.743378
6765.000000;1.740634
6764.000000;1.738546
6763.000000;1.737117
6762.000000;1.735860
6761.000000;1.734166
6760.000000;1.731742
6759.000000;1.728722
6758.000000;1.725439
6757.000000;1.722175
6756.000000;1.719092
6755.000000;1.716276
6754.000000;1.713771
6753.000000;1.711592
6752.000000;1.709695
6751.000000;1.707923
6750.000000;1.706008
6749.000000;1.703719
6748.000000;1.701016
6747.000000;1.698077
6746.000000;1.695178
6745.000000;1.692509
6744.000000;1.690025
6743.000000;1.687449
6742.000000;1.684522
6741.000000;1.681297
6740.000000;1.678105
6739.000000;1.675162
6738.000000;1.672331
6737.000000;1.669379
6736.000000;1.666369
6735.000000;1.663663
6734.000000;1.661553
6733.000000;1.660013
6732.000000;1.658730
6731.000000;1.657268
6730.000000;1.655245
6729.000000;1.652579
6728.000000;1.649605
6727.000000;1.646810
6726.000000;1.644377
6725.000000;1.642110
6724.000000;1.639771
6723.000000;1.637348
6722.000000;1.634889
6721.000000;1.632295
6720.000000;1.629444
6719.000000;1.626476
6718.000000;1.623777
6717.000000;1.621563
6716.000000;1.619609
6715.000000;1.617426
6714.000000;1.614713
6713.000000;1.611689
6712.000000;1.608924
6711.000000;1.606686
6710.000000;1.604657
6709.000000;1.602234
6708.000000;1.599197
6707.000000;1.596045
6706.000000;1.593457
6705.000000;1.591648
6704.000000;1.590247
6703.000000;1.588704
6702.000000;1.586668
6701.000000;1.584085
6700.000000;1.581168
6699.000000;1.578316
6698.000000;1.575866
6697.000000;1.573812
6696.000000;1.571842
6695.000000;1.569648
6694.000000;1.567130
6693.000000;1.564304
6692.000000;1.561238
6691.000000;1.558166
6690.000000;1.555484
6689.000000;1.553421
6688.000000;1.551795
6687.000000;1.550201
6686.000000;1.548378
6685.000000;1.546289
6684.000000;1.543945
6683.000000;1.541366
6682.000000;1.538698
6681.000000;1.536160
6680.000000;1.533836
6679.000000;1.531628
6678.000000;1.529431
6677.000000;1.527209
6676.000000;1.524920
6675.000000;1.522509
6674.000000;1.520013
6673.000000;1.517528
6672.000000;1.515040
6671.000000;1.512442
6670.000000;1.509765
6669.000000;1.507232
6668.000000;1.504989
6667.000000;1.502910
6666.000000;1.500750
6665.000000;1.498368
6664.000000;1.495752
6663.000000;1.492980
6662.000000;1.490277
6661.000000;1.487941
6660.000000;1.486031
6659.000000;1.484223
6658.000000;1.482172
6657.000000;1.479919
6656.000000;1.477784
6655.000000;1.475913
6654.000000;1.474156
6653.000000;1.472365
6652.000000;1.470535
6651.000000;1.468619
6650.000000;1.466430
6649.000000;1.463899
6648.000000;1.461290
6647.000000;1.458981
6646.000000;1.457063
6645.000000;1.455273
6644.000000;1.453319
6643.000000;1.451172
6642.000000;1.449014
6641.000000;1.446954
6640.000000;1.444889
6639.000000;1.442663
6638.000000;1.440318
6637.000000;1.438084
6636.000000;1.436110
6635.000000;1.434281
6634.000000;1.432340
6633.000000;1.430146
6632.000000;1.427758
6631.000000;1.425334
6630.000000;1.423034
6629.000000;1.420953
6628.000000;1.419041
6627.000000;1.417110
6626.000000;1.415005
6625.000000;1.412770
6624.000000;1.410571
6623.000000;1.408507
6622.000000;1.406571
6621.000000;1.404768
6620.000000;1.403124
6619.000000;1.401575
6618.000000;1.399981
6617.000000;1.398261
6616.000000;1.396419
6615.000000;1.394429
6614.000000;1.392217
6613.000000;1.389832
6612.000000;1.387505
6611.000000;1.385420
6610.000000;1.383515
6609.000000;1.381587
6608.000000;1.379564
6607.000000;1.377557
6606.000000;1.375683
6605.000000;1.373894
6604.000000;1.372037
6603.000000;1.370020
6602.000000;1.367921
6601.000000;1.365948
6600.000000;1.364263
6599.000000;1.362812
6598.000000;1.361321
6597.000000;1.359472
6596.000000;1.357162
6595.000000;1.354619
6594.000000;1.352283
6593.000000;1.350498
6592.000000;1.349228
6591.000000;1.348074
6590.000000;1.346617
6589.000000;1.344750
6588.000000;1.342686
6587.000000;1.340685
6586.000000;1.338864
6585.000000;1.337228
6584.000000;1.335726
6583.000000;1.334239
6582.000000;1.332624
6581.000000;1.330843
6580.000000;1.328999
6579.000000;1.327182
6578.000000;1.325347
6577.000000;1.323419
6576.000000;1.321455
6575.000000;1.319629
6574.000000;1.318039
6573.000000;1.316606
6572.000000;1.315132
6571.000000;1.313456
6570.000000;1.311569
6569.000000;1.309641
6568.000000;1.307901
6567.000000;1.306441
6566.000000;1.305125
6565.000000;1.303742
6564.000000;1.302223
6563.000000;1.300647
6562.000000;1.299060
6561.000000;1.297393
6560.000000;1.295582
6559.000000;1.293703
6558.000000;1.291892
6557.000000;1.290165
6556.000000;1.288404
6555.000000;1.286527
6554.000000;1.284640
6553.000000;1.282933
6552.000000;1.281458
6551.000000;1.280061
6550.000000;1.278566
6549.000000;1.276975
6548.000000;1.275427
6547.000000;1.273984
6546.000000;1.272548
6545.000000;1.271007
6544.000000;1.269402
6543.000000;1.267875
6542.000000;1.266487
6541.000000;1.265142
6540.000000;1.263711
6539.000000;1.262156
6538.000000;1.260517
6537.000000;1.258822
6536.000000;1.257078
6535.000000;1.255338
6534.000000;1.253725
6533.000000;1.252337
6532.000000;1.251135
6531.000000;1.249952
6530.000000;1.248627
6529.000000;1.247136
6528.000000;1.245580
6527.000000;1.244063
6526.000000;1.242609
6525.000000;1.241183
6524.000000;1.239768
6523.000000;1.238392
6522.000000;1.237071
6521.000000;1.235749
6520.000000;1.234313
6519.000000;1.232691
6518.000000;1.230931
6517.000000;1.229197
6516.000000;1.227651
6515.000000;1.226327
6514.000000;1.225103
6513.000000;1.223810
6512.000000;1.222384
6511.000000;1.220909
6510.000000;1.219501
6509.000000;1.218189
6508.000000;1.216918
6507.000000;1.215649
6506.000000;1.214390
6505.000000;1.213130
6504.000000;1.211809
6503.000000;1.210405
6502.000000;1.208986
6501.000000;1.207640
6500.000000;1.206344
6499.000000;1.205016
6498.000000;1.203659
6497.000000;1.202385
6496.000000;1.201254
6495.000000;1.200161
6494.000000;1.198948
6493.000000;1.197585
6492.000000;1.196192
6491.000000;1.194893
6490.000000;1.193696
6489.000000;1.192513
6488.000000;1.191263
6487.000000;1.189941
6486.000000;1.188639
6485.000000;1.187468
6484.000000;1.186449
6483.000000;1.185462
6482.000000;1.184341
6481.000000;1.183021
6480.000000;1.181593
6479.000000;1.180210
6478.000000;1.178963
6477.000000;1.177832
6476.000000;1.176732
6475.000000;1.175576
6474.000000;1.174334
6473.000000;1.173047
6472.000000;1.171787
6471.000000;1.170602
6470.000000;1.169478
6469.000000;1.168365
6468.000000;1.167210
6467.000000;1.165977
6466.000000;1.164670
6465.000000;1.163336
6464.000000;1.162044
6463.000000;1.160836
6462.000000;1.159695
6461.000000;1.158577
6460.000000;1.157474
6459.000000;1.156415
6458.000000;1.155407
6457.000000;1.154382
6456.000000;1.153267
6455.000000;1.152083
6454.000000;1.150949
6453.000000;1.149938
6452.000000;1.148989
6451.000000;1.148003
6450.000000;1.146978
6449.000000;1.145985
6448.000000;1.145018
6447.000000;1.143974
6446.000000;1.142796
6445.000000;1.141557
6444.000000;1.140347
6443.000000;1.139147
6442.000000;1.137894
6441.000000;1.136632
6440.000000;1.135493
6439.000000;1.134544
6438.000000;1.133712
6437.000000;1.132874
6436.000000;1.131949
6435.000000;1.130897
6434.000000;1.129699
6433.000000;1.128422
6432.000000;1.127230
6431.000000;1.126253
6430.000000;1.125449
6429.000000;1.124637
6428.000000;1.123687
6427.000000;1.122632
6426.000000;1.121585
6425.000000;1.120602
6424.000000;1.119642
6423.000000;1.118644
6422.000000;1.117605
6421.000000;1.116577
6420.000000;1.115627
6419.000000;1.114789
6418.000000;1.114019
6417.000000;1.113226
6416.000000;1.112345
6415.000000;1.111390
6414.000000;1.110417
6413.000000;1.109446
6412.000000;1.108452
6411.000000;1.107432
6410.000000;1.106416
6409.000000;1.105395
6408.000000;1.104304
6407.000000;1.103127
6406.000000;1.101977
6405.000000;1.101013
6404.000000;1.100272
6403.000000;1.099628
6402.000000;1.098920
6401.000000;1.098076
6400.000000;1.097128
6399.000000;1.096150
6398.000000;1.095202
6397.000000;1.094315
6396.000000;1.093485
6395.000000;1.092682
6394.000000;1.091881
6393.000000;1.091061
6392.000000;1.090210
6391.000000;1.089335
6390.000000;1.088458
6389.000000;1.087583
6388.000000;1.086689
6387.000000;1.085782
6386.000000;1.084931
6385.000000;1.084199
6384.000000;1.083548
6383.000000;1.082879
6382.000000;1.082144
6381.000000;1.081367
6380.000000;1.080554
6379.000000;1.079650
6378.000000;1.078637
6377.000000;1.077586
6376.000000;1.076593
6375.000000;1.075691
6374.000000;1.074858
6373.000000;1.074076
6372.000000;1.073329
6371.000000;1.072597
6370.000000;1.071879
6369.000000;1.071197
6368.000000;1.070539
6367.000000;1.069844
6366.000000;1.069080
6365.000000;1.068313
6364.000000;1.067615
6363.000000;1.066959
6362.000000;1.066249
6361.000000;1.065463
6360.000000;1.064676
6359.000000;1.063953
6358.000000;1.063264
6357.000000;1.062553
6356.000000;1.061809
6355.000000;1.061061
6354.000000;1.060318
6353.000000;1.059565
6352.000000;1.058799
6351.000000;1.058035
6350.000000;1.057283
6349.000000;1.056539
6348.000000;1.055801
6347.000000;1.055067
6346.000000;1.054330
6345.000000;1.053571
6344.000000;1.052780
6343.000000;1.051971
6342.000000;1.051185
6341.000000;1.050454
6340.000000;1.049772
6339.000000;1.049104
6338.000000;1.048422
6337.000000;1.047716
6336.000000;1.046985
6335.000000;1.046232
6334.000000;1.045476
6333.000000;1.044758
6332.000000;1.044098
6331.000000;1.043475
6330.000000;1.042856
6329.000000;1.042248
6328.000000;1.041694
6327.000000;1.041205
6326.000000;1.040737
6325.000000;1.040219
6324.000000;1.039614
6323.000000;1.038934
6322.000000;1.038214
6321.000000;1.037480
6320.000000;1.036743
6319.000000;1.036011
6318.000000;1.035303
6317.000000;1.034639
6316.000000;1.034025
6315.000000;1.033447
6314.000000;1.032881
6313.000000;1.032307
6312.000000;1.031704
6311.000000;1.031072
6310.000000;1.030433
6309.000000;1.029820
6308.000000;1.029237
6307.000000;1.028647
6306.000000;1.028020
6305.000000;1.027375
6304.000000;1.026780
6303.000000;1.026283
6302.000000;1.025858
6301.000000;1.025409
6300.000000;1.024845
6299.000000;1.024146
6298.000000;1.023367
6297.000000;1.022583
6296.000000;1.021843
6295.000000;1.021172
6294.000000;1.020578
6293.000000;1.020050
6292.000000;1.019544
6291.000000;1.019030
6290.000000;1.018520
6289.000000;1.018044
6288.000000;1.017602
6287.000000;1.017149
6286.000000;1.016650
6285.000000;1.016095
6284.000000;1.015498
6283.000000;1.014879
6282.000000;1.014272
6281.000000;1.013707
6280.000000;1.013184
6279.000000;1.012674
6278.000000;1.012158
6277.000000;1.011646
6276.000000;1.011148
6275.000000;1.010648
6274.000000;1.010109
6273.000000;1.009516
6272.000000;1.008900
6271.000000;1.008336
6270.000000;1.007881
6269.000000;1.007510
6268.000000;1.007118
6267.000000;1.006622
6266.000000;1.006044
6265.000000;1.005466
6264.000000;1.004925
6263.000000;1.004405
6262.000000;1.003907
6261.000000;1.003450
6260.000000;1.003008
6259.000000;1.002493
6258.000000;1.001864
6257.000000;1.001201
6256.000000;1.000642
6255.000000;1.000251
6254.000000;0.999985
6253.000000;0.999740
6252.000000;0.999410
6251.000000;0.998931
6250.000000;0.998325
6249.000000;0.997691
6248.000000;0.997120
6247.000000;0.996609
6246.000000;0.996090
6245.000000;0.995524
6244.000000;0.994951
6243.000000;0.994436
6242.000000;0.994002
6241.000000;0.993618
6240.000000;0.993238
6239.000000;0.992843
6238.000000;0.992452
6237.000000;0.992085
6236.000000;0.991730
6235.000000;0.991350
6234.000000;0.990915
6233.000000;0.990431
6232.000000;0.989925
6231.000000;0.989429
6230.000000;0.988974
6229.000000;0.988570
6228.000000;0.988187
6227.000000;0.987780
6226.000000;0.987323
6225.000000;0.986827
6224.000000;0.986312
6223.000000;0.985787
6222.000000;0.985271
6221.000000;0.984806
6220.000000;0.984426
6219.000000;0.984113
6218.000000;0.983801
6217.000000;0.983419
6216.000000;0.982943
6215.000000;0.982425
6214.000000;0.981965
6213.000000;0.981614
6212.000000;0.981312
6211.000000;0.980953
6210.000000;0.980517
6209.000000;0.980099
6208.000000;0.979777
6207.000000;0.979514
6206.000000;0.979217
6205.000000;0.978856
6204.000000;0.978461
6203.000000;0.978045
6202.000000;0.977584
6201.000000;0.977075
6200.000000;0.976566
6199.000000;0.976116
6198.000000;0.975740
6197.000000;0.975417
6196.000000;0.975103
6195.000000;0.974751
6194.000000;0.974333
6193.000000;0.973880
6192.000000;0.973471
6191.000000;0.973159
6190.000000;0.972905
6189.000000;0.972599
6188.000000;0.972158
6187.000000;0.971602
6186.000000;0.971034
6185.000000;0.970537
6184.000000;0.970117
6183.000000;0.969738
6182.000000;0.969396
6181.000000;0.969113
6180.000000;0.968869
6179.000000;0.968587
6178.000000;0.968214
6177.000000;0.967774
6176.000000;0.967329
6175.000000;0.966907
6174.000000;0.966513
6173.000000;0.966174
6172.000000;0.965923
6171.000000;0.965738
6170.000000;0.965539
6169.000000;0.965259
6168.000000;0.964903
6167.000000;0.964523
6166.000000;0.964172
6165.000000;0.963875
6164.000000;0.963629
6163.000000;0.963410
6162.000000;0.963178
6161.000000;0.962893
6160.000000;0.962535
6159.000000;0.962123
6158.000000;0.961711
6157.000000;0.961363
6156.000000;0.961091
6155.000000;0.960834
6154.000000;0.960512
6153.000000;0.960098
6152.000000;0.959644
6151.000000;0.959232
6150.000000;0.958902
6149.000000;0.958643
6148.000000;0.958421
6147.000000;0.958218
6146.000000;0.958027
6145.000000;0.957825
6144.000000;0.957570
6143.000000;0.957226
6142.000000;0.956816
6141.000000;0.956407
6140.000000;0.956053
6139.000000;0.955751
6138.000000;0.955461
6137.000000;0.955158
6136.000000;0.954865
6135.000000;0.954618
6134.000000;0.954423
6133.000000;0.954241
6132.000000;0.954011
6131.000000;0.953694
6130.000000;0.953306
6129.000000;0.952906
6128.000000;0.952558
6127.000000;0.952283
6126.000000;0.952053
6125.000000;0.951818
6124.000000;0.951552
6123.000000;0.951265
6122.000000;0.950982
6121.000000;0.950715
6120.000000;0.950451
6119.000000;0.950175
6118.000000;0.949869
6117.000000;0.949508
6116.000000;0.949073
6115.000000;0.948589
6114.000000;0.948134
6113.000000;0.947770
6112.000000;0.947499
6111.000000;0.947284
6110.000000;0.947097
6109.000000;0.946917
6108.000000;0.946705
6107.000000;0.946434
6106.000000;0.946151
6105.000000;0.945943
6104.000000;0.945841
6103.000000;0.945766
6102.000000;0.945611
6101.000000;0.945336
6100.000000;0.944989
6099.000000;0.944651
6098.000000;0.944384
6097.000000;0.944201
6096.000000;0.944062
6095.000000;0.943905
6094.000000;0.943699
6093.000000;0.943469
6092.000000;0.943257
6091.000000;0.943060
6090.000000;0.942833
6089.000000;0.942551
6088.000000;0.942245
6087.000000;0.941981
6086.000000;0.941792
6085.000000;0.941639
6084.000000;0.941451
6083.000000;0.941197
6082.000000;0.940927
6081.000000;0.940712
6080.000000;0.940566
6079.000000;0.940436
6078.000000;0.940270
6077.000000;0.940062
6076.000000;0.939839
6075.000000;0.939620
6074.000000;0.939414
6073.000000;0.939218
6072.000000;0.939010
6071.000000;0.938744
6070.000000;0.938397
6069.000000;0.938001
6068.000000;0.937625
6067.000000;0.937333
6066.000000;0.937137
6065.000000;0.936996
6064.000000;0.936841
6063.000000;0.936626
6062.000000;0.936379
6061.000000;0.936175
6060.000000;0.936054
6059.000000;0.935970
6058.000000;0.935838
6057.000000;0.935624
6056.000000;0.935380
6055.000000;0.935184
6054.000000;0.935071
6053.000000;0.934993
6052.000000;0.934868
6051.000000;0.934654
6050.000000;0.934386
6049.000000;0.934128
6048.000000;0.933892
6047.000000;0.933631
6046.000000;0.933316
6045.000000;0.932996
6044.000000;0.932756
6043.000000;0.932629
6042.000000;0.932579
6041.000000;0.932559
6040.000000;0.932551
6039.000000;0.932553
6038.000000;0.932525
6037.000000;0.932402
6036.000000;0.932148
6035.000000;0.931811
6034.000000;0.931500
6033.000000;0.931296
6032.000000;0.931186
6031.000000;0.931093
6030.000000;0.930952
6029.000000;0.930762
6028.000000;0.930574
6027.000000;0.930440
6026.000000;0.930381
6025.000000;0.930363
6024.000000;0.930306
6023.000000;0.930164
6022.000000;0.929978
6021.000000;0.929844
6020.000000;0.929805
6019.000000;0.929797
6018.000000;0.929727
6017.000000;0.929565
6016.000000;0.929352
6015.000000;0.929149
6014.000000;0.928990
6013.000000;0.928885
6012.000000;0.928812
6011.000000;0.928727
6010.000000;0.928596
6009.000000;0.928435
6008.000000;0.928292
6007.000000;0.928191
6006.000000;0.928115
6005.000000;0.928038
6004.000000;0.927956
6003.000000;0.927863
6002.000000;0.927730
6001.000000;0.927534
6000.000000;0.927290
5999.000000;0.927050
5998.000000;0.926852
5997.000000;0.926702
5996.000000;0.926595
5995.000000;0.926537
5994.000000;0.926518
5993.000000;0.926503
5992.000000;0.926451
5991.000000;0.926356
5990.000000;0.926249
5989.000000;0.926170
5988.000000;0.926132
5987.000000;0.926126
5986.000000;0.926129
5985.000000;0.926120
5984.000000;0.926091
5983.000000;0.926057
5982.000000;0.926029
5981.000000;0.925992
5980.000000;0.925914
5979.000000;0.925793
5978.000000;0.925655
5977.000000;0.925523
5976.000000;0.925386
5975.000000;0.925232
5974.000000;0.925069
5973.000000;0.924931
5972.000000;0.924843
5971.000000;0.924806
5970.000000;0.924801
5969.000000;0.924806
5968.000000;0.924816
5967.000000;0.924855
5966.000000;0.924938
5965.000000;0.925031
5964.000000;0.925064
5963.000000;0.925002
5962.000000;0.924877
5961.000000;0.924729
5960.000000;0.924569
5959.000000;0.924395
5958.000000;0.924239
5957.000000;0.924153
5956.000000;0.924160
5955.000000;0.924246
5954.000000;0.924368
5953.000000;0.924476
5952.000000;0.924538
5951.000000;0.924572
5950.000000;0.924627
5949.000000;0.924714
5948.000000;0.924770
5947.000000;0.924729
5946.000000;0.924606
5945.000000;0.924479
5944.000000;0.924399
5943.000000;0.924353
5942.000000;0.924303
5941.000000;0.924233
5940.000000;0.924152
5939.000000;0.924092
5938.000000;0.924085
5937.000000;0.924133
5936.000000;0.924201
5935.000000;0.924258
5934.000000;0.924309
5933.000000;0.924372
5932.000000;0.924438
5931.000000;0.924485
5930.000000;0.924509
5929.000000;0.924519
5928.000000;0.924521
5927.000000;0.924524
5926.000000;0.924548
5925.000000;0.924581
5924.000000;0.924565
5923.000000;0.924477
5922.000000;0.924386
5921.000000;0.924403
5920.000000;0.924557
5919.000000;0.924779
5918.000000;0.924979
5917.000000;0.925105
5916.000000;0.925131
5915.000000;0.925073
5914.000000;0.925001
5913.000000;0.924998
5912.000000;0.925070
5911.000000;0.925154
5910.000000;0.925218
5909.000000;0.925299
5908.000000;0.925437
5907.000000;0.925604
5906.000000;0.925735
5905.000000;0.925788
5904.000000;0.925761
5903.000000;0.925670
5902.000000;0.925549
5901.000000;0.925439
5900.000000;0.925383
5899.000000;0.925420
5898.000000;0.925570
5897.000000;0.925802
5896.000000;0.926026
5895.000000;0.926164
5894.000000;0.926229
5893.000000;0.926301
5892.000000;0.926426
5891.000000;0.926565
5890.000000;0.926660
5889.000000;0.926701
5888.000000;0.926720
5887.000000;0.926746
5886.000000;0.926801
5885.000000;0.926891
5884.000000;0.926992
5883.000000;0.927071
5882.000000;0.927129
5881.000000;0.927213
5880.000000;0.927360
5879.000000;0.927561
5878.000000;0.927765
5877.000000;0.927908
5876.000000;0.927941
5875.000000;0.927870
5874.000000;0.927785
5873.000000;0.927793
5872.000000;0.927925
5871.000000;0.928123
5870.000000;0.928331
5869.000000;0.928555
5868.000000;0.928812
5867.000000;0.929084
5866.000000;0.929341
5865.000000;0.929580
5864.000000;0.929796
5863.000000;0.929962
5862.000000;0.930047
5861.000000;0.930070
5860.000000;0.930085
5859.000000;0.930135
5858.000000;0.930245
5857.000000;0.930423
5856.000000;0.930664
5855.000000;0.930939
5854.000000;0.931214
5853.000000;0.931463
5852.000000;0.931664
5851.000000;0.931807
5850.000000;0.931915
5849.000000;0.932032
5848.000000;0.932187
5847.000000;0.932375
5846.000000;0.932586
5845.000000;0.932807
5844.000000;0.933009
5843.000000;0.933157
5842.000000;0.933276
5841.000000;0.933456
5840.000000;0.933763
5839.000000;0.934156
5838.000000;0.934527
5837.000000;0.934811
5836.000000;0.935030
5835.000000;0.935230
5834.000000;0.935438
5833.000000;0.935667
5832.000000;0.935932
5831.000000;0.936243
5830.000000;0.936576
5829.000000;0.936884
5828.000000;0.937133
5827.000000;0.937331
5826.000000;0.937529
5825.000000;0.937787
5824.000000;0.938132
5823.000000;0.938537
5822.000000;0.938927
5821.000000;0.939223
5820.000000;0.939409
5819.000000;0.939553
5818.000000;0.939760
5817.000000;0.940081
5816.000000;0.940476
5815.000000;0.940868
5814.000000;0.941215
5813.000000;0.941515
5812.000000;0.941776
5811.000000;0.941996
5810.000000;0.942185
5809.000000;0.942377
5808.000000;0.942613
5807.000000;0.942926
5806.000000;0.943323
5805.000000;0.943771
5804.000000;0.944220
5803.000000;0.944650
5802.000000;0.945075
5801.000000;0.945490
5800.000000;0.945836
5799.000000;0.946072
5798.000000;0.946250
5797.000000;0.946485
5796.000000;0.946829
5795.000000;0.947237
5794.000000;0.947640
5793.000000;0.948030
5792.000000;0.948445
5791.000000;0.948916
5790.000000;0.949432
5789.000000;0.949938
5788.000000;0.950367
5787.000000;0.950698
5786.000000;0.950983
5785.000000;0.951298
5784.000000;0.951666
5783.000000;0.952071
5782.000000;0.952506
5781.000000;0.952984
5780.000000;0.953478
5779.000000;0.953924
5778.000000;0.954297
5777.000000;0.954650
5776.000000;0.955057
5775.000000;0.955541
5774.000000;0.956070
5773.000000;0.956603
5772.000000;0.957118
5771.000000;0.957615
5770.000000;0.958097
5769.000000;0.958557
5768.000000;0.958979
5767.000000;0.959371
5766.000000;0.959772
5765.000000;0.960220
5764.000000;0.960707
5763.000000;0.961200
5762.000000;0.961700
5761.000000;0.962236
5760.000000;0.962810
5759.000000;0.963374
5758.000000;0.963898
5757.000000;0.964404
5756.000000;0.964927
5755.000000;0.965475
5754.000000;0.966032
5753.000000;0.966589
5752.000000;0.967158
5751.000000;0.967765
5750.000000;0.968426
5749.000000;0.969113
5748.000000;0.969748
5747.000000;0.970285
5746.000000;0.970781
5745.000000;0.971348
5744.000000;0.972009
5743.000000;0.972667
5742.000000;0.973217
5741.000000;0.973664
5740.000000;0.974109
5739.000000;0.974636
5738.000000;0.975257
5737.000000;0.975932
5736.000000;0.976615
5735.000000;0.977288
5734.000000;0.977961
5733.000000;0.978646
5732.000000;0.979334
5731.000000;0.980004
5730.000000;0.980665
5729.000000;0.981345
5728.000000;0.982039
5727.000000;0.982710
5726.000000;0.983341
5725.000000;0.983962
5724.000000;0.984591
5723.000000;0.985193
5722.000000;0.985718
5721.000000;0.986177
5720.000000;0.986646
5719.000000;0.987211
5718.000000;0.987912
5717.000000;0.988725
5716.000000;0.989576
5715.000000;0.990384
5714.000000;0.991113
5713.000000;0.991783
5712.000000;0.992425
5711.000000;0.993063
5710.000000;0.993730
5709.000000;0.994473
5708.000000;0.995309
5707.000000;0.996213
5706.000000;0.997138
5705.000000;0.998059
5704.000000;0.998955
5703.000000;0.999799
5702.000000;1.000572
5701.000000;1.001273
5700.000000;1.001925
5699.000000;1.002557
5698.000000;1.003219
5697.000000;1.003964
5696.000000;1.004802
5695.000000;1.005678
5694.000000;1.006519
5693.000000;1.007303
5692.000000;1.008050
5691.000000;1.008778
5690.000000;1.009489
5689.000000;1.010201
5688.000000;1.010956
5687.000000;1.011781
5686.000000;1.012655
5685.000000;1.013539
5684.000000;1.014408
5683.000000;1.015261
5682.000000;1.016097
5681.000000;1.016898
5680.000000;1.017657
5679.000000;1.018398
5678.000000;1.019161
5677.000000;1.019964
5676.000000;1.020779
5675.000000;1.021554
5674.000000;1.022265
5673.000000;1.022930
5672.000000;1.023589
5671.000000;1.024279
5670.000000;1.025011
5669.000000;1.025759
5668.000000;1.026489
5667.000000;1.027205
5666.000000;1.027964
5665.000000;1.028821
5664.000000;1.029761
5663.000000;1.030697
5662.000000;1.031541
5661.000000;1.032267
5660.000000;1.032913
5659.000000;1.033528
5658.000000;1.034144
5657.000000;1.034785
5656.000000;1.035489
5655.000000;1.036297
5654.000000;1.037195
5653.000000;1.038099
5652.000000;1.038927
5651.000000;1.039671
5650.000000;1.040385
5649.000000;1.041099
5648.000000;1.041790
5647.000000;1.042445
5646.000000;1.043084
5645.000000;1.043731
5644.000000;1.044380
5643.000000;1.045040
5642.000000;1.045745
5641.000000;1.046489
5640.000000;1.047194
5639.000000;1.047786
5638.000000;1.048294
5637.000000;1.048817
5636.000000;1.049418
5635.000000;1.050084
5634.000000;1.050767
5633.000000;1.051423
5632.000000;1.052027
5631.000000;1.052594
5630.000000;1.053175
5629.000000;1.053791
5628.000000;1.054383
5627.000000;1.054868
5626.000000;1.055238
5625.000000;1.055570
5624.000000;1.055954
5623.000000;1.056434
5622.000000;1.057011
5621.000000;1.057657
5620.000000;1.058309
5619.000000;1.058907
5618.000000;1.059435
5617.000000;1.059916
5616.000000;1.060368
5615.000000;1.060799
5614.000000;1.061228
5613.000000;1.061674
5612.000000;1.062125
5611.000000;1.062561
5610.000000;1.062987
5609.000000;1.063412
5608.000000;1.063810
5607.000000;1.064146
5606.000000;1.064426
5605.000000;1.064689
5604.000000;1.064965
5603.000000;1.065273
5602.000000;1.065642
5601.000000;1.066064
5600.000000;1.066464
5599.000000;1.066768
5598.000000;1.066998
5597.000000;1.067237
5596.000000;1.067516
5595.000000;1.067803
5594.000000;1.068075
5593.000000;1.068331
5592.000000;1.068545
5591.000000;1.068683
5590.000000;1.068779
5589.000000;1.068938
5588.000000;1.069225
5587.000000;1.069603
5586.000000;1.069978
5585.000000;1.070261
5584.000000;1.070401
5583.000000;1.070427
5582.000000;1.070446
5581.000000;1.070568
5580.000000;1.070790
5579.000000;1.071020
5578.000000;1.071202
5577.000000;1.071352
5576.000000;1.071496
5575.000000;1.071642
5574.000000;1.071808
5573.000000;1.072017
5572.000000;1.072230
5571.000000;1.072377
5570.000000;1.072460
5569.000000;1.072543
5568.000000;1.072634
5567.000000;1.072661
5566.000000;1.072615
5565.000000;1.072607
5564.000000;1.072723
5563.000000;1.072901
5562.000000;1.073016
5561.000000;1.073030
5560.000000;1.073000
5559.000000;1.072977
5558.000000;1.072953
5557.000000;1.072898
5556.000000;1.072794
5555.000000;1.072648
5554.000000;1.072501
5553.000000;1.072411
5552.000000;1.072407
5551.000000;1.072465
5550.000000;1.072540
5549.000000;1.072610
5548.000000;1.072677
5547.000000;1.072759
5546.000000;1.072897
5545.000000;1.073116
5544.000000;1.073373
5543.000000;1.073555
5542.000000;1.073561
5541.000000;1.073390
5540.000000;1.073131
5539.000000;1.072881
5538.000000;1.072685
5537.000000;1.072557
5536.000000;1.072526
5535.000000;1.072616
5534.000000;1.072798
5533.000000;1.072987
5532.000000;1.073118
5531.000000;1.073190
5530.000000;1.073226
5529.000000;1.073220
5528.000000;1.073125
5527.000000;1.072931
5526.000000;1.072688
5525.000000;1.072442
5524.000000;1.072195
5523.000000;1.071949
5522.000000;1.071760
5521.000000;1.071725
5520.000000;1.071884
5519.000000;1.072163
5518.000000;1.072419
5517.000000;1.072556
5516.000000;1.072617
5515.000000;1.072717
5514.000000;1.072854
5513.000000;1.072847
5512.000000;1.072555
5511.000000;1.072086
5510.000000;1.071680
5509.000000;1.071435
5508.000000;1.071303
5507.000000;1.071348
5506.000000;1.071773
5505.000000;1.072569
5504.000000;1.073347
5503.000000;1.073657
5502.000000;1.073402
5501.000000;1.072869
5500.000000;1.072306
5499.000000;1.071655
5498.000000;1.070782
5497.000000;1.069783
5496.000000;1.068914
5495.000000;1.068286
5494.000000;1.067851
5493.000000;1.067721
5492.000000;1.068228
5491.000000;1.069486
5490.000000;1.071124
5489.000000;1.072659
5488.000000;1.073983
5487.000000;1.075290
5486.000000;1.076529
5485.000000;1.077191
5484.000000;1.076886
5483.000000;1.075878
5482.000000;1.074702
5481.000000;1.073533
5480.000000;1.072276
5479.000000;1.071128
5478.000000;1.070526
5477.000000;1.070521
5476.000000;1.070824
5475.000000;1.071502
5474.000000;1.072945
5473.000000;1.074982
5472.000000;1.076747
5471.000000;1.077510
5470.000000;1.077260
5469.000000;1.076558
5468.000000;1.075971
5467.000000;1.075748
5466.000000;1.075853
5465.000000;1.076112
5464.000000;1.076435
5463.000000;1.076969
5462.000000;1.077917
5461.000000;1.079303
5460.000000;1.080971
5459.000000;1.082704
5458.000000;1.084236
5457.000000;1.085272
5456.000000;1.085575
5455.000000;1.085135
5454.000000;1.084253
5453.000000;1.083311
5452.000000;1.082415
5451.000000;1.081287
5450.000000;1.079767
5449.000000;1.078381
5448.000000;1.077935
5447.000000;1.078587
5446.000000;1.079797
5445.000000;1.081144
5444.000000;1.082687
5443.000000;1.084514
5442.000000;1.086377
5441.000000;1.088008
5440.000000;1.089486
5439.000000;1.090897
5438.000000;1.091950
5437.000000;1.092346
5436.000000;1.092214
5435.000000;1.092124
5434.000000;1.092742
5433.000000;1.094342
5432.000000;1.096652
5431.000000;1.099122
5430.000000;1.101388
5429.000000;1.103763
5428.000000;1.106974
5427.000000;1.111199
5426.000000;1.115737
5425.000000;1.119585
5424.000000;1.122036
5423.000000;1.122960
5422.000000;1.122795
5421.000000;1.122030
5420.000000;1.120753
5419.000000;1.118908
5418.000000;1.116892
5417.000000;1.115551
5416.000000;1.115389
5415.000000;1.116298
5414.000000;1.118305
5413.000000;1.121913
5412.000000;1.127220
5411.000000;1.133326
5410.000000;1.139131
5409.000000;1.144275
5408.000000;1.148929
5407.000000;1.153082
5406.000000;1.156437
5405.000000;1.158935
5404.000000;1.160834
5403.000000;1.162227
5402.000000;1.163148
5401.000000;1.163936
5400.000000;1.165034
5399.000000;1.166637
5398.000000;1.168796
5397.000000;1.171691
5396.000000;1.175291
5395.000000;1.179099
5394.000000;1.182798
5393.000000;1.186739
5392.000000;1.191345
5391.000000;1.196304
5390.000000;1.200963
5389.000000;1.205240
5388.000000;1.209559
5387.000000;1.213992
5386.000000;1.218154
5385.000000;1.222056
5384.000000;1.226134
5383.000000;1.230417
5382.000000;1.234502
5381.000000;1.238391
5380.000000;1.242705
5379.000000;1.247879
5378.000000;1.253742
5377.000000;1.260240
5376.000000;1.267800
5375.000000;1.276482
5374.000000;1.285499
5373.000000;1.293978
5372.000000;1.301731
5371.000000;1.309031
5370.000000;1.316062
5369.000000;1.322854
5368.000000;1.329621
5367.000000;1.336716
5366.000000;1.344307
5365.000000;1.352336
5364.000000;1.360610
5363.000000;1.368841
5362.000000;1.376813
5361.000000;1.384554
5360.000000;1.392230
5359.000000;1.399809
5358.000000;1.407211
5357.000000;1.414777
5356.000000;1.423133
5355.000000;1.432443
5354.000000;1.442311
5353.000000;1.452584
5352.000000;1.463549
5351.000000;1.475238
5350.000000;1.487093
5349.000000;1.498523
5348.000000;1.509601
5347.000000;1.520998
5346.000000;1.533250
5345.000000;1.546536
5344.000000;1.561032
5343.000000;1.576766
5342.000000;1.593248
5341.000000;1.609870
5340.000000;1.626512
5339.000000;1.643669
5338.000000;1.662027
5337.000000;1.681526
5336.000000;1.701233
5335.000000;1.720402
5334.000000;1.739116
5333.000000;1.757897
5332.000000;1.777117
5331.000000;1.796951
5330.000000;1.817568
5329.000000;1.839063
5328.000000;1.861356
5327.000000;1.884486
5326.000000;1.908510
5325.000000;1.932899
5324.000000;1.956662
5323.000000;1.979409
5322.000000;2.001889
5321.000000;2.025096
5320.000000;2.049165
5319.000000;2.073523
5318.000000;2.097804
5317.000000;2.122049
5316.000000;2.146373
5315.000000;2.170901
5314.000000;2.195588
5313.000000;2.219871
5312.000000;2.243115
5311.000000;2.265745
5310.000000;2.288978
5309.000000;2.312933
5308.000000;2.336196
5307.000000;2.358111
5306.000000;2.380121
5305.000000;2.403522
5304.000000;2.427276
5303.000000;2.449508
5302.000000;2.469965
5301.000000;2.489318
5300.000000;2.507056
5299.000000;2.522149
5298.000000;2.535102
5297.000000;2.547177
5296.000000;2.558253
5295.000000;2.567531
5294.000000;2.575883
5293.000000;2.585604
5292.000000;2.598012
5291.000000;2.612606
5290.000000;2.627767
5289.000000;2.641001
5288.000000;2.649776
5287.000000;2.653819
5286.000000;2.655668
5285.000000;2.657928
5284.000000;2.660938
5283.000000;2.663765
5282.000000;2.666169
5281.000000;2.668425
5280.000000;2.670436
5279.000000;2.672440
5278.000000;2.675337
5277.000000;2.679016
5276.000000;2.681547
5275.000000;2.681455
5274.000000;2.679607
5273.000000;2.677668
5272.000000;2.676086
5271.000000;2.674654
5270.000000;2.673761
5269.000000;2.673774
5268.000000;2.674225
5267.000000;2.674757
5266.000000;2.675881
5265.000000;2.677731
5264.000000;2.679481
5263.000000;2.681098
5262.000000;2.683960
5261.000000;2.688242
5260.000000;2.691152
5259.000000;2.689583
5258.000000;2.683787
5257.000000;2.677148
5256.000000;2.672842
5255.000000;2.671647
5254.000000;2.672074
5253.000000;2.672108
5252.000000;2.671502
5251.000000;2.672055
5250.000000;2.675196
5249.000000;2.679914
5248.000000;2.683967
5247.000000;2.686537
5246.000000;2.688326
5245.000000;2.689730
5244.000000;2.690921
5243.000000;2.693067
5242.000000;2.696834
5241.000000;2.700008
5240.000000;2.699499
5239.000000;2.695944
5238.000000;2.693291
5237.000000;2.693290
5236.000000;2.693292
5235.000000;2.690451
5234.000000;2.685696
5233.000000;2.682121
5232.000000;2.681529
5231.000000;2.683771
5230.000000;2.687481
5229.000000;2.690158
5228.000000;2.689319
5227.000000;2.685182
5226.000000;2.681032
5225.000000;2.679703
5224.000000;2.680708
5223.000000;2.681741
5222.000000;2.681787
5221.000000;2.681410
5220.000000;2.681386
5219.000000;2.682416
5218.000000;2.685198
5217.000000;2.689569
5216.000000;2.693892
5215.000000;2.696048
5214.000000;2.694758
5213.000000;2.689911
5212.000000;2.682826
5211.000000;2.676310
5210.000000;2.672850
5209.000000;2.672060
5208.000000;2.671183
5207.000000;2.668889
5206.000000;2.667054
5205.000000;2.667829
5204.000000;2.670966
5203.000000;2.674941
5202.000000;2.678786
5201.000000;2.681834
5200.000000;2.683583
5199.000000;2.685045
5198.000000;2.688416
5197.000000;2.693818
5196.000000;2.697831
5195.000000;2.697288
5194.000000;2.693369
5193.000000;2.689761
5192.000000;2.688091
5191.000000;2.687310
5190.000000;2.686727
5189.000000;2.687243
5188.000000;2.689283
5187.000000;2.691435
5186.000000;2.691933
5185.000000;2.690654
5184.000000;2.688856
5183.000000;2.687604
5182.000000;2.687275
5181.000000;2.687923
5180.000000;2.689381
5179.000000;2.691231
5178.000000;2.692841
5177.000000;2.693432
5176.000000;2.692317
5175.000000;2.689308
5174.000000;2.685015
5173.000000;2.680963
5172.000000;2.679261
5171.000000;2.681199
5170.000000;2.685468
5169.000000;2.688599
5168.000000;2.688390
5167.000000;2.686196
5166.000000;2.684481
5165.000000;2.683258
5164.000000;2.680907
5163.000000;2.677942
5162.000000;2.677244
5161.000000;2.679937
5160.000000;2.683413
5159.000000;2.684642
5158.000000;2.683875
5157.000000;2.683522
5156.000000;2.684549
5155.000000;2.685703
5154.000000;2.685740
5153.000000;2.684970
5152.000000;2.684645
5151.000000;2.685643
5150.000000;2.687726
5149.000000;2.689519
5148.000000;2.689568
5147.000000;2.687901
5146.000000;2.686191
5145.000000;2.685946
5144.000000;2.687055
5143.000000;2.688334
5142.000000;2.688823
5141.000000;2.688160
5140.000000;2.686425
5139.000000;2.684219
5138.000000;2.682550
5137.000000;2.682273
5136.000000;2.683745
5135.000000;2.686736
5134.000000;2.690134
5133.000000;2.692206
5132.000000;2.692161
5131.000000;2.691121
5130.000000;2.690531
5129.000000;2.690207
5128.000000;2.689254
5127.000000;2.688398
5126.000000;2.689508
5125.000000;2.692574
5124.000000;2.694915
5123.000000;2.694104
5122.000000;2.690466
5121.000000;2.686072
5120.000000;2.682671
5119.000000;2.681245
5118.000000;2.682116
5117.000000;2.684600
5116.000000;2.687525
5115.000000;2.690826
5114.000000;2.695533
5113.000000;2.701043
5112.000000;2.703773
5111.000000;2.700617
5110.000000;2.693115
5109.000000;2.686121
5108.000000;2.682984
5107.000000;2.683469
5106.000000;2.685588
5105.000000;2.687996
5104.000000;2.690330
5103.000000;2.692111
5102.000000;2.692226
5101.000000;2.689882
5100.000000;2.685960
5099.000000;2.682784
5098.000000;2.681907
5097.000000;2.682257
5096.000000;2.681325
5095.000000;2.678441
5094.000000;2.675960
5093.000000;2.676654
5092.000000;2.680848
5091.000000;2.686392
5090.000000;2.690481
5089.000000;2.691096
5088.000000;2.687771
5087.000000;2.682153
5086.000000;2.677494
5085.000000;2.676510
5084.000000;2.679343
5083.000000;2.683710
5082.000000;2.687053
5081.000000;2.688479
5080.000000;2.688700
5079.000000;2.688429
5078.000000;2.687228
5077.000000;2.684169
5076.000000;2.679661
5075.000000;2.676104
5074.000000;2.675979
5073.000000;2.679179
5072.000000;2.682703
5071.000000;2.683455
5070.000000;2.681175
5069.000000;2.678217
5068.000000;2.676999
5067.000000;2.678147
5066.000000;2.680578
5065.000000;2.682733
5064.000000;2.683715
5063.000000;2.683659
5062.000000;2.683308
5061.000000;2.683276
5060.000000;2.683491
5059.000000;2.682918
5058.000000;2.679938
5057.000000;2.674011
5056.000000;2.667089
5055.000000;2.662660
5054.000000;2.662731
5053.000000;2.665731
5052.000000;2.668135
5051.000000;2.668145
5050.000000;2.666776
5049.000000;2.665568
5048.000000;2.664720
5047.000000;2.663723
5046.000000;2.662546
5045.000000;2.661415
5044.000000;2.660068
5043.000000;2.658052
5042.000000;2.655732
5041.000000;2.654484
5040.000000;2.655494
5039.000000;2.658189
5038.000000;2.660135
5037.000000;2.659293
5036.000000;2.656441
5035.000000;2.654272
5034.000000;2.653844
5033.000000;2.653171
5032.000000;2.650043
5031.000000;2.645185
5030.000000;2.641333
5029.000000;2.640083
5028.000000;2.641049
5027.000000;2.643259
5026.000000;2.645664
5025.000000;2.646614
5024.000000;2.644841
5023.000000;2.641210
5022.000000;2.637862
5021.000000;2.635604
5020.000000;2.633696
5019.000000;2.632172
5018.000000;2.632409
5017.000000;2.634748
5016.000000;2.637136
5015.000000;2.637163
5014.000000;2.634548
5013.000000;2.630746
5012.000000;2.627069
5011.000000;2.624234
5010.000000;2.622837
5009.000000;2.622995
5008.000000;2.623750
5007.000000;2.623726
5006.000000;2.622197
5005.000000;2.619478
5004.000000;2.616663
5003.000000;2.615110
5002.000000;2.615458
5001.000000;2.616507
5000.000000;2.615603
4999.000000;2.611083
4998.000000;2.604121
4997.000000;2.597590
4996.000000;2.593639
4995.000000;2.592422
4994.000000;2.592389
4993.000000;2.591714
4992.000000;2.589889
4991.000000;2.587772
4990.000000;2.585812
4989.000000;2.582989
4988.000000;2.578440
4987.000000;2.573530
4986.000000;2.570845
4985.000000;2.570989
4984.000000;2.571542
4983.000000;2.569813
4982.000000;2.565724
4981.000000;2.561202
4980.000000;2.557726
4979.000000;2.555580
4978.000000;2.554633
4977.000000;2.554521
4976.000000;2.554362
4975.000000;2.553230
4974.000000;2.550932
4973.000000;2.547823
4972.000000;2.544170
4971.000000;2.540297
4970.000000;2.537052
4969.000000;2.535282
4968.000000;2.534719
4967.000000;2.533823
4966.000000;2.531097
4965.000000;2.526495
4964.000000;2.521412
4963.000000;2.517390
4962.000000;2.514787
4961.000000;2.512576
4960.000000;2.509549
4959.000000;2.505845
4958.000000;2.502922
4957.000000;2.501872
4956.000000;2.502091
4955.000000;2.501587
4954.000000;2.498484
4953.000000;2.492222
4952.000000;2.483786
4951.000000;2.475181
4950.000000;2.468412
4949.000000;2.464374
4948.000000;2.462402
4947.000000;2.460902
4946.000000;2.458515
4945.000000;2.454826
4944.000000;2.450240
4943.000000;2.445509
4942.000000;2.441334
4941.000000;2.437987
4940.000000;2.434971
4939.000000;2.431198
4938.000000;2.425928
4937.000000;2.419615
4936.000000;2.413651
4935.000000;2.409197
4934.000000;2.406231
4933.000000;2.403717
4932.000000;2.400684
4931.000000;2.397061
4930.000000;2.393411
4929.000000;2.390078
4928.000000;2.386784
4927.000000;2.383013
4926.000000;2.378634
4925.000000;2.374123
4924.000000;2.370147
4923.000000;2.366879
4922.000000;2.363745
4921.000000;2.359992
4920.000000;2.355539
4919.000000;2.351125
4918.000000;2.347531
4917.000000;2.344772
4916.000000;2.342075
4915.000000;2.338572
4914.000000;2.334059
4913.000000;2.329166
4912.000000;2.324733
4911.000000;2.320971
4910.000000;2.317383
4909.000000;2.313589
4908.000000;2.309843
4907.000000;2.306316
4906.000000;2.302279
4905.000000;2.296783
4904.000000;2.290091
4903.000000;2.283614
4902.000000;2.278348
4901.000000;2.274166
4900.000000;2.270747
4899.000000;2.268226
4898.000000;2.266386
4897.000000;2.264041
4896.000000;2.260118
4895.000000;2.254994
4894.000000;2.249997
4893.000000;2.245865
4892.000000;2.242314
4891.000000;2.238767
4890.000000;2.234798
4889.000000;2.230088
4888.000000;2.224730
4887.000000;2.219495
4886.000000;2.215077
4885.000000;2.211077
4884.000000;2.206418
4883.000000;2.200914
4882.000000;2.195739
4881.000000;2.192070
4880.000000;2.189806
4879.000000;2.187845
4878.000000;2.185186
4877.000000;2.181489
4876.000000;2.176935
4875.000000;2.171979
4874.000000;2.167107
4873.000000;2.162498
4872.000000;2.157928
4871.000000;2.153137
4870.000000;2.148269
4869.000000;2.143792
4868.000000;2.139986
4867.000000;2.136614
4866.000000;2.133125
4865.000000;2.129154
4864.000000;2.124812
4863.000000;2.120438
4862.000000;2.116108
4861.000000;2.111588
4860.000000;2.106830
4859.000000;2.102253
4858.000000;2.098274
4857.000000;2.094746
4856.000000;2.091151
4855.000000;2.087244
4854.000000;2.083249
4853.000000;2.079440
4852.000000;2.075827
4851.000000;2.072233
4850.000000;2.068388
4849.000000;2.063948
4848.000000;2.058762
4847.000000;2.053286
4846.000000;2.048434
4845.000000;2.044751
4844.000000;2.041765
4843.000000;2.038373
4842.000000;2.033952
4841.000000;2.029013
4840.000000;2.024682
4839.000000;2.021546
4838.000000;2.019035
4837.000000;2.015965
4836.000000;2.011715
4835.000000;2.006718
4834.000000;2.001772
4833.000000;1.997173
4832.000000;1.992735
4831.000000;1.988417
4830.000000;1.984532
4829.000000;1.981227
4828.000000;1.978027
4827.000000;1.974180
4826.000000;1.969433
4825.000000;1.964355
4824.000000;1.959786
4823.000000;1.956025
4822.000000;1.952642
4821.000000;1.949057
4820.000000;1.945215
4819.000000;1.941527
4818.000000;1.938249
4817.000000;1.935130
4816.000000;1.931785
4815.000000;1.928143
4814.000000;1.924409
4813.000000;1.920707
4812.000000;1.916924
4811.000000;1.912915
4810.000000;1.908690
4809.000000;1.904448
4808.000000;1.900451
4807.000000;1.896835
4806.000000;1.893542
4805.000000;1.890450
4804.000000;1.887548
4803.000000;1.884850
4802.000000;1.882130
4801.000000;1.878948
4800.000000;1.875052
4799.000000;1.870624
4798.000000;1.866074
4797.000000;1.861750
4796.000000;1.857887
4795.000000;1.854556
4794.000000;1.851463
4793.000000;1.848032
4792.000000;1.843958
4791.000000;1.839562
4790.000000;1.835425
4789.000000;1.831779
4788.000000;1.828457
4787.000000;1.825245
4786.000000;1.822031
4785.000000;1.818680
4784.000000;1.815088
4783.000000;1.811353
4782.000000;1.807684
4781.000000;1.804116
4780.000000;1.800513
4779.000000;1.796864
4778.000000;1.793375
4777.000000;1.790220
4776.000000;1.787358
4775.000000;1.784582
4774.000000;1.781646
4773.000000;1.778366
4772.000000;1.774772
4771.000000;1.771150
4770.000000;1.767775
4769.000000;1.764624
4768.000000;1.761492
4767.000000;1.758338
4766.000000;1.755296
4765.000000;1.752365
4764.000000;1.749338
4763.000000;1.746098
4762.000000;1.742759
4761.000000;1.739443
4760.000000;1.736127
4759.000000;1.732805
4758.000000;1.729596
4757.000000;1.726518
4756.000000;1.723341
4755.000000;1.719864
4754.000000;1.716225
4753.000000;1.712755
4752.000000;1.709576
4751.000000;1.706536
4750.000000;1.703517
4749.000000;1.700639
4748.000000;1.698084
4747.000000;1.695799
4746.000000;1.693456
4745.000000;1.690700
4744.000000;1.687443
4743.000000;1.683929
4742.000000;1.680530
4741.000000;1.677460
4740.000000;1.674709
4739.000000;1.672173
4738.000000;1.669753
4737.000000;1.667325
4736.000000;1.664746
4735.000000;1.661985
4734.000000;1.659177
4733.000000;1.656437
4732.000000;1.653708
4731.000000;1.650892
4730.000000;1.648091
4729.000000;1.645540
4728.000000;1.643288
4727.000000;1.641079
4726.000000;1.638652
4725.000000;1.636049
4724.000000;1.633530
4723.000000;1.631212
4722.000000;1.628918
4721.000000;1.626384
4720.000000;1.623553
4719.000000;1.620619
4718.000000;1.617821
4717.000000;1.615244
4716.000000;1.612794
4715.000000;1.610330
4714.000000;1.607787
4713.000000;1.605187
4712.000000;1.602570
4711.000000;1.599968
4710.000000;1.597447
4709.000000;1.595073
4708.000000;1.592837
4707.000000;1.590645
4706.000000;1.588438
4705.000000;1.586247
4704.000000;1.584077
4703.000000;1.581823
4702.000000;1.579408
4701.000000;1.576941
4700.000000;1.574601
4699.000000;1.572394
4698.000000;1.570174
4697.000000;1.567907
4696.000000;1.565737
4695.000000;1.563715
4694.000000;1.561652
4693.000000;1.559369
4692.000000;1.556980
4691.000000;1.554766
4690.000000;1.552828
4689.000000;1.550993
4688.000000;1.549049
4687.000000;1.546954
4686.000000;1.544819
4685.000000;1.542788
4684.000000;1.540935
4683.000000;1.539205
4682.000000;1.537460
4681.000000;1.535607
4680.000000;1.533654
4679.000000;1.531625
4678.000000;1.529509
4677.000000;1.527355
4676.000000;1.525313
4675.000000;1.523458
4674.000000;1.521647
4673.000000;1.519701
4672.000000;1.517667
4671.000000;1.515760
4670.000000;1.514077
4669.000000;1.512500
4668.000000;1.510868
4667.000000;1.509112
4666.000000;1.507243
4665.000000;1.505359
4664.000000;1.503646
4663.000000;1.502209
4662.000000;1.500869
4661.000000;1.499301
4660.000000;1.497417
4659.000000;1.495468
4658.000000;1.493729
4657.000000;1.492200
4656.000000;1.490698
4655.000000;1.489091
4654.000000;1.487386
4653.000000;1.485674
4652.000000;1.484071
4651.000000;1.482606
4650.000000;1.481137
4649.000000;1.479463
4648.000000;1.477584
4647.000000;1.475740
4646.000000;1.474130
4645.000000;1.472689
4644.000000;1.471212
4643.000000;1.469603
4642.000000;1.467930
4641.000000;1.466309
4640.000000;1.464829
4639.000000;1.463509
4638.000000;1.462268
4637.000000;1.460977
4636.000000;1.459607
4635.000000;1.458275
4634.000000;1.457075
4633.000000;1.455936
4632.000000;1.454698
4631.000000;1.453282
4630.000000;1.451747
4629.000000;1.450215
4628.000000;1.448807
4627.000000;1.447573
4626.000000;1.446453
4625.000000;1.445330
4624.000000;1.444134
4623.000000;1.442859
4622.000000;1.441476
4621.000000;1.439972
4620.000000;1.438468
4619.000000;1.437186
4618.000000;1.436220
4617.000000;1.435437
4616.000000;1.434646
4615.000000;1.433761
4614.000000;1.432757
4613.000000;1.431601
4612.000000;1.430318
4611.000000;1.429018
4610.000000;1.427754
4609.000000;1.426459
4608.000000;1.425126
4607.000000;1.423925
4606.000000;1.422999
4605.000000;1.422233
4604.000000;1.421371
4603.000000;1.420288
4602.000000;1.419037
4601.000000;1.417675
4600.000000;1.416244
4599.000000;1.414869
4598.000000;1.413724
4597.000000;1.412862
4596.000000;1.412180
4595.000000;1.411550
4594.000000;1.410875
4593.000000;1.410052
4592.000000;1.409015
4591.000000;1.407846
4590.000000;1.406719
4589.000000;1.405713
4588.000000;1.404735
4587.000000;1.403678
4586.000000;1.402558
4585.000000;1.401494
4584.000000;1.400599
4583.000000;1.399902
4582.000000;1.399319
4581.000000;1.398708
4580.000000;1.397992
4579.000000;1.397229
4578.000000;1.396504
4577.000000;1.395807
4576.000000;1.395080
4575.000000;1.394323
4574.000000;1.393527
4573.000000;1.392534
4572.000000;1.391173
4571.000000;1.389565
4570.000000;1.388152
4569.000000;1.387279
4568.000000;1.386849
4567.000000;1.386481
4566.000000;1.385945
4565.000000;1.385318
4564.000000;1.384738
4563.000000;1.384153
4562.000000;1.383385
4561.000000;1.382391
4560.000000;1.381360
4559.000000;1.380544
4558.000000;1.380025
4557.000000;1.379672
4556.000000;1.379293
4555.000000;1.378774
4554.000000;1.378077
4553.000000;1.377200
4552.000000;1.376199
4551.000000;1.375228
4550.000000;1.374442
4549.000000;1.373864
4548.000000;1.373351
4547.000000;1.372711
4546.000000;1.371836
4545.000000;1.370760
4544.000000;1.369645
4543.000000;1.368699
4542.000000;1.368022
4541.000000;1.367528
4540.000000;1.367048
4539.000000;1.366525
4538.000000;1.366052
4537.000000;1.365714
4536.000000;1.365460
4535.000000;1.365182
4534.000000;1.364854
4533.000000;1.364548
4532.000000;1.364322
4531.000000;1.364131
4530.000000;1.363854
4529.000000;1.363405
4528.000000;1.362837
4527.000000;1.362314
4526.000000;1.361941
4525.000000;1.361642
4524.000000;1.361272
4523.000000;1.360854
4522.000000;1.360595
4521.000000;1.360613
4520.000000;1.360731
4519.000000;1.360658
4518.000000;1.360340
4517.000000;1.359994
4516.000000;1.359815
4515.000000;1.359752
4514.000000;1.359624
4513.000000;1.359375
4512.000000;1.359090
4511.000000;1.358835
4510.000000;1.358589
4509.000000;1.358345
4508.000000;1.358204
4507.000000;1.358280
4506.000000;1.358537
4505.000000;1.358763
4504.000000;1.358749
4503.000000;1.358458
4502.000000;1.358027
4501.000000;1.357631
4500.000000;1.357381
4499.000000;1.357345
4498.000000;1.357570
4497.000000;1.358015
4496.000000;1.358495
4495.000000;1.358798
4494.000000;1.358892
4493.000000;1.358941
4492.000000;1.359092
4491.000000;1.359307
4490.000000;1.359468
4489.000000;1.359576
4488.000000;1.359739
4487.000000;1.359995
4486.000000;1.360269
4485.000000;1.360526
4484.000000;1.360855
4483.000000;1.361338
4482.000000;1.361896
4481.000000;1.362343
4480.000000;1.362575
4479.000000;1.362679
4478.000000;1.362842
4477.000000;1.363174
4476.000000;1.363598
4475.000000;1.363937
4474.000000;1.364118
4473.000000;1.364269
4472.000000;1.364573
4471.000000;1.365053
4470.000000;1.365563
4469.000000;1.365994
4468.000000;1.366397
4467.000000;1.366881
4466.000000;1.367480
4465.000000;1.368160
4464.000000;1.368883
4463.000000;1.369579
4462.000000;1.370134
4461.000000;1.370476
4460.000000;1.370673
4459.000000;1.370904
4458.000000;1.371351
4457.000000;1.372099
4456.000000;1.373073
4455.000000;1.374017
4454.000000;1.374667
4453.000000;1.375004
4452.000000;1.375309
4451.000000;1.375869
4450.000000;1.376698
4449.000000;1.377591
4448.000000;1.378401
4447.000000;1.379157
4446.000000;1.379958
4445.000000;1.380862
4444.000000;1.381858
4443.000000;1.382846
4442.000000;1.383675
4441.000000;1.384278
4440.000000;1.384796
4439.000000;1.385444
4438.000000;1.386283
4437.000000;1.387204
4436.000000;1.388144
4435.000000;1.389185
4434.000000;1.390382
4433.000000;1.391576
4432.000000;1.392510
4431.000000;1.393093
4430.000000;1.393500
4429.000000;1.393985
4428.000000;1.394669
4427.000000;1.395517
4426.000000;1.396496
4425.000000;1.397654
4424.000000;1.399027
4423.000000;1.400509
4422.000000;1.401906
4421.000000;1.403120
4420.000000;1.404229
4419.000000;1.405372
4418.000000;1.406624
4417.000000;1.407994
4416.000000;1.409490
4415.000000;1.411110
4414.000000;1.412806
4413.000000;1.414468
4412.000000;1.415948
4411.000000;1.417118
4410.000000;1.417982
4409.000000;1.418715
4408.000000;1.419520
4407.000000;1.420458
4406.000000;1.421489
4405.000000;1.422659
4404.000000;1.424072
4403.000000;1.425667
4402.000000;1.427189
4401.000000;1.428475
4400.000000;1.429589
4399.000000;1.430593
4398.000000;1.431394
4397.000000;1.431974
4396.000000;1.432602
4395.000000;1.433597
4394.000000;1.434926
4393.000000;1.436262
4392.000000;1.437368
4391.000000;1.438276
4390.000000;1.439146
4389.000000;1.440131
4388.000000;1.441348
4387.000000;1.442757
4386.000000;1.444074
4385.000000;1.444994
4384.000000;1.445580
4383.000000;1.446282
4382.000000;1.447514
4381.000000;1.449291
4380.000000;1.451309
4379.000000;1.453273
4378.000000;1.455047
4377.000000;1.456577
4376.000000;1.457779
4375.000000;1.458601
4374.000000;1.459203
4373.000000;1.459981
4372.000000;1.461272
4371.000000;1.463013
4370.000000;1.464812
4369.000000;1.466373
4368.000000;1.467706
4367.000000;1.468890
4366.000000;1.469885
4365.000000;1.470725
4364.000000;1.471658
4363.000000;1.472855
4362.000000;1.474160
4361.000000;1.475375
4360.000000;1.476658
4359.000000;1.478348
4358.000000;1.480431
4357.000000;1.482476
4356.000000;1.484078
4355.000000;1.485186
4354.000000;1.486055
4353.000000;1.487085
4352.000000;1.488604
4351.000000;1.490526
4350.000000;1.492264
4349.000000;1.493313
4348.000000;1.493938
4347.000000;1.494971
4346.000000;1.496850
4345.000000;1.499112
4344.000000;1.500917
4343.000000;1.501847
4342.000000;1.502154
4341.000000;1.502441
4340.000000;1.503217
4339.000000;1.504612
4338.000000;1.506377
4337.000000;1.508145
4336.000000;1.509690
4335.000000;1.510886
4334.000000;1.511595
4333.000000;1.511885
4332.000000;1.512303
4331.000000;1.513621
4330.000000;1.516154
4329.000000;1.519433
4328.000000;1.522539
4327.000000;1.524695
4326.000000;1.525746
4325.000000;1.526332
4324.000000;1.527426
4323.000000;1.529400
4322.000000;1.531606
4321.000000;1.533126
4320.000000;1.533782
4319.000000;1.534043
4318.000000;1.534197
4317.000000;1.534269
4316.000000;1.534694
4315.000000;1.536281
4314.000000;1.539179
4313.000000;1.542378
4312.000000;1.544643
4311.000000;1.545654
4310.000000;1.545917
4309.000000;1.545903
4308.000000;1.545692
4307.000000;1.545264
4306.000000;1.544765
4305.000000;1.544607
4304.000000;1.545456
4303.000000;1.547776
4302.000000;1.551083
4301.000000;1.553965
4300.000000;1.555293
4299.000000;1.555304
4298.000000;1.555136
4297.000000;1.555525
4296.000000;1.556406
4295.000000;1.557537
4294.000000;1.558888
4293.000000;1.560195
4292.000000;1.560730
4291.000000;1.560137
4290.000000;1.559351
4289.000000;1.560089
4288.000000;1.563143
4287.000000;1.567398
4286.000000;1.570859
4285.000000;1.572578
4284.000000;1.573142
4283.000000;1.573321
4282.000000;1.573039
4281.000000;1.572092
4280.000000;1.571231
4279.000000;1.571598
4278.000000;1.573127
4277.000000;1.574247
4276.000000;1.573432
4275.000000;1.570736
4274.000000;1.567675
4273.000000;1.565920
4272.000000;1.566182
4271.000000;1.567909
4270.000000;1.569752
4269.000000;1.570441
4268.000000;1.569519
4267.000000;1.567396
4266.000000;1.565022
4265.000000;1.563406
4264.000000;1.562807
4263.000000;1.562345
4262.000000;1.560891
4261.000000;1.558624
4260.000000;1.557025
4259.000000;1.556806
4258.000000;1.556672
4257.000000;1.555011
4256.000000;1.552272
4255.000000;1.550437
4254.000000;1.550482
4253.000000;1.551649
4252.000000;1.552891
4251.000000;1.553595
4250.000000;1.553259
4249.000000;1.551166
4248.000000;1.547022
4247.000000;1.541388
4246.000000;1.535472
4245.000000;1.530622
4244.000000;1.527427
4243.000000;1.524756
4242.000000;1.520477
4241.000000;1.514315
4240.000000;1.509011
4239.000000;1.507041
4238.000000;1.506863
4237.000000;1.504354
4236.000000;1.498222
4235.000000;1.491834
4234.000000;1.488782
4233.000000;1.488459
4232.000000;1.486703
4231.000000;1.479816
4230.000000;1.467960
4229.000000;1.455336
4228.000000;1.446761
4227.000000;1.443171
4226.000000;1.440124
4225.000000;1.431977
4224.000000;1.418175
4223.000000;1.403220
4222.000000;1.390486
4221.000000;1.379197
4220.000000;1.367384
4219.000000;1.354788
4218.000000;1.341858
4217.000000;1.328659
4216.000000;1.316022
4215.000000;1.304849
4214.000000;1.292770
4213.000000;1.274162
4212.000000;1.245655
4211.000000;1.210297
4210.000000;1.174257
4209.000000;1.140991
4208.000000;1.109978
4207.000000;1.078611
4206.000000;1.043451
4205.000000;1.001542
4204.000000;0.953457
4203.000000;0.903582
4202.000000;0.854074
4201.000000;0.802421
4200.000000;0.750596
4199.000000;0.712805
4198.000000;0.705197
4197.000000;0.730352
4196.000000;0.778144
4195.000000;0.835584
4194.000000;0.895806
4193.000000;0.958043
4192.000000;1.021563
4191.000000;1.084383
4190.000000;1.145411
4189.000000;1.203973
4188.000000;1.257843
4187.000000;1.303121
4186.000000;1.338541
4185.000000;1.368145
4184.000000;1.396549
4183.000000;1.424980
4182.000000;1.451735
4181.000000;1.475927
4180.000000;1.501645
4179.000000;1.535608
4178.000000;1.579627
4177.000000;1.625854
4176.000000;1.660820
4175.000000;1.677306
4174.000000;1.682075
4173.000000;1.689436
4172.000000;1.709067
4171.000000;1.740633
4170.000000;1.775473
4169.000000;1.803260
4168.000000;1.820890
4167.000000;1.833756
4166.000000;1.847111
4165.000000;1.860488
4164.000000;1.871679
4163.000000;1.882184
4162.000000;1.895031
4161.000000;1.909874
4160.000000;1.925869
4159.000000;1.946290
4158.000000;1.974213
4157.000000;2.006475
4156.000000;2.033860
4155.000000;2.048948
4154.000000;2.055329
4153.000000;2.062758
4152.000000;2.075172
4151.000000;2.089742
4150.000000;2.104037
4149.000000;2.118643
4148.000000;2.133545
4147.000000;2.147322
4146.000000;2.160974
4145.000000;2.178012
4144.000000;2.198697
4143.000000;2.216871
4142.000000;2.226118
4141.000000;2.228629
4140.000000;2.233750
4139.000000;2.249348
4138.000000;2.276264
4137.000000;2.308492
4136.000000;2.335790
4135.000000;2.348409
4134.000000;2.345672
4133.000000;2.337509
4132.000000;2.335028
4131.000000;2.341072
4130.000000;2.348244
4129.000000;2.349776
4128.000000;2.351450
4127.000000;2.366212
4126.000000;2.396268
4125.000000;2.421837
4124.000000;2.419359
4123.000000;2.393131
4122.000000;2.367070
4121.000000;2.357836
4120.000000;2.366280
4119.000000;2.382597
4118.000000;2.398616
4117.000000;2.415639
4116.000000;2.435294
4115.000000;2.453606
4114.000000;2.466432
4113.000000;2.470404
4112.000000;2.471816
4111.000000;2.483664
4110.000000;2.507291
4109.000000;2.533555
4108.000000;2.553852
4107.000000;2.563429
4106.000000;2.562388
4105.000000;2.557579
4104.000000;2.562266
4103.000000;2.588465
4102.000000;2.631675
4101.000000;2.669642
4100.000000;2.685714
4099.000000;2.683522
4098.000000;2.674915
4097.000000;2.669942
4096.000000;2.672132
4095.000000;2.674934
4094.000000;2.669625
4093.000000;2.655260
4092.000000;2.641539
4091.000000;2.640022
4090.000000;2.650036
4089.000000;2.655650
4088.000000;2.643518
4087.000000;2.619069
4086.000000;2.598243
4085.000000;2.599943
4084.000000;2.639925
4083.000000;2.723916
4082.000000;2.840219
4081.000000;2.945708
4080.000000;2.975225
4079.000000;2.917815
4078.000000;2.831065
4077.000000;2.767850
4076.000000;2.751089
4075.000000;2.776957
4074.000000;2.818778
4073.000000;2.842432
4072.000000;2.834987
4071.000000;2.806052
4070.000000;2.765671
4069.000000;2.722775
4068.000000;2.691223
4067.000000;2.683059
4066.000000;2.699771
4065.000000;2.731808
4064.000000;2.764895
4063.000000;2.787068
4062.000000;2.795911
4061.000000;2.798967
4060.000000;2.806647
4059.000000;2.828178
4058.000000;2.855311
4057.000000;2.853891
4056.000000;2.815403
4055.000000;2.779792
4054.000000;2.775436
4053.000000;2.800928
4052.000000;2.848986
4051.000000;2.921721
4050.000000;3.013985
4049.000000;3.087035
4048.000000;3.088990
4047.000000;3.046012
4046.000000;3.025955
4045.000000;3.036295
4044.000000;3.034670
4043.000000;3.014346
4042.000000;3.014455
4041.000000;3.046699
4040.000000;3.083419
4039.000000;3.113011
4038.000000;3.156886
4037.000000;3.200952
4036.000000;3.189124
4035.000000;3.117306
4034.000000;3.032539
4033.000000;2.961518
4032.000000;2.907292
4031.000000;2.875974
4030.000000;2.885414
4029.000000;2.947262
4028.000000;3.042618
4027.000000;3.106726
4026.000000;3.087390
4025.000000;3.027411
4024.000000;2.989023
4023.000000;2.988828
4022.000000;3.005889
4021.000000;3.006461
4020.000000;2.990140
4019.000000;2.981752
4018.000000;2.984430
4017.000000;2.983921
4016.000000;2.973517
4015.000000;2.963338
4014.000000;2.962206
4013.000000;2.960412
4012.000000;2.945780
4011.000000;2.926680
4010.000000;2.924817
4009.000000;2.946916
4008.000000;2.980760
4007.000000;3.009935
4006.000000;3.014777
4005.000000;2.994318
4004.000000;2.971698
4003.000000;2.965653
4002.000000;2.982003
4001.000000;3.018596
4000.000000;3.071913
3999.000000;3.129335
3998.000000;3.164868
3997.000000;3.160917
3996.000000;3.136138
3995.000000;3.127395
3994.000000;3.149372
3993.000000;3.181826
3992.000000;3.169189
3991.000000;3.096262
3990.000000;3.022994
3989.000000;2.991152
3988.000000;3.008485
3987.000000;3.061692
3986.000000;3.112518
3985.000000;3.130489
3984.000000;3.137057
3983.000000;3.168636
3982.000000;3.240331
3981.000000;3.368713
3980.000000;3.504339
3979.000000;3.483796
3978.000000;3.369282
3977.000000;3.239838
3976.000000;3.134272
3975.000000;3.103224
3974.000000;3.153914
3973.000000;3.249660
3972.000000;3.313292
3971.000000;3.315654
3970.000000;3.307770
3969.000000;3.308855
3968.000000;3.310126
3967.000000;3.309604
3966.000000;3.307395
3965.000000;3.304317
3964.000000;3.301874
3963.000000;3.326651
3962.000000;3.415872
3961.000000;3.474776
3960.000000;3.384763
3959.000000;3.309370
3958.000000;3.344809
3957.000000;3.491863
3956.000000;3.651153
3955.000000;3.702406
3954.000000;3.723932
3953.000000;3.658999
3952.000000;3.479760
3951.000000;3.323709
3950.000000;3.270199
3949.000000;3.294116
3948.000000;3.320029
3947.000000;3.319376
3946.000000;3.283902
3945.000000;3.215699
3944.000000;3.173133
3943.000000;3.197197
3942.000000;3.286543
3941.000000;3.402715
3940.000000;3.575824
3939.000000;3.758495
3938.000000;3.607836
3937.000000;3.447726
3936.000000;3.446564
3935.000000;3.573183
3934.000000;3.750326
3933.000000;3.830214
3932.000000;3.705833
3931.000000;3.523337
3930.000000;3.466061
3929.000000;3.512121
3928.000000;3.574249
3927.000000;3.595277
3926.000000;3.553183
3925.000000;3.470824
3924.000000;3.411695
3923.000000;3.402387
3922.000000;3.421438
3921.000000;3.429166
3920.000000;3.396717
3919.000000;3.341895
3918.000000;3.318879
3917.000000;3.361932
3916.000000;3.453728
3915.000000;3.540085
3914.000000;3.655508
3913.000000;3.784567
3912.000000;3.734777
3911.000000;3.668040
3910.000000;3.682002
3909.000000;3.690885
3908.000000;3.630794
3907.000000;3.522817
3906.000000;3.448816
3905.000000;3.445208
3904.000000;3.468663
3903.000000;3.411487
3902.000000;3.319803
3901.000000;3.328179
3900.000000;3.472895
3899.000000;3.692996
3898.000000;3.862855
3897.000000;3.874586
3896.000000;3.779619
3895.000000;3.677164
3894.000000;3.797998
3893.000000;4.123384
3892.000000;3.924720
3891.000000;3.766856
3890.000000;3.797896
3889.000000;4.171244
3888.000000;4.225044
3887.000000;3.825002
3886.000000;3.739443
3885.000000;3.671455
3884.000000;3.608965
3883.000000;3.590040
3882.000000;3.604289
3881.000000;3.674336
3880.000000;3.843667
3879.000000;3.924644
3878.000000;3.808828
3877.000000;3.797894
3876.000000;3.901592
3875.000000;3.984295
3874.000000;3.946709
3873.000000;3.915567
3872.000000;4.023677
3871.000000;4.025276
3870.000000;4.113571
3869.000000;4.405929
3868.000000;4.025973
3867.000000;3.729804
3866.000000;3.647018
3865.000000;3.898969
3864.000000;4.084677
3863.000000;3.764534
3862.000000;3.746087
3861.000000;3.856494
3860.000000;3.979043
3859.000000;4.070528
3858.000000;4.071619
3857.000000;4.043227
3856.000000;3.918624
3855.000000;4.273536
3854.000000;4.102938
3853.000000;3.818684
3852.000000;3.948210
3851.000000;4.013079
3850.000000;3.860036
3849.000000;3.728149
3848.000000;3.718996
3847.000000;3.820727
3846.000000;4.023248
3845.000000;4.241185
3844.000000;4.315353
3843.000000;4.312613
3842.000000;4.422650
3841.000000;4.630002
3840.000000;4.373880
3839.000000;4.555375
3838.000000;4.498063
3837.000000;3.945260
3836.000000;3.686078
3835.000000;3.545666
3834.000000;3.579679
3833.000000;3.786391
3832.000000;3.976921
3831.000000;4.049602
3830.000000;4.108381
3829.000000;3.966653
3828.000000;3.813082
3827.000000;3.749559
3826.000000;3.657838
3825.000000;3.480761
3824.000000;3.320023
3823.000000;3.321199
3822.000000;3.535859
3821.000000;3.925399
3820.000000;4.042806
3819.000000;3.758314
3818.000000;3.471025
3817.000000;3.338691
3816.000000;3.377360
3815.000000;3.516714
3814.000000;3.759172
3813.000000;4.158267
3812.000000;4.331222
3811.000000;4.403510
3810.000000;4.471095
3809.000000;3.989811
3808.000000;3.851913
3807.000000;3.895999
3806.000000;3.841785
3805.000000;3.654086
3804.000000;3.475519
3803.000000;3.405050
3802.000000;3.430441
3801.000000;3.545297
3800.000000;3.668800
3799.000000;3.611745
3798.000000;3.708138
3797.000000;3.958024
3796.000000;3.684694
3795.000000;3.717981
3794.000000;4.292156
3793.000000;3.873193
3792.000000;3.500721
3791.000000;3.377439
3790.000000;3.375193
3789.000000;3.474242
3788.000000;3.595262
3787.000000;3.702684
3786.000000;3.850014
3785.000000;4.137203
3784.000000;4.238573
3783.000000;3.865970
3782.000000;3.616140
3781.000000;3.527023
3780.000000;3.599869
3779.000000;3.850381
3778.000000;4.331793
3777.000000;4.212425
3776.000000;3.864717
3775.000000;3.753288
3774.000000;3.699978
3773.000000;3.694774
3772.000000;3.687739
3771.000000;3.616811
3770.000000;3.490328
3769.000000;3.342054
3768.000000;3.247870
3767.000000;3.285794
3766.000000;3.504754
3765.000000;3.680153
3764.000000;3.612719
3763.000000;3.642190
3762.000000;3.978085
3761.000000;4.597789
3760.000000;3.989297
3759.000000;3.815700
3758.000000;3.861159
3757.000000;3.945275
3756.000000;4.066785
3755.000000;4.100418
3754.000000;4.066019
3753.000000;3.861159
3752.000000;3.659133
3751.000000;3.659120
3750.000000;3.788230
3749.000000;3.866983
3748.000000;3.804904
3747.000000;3.761314
3746.000000;3.740801
3745.000000;3.784757
3744.000000;3.935672
3743.000000;3.948876
3742.000000;3.885498
3741.000000;3.854645
3740.000000;3.866759
3739.000000;3.925206
3738.000000;3.998349
3737.000000;4.191610
3736.000000;4.128176
3735.000000;3.624826
3734.000000;3.463037
3733.000000;3.514426
3732.000000;3.629294
3731.000000;3.779200
3730.000000;3.943609
3729.000000;4.137391
3728.000000;4.181845
3727.000000;3.969807
3726.000000;3.724499
3725.000000;3.608036
3724.000000;3.644311
3723.000000;3.874996
3722.000000;3.859112
3721.000000;3.540871
3720.000000;3.418546
3719.000000;3.497165
3718.000000;3.753111
3717.000000;3.818194
3716.000000;3.675844
3715.000000;3.604209
3714.000000;3.731512
3713.000000;4.287209
3712.000000;3.948228
3711.000000;3.738455
3710.000000;4.034496
3709.000000;4.596710
3708.000000;4.255534
3707.000000;3.998686
3706.000000;3.884417
3705.000000;3.730943
3704.000000;3.600595
3703.000000;3.532889
3702.000000;3.549862
3701.000000;3.602513
3700.000000;3.638171
3699.000000;3.622729
3698.000000;3.584400
3697.000000;3.534350
3696.000000;3.507159
3695.000000;3.525843
3694.000000;3.546791
3693.000000;3.480878
3692.000000;3.352003
3691.000000;3.295758
3690.000000;3.496426
3689.000000;3.935265
3688.000000;3.995554
3687.000000;4.292271
3686.000000;4.466271
3685.000000;4.085447
3684.000000;3.896958
3683.000000;3.717311
3682.000000;3.657065
3681.000000;3.643709
3680.000000;3.601271
3679.000000;3.516495
3678.000000;3.514199
3677.000000;3.651172
3676.000000;3.758697
3675.000000;3.688168
3674.000000;3.548986
3673.000000;3.415323
3672.000000;3.455697
3671.000000;3.908535
3670.000000;4.309505
3669.000000;4.166055
3668.000000;3.931474
3667.000000;3.864333
3666.000000;4.540764
3665.000000;3.993324
3664.000000;3.769633
3663.000000;3.974760
3662.000000;4.101126
3661.000000;3.941156
3660.000000;3.771967
3659.000000;3.684709
3658.000000;3.632139
3657.000000;3.677514
3656.000000;3.781418
3655.000000;3.849474
3654.000000;3.872810
3653.000000;3.848151
3652.000000;3.797995
3651.000000;3.777187
3650.000000;3.859806
3649.000000;3.905994
3648.000000;3.779238
3647.000000;3.719044
3646.000000;3.760877
3645.000000;3.815341
3644.000000;3.765868
3643.000000;3.619019
3642.000000;3.489651
3641.000000;3.433822
3640.000000;3.469083
3639.000000;3.602876
3638.000000;3.795044
3637.000000;3.913755
3636.000000;3.927745
3635.000000;4.001217
3634.000000;4.082073
3633.000000;4.212494
3632.000000;4.726787
3631.000000;3.869233
3630.000000;3.600417
3629.000000;3.635341
3628.000000;3.652887
3627.000000;3.730629
3626.000000;3.805708
3625.000000;3.867945
3624.000000;3.924584
3623.000000;3.933737
3622.000000;3.824808
3621.000000;3.835762
3620.000000;4.300737
3619.000000;4.284759
3618.000000;3.841480
3617.000000;3.789577
3616.000000;3.955298
3615.000000;4.074637
3614.000000;3.796414
3613.000000;3.713715
3612.000000;3.957048
3611.000000;4.092397
3610.000000;3.773113
3609.000000;3.613951
3608.000000;3.588986
3607.000000;3.687306
3606.000000;4.002934
3605.000000;4.258893
3604.000000;4.245235
3603.000000;4.223266
3602.000000;3.980381
3601.000000;3.846170
3600.000000;3.890016
3599.000000;4.040479
3598.000000;3.874387
3597.000000;3.640972
3596.000000;3.614492
3595.000000;3.783350
3594.000000;4.187740
3593.000000;4.032426
3592.000000;3.657174
3591.000000;3.451460
3590.000000;3.304194
3589.000000;3.235144
3588.000000;3.301261
3587.000000;3.526306
3586.000000;3.629392
3585.000000;3.580070
3584.000000;3.671222
3583.000000;3.773642
3582.000000;3.784360
3581.000000;3.744830
3580.000000;3.661410
3579.000000;3.602293
3578.000000;3.824421
3577.000000;3.852531
3576.000000;3.455810
3575.000000;3.378246
3574.000000;3.481631
3573.000000;3.687729
3572.000000;4.012939
3571.000000;4.572258
3570.000000;4.690088
3569.000000;4.189237
3568.000000;3.992543
3567.000000;3.797023
3566.000000;3.609168
3565.000000;3.448461
3564.000000;3.348231
3563.000000;3.348238
3562.000000;3.439881
3561.000000;3.555199
3560.000000;3.623668
3559.000000;3.570034
3558.000000;3.366069
3557.000000;3.195769
3556.000000;3.085695
3555.000000;3.065657
3554.000000;3.157671
3553.000000;3.470884
3552.000000;4.154421
3551.000000;3.775975
3550.000000;3.676745
3549.000000;3.724520
3548.000000;3.766862
3547.000000;3.770300
3546.000000;3.617410
3545.000000;3.547753
3544.000000;3.518821
3543.000000;3.455696
3542.000000;3.395846
3541.000000;3.384913
3540.000000;3.416309
3539.000000;3.389906
3538.000000;3.293302
3537.000000;3.249118
3536.000000;3.290471
3535.000000;3.364982
3534.000000;3.408303
3533.000000;3.398115
3532.000000;3.325734
3531.000000;3.269144
3530.000000;3.310650
3529.000000;3.462499
3528.000000;3.681148
3527.000000;3.780721
3526.000000;3.635100
3525.000000;3.471432
3524.000000;3.390462
3523.000000;3.383046
3522.000000;3.399124
3521.000000;3.386679
3520.000000;3.352680
3519.000000;3.346681
3518.000000;3.397010
3517.000000;3.429448
3516.000000;3.385152
3515.000000;3.374310
3514.000000;3.442790
3513.000000;3.582367
3512.000000;3.681097
3511.000000;3.575048
3510.000000;3.479392
3509.000000;3.530677
3508.000000;3.816159
3507.000000;4.030129
3506.000000;3.722455
3505.000000;3.579870
3504.000000;3.551812
3503.000000;3.478789
3502.000000;3.369646
3501.000000;3.311307
3500.000000;3.310474
3499.000000;3.326326
3498.000000;3.355560
3497.000000;3.421455
3496.000000;3.592082
3495.000000;3.885208
3494.000000;4.209647
3493.000000;4.508087
3492.000000;4.040034
3491.000000;3.985738
3490.000000;4.104981
3489.000000;3.758549
3488.000000;3.614680
3487.000000;3.709881
3486.000000;3.920198
3485.000000;4.053978
3484.000000;3.968974
3483.000000;3.828565
3482.000000;3.691934
3481.000000;3.515783
3480.000000;3.341297
3479.000000;3.245781
3478.000000;3.258060
3477.000000;3.398729
3476.000000;3.604105
3475.000000;3.522036
3474.000000;3.360972
3473.000000;3.306479
3472.000000;3.401005
3471.000000;3.695872
3470.000000;3.618276
3469.000000;3.328355
3468.000000;3.223374
3467.000000;3.284693
3466.000000;3.491201
3465.000000;3.948761
3464.000000;4.104678
3463.000000;3.515409
3462.000000;3.342675
3461.000000;3.323939
3460.000000;3.471914
3459.000000;3.747861
3458.000000;3.567064
3457.000000;3.331769
3456.000000;3.275734
3455.000000;3.338848
3454.000000;3.636640
3453.000000;3.896425
3452.000000;3.573396
3451.000000;3.458762
3450.000000;3.495337
3449.000000;3.617933
3448.000000;3.743359
3447.000000;3.683579
3446.000000;3.582985
3445.000000;3.544255
3444.000000;3.608786
3443.000000;3.798683
3442.000000;4.160768
3441.000000;4.015063
3440.000000;3.702834
3439.000000;3.655606
3438.000000;3.496838
3437.000000;3.320918
3436.000000;3.247403
3435.000000;3.209453
3434.000000;3.248351
3433.000000;3.404440
3432.000000;3.555502
3431.000000;3.525716
3430.000000;3.428344
3429.000000;3.384791
3428.000000;3.396426
3427.000000;3.441531
3426.000000;3.707242
3425.000000;3.789203
3424.000000;3.381934
3423.000000;3.203768
3422.000000;3.188603
3421.000000;3.315947
3420.000000;3.724445
3419.000000;3.774805
3418.000000;3.511811
3417.000000;3.573706
3416.000000;3.595013
3415.000000;3.413581
3414.000000;3.440845
3413.000000;3.661085
3412.000000;3.517877
3411.000000;3.335710
3410.000000;3.383805
3409.000000;3.651521
3408.000000;3.745940
3407.000000;3.590544
3406.000000;3.755974
3405.000000;3.813243
3404.000000;3.630920
3403.000000;3.620116
3402.000000;3.709506
3401.000000;3.988225
3400.000000;3.892480
3399.000000;3.653978
3398.000000;3.528528
3397.000000;3.390564
3396.000000;3.359011
3395.000000;3.461626
3394.000000;3.624382
3393.000000;3.652486
3392.000000;3.549226
3391.000000;3.476299
3390.000000;3.484241
3389.000000;3.552955
3388.000000;3.467851
3387.000000;3.332897
3386.000000;3.317241
3385.000000;3.355484
3384.000000;3.333220
3383.000000;3.244822
3382.000000;3.161408
3381.000000;3.125347
3380.000000;3.159193
3379.000000;3.265431
3378.000000;3.412132
3377.000000;3.496716
3376.000000;3.460164
3375.000000;3.459932
3374.000000;3.452084
3373.000000;3.358534
3372.000000;3.311567
3371.000000;3.277115
3370.000000;3.241420
3369.000000;3.312099
3368.000000;3.617344
3367.000000;3.776033
3366.000000;3.750006
3365.000000;4.272813
3364.000000;3.658949
3363.000000;3.430854
3362.000000;3.354417
3361.000000;3.326422
3360.000000;3.411618
3359.000000;3.603751
3358.000000;3.725239
3357.000000;3.785366
3356.000000;4.020370
3355.000000;4.043166
3354.000000;3.579015
3353.000000;3.376946
3352.000000;3.361659
3351.000000;3.522271
3350.000000;3.673197
3349.000000;3.498351
3348.000000;3.420183
3347.000000;3.587798
3346.000000;3.708999
3345.000000;3.619231
3344.000000;3.874416
3343.000000;3.945403
3342.000000;3.445755
3341.000000;3.225656
3340.000000;3.168229
3339.000000;3.249728
3338.000000;3.642127
3337.000000;3.669725
3336.000000;3.239917
3335.000000;3.131287
3334.000000;3.178830
3333.000000;3.318709
3332.000000;3.462345
3331.000000;3.541179
3330.000000;3.561348
3329.000000;3.524476
3328.000000;3.629455
3327.000000;3.820183
3326.000000;3.546271
3325.000000;3.390864
3324.000000;3.321318
3323.000000;3.242272
3322.000000;3.258829
3321.000000;3.543640
3320.000000;4.039878
3319.000000;3.783522
3318.000000;3.635176
3317.000000;3.492908
3316.000000;3.378758
3315.000000;3.420148
3314.000000;3.483293
3313.000000;3.313330
3312.000000;3.193925
3311.000000;3.184741
3310.000000;3.261818
3309.000000;3.508907
3308.000000;3.841709
3307.000000;3.539620
3306.000000;3.587938
3305.000000;3.831650
3304.000000;3.771873
3303.000000;3.771295
3302.000000;4.081656
3301.000000;4.203419
3300.000000;3.644963
3299.000000;3.454923
3298.000000;3.440083
3297.000000;3.527067
3296.000000;3.512065
3295.000000;3.508461
3294.000000;3.504367
3293.000000;3.288226
3292.000000;3.175899
3291.000000;3.247710
3290.000000;3.462064
3289.000000;3.669047
3288.000000;3.601675
3287.000000;3.584456
3286.000000;4.701944
3285.000000;3.644684
3284.000000;3.461375
3283.000000;3.514529
3282.000000;3.586184
3281.000000;3.964210
3280.000000;3.588337
3279.000000;3.387682
3278.000000;3.414035
3277.000000;3.355666
3276.000000;3.194835
3275.000000;3.147635
3274.000000;3.257068
3273.000000;3.499275
3272.000000;3.495775
3271.000000;3.367548
3270.000000;3.469743
3269.000000;3.846138
3268.000000;3.641148
3267.000000;3.436540
3266.000000;3.827214
3265.000000;3.865152
3264.000000;3.467464
3263.000000;3.316530
3262.000000;3.242506
3261.000000;3.285969
3260.000000;3.570208
3259.000000;3.652883
3258.000000;3.362794
3257.000000;3.259236
3256.000000;3.272921
3255.000000;3.383179
3254.000000;3.404228
3253.000000;3.187715
3252.000000;3.079355
3251.000000;3.124625
3250.000000;3.310099
3249.000000;3.397548
3248.000000;3.315610
3247.000000;3.349837
3246.000000;3.368848
3245.000000;3.300440
3244.000000;3.307922
3243.000000;3.475606
3242.000000;3.756144
3241.000000;3.856759
3240.000000;3.967472
3239.000000;3.859024
3238.000000;3.616715
3237.000000;3.506721
3236.000000;3.621265
3235.000000;3.614678
3234.000000;3.319240
3233.000000;3.212325
3232.000000;3.269572
3231.000000;3.385636
3230.000000;3.363452
3229.000000;3.255733
3228.000000;3.178898
3227.000000;3.156058
3226.000000;3.201771
3225.000000;3.308684
3224.000000;3.601543
3223.000000;4.323025
3222.000000;3.437502
3221.000000;3.268424
3220.000000;3.265692
3219.000000;3.415707
3218.000000;3.654489
3217.000000;4.117874
3216.000000;4.284119
3215.000000;3.911267
3214.000000;3.809973
3213.000000;3.681517
3212.000000;3.578038
3211.000000;3.529982
3210.000000;3.391509
3209.000000;3.197558
3208.000000;3.070865
3207.000000;3.038340
3206.000000;3.093536
3205.000000;3.232111
3204.000000;3.459504
3203.000000;3.853501
3202.000000;3.343248
3201.000000;3.069476
3200.000000;2.960040
3199.000000;2.967536
3198.000000;3.055252
3197.000000;3.183956
3196.000000;3.321586
3195.000000;3.383908
3194.000000;3.425642
3193.000000;3.582187
3192.000000;3.643797
3191.000000;3.413674
3190.000000;3.225003
3189.000000;3.136798
3188.000000;3.145873
3187.000000;3.259244
3186.000000;3.580144
3185.000000;3.819315
3184.000000;3.767264
3183.000000;3.690519
3182.000000;3.531163
3181.000000;3.423399
3180.000000;3.345919
3179.000000;3.381042
3178.000000;3.656303
3177.000000;3.809880
3176.000000;3.435400
3175.000000;3.268027
3174.000000;3.154571
3173.000000;3.077259
3172.000000;3.057034
3171.000000;3.072123
3170.000000;3.063845
3169.000000;3.019237
3168.000000;3.021547
3167.000000;3.128450
3166.000000;3.311915
3165.000000;3.429875
3164.000000;3.537168
3163.000000;3.861717
3162.000000;4.180026
3161.000000;3.888219
3160.000000;3.560554
3159.000000;3.365228
3158.000000;3.311998
3157.000000;3.354413
3156.000000;3.483871
3155.000000;3.630697
3154.000000;3.503562
3153.000000;3.304405
3152.000000;3.209008
3151.000000;3.174899
3150.000000;3.139835
3149.000000;3.139554
3148.000000;3.227522
3147.000000;3.366160
3146.000000;3.527656
3145.000000;3.633585
3144.000000;3.330681
3143.000000;3.294926
3142.000000;3.473164
3141.000000;3.318654
3140.000000;3.068684
3139.000000;2.990082
3138.000000;3.014945
3137.000000;3.153639
3136.000000;3.314233
3135.000000;3.293378
3134.000000;3.235123
3133.000000;3.221929
3132.000000;3.215396
3131.000000;3.203266
3130.000000;3.203920
3129.000000;3.268976
3128.000000;3.445527
3127.000000;3.410072
3126.000000;3.143313
3125.000000;2.962470
3124.000000;2.887187
3123.000000;2.898034
3122.000000;2.969360
3121.000000;3.091605
3120.000000;3.275952
3119.000000;3.503354
3118.000000;3.706852
3117.000000;3.675621
3116.000000;3.446161
3115.000000;3.399949
3114.000000;3.636092
3113.000000;3.650636
3112.000000;3.288384
3111.000000;3.184520
3110.000000;3.195549
3109.000000;3.385038
3108.000000;3.929481
3107.000000;3.703274
3106.000000;3.338152
3105.000000;3.224294
3104.000000;3.149523
3103.000000;3.120596
3102.000000;3.050319
3101.000000;2.929913
3100.000000;2.841097
3099.000000;2.816463
3098.000000;2.854664
3097.000000;2.966671
3096.000000;3.181114
3095.000000;3.513734
3094.000000;3.660283
3093.000000;3.526141
3092.000000;3.450464
3091.000000;3.579386
3090.000000;4.057330
3089.000000;3.778398
3088.000000;3.422259
3087.000000;3.202294
3086.000000;3.082623
3085.000000;3.065645
3084.000000;3.167748
3083.000000;3.277809
3082.000000;3.211287
3081.000000;3.216745
3080.000000;3.395548
3079.000000;4.058739
3078.000000;4.113269
3077.000000;3.750552
3076.000000;3.693989
3075.000000;3.642474
3074.000000;3.761434
3073.000000;4.399633
3072.000000;3.824763
3071.000000;3.332774
3070.000000;3.140879
3069.000000;3.091336
3068.000000;3.125545
3067.000000;3.214492
3066.000000;3.360526
3065.000000;3.682362
3064.000000;4.229599
3063.000000;3.400741
3062.000000;3.184760
3061.000000;3.099419
3060.000000;3.108414
3059.000000;3.135161
3058.000000;3.149551
3057.000000;3.254834
3056.000000;3.491210
3055.000000;3.637893
3054.000000;3.866505
3053.000000;4.008682
3052.000000;3.575214
3051.000000;3.403485
3050.000000;3.398011
3049.000000;3.396585
3048.000000;3.401873
3047.000000;4.154868
3046.000000;3.598991
3045.000000;3.219572
3044.000000;3.100040
3043.000000;3.019413
3042.000000;3.012346
3041.000000;3.081167
3040.000000;3.195590
3039.000000;3.333405
3038.000000;3.445478
3037.000000;3.487159
3036.000000;3.489533
3035.000000;3.467270
3034.000000;3.624533
3033.000000;3.876281
3032.000000;3.581017
3031.000000;3.452010
3030.000000;3.467578
3029.000000;3.662986
3028.000000;4.042838
3027.000000;3.627973
3026.000000;3.389794
3025.000000;3.422708
3024.000000;3.688055
3023.000000;3.875911
3022.000000;3.933650
3021.000000;3.707866
3020.000000;3.285179
3019.000000;3.157559
3018.000000;3.275323
3017.000000;3.761696
3016.000000;4.051412
3015.000000;3.763691
3014.000000;3.520236
3013.000000;3.252243
3012.000000;3.099827
3011.000000;3.072896
3010.000000;3.149289
3009.000000;3.253927
3008.000000;3.267591
3007.000000;3.231771
3006.000000;3.239574
3005.000000;3.279392
3004.000000;3.323080
3003.000000;3.282641
3002.000000;3.127325
3001.000000;3.038582
3000.000000;3.093265
2999.000000;3.296274
2998.000000;3.981689
2997.000000;3.852819
2996.000000;3.332896
2995.000000;3.123951
2994.000000;2.988563
2993.000000;2.973401
2992.000000;3.086271
2991.000000;3.333535
2990.000000;3.426530
2989.000000;3.331283
2988.000000;3.266798
2987.000000;3.185358
2986.000000;3.117996
2985.000000;3.102655
2984.000000;3.115996
2983.000000;3.103481
2982.000000;3.094647
2981.000000;3.166770
2980.000000;3.360198
2979.000000;3.737476
2978.000000;4.524087
2977.000000;4.245750
2976.000000;3.617594
2975.000000;3.332397
2974.000000;3.221336
2973.000000;3.191916
2972.000000;3.152459
2971.000000;3.100112
2970.000000;3.088504
2969.000000;3.126379
2968.000000;3.210362
2967.000000;3.323956
2966.000000;3.399053
2965.000000;3.444400
2964.000000;3.421266
2963.000000;3.333570
2962.000000;3.303221
2961.000000;3.486507
2960.000000;3.928365
2959.000000;3.430221
2958.000000;3.275338
2957.000000;3.260723
2956.000000;3.228824
2955.000000;3.275249
2954.000000;3.500212
2953.000000;3.524505
2952.000000;3.276294
2951.000000;3.237903
2950.000000;3.305884
2949.000000;3.401970
2948.000000;3.545478
2947.000000;3.795936
2946.000000;3.677371
2945.000000;3.351676
2944.000000;3.178272
2943.000000;3.093955
2942.000000;3.104441
2941.000000;3.197781
2940.000000;3.330048
2939.000000;3.751376
2938.000000;3.594570
2937.000000;3.207100
2936.000000;3.121410
2935.000000;3.172297
2934.000000;3.297535
2933.000000;3.657530
2932.000000;3.912911
2931.000000;3.549144
2930.000000;3.663431
2929.000000;3.816310
2928.000000;3.694952
2927.000000;3.594901
2926.000000;3.819468
2925.000000;3.985956
2924.000000;3.278019
2923.000000;3.049765
2922.000000;3.012831
2921.000000;3.096405
2920.000000;3.228040
2919.000000;3.290172
2918.000000;3.327905
2917.000000;3.508051
2916.000000;3.487850
2915.000000;3.326178
2914.000000;3.409664
2913.000000;3.436949
2912.000000;3.343012
2911.000000;3.334845
2910.000000;3.352144
2909.000000;3.426733
2908.000000;3.621280
2907.000000;3.745318
2906.000000;3.612746
2905.000000;3.492704
2904.000000;3.437259
2903.000000;3.447816
2902.000000;3.543056
2901.000000;3.740906
2900.000000;3.765868
2899.000000;3.551960
2898.000000;3.410245
2897.000000;3.299046
2896.000000;3.219209
2895.000000;3.198397
2894.000000;3.376858
2893.000000;3.547836
2892.000000;3.273854
2891.000000;3.151081
2890.000000;3.296003
2889.000000;3.743084
2888.000000;3.443275
2887.000000;3.280500
2886.000000;3.494683
2885.000000;3.375013
2884.000000;3.238796
2883.000000;3.334298
2882.000000;3.459046
2881.000000;3.447795
2880.000000;3.523949
2879.000000;3.520787
2878.000000;3.273060
2877.000000;3.154949
2876.000000;3.165510
2875.000000;3.226726
2874.000000;3.254109
2873.000000;3.267181
2872.000000;3.337628
2871.000000;3.554896
2870.000000;3.858629
2869.000000;3.580466
2868.000000;3.325805
2867.000000;3.265412
2866.000000;3.424290
2865.000000;3.350501
2864.000000;3.019008
2863.000000;2.886100
2862.000000;2.910111
2861.000000;3.086891
2860.000000;3.503642
2859.000000;4.238433
2858.000000;4.072862
2857.000000;4.163206
2856.000000;3.970616
2855.000000;3.323945
2854.000000;3.045193
2853.000000;2.994077
2852.000000;3.100455
2851.000000;3.210747
2850.000000;3.292821
2849.000000;3.512624
2848.000000;3.535138
2847.000000;3.369077
2846.000000;3.584766
2845.000000;4.028746
2844.000000;3.544490
2843.000000;3.378720
2842.000000;3.347297
2841.000000;3.284907
2840.000000;3.198453
2839.000000;3.138136
2838.000000;3.110134
2837.000000;3.120193
2836.000000;3.289243
2835.000000;3.616257
2834.000000;3.541089
2833.000000;3.401952
2832.000000;3.487105
2831.000000;3.878073
2830.000000;3.758619
2829.000000;3.407125
2828.000000;3.350100
2827.000000;3.469234
2826.000000;3.682238
2825.000000;3.790319
2824.000000;3.725045
2823.000000;3.788686
2822.000000;3.959532
2821.000000;3.620930
2820.000000;3.452400
2819.000000;3.381344
2818.000000;3.323526
2817.000000;3.304898
2816.000000;3.231501
2815.000000;3.174116
2814.000000;3.187339
2813.000000;3.213566
2812.000000;3.210232
2811.000000;3.257631
2810.000000;3.391484
2809.000000;3.453880
2808.000000;3.483107
2807.000000;3.631812
2806.000000;3.694558
2805.000000;3.694630
2804.000000;3.754596
2803.000000;3.637743
2802.000000;3.436251
2801.000000;3.321239
2800.000000;3.343830
2799.000000;3.523935
2798.000000;3.524073
2797.000000;3.250139
2796.000000;3.084329
2795.000000;3.043485
2794.000000;3.145256
2793.000000;3.464997
2792.000000;3.712517
2791.000000;3.521317
2790.000000;3.356134
2789.000000;3.207039
2788.000000;3.161420
2787.000000;3.193210
2786.000000;3.215048
2785.000000;3.169667
2784.000000;3.101218
2783.000000;3.101577
2782.000000;3.198091
2781.000000;3.399537
2780.000000;3.572695
2779.000000;3.516702
2778.000000;3.353978
2777.000000;3.194967
2776.000000;3.104180
2775.000000;3.129706
2774.000000;3.169629
2773.000000;3.064215
2772.000000;2.980470
2771.000000;3.011465
2770.000000;3.168061
2769.000000;3.599956
2768.000000;3.717018
2767.000000;3.313366
2766.000000;3.238888
2765.000000;3.303790
2764.000000;3.683749
2763.000000;3.919381
2762.000000;3.433972
2761.000000;3.444878
2760.000000;3.639298
2759.000000;3.533854
2758.000000;3.273584
2757.000000;3.175724
2756.000000;3.218833
2755.000000;3.218666
2754.000000;3.090045
2753.000000;3.015284
2752.000000;3.068857
2751.000000;3.182656
2750.000000;3.284346
2749.000000;3.452128
2748.000000;3.601196
2747.000000;3.657313
2746.000000;3.636241
2745.000000;3.402779
2744.000000;3.294071
2743.000000;3.350716
2742.000000;3.427657
2741.000000;3.299619
2740.000000;3.143544
2739.000000;3.084552
2738.000000;3.108335
2737.000000;3.190212
2736.000000;3.300655
2735.000000;3.489271
2734.000000;3.507125
2733.000000;3.317198
2732.000000;3.215364
2731.000000;3.182564
2730.000000;3.224824
2729.000000;3.377015
2728.000000;3.578216
2727.000000;3.474888
2726.000000;3.299514
2725.000000;3.264347
2724.000000;3.355349
2723.000000;3.530996
2722.000000;3.499565
2721.000000;3.365923
2720.000000;3.306118
2719.000000;3.251301
2718.000000;3.185997
2717.000000;3.170038
2716.000000;3.270736
2715.000000;3.584264
2714.000000;3.649281
2713.000000;3.319930
2712.000000;3.209842
2711.000000;3.227407
2710.000000;3.326018
2709.000000;3.413017
2708.000000;3.391563
2707.000000;3.406446
2706.000000;3.457165
2705.000000;3.367665
2704.000000;3.221299
2703.000000;3.181845
2702.000000;3.264476
2701.000000;3.432855
2700.000000;3.612117
2699.000000;3.876852
2698.000000;4.192357
2697.000000;3.879021
2696.000000;3.620749
2695.000000;3.623149
2694.000000;3.767536
2693.000000;4.093869
2692.000000;4.376900
2691.000000;3.825636
2690.000000;3.624513
2689.000000;3.587392
2688.000000;3.540742
2687.000000;3.465938
2686.000000;3.435102
2685.000000;3.491291
2684.000000;3.623286
2683.000000;3.741621
2682.000000;3.634345
2681.000000;3.516871
2680.000000;3.620872
2679.000000;4.089500
2678.000000;3.928917
2677.000000;3.717979
2676.000000;3.905629
2675.000000;3.769490
2674.000000;3.447023
2673.000000;3.306547
2672.000000;3.270403
2671.000000;3.431329
2670.000000;3.842809
2669.000000;3.492303
2668.000000;3.259823
2667.000000;3.218678
2666.000000;3.194411
2665.000000;3.247713
2664.000000;3.382286
2663.000000;3.677028
2662.000000;3.651039
2661.000000;3.288833
2660.000000;3.153704
2659.000000;3.131523
2658.000000;3.127081
2657.000000;3.141200
2656.000000;3.227352
2655.000000;3.524111
2654.000000;3.571556
2653.000000;3.237190
2652.000000;3.119426
2651.000000;3.122426
2650.000000;3.224991
2649.000000;3.464935
2648.000000;3.817072
2647.000000;3.894830
2646.000000;3.775832
2645.000000;3.846755
2644.000000;3.603048
2643.000000;3.333817
2642.000000;3.226268
2641.000000;3.306637
2640.000000;3.603332
2639.000000;3.598495
2638.000000;3.467724
2637.000000;3.514105
2636.000000;3.543983
2635.000000;3.437731
2634.000000;3.242599
2633.000000;3.120218
2632.000000;3.107064
2631.000000;3.180012
2630.000000;3.456428
2629.000000;3.926493
2628.000000;3.573806
2627.000000;3.364167
2626.000000;3.352568
2625.000000;3.419541
2624.000000;3.516325
2623.000000;3.472165
2622.000000;3.579157
2621.000000;3.961741
2620.000000;3.530081
2619.000000;3.245117
2618.000000;3.170819
2617.000000;3.149431
2616.000000;3.195082
2615.000000;3.340488
2614.000000;3.462557
2613.000000;3.659096
2612.000000;4.136130
2611.000000;3.620230
2610.000000;3.587404
2609.000000;3.815215
2608.000000;3.553008
2607.000000;3.397535
2606.000000;3.436186
2605.000000;3.671987
2604.000000;3.744664
2603.000000;3.691021
2602.000000;3.913770
2601.000000;4.129053
2600.000000;3.798566
2599.000000;3.737618
2598.000000;3.712957
2597.000000;3.381743
2596.000000;3.214035
2595.000000;3.221318
2594.000000;3.334999
2593.000000;3.489474
2592.000000;3.585422
2591.000000;3.676654
2590.000000;3.753926
2589.000000;3.645995
2588.000000;3.479528
2587.000000;3.384812
2586.000000;3.250820
2585.000000;3.167786
2584.000000;3.226157
2583.000000;3.554733
2582.000000;4.144074
2581.000000;3.829594
2580.000000;3.832444
2579.000000;3.651764
2578.000000;3.448116
2577.000000;3.454186
2576.000000;3.534721
2575.000000;3.637664
2574.000000;3.748075
2573.000000;3.877306
2572.000000;3.879412
2571.000000;3.793243
2570.000000;3.698191
2569.000000;3.653106
2568.000000;3.593173
2567.000000;3.450746
2566.000000;3.300994
2565.000000;3.218598
2564.000000;3.221615
2563.000000;3.278401
2562.000000;3.327521
2561.000000;3.315486
2560.000000;3.333622
2559.000000;3.387598
2558.000000;3.257037
2557.000000;3.111881
2556.000000;3.092984
2555.000000;3.182227
2554.000000;3.255349
2553.000000;3.478089
2552.000000;3.731603
2551.000000;3.275312
2550.000000;3.094552
2549.000000;3.043901
2548.000000;3.044954
2547.000000;3.116677
2546.000000;3.232152
2545.000000;3.376567
2544.000000;3.489771
2543.000000;3.602621
2542.000000;3.743633
2541.000000;3.946531
2540.000000;3.843017
2539.000000;3.607797
2538.000000;3.531911
2537.000000;3.604157
2536.000000;3.636447
2535.000000;3.525204
2534.000000;3.447927
2533.000000;3.634652
2532.000000;3.902870
2531.000000;3.455268
2530.000000;3.226557
2529.000000;3.110451
2528.000000;3.044654
2527.000000;3.065677
2526.000000;3.242920
2525.000000;3.476090
2524.000000;3.322363
2523.000000;3.240772
2522.000000;3.282615
2521.000000;3.366853
2520.000000;3.485541
2519.000000;3.498400
2518.000000;3.380555
2517.000000;3.274585
2516.000000;3.274065
2515.000000;3.360684
2514.000000;3.491212
2513.000000;3.741856
2512.000000;4.059087
2511.000000;3.768716
2510.000000;3.503456
2509.000000;3.433791
2508.000000;3.538997
2507.000000;3.938239
2506.000000;4.324248
2505.000000;3.686672
2504.000000;3.334419
2503.000000;3.227023
2502.000000;3.291100
2501.000000;3.501437
2500.000000;3.696558
2499.000000;3.540459
2498.000000;3.389253
2497.000000;3.447139
2496.000000;3.565270
2495.000000;3.400520
2494.000000;3.293839
2493.000000;3.367347
2492.000000;3.544524
2491.000000;3.665619
2490.000000;3.622860
2489.000000;3.560894
2488.000000;3.472046
2487.000000;3.354098
2486.000000;3.284471
2485.000000;3.278673
2484.000000;3.274838
2483.000000;3.260266
2482.000000;3.324335
2481.000000;3.462218
2480.000000;3.506336
2479.000000;3.451120
2478.000000;3.487132
2477.000000;3.809979
2476.000000;3.778620
2475.000000;3.397210
2474.000000;3.368053
2473.000000;3.530618
2472.000000;3.447186
2471.000000;3.285248
2470.000000;3.271770
2469.000000;3.318372
2468.000000;3.373545
2467.000000;3.370004
2466.000000;3.260549
2465.000000;3.209888
2464.000000;3.292254
2463.000000;3.459657
2462.000000;3.466393
2461.000000;3.301696
2460.000000;3.192236
2459.000000;3.159863
2458.000000;3.195998
2457.000000;3.277656
2456.000000;3.290490
2455.000000;3.158761
2454.000000;3.071230
2453.000000;3.093005
2452.000000;3.268931
2451.000000;3.804292
2450.000000;3.825075
2449.000000;3.559848
2448.000000;3.582717
2447.000000;3.566076
2446.000000;3.427494
2445.000000;3.341169
2444.000000;3.365391
2443.000000;3.674790
2442.000000;3.991414
2441.000000;3.400656
2440.000000;3.230520
2439.000000;3.222589
2438.000000;3.282254
2437.000000;3.428082
2436.000000;3.839575
2435.000000;3.738923
2434.000000;3.395004
2433.000000;3.407390
2432.000000;3.472352
2431.000000;3.463053
2430.000000;3.418945
2429.000000;3.492021
2428.000000;3.790378
2427.000000;3.541869
2426.000000;3.278838
2425.000000;3.258204
2424.000000;3.390492
2423.000000;3.570481
2422.000000;3.600714
2421.000000;3.554063
2420.000000;3.487648
2419.000000;3.456807
2418.000000;3.443837
2417.000000;3.365260
2416.000000;3.294295
2415.000000;3.329605
2414.000000;3.707551
2413.000000;3.640257
2412.000000;3.176303
2411.000000;3.108441
2410.000000;3.179770
2409.000000;3.372377
2408.000000;3.610333
2407.000000;3.557578
2406.000000;3.434782
2405.000000;3.428324
2404.000000;3.525997
2403.000000;3.599679
2402.000000;3.570991
2401.000000;3.558435
2400.000000;3.704804
2399.000000;3.969713
2398.000000;3.599843
2397.000000;3.300070
2396.000000;3.174391
2395.000000;3.156228
2394.000000;3.227726
2393.000000;3.371618
2392.000000;3.618807
2391.000000;4.101942
2390.000000;4.121911
2389.000000;3.650604
2388.000000;3.485290
2387.000000;3.530507
2386.000000;3.795835
2385.000000;3.843031
2384.000000;3.705734
2383.000000;3.795942
2382.000000;3.982102
2381.000000;4.328962
2380.000000;4.664930
2379.000000;4.174679
2378.000000;3.874012
2377.000000;3.760671
2376.000000;3.780480
2375.000000;3.955520
2374.000000;4.300139
2373.000000;4.667392
2372.000000;4.343841
2371.000000;3.996042
2370.000000;3.897449
2369.000000;4.125574
2368.000000;4.680734
2367.000000;4.423408
2366.000000;4.905773
2365.000000;4.298542
2364.000000;4.086445
2363.000000;4.195935
2362.000000;4.410733
2361.000000;4.174910
2360.000000;3.992178
2359.000000;4.029157
2358.000000;4.501085
2357.000000;4.717536
2356.000000;4.150523
2355.000000;4.113932
2354.000000;4.074039
2353.000000;4.078778
2352.000000;4.212857
2351.000000;4.488341
2350.000000;4.922459
2349.000000;4.539237
2348.000000;4.449271
2347.000000;4.512763
2346.000000;4.660674
2345.000000;4.663197
2344.000000;4.506359
2343.000000;4.274470
2342.000000;4.263030
2341.000000;4.106986
2340.000000;3.845482
2339.000000;3.834071
2338.000000;4.026074
2337.000000;4.169924
2336.000000;4.065416
2335.000000;4.032111
2334.000000;4.213279
2333.000000;4.387494
2332.000000;4.124726
2331.000000;4.033433
2330.000000;3.988835
2329.000000;3.808524
2328.000000;3.785584
2327.000000;4.063605
2326.000000;4.128812
2325.000000;3.992558
2324.000000;4.081879
2323.000000;4.290904
2322.000000;4.448016
2321.000000;4.330300
2320.000000;4.205147
2319.000000;4.060193
2318.000000;3.891625
2317.000000;3.778096
2316.000000;3.740907
2315.000000;3.757650
2314.000000;3.822136
2313.000000;3.899217
2312.000000;3.985709
2311.000000;4.046795
2310.000000;4.021863
2309.000000;3.942579
2308.000000;3.901019
2307.000000;4.213298
2306.000000;4.347704
2305.000000;3.679472
2304.000000;3.533961
2303.000000;3.486050
2302.000000;3.455346
2301.000000;3.387060
2300.000000;3.350011
2299.000000;3.412829
2298.000000;3.741551
2297.000000;3.924705
2296.000000;3.653838
2295.000000;3.643491
2294.000000;3.745451
2293.000000;3.852395
2292.000000;3.852322
2291.000000;3.695355
2290.000000;3.577192
2289.000000;3.558086
2288.000000;3.592171
2287.000000;3.666343
2286.000000;3.859616
2285.000000;3.823229
2284.000000;3.560694
2283.000000;3.510435
2282.000000;3.688611
2281.000000;3.788917
2280.000000;3.561354
2279.000000;3.514765
2278.000000;3.477957
2277.000000;3.357530
2276.000000;3.251441
2275.000000;3.245717
2274.000000;3.390344
2273.000000;3.704346
2272.000000;3.958139
2271.000000;3.892472
2270.000000;3.790141
2269.000000;4.061350
2268.000000;3.956159
2267.000000;3.659638
2266.000000;3.686854
2265.000000;3.988100
2264.000000;4.166486
2263.000000;4.280524
2262.000000;4.173035
2261.000000;3.828101
2260.000000;3.878008
2259.000000;3.965616
2258.000000;3.548498
2257.000000;3.329263
2256.000000;3.228609
2255.000000;3.222271
2254.000000;3.295675
2253.000000;3.424760
2252.000000;3.614895
2251.000000;3.869492
2250.000000;3.793774
2249.000000;3.613489
2248.000000;3.570346
2247.000000;3.462857
2246.000000;3.343252
2245.000000;3.317911
2244.000000;3.409189
2243.000000;3.673445
2242.000000;4.131914
2241.000000;4.451019
2240.000000;3.700999
2239.000000;3.403659
2238.000000;3.397114
2237.000000;3.816746
2236.000000;3.826869
2235.000000;3.495043
2234.000000;3.482837
2233.000000;3.655599
2232.000000;4.070585
2231.000000;4.294505
2230.000000;3.578299
2229.000000;3.285605
2228.000000;3.161706
2227.000000;3.184585
2226.000000;3.330256
2225.000000;3.605414
2224.000000;4.047660
2223.000000;3.625393
2222.000000;3.345520
2221.000000;3.379813
2220.000000;3.598776
2219.000000;3.700368
2218.000000;3.502123
2217.000000;3.417544
2216.000000;3.452258
2215.000000;3.571105
2214.000000;3.660201
2213.000000;3.658353
2212.000000;3.706178
2211.000000;4.113120
2210.000000;3.904072
2209.000000;3.567617
2208.000000;3.447405
2207.000000;3.475193
2206.000000;3.642159
2205.000000;3.793991
2204.000000;3.734731
2203.000000;3.626665
2202.000000;3.562830
2201.000000;3.507995
2200.000000;3.406540
2199.000000;3.266738
2198.000000;3.202913
2197.000000;3.260374
2196.000000;3.359004
2195.000000;3.428884
2194.000000;3.546014
2193.000000;3.634140
2192.000000;3.630670
2191.000000;3.641449
2190.000000;3.645108
2189.000000;3.594153
2188.000000;3.530403
2187.000000;3.479869
2186.000000;3.402960
2185.000000;3.325095
2184.000000;3.276560
2183.000000;3.285739
2182.000000;3.409554
2181.000000;3.734146
2180.000000;4.093627
2179.000000;3.701890
2178.000000;3.509814
2177.000000;3.446428
2176.000000;3.561423
2175.000000;4.014503
2174.000000;4.091635
2173.000000;3.622698
2172.000000;3.427814
2171.000000;3.336630
2170.000000;3.368797
2169.000000;3.510960
2168.000000;3.805165
2167.000000;3.817933
2166.000000;3.396821
2165.000000;3.118920
2164.000000;2.999795
2163.000000;3.026300
2162.000000;3.195479
2161.000000;3.466542
2160.000000;3.541485
2159.000000;3.461447
2158.000000;3.351923
2157.000000;3.255786
2156.000000;3.241513
2155.000000;3.305081
2154.000000;3.363846
2153.000000;3.313662
2152.000000;3.196718
2151.000000;3.100989
2150.000000;3.078787
2149.000000;3.145095
2148.000000;3.295367
2147.000000;3.472560
2146.000000;3.498767
2145.000000;3.391106
2144.000000;3.324727
2143.000000;3.358629
2142.000000;3.495575
2141.000000;3.798298
2140.000000;3.830892
2139.000000;3.523856
2138.000000;3.969384
2137.000000;3.750514
2136.000000;3.346622
2135.000000;3.418236
2134.000000;3.646814
2133.000000;3.621270
2132.000000;3.525397
2131.000000;3.569379
2130.000000;3.651758
2129.000000;3.686742
2128.000000;3.576932
2127.000000;3.438665
2126.000000;3.405309
2125.000000;3.511987
2124.000000;3.697011
2123.000000;3.870749
2122.000000;3.866218
2121.000000;3.432893
2120.000000;3.221252
2119.000000;3.172962
2118.000000;3.288104
2117.000000;3.597725
2116.000000;3.704037
2115.000000;3.615162
2114.000000;3.836735
2113.000000;3.975441
2112.000000;3.674555
2111.000000;3.461633
2110.000000;3.441297
2109.000000;3.425218
2108.000000;3.337545
2107.000000;3.321038
2106.000000;3.616940
2105.000000;3.483806
2104.000000;3.204248
2103.000000;3.143390
2102.000000;3.208259
2101.000000;3.360441
2100.000000;3.525218
2099.000000;3.600492
2098.000000;3.604173
2097.000000;3.702585
2096.000000;3.768390
2095.000000;3.546840
2094.000000;3.422519
2093.000000;3.370309
2092.000000;3.337803
2091.000000;3.326459
2090.000000;3.334762
2089.000000;3.608786
2088.000000;3.744311
2087.000000;3.277606
2086.000000;3.189980
2085.000000;3.280693
2084.000000;3.389538
2083.000000;3.257446
2082.000000;3.126834
2081.000000;3.081081
2080.000000;3.110891
2079.000000;3.191652
2078.000000;3.267589
2077.000000;3.348324
2076.000000;3.528487
2075.000000;3.979911
2074.000000;4.169219
2073.000000;3.797265
2072.000000;3.553490
2071.000000;3.517424
2070.000000;3.551619
2069.000000;3.526339
2068.000000;3.731995
2067.000000;4.525104
2066.000000;3.664893
2065.000000;3.585221
2064.000000;3.669925
2063.000000;3.692048
2062.000000;3.602228
2061.000000;3.677136
2060.000000;3.771306
2059.000000;3.621048
2058.000000;3.429842
2057.000000;3.362659
2056.000000;3.429225
2055.000000;3.850345
2054.000000;3.965452
2053.000000;3.765129
2052.000000;3.859610
2051.000000;3.984668
2050.000000;3.876301
2049.000000;3.570058
2048.000000;3.433481
2047.000000;3.389969
2046.000000;3.362704
2045.000000;3.365261
2044.000000;3.451905
2043.000000;3.603730
2042.000000;3.533749
2041.000000;3.388943
2040.000000;3.346871
2039.000000;3.364795
2038.000000;3.424564
2037.000000;3.593935
2036.000000;3.807825
2035.000000;3.531682
2034.000000;3.252020
2033.000000;3.169458
2032.000000;3.238364
2031.000000;3.617245
2030.000000;3.902811
2029.000000;3.533295
2028.000000;3.468044
2027.000000;3.598839
2026.000000;3.719446
2025.000000;3.380998
2024.000000;3.189393
2023.000000;3.199264
2022.000000;3.363109
2021.000000;3.887904
2020.000000;3.817089
2019.000000;3.470075
2018.000000;3.485360
2017.000000;3.611020
2016.000000;3.415808
2015.000000;3.297724
2014.000000;3.277625
2013.000000;3.260775
2012.000000;3.249501
2011.000000;3.304154
2010.000000;3.461290
2009.000000;3.669194
2008.000000;3.636204
2007.000000;3.423551
2006.000000;3.269658
2005.000000;3.252827
2004.000000;3.365271
2003.000000;3.864408
2002.000000;3.921895
2001.000000;3.505227
2000.000000;3.489115
1999.000000;3.577047
1998.000000;3.670289
1997.000000;3.625549
1996.000000;3.596682
1995.000000;3.700295
1994.000000;3.970159
1993.000000;3.772849
1992.000000;3.388789
1991.000000;3.219391
1990.000000;3.214291
1989.000000;3.349295
1988.000000;3.653503
1987.000000;4.086733
1986.000000;4.028057
1985.000000;4.012808
1984.000000;4.154192
1983.000000;4.380964
1982.000000;3.899237
1981.000000;3.683874
1980.000000;3.682088
1979.000000;4.108273
1978.000000;4.114571
1977.000000;3.699183
1976.000000;3.809450
1975.000000;3.682560
1974.000000;3.404377
1973.000000;3.238894
1972.000000;3.186676
1971.000000;3.281738
1970.000000;3.568245
1969.000000;3.503273
1968.000000;3.359266
1967.000000;3.449976
1966.000000;3.730793
1965.000000;3.727692
1964.000000;3.690302
1963.000000;3.646193
1962.000000;3.450783
1961.000000;3.336376
1960.000000;3.341821
1959.000000;3.449810
1958.000000;3.547006
1957.000000;3.485460
1956.000000;3.448715
1955.000000;3.427476
1954.000000;3.359279
1953.000000;3.370810
1952.000000;3.500193
1951.000000;4.032634
1950.000000;4.134715
1949.000000;3.661815
1948.000000;3.619646
1947.000000;3.551737
1946.000000;3.585015
1945.000000;3.988590
1944.000000;3.969384
1943.000000;3.726280
1942.000000;3.761273
1941.000000;3.863904
1940.000000;3.942404
1939.000000;4.024547
1938.000000;3.706894
1937.000000;3.447891
1936.000000;3.385393
1935.000000;3.483767
1934.000000;3.704820
1933.000000;4.035426
1932.000000;4.511579
1931.000000;4.035675
1930.000000;3.831491
1929.000000;3.825609
1928.000000;3.797844
1927.000000;3.660501
1926.000000;3.530922
1925.000000;3.502796
1924.000000;3.555956
1923.000000;3.645486
1922.000000;3.768984
1921.000000;3.747613
1920.000000;3.555787
1919.000000;3.426234
1918.000000;3.420144
1917.000000;3.618438
1916.000000;4.500012
1915.000000;4.136842
1914.000000;3.531655
1913.000000;3.232645
1912.000000;3.124117
1911.000000;3.202316
1910.000000;3.547405
1909.000000;3.637247
1908.000000;3.309719
1907.000000;3.282649
1906.000000;3.404037
1905.000000;3.537917
1904.000000;3.521504
1903.000000;3.436638
1902.000000;3.437749
1901.000000;3.530549
1900.000000;3.600852
1899.000000;3.542502
1898.000000;3.460027
1897.000000;3.420815
1896.000000;3.408716
1895.000000;3.431140
1894.000000;3.463775
1893.000000;3.471493
1892.000000;3.556772
1891.000000;3.784985
1890.000000;4.060980
1889.000000;3.809778
1888.000000;3.571104
1887.000000;3.507067
1886.000000;3.537766
1885.000000;3.620316
1884.000000;3.638400
1883.000000;3.592320
1882.000000;3.598553
1881.000000;3.624893
1880.000000;3.581138
1879.000000;3.478261
1878.000000;3.393401
1877.000000;3.356116
1876.000000;3.363245
1875.000000;3.402382
1874.000000;3.432980
1873.000000;3.438488
1872.000000;3.420712
1871.000000;3.350489
1870.000000;3.268645
1869.000000;3.254202
1868.000000;3.466225
1867.000000;3.886067
1866.000000;3.620787
1865.000000;3.504608
1864.000000;3.620615
1863.000000;3.724248
1862.000000;3.752073
1861.000000;3.719573
1860.000000;3.746299
1859.000000;3.845842
1858.000000;4.126419
1857.000000;4.391962
1856.000000;3.853460
1855.000000;3.609279
1854.000000;3.466116
1853.000000;3.349896
1852.000000;3.306864
1851.000000;3.352028
1850.000000;3.546311
1849.000000;3.805444
1848.000000;3.526787
1847.000000;3.340786
1846.000000;3.339591
1845.000000;3.388725
1844.000000;3.468535
1843.000000;3.635870
1842.000000;3.706540
1841.000000;3.949089
1840.000000;4.013381
1839.000000;3.914213
1838.000000;4.044085
1837.000000;3.545614
1836.000000;3.345188
1835.000000;3.455841
1834.000000;4.053144
1833.000000;3.650047
1832.000000;3.345472
1831.000000;3.299138
1830.000000;3.352752
1829.000000;3.514690
1828.000000;3.706925
1827.000000;3.806610
1826.000000;3.661764
1825.000000;3.541752
1824.000000;3.493958
1823.000000;3.505229
1822.000000;3.604580
1821.000000;3.800374
1820.000000;4.127414
1819.000000;4.078205
1818.000000;3.668208
1817.000000;3.461767
1816.000000;3.494667
1815.000000;3.849258
1814.000000;3.916124
1813.000000;3.774365
1812.000000;3.922031
1811.000000;4.220401
1810.000000;4.134412
1809.000000;3.692373
1808.000000;3.554194
1807.000000;3.521646
1806.000000;3.455864
1805.000000;3.429038
1804.000000;3.453565
1803.000000;3.450264
1802.000000;3.363593
1801.000000;3.284014
1800.000000;3.276000
1799.000000;3.332898
1798.000000;3.506384
1797.000000;3.688292
1796.000000;3.952394
1795.000000;4.277941
1794.000000;3.629380
1793.000000;3.362183
1792.000000;3.253553
1791.000000;3.239285
1790.000000;3.302783
1789.000000;3.344432
1788.000000;3.375874
1787.000000;3.439669
1786.000000;3.475934
1785.000000;3.458813
1784.000000;3.446320
1783.000000;3.411299
1782.000000;3.399517
1781.000000;3.435695
1780.000000;3.585565
1779.000000;3.757535
1778.000000;3.822914
1777.000000;4.283135
1776.000000;3.646991
1775.000000;3.314474
1774.000000;3.222574
1773.000000;3.193088
1772.000000;3.251546
1771.000000;3.430617
1770.000000;3.775318
1769.000000;4.281970
1768.000000;4.441987
1767.000000;4.030528
1766.000000;3.871369
1765.000000;3.886504
1764.000000;4.124905
1763.000000;4.320557
1762.000000;3.736222
1761.000000;3.430502
1760.000000;3.361717
1759.000000;3.442192
1758.000000;3.594509
1757.000000;3.635024
1756.000000;3.483874
1755.000000;3.376933
1754.000000;3.419850
1753.000000;3.523900
1752.000000;3.483928
1751.000000;3.414031
1750.000000;3.504731
1749.000000;3.828397
1748.000000;3.952163
1747.000000;3.572586
1746.000000;3.418039
1745.000000;3.394547
1744.000000;3.360749
1743.000000;3.346678
1742.000000;3.376653
1741.000000;3.406195
1740.000000;3.459609
1739.000000;3.653760
1738.000000;3.832403
1737.000000;3.750239
1736.000000;3.628108
1735.000000;3.488309
1734.000000;3.383627
1733.000000;3.381277
1732.000000;3.512683
1731.000000;3.797203
1730.000000;4.202071
1729.000000;4.065828
1728.000000;3.695364
1727.000000;3.537422
1726.000000;3.596308
1725.000000;3.773076
1724.000000;4.070673
1723.000000;4.323674
1722.000000;3.945285
1721.000000;4.046072
1720.000000;3.917251
1719.000000;3.567951
1718.000000;3.471949
1717.000000;3.569070
1716.000000;3.609016
1715.000000;3.398470
1714.000000;3.298942
1713.000000;3.282933
1712.000000;3.269035
1711.000000;3.283510
1710.000000;3.352340
1709.000000;3.430609
1708.000000;3.421481
1707.000000;3.393140
1706.000000;3.409652
1705.000000;3.475569
1704.000000;3.557680
1703.000000;3.652253
1702.000000;3.690702
1701.000000;3.612420
1700.000000;3.506383
1699.000000;3.695129
1698.000000;4.009758
1697.000000;3.653800
1696.000000;3.393623
1695.000000;3.233748
1694.000000;3.249259
1693.000000;3.443591
1692.000000;3.643307
1691.000000;3.606903
1690.000000;3.474811
1689.000000;3.494941
1688.000000;3.449866
1687.000000;3.384593
1686.000000;3.428926
1685.000000;3.414874
1684.000000;3.336963
1683.000000;3.246805
1682.000000;3.252656
1681.000000;3.390974
1680.000000;3.515868
1679.000000;3.471971
1678.000000;3.582525
1677.000000;4.182712
1676.000000;3.936555
1675.000000;3.633516
1674.000000;3.629014
1673.000000;3.431415
1672.000000;3.340957
1671.000000;3.488792
1670.000000;3.697374
1669.000000;3.439197
1668.000000;3.233652
1667.000000;3.254890
1666.000000;3.543062
1665.000000;3.828726
1664.000000;3.510867
1663.000000;3.419504
1662.000000;3.441165
1661.000000;3.499821
1660.000000;3.500597
1659.000000;3.353439
1658.000000;3.169885
1657.000000;3.080595
1656.000000;3.191782
1655.000000;3.455288
1654.000000;3.673072
1653.000000;3.657196
1652.000000;3.543019
1651.000000;3.522335
1650.000000;3.480236
1649.000000;3.410997
1648.000000;3.384010
1647.000000;3.390260
1646.000000;3.431660
1645.000000;3.631613
1644.000000;3.759814
1643.000000;3.506061
1642.000000;3.405362
1641.000000;3.367683
1640.000000;3.408626
1639.000000;3.420208
1638.000000;3.273033
1637.000000;3.209912
1636.000000;3.212411
1635.000000;3.266860
1634.000000;3.535410
1633.000000;3.934064
1632.000000;3.637179
1631.000000;3.486243
1630.000000;3.673357
1629.000000;3.686730
1628.000000;3.350294
1627.000000;3.233696
1626.000000;3.326440
1625.000000;3.502030
1624.000000;3.599761
1623.000000;3.503697
1622.000000;3.497093
1621.000000;3.915062
1620.000000;3.845860
1619.000000;3.557677
1618.000000;3.586308
1617.000000;3.562916
1616.000000;3.477774
1615.000000;3.385956
1614.000000;3.306085
1613.000000;3.275702
1612.000000;3.260622
1611.000000;3.179683
1610.000000;3.151844
1609.000000;3.258255
1608.000000;3.476676
1607.000000;3.622164
1606.000000;3.454247
1605.000000;3.241720
1604.000000;3.163610
1603.000000;3.233218
1602.000000;3.442344
1601.000000;3.773694
1600.000000;3.837761
1599.000000;3.654476
1598.000000;3.550170
1597.000000;3.436173
1596.000000;3.391346
1595.000000;3.492734
1594.000000;3.698435
1593.000000;3.868237
1592.000000;3.704391
1591.000000;3.463375
1590.000000;3.372353
1589.000000;3.358944
1588.000000;3.442307
1587.000000;3.831866
1586.000000;4.251096
1585.000000;3.893688
1584.000000;3.820385
1583.000000;3.908070
1582.000000;3.572192
1581.000000;3.163664
1580.000000;3.024660
1579.000000;3.085548
1578.000000;3.251261
1577.000000;3.389562
1576.000000;3.385994
1575.000000;3.387661
1574.000000;3.615128
1573.000000;3.889280
1572.000000;3.754257
1571.000000;3.719328
1570.000000;3.812374
1569.000000;3.719173
1568.000000;3.554138
1567.000000;3.473444
1566.000000;3.542772
1565.000000;3.955494
1564.000000;3.499274
1563.000000;3.194216
1562.000000;3.210279
1561.000000;3.310465
1560.000000;3.404785
1559.000000;3.546242
1558.000000;3.782219
1557.000000;3.593698
1556.000000;3.416066
1555.000000;3.470543
1554.000000;3.750817
1553.000000;3.634571
1552.000000;3.372717
1551.000000;3.458317
1550.000000;3.793912
1549.000000;3.690108
1548.000000;3.386044
1547.000000;3.328389
1546.000000;3.330902
1545.000000;3.387407
1544.000000;3.445682
1543.000000;3.368546
1542.000000;3.298559
1541.000000;3.294817
1540.000000;3.278654
1539.000000;3.291791
1538.000000;3.460798
1537.000000;3.448832
1536.000000;3.385901
1535.000000;3.487410
1534.000000;3.642279
1533.000000;3.917054
1532.000000;3.735969
1531.000000;3.529652
1530.000000;3.526162
1529.000000;3.510485
1528.000000;3.663980
1527.000000;3.984716
1526.000000;3.512242
1525.000000;3.269732
1524.000000;3.251453
1523.000000;3.267803
1522.000000;3.239613
1521.000000;3.199292
1520.000000;3.344858
1519.000000;3.517277
1518.000000;3.331518
1517.000000;3.217573
1516.000000;3.171131
1515.000000;3.153787
1514.000000;3.151171
1513.000000;3.179484
1512.000000;3.158824
1511.000000;3.174835
1510.000000;3.461165
1509.000000;3.339203
1508.000000;3.139503
1507.000000;3.163492
1506.000000;3.200087
1505.000000;3.339642
1504.000000;3.552112
1503.000000;3.575080
1502.000000;3.395761
1501.000000;3.285822
1500.000000;3.243226
1499.000000;3.216829
1498.000000;3.216356
1497.000000;3.243441
1496.000000;3.262944
1495.000000;3.279782
1494.000000;3.302826
1493.000000;3.282695
1492.000000;3.235201
1491.000000;3.222196
1490.000000;3.294597
1489.000000;3.332560
1488.000000;3.215050
1487.000000;3.127717
1486.000000;3.127042
1485.000000;3.190777
1484.000000;3.243898
1483.000000;3.243095
1482.000000;3.256807
1481.000000;3.370898
1480.000000;3.641327
1479.000000;3.733409
1478.000000;3.570572
1477.000000;3.422837
1476.000000;3.322019
1475.000000;3.332632
1474.000000;3.366102
1473.000000;3.317194
1472.000000;3.233582
1471.000000;3.226253
1470.000000;3.345540
1469.000000;3.613380
1468.000000;4.139814
1467.000000;3.853938
1466.000000;3.574914
1465.000000;3.621380
1464.000000;3.771724
1463.000000;4.117024
1462.000000;3.726954
1461.000000;3.417113
1460.000000;3.421412
1459.000000;3.468488
1458.000000;3.441783
1457.000000;3.352731
1456.000000;3.302781
1455.000000;3.405313
1454.000000;3.715597
1453.000000;4.036620
1452.000000;3.802882
1451.000000;3.518173
1450.000000;3.400761
1449.000000;3.413832
1448.000000;3.589171
1447.000000;3.926571
1446.000000;3.648041
1445.000000;3.313520
1444.000000;3.202691
1443.000000;3.221990
1442.000000;3.312871
1441.000000;3.403723
1440.000000;3.384800
1439.000000;3.311683
1438.000000;3.287785
1437.000000;3.316869
1436.000000;3.354630
1435.000000;3.266437
1434.000000;3.165228
1433.000000;3.170715
1432.000000;3.211981
1431.000000;3.238779
1430.000000;3.236417
1429.000000;3.337220
1428.000000;3.685698
1427.000000;3.625198
1426.000000;3.460701
1425.000000;3.391474
1424.000000;3.204301
1423.000000;3.117774
1422.000000;3.139457
1421.000000;3.169454
1420.000000;3.163627
1419.000000;3.230539
1418.000000;3.567041
1417.000000;3.564756
1416.000000;3.293613
1415.000000;3.363804
1414.000000;3.529765
1413.000000;3.601748
1412.000000;3.452169
1411.000000;3.258043
1410.000000;3.195212
1409.000000;3.265907
1408.000000;3.530393
1407.000000;3.989636
1406.000000;3.640473
1405.000000;3.370500
1404.000000;3.390863
1403.000000;3.529966
1402.000000;3.421186
1401.000000;3.318442
1400.000000;3.352766
1399.000000;3.449459
1398.000000;3.548573
1397.000000;3.550181
1396.000000;3.562083
1395.000000;3.619198
1394.000000;3.700766
1393.000000;3.859626
1392.000000;4.057942
1391.000000;4.043047
1390.000000;3.845830
1389.000000;3.752947
1388.000000;3.842367
1387.000000;4.267741
1386.000000;4.214976
1385.000000;3.817469
1384.000000;3.785598
1383.000000;3.970583
1382.000000;4.125649
1381.000000;4.013321
1380.000000;3.905537
1379.000000;3.929993
1378.000000;4.445182
1377.000000;3.986497
1376.000000;3.371448
1375.000000;3.074316
1374.000000;2.941375
1373.000000;2.923986
1372.000000;2.996455
1371.000000;3.146732
1370.000000;3.313525
1369.000000;3.372039
1368.000000;3.508549
1367.000000;3.799923
1366.000000;3.534375
1365.000000;3.390442
1364.000000;3.532551
1363.000000;3.519759
1362.000000;3.331007
1361.000000;3.300439
1360.000000;3.318380
1359.000000;3.327485
1358.000000;3.351303
1357.000000;3.485295
1356.000000;3.527922
1355.000000;3.257498
1354.000000;3.115363
1353.000000;3.145164
1352.000000;3.364838
1351.000000;3.848186
1350.000000;3.844558
1349.000000;3.820041
1348.000000;4.220339
1347.000000;4.356360
1346.000000;3.821330
1345.000000;3.600330
1344.000000;3.599492
1343.000000;3.695930
1342.000000;3.632120
1341.000000;3.720471
1340.000000;4.186788
1339.000000;3.884466
1338.000000;3.670477
1337.000000;3.780986
1336.000000;4.145466
1335.000000;3.902612
1334.000000;3.650609
1333.000000;3.990251
1332.000000;4.288088
1331.000000;3.925559
1330.000000;3.765257
1329.000000;3.539235
1328.000000;3.484148
1327.000000;3.663101
1326.000000;3.861628
1325.000000;3.468642
1324.000000;3.238605
1323.000000;3.191951
1322.000000;3.222046
1321.000000;3.278778
1320.000000;3.309976
1319.000000;3.371835
1318.000000;3.551283
1317.000000;3.609612
1316.000000;3.453612
1315.000000;3.614221
1314.000000;4.213173
1313.000000;3.556810
1312.000000;3.316485
1311.000000;3.264970
1310.000000;3.350594
1309.000000;3.608498
1308.000000;3.868908
1307.000000;3.859853
1306.000000;3.651944
1305.000000;3.436740
1304.000000;3.353981
1303.000000;3.340422
1302.000000;3.305686
1301.000000;3.256378
1300.000000;3.270010
1299.000000;3.432671
1298.000000;3.765692
1297.000000;3.692624
1296.000000;3.498307
1295.000000;3.390318
1294.000000;3.346583
1293.000000;3.393751
1292.000000;3.396826
1291.000000;3.295966
1290.000000;3.241435
1289.000000;3.192310
1288.000000;3.088168
1287.000000;3.030162
1286.000000;3.065907
1285.000000;3.209611
1284.000000;3.545652
1283.000000;3.688681
1282.000000;3.494962
1281.000000;3.454211
1280.000000;3.233362
1279.000000;3.088196
1278.000000;3.082355
1277.000000;3.177776
1276.000000;3.500500
1275.000000;3.751265
1274.000000;3.356228
1273.000000;3.204989
1272.000000;3.249918
1271.000000;3.423099
1270.000000;3.689822
1269.000000;3.817612
1268.000000;3.968801
1267.000000;4.312869
1266.000000;3.812639
1265.000000;3.678192
1264.000000;3.679577
1263.000000;3.622512
1262.000000;3.563296
1261.000000;3.545293
1260.000000;3.489516
1259.000000;3.484956
1258.000000;3.669203
1257.000000;3.647433
1256.000000;3.409162
1255.000000;3.410162
1254.000000;3.525817
1253.000000;3.574188
1252.000000;3.506265
1251.000000;3.421291
1250.000000;3.430308
1249.000000;3.459097
1248.000000;3.477738
1247.000000;3.660276
1246.000000;4.079720
1245.000000;3.952845
1244.000000;3.482547
1243.000000;3.258887
1242.000000;3.234632
1241.000000;3.354975
1240.000000;3.458066
1239.000000;3.624156
1238.000000;4.318911
1237.000000;4.157840
1236.000000;4.795413
1235.000000;3.526928
1234.000000;3.179731
1233.000000;3.020274
1232.000000;2.997564
1231.000000;3.113801
1230.000000;3.357601
1229.000000;3.690489
1228.000000;3.872369
1227.000000;3.679094
1226.000000;3.456896
1225.000000;3.304819
1224.000000;3.283419
1223.000000;3.398317
1222.000000;3.458250
1221.000000;3.371736
1220.000000;3.345554
1219.000000;3.408053
1218.000000;3.548430
1217.000000;3.703762
1216.000000;3.868322
1215.000000;3.919014
1214.000000;3.329389
1213.000000;3.087561
1212.000000;3.070153
1211.000000;3.204359
1210.000000;3.381729
1209.000000;3.373691
1208.000000;3.269341
1207.000000;3.264752
1206.000000;3.545192
1205.000000;4.102618
1204.000000;3.482001
1203.000000;3.425610
1202.000000;3.601457
1201.000000;3.960143
1200.000000;8.000000
