Criado como novo conjunto de dados;"1909daniel.spp","-4227821.0 Secs"
cm-1;Abs
10000.000000;1.521639
9999.000000;1.519589
9998.000000;1.517550
9997.000000;1.515519
9996.000000;1.513499
9995.000000;1.511485
9994.000000;1.509487
9993.000000;1.507485
9992.000000;1.505517
9991.000000;1.503515
9990.000000;1.501605
9989.000000;1.499420
9988.000000;1.497462
9987.000000;1.496902
9986.000000;1.497792
9985.000000;1.499086
9984.000000;1.499264
9983.000000;1.497876
9982.000000;1.495867
9981.000000;1.494315
9980.000000;1.493135
9979.000000;1.491513
9978.000000;1.489377
9977.000000;1.487801
9976.000000;1.487804
9975.000000;1.489177
9974.000000;1.490716
9973.000000;1.491379
9972.000000;1.491006
9971.000000;1.490145
9970.000000;1.489482
9969.000000;1.489418
9968.000000;1.489894
9967.000000;1.490443
9966.000000;1.490447
9965.000000;1.489510
9964.000000;1.487736
9963.000000;1.485702
9962.000000;1.483998
9961.000000;1.482673
9960.000000;1.481225
9959.000000;1.479358
9958.000000;1.477694
9957.000000;1.477339
9956.000000;1.478628
9955.000000;1.480551
9954.000000;1.481667
9953.000000;1.481470
9952.000000;1.480611
9951.000000;1.479879
9950.000000;1.479268
9949.000000;1.478156
9948.000000;1.476162
9947.000000;1.473592
9946.000000;1.471112
9945.000000;1.469155
9944.000000;1.467707
9943.000000;1.466543
9942.000000;1.465514
9941.000000;1.464633
9940.000000;1.464026
9939.000000;1.463859
9938.000000;1.464253
9937.000000;1.465139
9936.000000;1.466172
9935.000000;1.466799
9934.000000;1.466513
9933.000000;1.465162
9932.000000;1.463163
9931.000000;1.461394
9930.000000;1.460570
9929.000000;1.460465
9928.000000;1.459906
9927.000000;1.457945
9926.000000;1.455121
9925.000000;1.453220
9924.000000;1.453615
9923.000000;1.455938
9922.000000;1.458414
9921.000000;1.459396
9920.000000;1.458544
9919.000000;1.456714
9918.000000;1.455012
9917.000000;1.453933
9916.000000;1.453153
9915.000000;1.451975
9914.000000;1.450040
9913.000000;1.447632
9912.000000;1.445385
9911.000000;1.443759
9910.000000;1.442845
9909.000000;1.442513
9908.000000;1.442622
9907.000000;1.443047
9906.000000;1.443528
9905.000000;1.443580
9904.000000;1.442695
9903.000000;1.440863
9902.000000;1.438849
9901.000000;1.437646
9900.000000;1.437519
9899.000000;1.437798
9898.000000;1.437824
9897.000000;1.437783
9896.000000;1.438183
9895.000000;1.438721
9894.000000;1.438315
9893.000000;1.436480
9892.000000;1.434121
9891.000000;1.432574
9890.000000;1.432133
9889.000000;1.431877
9888.000000;1.430834
9887.000000;1.429009
9886.000000;1.427290
9885.000000;1.426610
9884.000000;1.427176
9883.000000;1.428237
9882.000000;1.428664
9881.000000;1.428055
9880.000000;1.427158
9879.000000;1.426964
9878.000000;1.427464
9877.000000;1.427684
9876.000000;1.426985
9875.000000;1.425786
9874.000000;1.424804
9873.000000;1.424062
9872.000000;1.423087
9871.000000;1.421760
9870.000000;1.420421
9869.000000;1.419283
9868.000000;1.418339
9867.000000;1.417824
9866.000000;1.418111
9865.000000;1.418948
9864.000000;1.419366
9863.000000;1.418761
9862.000000;1.417701
9861.000000;1.417136
9860.000000;1.417128
9859.000000;1.416887
9858.000000;1.415844
9857.000000;1.414127
9856.000000;1.411959
9855.000000;1.409279
9854.000000;1.406334
9853.000000;1.404177
9852.000000;1.403973
9851.000000;1.405794
9850.000000;1.408313
9849.000000;1.409756
9848.000000;1.409156
9847.000000;1.406823
9846.000000;1.403880
9845.000000;1.401517
9844.000000;1.400431
9843.000000;1.400583
9842.000000;1.401300
9841.000000;1.401731
9840.000000;1.401423
9839.000000;1.400583
9838.000000;1.399784
9837.000000;1.399381
9836.000000;1.399253
9835.000000;1.399107
9834.000000;1.398853
9833.000000;1.398569
9832.000000;1.398261
9831.000000;1.397958
9830.000000;1.397909
9829.000000;1.398299
9828.000000;1.398666
9827.000000;1.397995
9826.000000;1.395728
9825.000000;1.392564
9824.000000;1.389961
9823.000000;1.388823
9822.000000;1.388810
9821.000000;1.388820
9820.000000;1.388031
9819.000000;1.386538
9818.000000;1.385181
9817.000000;1.384749
9816.000000;1.385257
9815.000000;1.386053
9814.000000;1.386543
9813.000000;1.386546
9812.000000;1.385872
9811.000000;1.384135
9810.000000;1.381473
9809.000000;1.379103
9808.000000;1.378423
9807.000000;1.379498
9806.000000;1.380969
9805.000000;1.381554
9804.000000;1.381138
9803.000000;1.380235
9802.000000;1.379114
9801.000000;1.377934
9800.000000;1.377099
9799.000000;1.376736
9798.000000;1.376170
9797.000000;1.374645
9796.000000;1.372537
9795.000000;1.371191
9794.000000;1.371459
9793.000000;1.372794
9792.000000;1.373834
9791.000000;1.373518
9790.000000;1.371609
9789.000000;1.368681
9788.000000;1.365844
9787.000000;1.364133
9786.000000;1.363803
9785.000000;1.364259
9784.000000;1.364691
9783.000000;1.364616
9782.000000;1.363857
9781.000000;1.362472
9780.000000;1.360940
9779.000000;1.360052
9778.000000;1.360199
9777.000000;1.360829
9776.000000;1.360859
9775.000000;1.359647
9774.000000;1.357514
9773.000000;1.355424
9772.000000;1.354303
9771.000000;1.354437
9770.000000;1.355288
9769.000000;1.355925
9768.000000;1.355822
9767.000000;1.355195
9766.000000;1.354548
9765.000000;1.354083
9764.000000;1.353673
9763.000000;1.353218
9762.000000;1.352821
9761.000000;1.352710
9760.000000;1.353082
9759.000000;1.353826
9758.000000;1.354271
9757.000000;1.353484
9756.000000;1.351211
9755.000000;1.348387
9754.000000;1.346388
9753.000000;1.345827
9752.000000;1.346254
9751.000000;1.346896
9750.000000;1.347388
9749.000000;1.347725
9748.000000;1.347768
9747.000000;1.347062
9746.000000;1.345262
9745.000000;1.342750
9744.000000;1.340623
9743.000000;1.339787
9742.000000;1.339977
9741.000000;1.339964
9740.000000;1.338893
9739.000000;1.337140
9738.000000;1.335640
9737.000000;1.334783
9736.000000;1.334351
9735.000000;1.334159
9734.000000;1.334096
9733.000000;1.333769
9732.000000;1.332814
9731.000000;1.331651
9730.000000;1.331286
9729.000000;1.332162
9728.000000;1.333661
9727.000000;1.334895
9726.000000;1.335483
9725.000000;1.335268
9724.000000;1.333861
9723.000000;1.331059
9722.000000;1.327470
9721.000000;1.324265
9720.000000;1.322399
9719.000000;1.322204
9718.000000;1.323382
9717.000000;1.325016
9716.000000;1.325854
9715.000000;1.325123
9714.000000;1.323190
9713.000000;1.321137
9712.000000;1.319723
9711.000000;1.318938
9710.000000;1.318403
9709.000000;1.317875
9708.000000;1.317336
9707.000000;1.316892
9706.000000;1.316682
9705.000000;1.316720
9704.000000;1.316752
9703.000000;1.316412
9702.000000;1.315559
9701.000000;1.314414
9700.000000;1.313385
9699.000000;1.312848
9698.000000;1.313026
9697.000000;1.313838
9696.000000;1.314775
9695.000000;1.315048
9694.000000;1.314099
9693.000000;1.312147
9692.000000;1.310223
9691.000000;1.309416
9690.000000;1.309804
9689.000000;1.310157
9688.000000;1.308973
9687.000000;1.305995
9686.000000;1.302540
9685.000000;1.300233
9684.000000;1.299609
9683.000000;1.299991
9682.000000;1.300401
9681.000000;1.300309
9680.000000;1.299734
9679.000000;1.298983
9678.000000;1.298366
9677.000000;1.297957
9676.000000;1.297592
9675.000000;1.297127
9674.000000;1.296600
9673.000000;1.296036
9672.000000;1.295281
9671.000000;1.294273
9670.000000;1.293298
9669.000000;1.292703
9668.000000;1.292459
9667.000000;1.292312
9666.000000;1.292204
9665.000000;1.292164
9664.000000;1.291842
9663.000000;1.290695
9662.000000;1.288801
9661.000000;1.286998
9660.000000;1.285950
9659.000000;1.285452
9658.000000;1.284944
9657.000000;1.284354
9656.000000;1.284067
9655.000000;1.284243
9654.000000;1.284539
9653.000000;1.284486
9652.000000;1.283872
9651.000000;1.282782
9650.000000;1.281507
9649.000000;1.280433
9648.000000;1.279788
9647.000000;1.279442
9646.000000;1.279097
9645.000000;1.278619
9644.000000;1.278015
9643.000000;1.277263
9642.000000;1.276500
9641.000000;1.276275
9640.000000;1.277128
9639.000000;1.278717
9638.000000;1.279739
9637.000000;1.279094
9636.000000;1.276994
9635.000000;1.274689
9634.000000;1.273197
9633.000000;1.272550
9632.000000;1.272149
9631.000000;1.271529
9630.000000;1.270650
9629.000000;1.269647
9628.000000;1.268563
9627.000000;1.267431
9626.000000;1.266554
9625.000000;1.266464
9624.000000;1.267324
9623.000000;1.268467
9622.000000;1.268813
9621.000000;1.267874
9620.000000;1.266200
9619.000000;1.264719
9618.000000;1.263826
9617.000000;1.263268
9616.000000;1.262696
9615.000000;1.262031
9614.000000;1.261334
9613.000000;1.260618
9612.000000;1.259907
9611.000000;1.259317
9610.000000;1.258987
9609.000000;1.259015
9608.000000;1.259405
9607.000000;1.259915
9606.000000;1.260011
9605.000000;1.259268
9604.000000;1.257956
9603.000000;1.256956
9602.000000;1.256852
9601.000000;1.257200
9600.000000;1.256919
9599.000000;1.255420
9598.000000;1.253164
9597.000000;1.251095
9596.000000;1.249687
9595.000000;1.248648
9594.000000;1.247469
9593.000000;1.246127
9592.000000;1.245119
9591.000000;1.244772
9590.000000;1.244708
9589.000000;1.244252
9588.000000;1.243409
9587.000000;1.243093
9586.000000;1.244119
9585.000000;1.246119
9584.000000;1.247783
9583.000000;1.248101
9582.000000;1.247144
9581.000000;1.245652
9580.000000;1.244192
9579.000000;1.242855
9578.000000;1.241422
9577.000000;1.239625
9576.000000;1.237482
9575.000000;1.235571
9574.000000;1.234723
9573.000000;1.235137
9572.000000;1.235938
9571.000000;1.235999
9570.000000;1.235183
9569.000000;1.234421
9568.000000;1.234444
9567.000000;1.234831
9566.000000;1.234606
9565.000000;1.233500
9564.000000;1.232183
9563.000000;1.231313
9562.000000;1.230849
9561.000000;1.230436
9560.000000;1.230036
9559.000000;1.229795
9558.000000;1.229495
9557.000000;1.228663
9556.000000;1.227333
9555.000000;1.226241
9554.000000;1.225982
9553.000000;1.226214
9552.000000;1.226020
9551.000000;1.224987
9550.000000;1.223618
9549.000000;1.222644
9548.000000;1.222244
9547.000000;1.222060
9546.000000;1.221713
9545.000000;1.221094
9544.000000;1.220279
9543.000000;1.219419
9542.000000;1.218685
9541.000000;1.218089
9540.000000;1.217329
9539.000000;1.216033
9538.000000;1.214314
9537.000000;1.212930
9536.000000;1.212623
9535.000000;1.213344
9534.000000;1.214279
9533.000000;1.214660
9532.000000;1.214363
9531.000000;1.213686
9530.000000;1.212807
9529.000000;1.211726
9528.000000;1.210624
9527.000000;1.209935
9526.000000;1.209923
9525.000000;1.210312
9524.000000;1.210453
9523.000000;1.209883
9522.000000;1.208738
9521.000000;1.207661
9520.000000;1.207258
9519.000000;1.207537
9518.000000;1.207854
9517.000000;1.207542
9516.000000;1.206588
9515.000000;1.205583
9514.000000;1.205023
9513.000000;1.204818
9512.000000;1.204517
9511.000000;1.203863
9510.000000;1.203009
9509.000000;1.202269
9508.000000;1.201772
9507.000000;1.201375
9506.000000;1.200902
9505.000000;1.200386
9504.000000;1.199934
9503.000000;1.199361
9502.000000;1.198244
9501.000000;1.196565
9500.000000;1.195081
9499.000000;1.194626
9498.000000;1.195110
9497.000000;1.195595
9496.000000;1.195395
9495.000000;1.194714
9494.000000;1.194106
9493.000000;1.193765
9492.000000;1.193576
9491.000000;1.193425
9490.000000;1.193158
9489.000000;1.192581
9488.000000;1.191846
9487.000000;1.191508
9486.000000;1.191839
9485.000000;1.192315
9484.000000;1.192142
9483.000000;1.191072
9482.000000;1.189393
9481.000000;1.187489
9480.000000;1.185898
9479.000000;1.185411
9478.000000;1.186336
9477.000000;1.187724
9476.000000;1.188068
9475.000000;1.186952
9474.000000;1.185414
9473.000000;1.184535
9472.000000;1.184288
9471.000000;1.184003
9470.000000;1.183399
9469.000000;1.182710
9468.000000;1.182115
9467.000000;1.181502
9466.000000;1.180754
9465.000000;1.179946
9464.000000;1.179238
9463.000000;1.178663
9462.000000;1.178001
9461.000000;1.176934
9460.000000;1.175504
9459.000000;1.174337
9458.000000;1.174062
9457.000000;1.174522
9456.000000;1.174925
9455.000000;1.174804
9454.000000;1.174398
9453.000000;1.173951
9452.000000;1.173246
9451.000000;1.172124
9450.000000;1.171005
9449.000000;1.170419
9448.000000;1.170298
9447.000000;1.170171
9446.000000;1.169840
9445.000000;1.169465
9444.000000;1.169105
9443.000000;1.168614
9442.000000;1.167950
9441.000000;1.167231
9440.000000;1.166468
9439.000000;1.165536
9438.000000;1.164514
9437.000000;1.163828
9436.000000;1.163948
9435.000000;1.164951
9434.000000;1.166316
9433.000000;1.167130
9432.000000;1.166680
9431.000000;1.165019
9430.000000;1.162874
9429.000000;1.160966
9428.000000;1.159577
9427.000000;1.158783
9426.000000;1.158726
9425.000000;1.159370
9424.000000;1.160211
9423.000000;1.160568
9422.000000;1.160084
9421.000000;1.158731
9420.000000;1.156530
9419.000000;1.153661
9418.000000;1.150792
9417.000000;1.148875
9416.000000;1.148449
9415.000000;1.149271
9414.000000;1.150621
9413.000000;1.151838
9412.000000;1.152585
9411.000000;1.152811
9410.000000;1.152628
9409.000000;1.152213
9408.000000;1.151754
9407.000000;1.151392
9406.000000;1.151052
9405.000000;1.150391
9404.000000;1.149155
9403.000000;1.147681
9402.000000;1.146772
9401.000000;1.146878
9400.000000;1.147562
9399.000000;1.148022
9398.000000;1.147962
9397.000000;1.147650
9396.000000;1.147207
9395.000000;1.146310
9394.000000;1.144712
9393.000000;1.142754
9392.000000;1.141155
9391.000000;1.140409
9390.000000;1.140470
9389.000000;1.140968
9388.000000;1.141584
9387.000000;1.142208
9386.000000;1.142771
9385.000000;1.143075
9384.000000;1.142955
9383.000000;1.142519
9382.000000;1.142004
9381.000000;1.141332
9380.000000;1.140070
9379.000000;1.137977
9378.000000;1.135465
9377.000000;1.133389
9376.000000;1.132523
9375.000000;1.133208
9374.000000;1.135118
9373.000000;1.137151
9372.000000;1.137932
9371.000000;1.136929
9370.000000;1.134962
9369.000000;1.133316
9368.000000;1.132474
9367.000000;1.131993
9366.000000;1.131415
9365.000000;1.130883
9364.000000;1.130790
9363.000000;1.131157
9362.000000;1.131501
9361.000000;1.131214
9360.000000;1.130087
9359.000000;1.128581
9358.000000;1.127527
9357.000000;1.127346
9356.000000;1.127645
9355.000000;1.127722
9354.000000;1.127361
9353.000000;1.126856
9352.000000;1.126339
9351.000000;1.125460
9350.000000;1.123834
9349.000000;1.121651
9348.000000;1.119710
9347.000000;1.118912
9346.000000;1.119595
9345.000000;1.121177
9344.000000;1.122494
9343.000000;1.122749
9342.000000;1.122176
9341.000000;1.121615
9340.000000;1.121504
9339.000000;1.121528
9338.000000;1.121229
9337.000000;1.120614
9336.000000;1.120045
9335.000000;1.119688
9334.000000;1.119235
9333.000000;1.118201
9332.000000;1.116529
9331.000000;1.114857
9330.000000;1.114029
9329.000000;1.114259
9328.000000;1.114983
9327.000000;1.115577
9326.000000;1.115957
9325.000000;1.116295
9324.000000;1.116488
9323.000000;1.116332
9322.000000;1.115952
9321.000000;1.115576
9320.000000;1.115003
9319.000000;1.113821
9318.000000;1.112140
9317.000000;1.110642
9316.000000;1.109794
9315.000000;1.109422
9314.000000;1.109164
9313.000000;1.108977
9312.000000;1.108991
9311.000000;1.109157
9310.000000;1.109225
9309.000000;1.108900
9308.000000;1.107917
9307.000000;1.106249
9306.000000;1.104377
9305.000000;1.103160
9304.000000;1.103176
9303.000000;1.104201
9302.000000;1.105381
9301.000000;1.105877
9300.000000;1.105407
9299.000000;1.104350
9298.000000;1.103352
9297.000000;1.102711
9296.000000;1.102132
9295.000000;1.101174
9294.000000;1.099852
9293.000000;1.098652
9292.000000;1.098121
9291.000000;1.098597
9290.000000;1.100081
9289.000000;1.101955
9288.000000;1.103001
9287.000000;1.102307
9286.000000;1.100253
9285.000000;1.098174
9284.000000;1.097004
9283.000000;1.096663
9282.000000;1.096663
9281.000000;1.096669
9280.000000;1.096412
9279.000000;1.095736
9278.000000;1.095083
9277.000000;1.095293
9276.000000;1.096456
9275.000000;1.097403
9274.000000;1.096874
9273.000000;1.094995
9272.000000;1.093076
9271.000000;1.092103
9270.000000;1.091928
9269.000000;1.091853
9268.000000;1.091466
9267.000000;1.090832
9266.000000;1.090257
9265.000000;1.090019
9264.000000;1.090141
9263.000000;1.090305
9262.000000;1.090122
9261.000000;1.089551
9260.000000;1.088919
9259.000000;1.088530
9258.000000;1.088344
9257.000000;1.088071
9256.000000;1.087496
9255.000000;1.086693
9254.000000;1.085935
9253.000000;1.085412
9252.000000;1.085130
9251.000000;1.085125
9250.000000;1.085591
9249.000000;1.086527
9248.000000;1.087292
9247.000000;1.086967
9246.000000;1.085370
9245.000000;1.083443
9244.000000;1.082378
9243.000000;1.082490
9242.000000;1.083109
9241.000000;1.083407
9240.000000;1.083123
9239.000000;1.082555
9238.000000;1.082130
9237.000000;1.081975
9236.000000;1.081858
9235.000000;1.081575
9234.000000;1.081321
9233.000000;1.081414
9232.000000;1.081661
9231.000000;1.081314
9230.000000;1.079907
9229.000000;1.077921
9228.000000;1.076400
9227.000000;1.076074
9226.000000;1.076947
9225.000000;1.078391
9224.000000;1.079423
9223.000000;1.079238
9222.000000;1.077930
9221.000000;1.076568
9220.000000;1.076170
9219.000000;1.076632
9218.000000;1.076921
9217.000000;1.076258
9216.000000;1.074855
9215.000000;1.073543
9214.000000;1.073039
9213.000000;1.073587
9212.000000;1.074899
9211.000000;1.076243
9210.000000;1.076820
9209.000000;1.076310
9208.000000;1.075061
9207.000000;1.073698
9206.000000;1.072626
9205.000000;1.071883
9204.000000;1.071312
9203.000000;1.070751
9202.000000;1.070088
9201.000000;1.069246
9200.000000;1.068229
9199.000000;1.067283
9198.000000;1.066890
9197.000000;1.067368
9196.000000;1.068372
9195.000000;1.069040
9194.000000;1.068803
9193.000000;1.067910
9192.000000;1.066982
9191.000000;1.066300
9190.000000;1.065766
9189.000000;1.065341
9188.000000;1.065088
9187.000000;1.064881
9186.000000;1.064527
9185.000000;1.064235
9184.000000;1.064518
9183.000000;1.065422
9182.000000;1.066178
9181.000000;1.065914
9180.000000;1.064583
9179.000000;1.062938
9178.000000;1.061717
9177.000000;1.061087
9176.000000;1.060856
9175.000000;1.060932
9174.000000;1.061397
9173.000000;1.062172
9172.000000;1.062810
9171.000000;1.062773
9170.000000;1.061952
9169.000000;1.060796
9168.000000;1.059900
9167.000000;1.059582
9166.000000;1.059852
9165.000000;1.060540
9164.000000;1.061241
9163.000000;1.061357
9162.000000;1.060572
9161.000000;1.059291
9160.000000;1.058294
9159.000000;1.057888
9158.000000;1.057693
9157.000000;1.057366
9156.000000;1.057171
9155.000000;1.057520
9154.000000;1.058190
9153.000000;1.058391
9152.000000;1.057640
9151.000000;1.056265
9150.000000;1.054978
9149.000000;1.054202
9148.000000;1.053922
9147.000000;1.053937
9146.000000;1.054010
9145.000000;1.053880
9144.000000;1.053404
9143.000000;1.052789
9142.000000;1.052521
9141.000000;1.052919
9140.000000;1.053785
9139.000000;1.054574
9138.000000;1.054883
9137.000000;1.054723
9136.000000;1.054322
9135.000000;1.053775
9134.000000;1.052966
9133.000000;1.051830
9132.000000;1.050632
9131.000000;1.049914
9130.000000;1.050032
9129.000000;1.050696
9128.000000;1.051043
9127.000000;1.050391
9126.000000;1.048973
9125.000000;1.047814
9124.000000;1.047764
9123.000000;1.048653
9122.000000;1.049461
9121.000000;1.049281
9120.000000;1.048067
9119.000000;1.046528
9118.000000;1.045453
9117.000000;1.045200
9116.000000;1.045644
9115.000000;1.046384
9114.000000;1.046983
9113.000000;1.047164
9112.000000;1.046940
9111.000000;1.046528
9110.000000;1.046067
9109.000000;1.045482
9108.000000;1.044714
9107.000000;1.043989
9106.000000;1.043686
9105.000000;1.043915
9104.000000;1.044362
9103.000000;1.044587
9102.000000;1.044357
9101.000000;1.043710
9100.000000;1.042892
9099.000000;1.042331
9098.000000;1.042420
9097.000000;1.043091
9096.000000;1.043704
9095.000000;1.043622
9094.000000;1.042890
9093.000000;1.042173
9092.000000;1.042014
9091.000000;1.042318
9090.000000;1.042533
9089.000000;1.042168
9088.000000;1.041165
9087.000000;1.039930
9086.000000;1.039049
9085.000000;1.038830
9084.000000;1.039049
9083.000000;1.039227
9082.000000;1.039157
9081.000000;1.039015
9080.000000;1.038955
9079.000000;1.038795
9078.000000;1.038247
9077.000000;1.037344
9076.000000;1.036504
9075.000000;1.036121
9074.000000;1.036143
9073.000000;1.036099
9072.000000;1.035625
9071.000000;1.034975
9070.000000;1.034853
9069.000000;1.035608
9068.000000;1.036723
9067.000000;1.037273
9066.000000;1.036829
9065.000000;1.035751
9064.000000;1.034705
9063.000000;1.034120
9062.000000;1.034045
9061.000000;1.034193
9060.000000;1.034073
9059.000000;1.033362
9058.000000;1.032284
9057.000000;1.031417
9056.000000;1.031059
9055.000000;1.030949
9054.000000;1.030690
9053.000000;1.030224
9052.000000;1.029788
9051.000000;1.029585
9050.000000;1.029684
9049.000000;1.030085
9048.000000;1.030734
9047.000000;1.031504
9046.000000;1.032262
9045.000000;1.032882
9044.000000;1.033185
9043.000000;1.033037
9042.000000;1.032556
9041.000000;1.032096
9040.000000;1.031884
9039.000000;1.031768
9038.000000;1.031382
9037.000000;1.030482
9036.000000;1.029133
9035.000000;1.027696
9034.000000;1.026673
9033.000000;1.026375
9032.000000;1.026650
9031.000000;1.027052
9030.000000;1.027270
9029.000000;1.027252
9028.000000;1.026986
9027.000000;1.026419
9026.000000;1.025681
9025.000000;1.025084
9024.000000;1.024765
9023.000000;1.024555
9022.000000;1.024313
9021.000000;1.024122
9020.000000;1.024012
9019.000000;1.023798
9018.000000;1.023457
9017.000000;1.023403
9016.000000;1.023995
9015.000000;1.024884
9014.000000;1.025182
9013.000000;1.024370
9012.000000;1.022894
9011.000000;1.021819
9010.000000;1.021967
9009.000000;1.023238
9008.000000;1.024555
9007.000000;1.024645
9006.000000;1.023138
9005.000000;1.020881
9004.000000;1.019063
9003.000000;1.018213
9002.000000;1.018188
9001.000000;1.018811
9000.000000;1.020075
8999.000000;1.021750
8998.000000;1.023253
8997.000000;1.024092
8996.000000;1.024215
8995.000000;1.023803
8994.000000;1.022961
8993.000000;1.021778
8992.000000;1.020515
8991.000000;1.019565
8990.000000;1.019224
8989.000000;1.019525
8988.000000;1.020140
8987.000000;1.020466
8986.000000;1.020019
8985.000000;1.018925
8984.000000;1.017899
8983.000000;1.017583
8982.000000;1.017926
8981.000000;1.018309
8980.000000;1.018193
8979.000000;1.017577
8978.000000;1.016898
8977.000000;1.016671
8976.000000;1.017197
8975.000000;1.018369
8974.000000;1.019641
8973.000000;1.020301
8972.000000;1.020004
8971.000000;1.019040
8970.000000;1.017991
8969.000000;1.017165
8968.000000;1.016506
8967.000000;1.015977
8966.000000;1.015755
8965.000000;1.015948
8964.000000;1.016374
8963.000000;1.016774
8962.000000;1.017085
8961.000000;1.017291
8960.000000;1.017198
8959.000000;1.016636
8958.000000;1.015800
8957.000000;1.015088
8956.000000;1.014675
8955.000000;1.014498
8954.000000;1.014583
8953.000000;1.015008
8952.000000;1.015512
8951.000000;1.015565
8950.000000;1.015006
8949.000000;1.014301
8948.000000;1.014006
8947.000000;1.014221
8946.000000;1.014709
8945.000000;1.015216
8944.000000;1.015479
8943.000000;1.015204
8942.000000;1.014350
8941.000000;1.013299
8940.000000;1.012515
8939.000000;1.012176
8938.000000;1.012262
8937.000000;1.012728
8936.000000;1.013336
8935.000000;1.013586
8934.000000;1.013163
8933.000000;1.012317
8932.000000;1.011535
8931.000000;1.010994
8930.000000;1.010613
8929.000000;1.010410
8928.000000;1.010419
8927.000000;1.010394
8926.000000;1.010056
8925.000000;1.009622
8924.000000;1.009630
8923.000000;1.010196
8922.000000;1.010822
8921.000000;1.011055
8920.000000;1.010976
8919.000000;1.010861
8918.000000;1.010713
8917.000000;1.010353
8916.000000;1.009744
8915.000000;1.009013
8914.000000;1.008311
8913.000000;1.007857
8912.000000;1.007942
8911.000000;1.008646
8910.000000;1.009652
8909.000000;1.010516
8908.000000;1.011057
8907.000000;1.011319
8906.000000;1.011280
8905.000000;1.010839
8904.000000;1.010075
8903.000000;1.009297
8902.000000;1.008743
8901.000000;1.008376
8900.000000;1.008075
8899.000000;1.007902
8898.000000;1.008023
8897.000000;1.008377
8896.000000;1.008588
8895.000000;1.008305
8894.000000;1.007582
8893.000000;1.006868
8892.000000;1.006596
8891.000000;1.006825
8890.000000;1.007257
8889.000000;1.007518
8888.000000;1.007422
8887.000000;1.007048
8886.000000;1.006620
8885.000000;1.006299
8884.000000;1.006077
8883.000000;1.005875
8882.000000;1.005718
8881.000000;1.005707
8880.000000;1.005851
8879.000000;1.006021
8878.000000;1.006108
8877.000000;1.006130
8876.000000;1.006137
8875.000000;1.006111
8874.000000;1.005996
8873.000000;1.005735
8872.000000;1.005265
8871.000000;1.004594
8870.000000;1.003964
8869.000000;1.003774
8868.000000;1.004201
8867.000000;1.004956
8866.000000;1.005506
8865.000000;1.005496
8864.000000;1.004908
8863.000000;1.004006
8862.000000;1.003259
8861.000000;1.003169
8860.000000;1.003894
8859.000000;1.005019
8858.000000;1.005884
8857.000000;1.006140
8856.000000;1.005917
8855.000000;1.005517
8854.000000;1.005161
8853.000000;1.004997
8852.000000;1.005115
8851.000000;1.005423
8850.000000;1.005628
8849.000000;1.005439
8848.000000;1.004839
8847.000000;1.004131
8846.000000;1.003740
8845.000000;1.003883
8844.000000;1.004369
8843.000000;1.004752
8842.000000;1.004749
8841.000000;1.004453
8840.000000;1.004133
8839.000000;1.003949
8838.000000;1.003919
8837.000000;1.004012
8836.000000;1.004110
8835.000000;1.004030
8834.000000;1.003801
8833.000000;1.003767
8832.000000;1.004169
8831.000000;1.004714
8830.000000;1.004868
8829.000000;1.004589
8828.000000;1.004412
8827.000000;1.004747
8826.000000;1.005368
8825.000000;1.005755
8824.000000;1.005676
8823.000000;1.005247
8822.000000;1.004660
8821.000000;1.004096
8820.000000;1.003793
8819.000000;1.003909
8818.000000;1.004362
8817.000000;1.004955
8816.000000;1.005610
8815.000000;1.006262
8814.000000;1.006595
8813.000000;1.006203
8812.000000;1.005125
8811.000000;1.003997
8810.000000;1.003504
8809.000000;1.003780
8808.000000;1.004459
8807.000000;1.005142
8806.000000;1.005630
8805.000000;1.005791
8804.000000;1.005548
8803.000000;1.005090
8802.000000;1.004887
8801.000000;1.005269
8800.000000;1.006052
8799.000000;1.006728
8798.000000;1.006975
8797.000000;1.006784
8796.000000;1.006183
8795.000000;1.005153
8794.000000;1.003954
8793.000000;1.003239
8792.000000;1.003533
8791.000000;1.004634
8790.000000;1.005780
8789.000000;1.006397
8788.000000;1.006526
8787.000000;1.006473
8786.000000;1.006328
8785.000000;1.005980
8784.000000;1.005449
8783.000000;1.004971
8782.000000;1.004810
8781.000000;1.005102
8780.000000;1.005812
8779.000000;1.006705
8778.000000;1.007395
8777.000000;1.007604
8776.000000;1.007385
8775.000000;1.006990
8774.000000;1.006559
8773.000000;1.006120
8772.000000;1.005842
8771.000000;1.005988
8770.000000;1.006452
8769.000000;1.006633
8768.000000;1.006059
8767.000000;1.005054
8766.000000;1.004495
8765.000000;1.004934
8764.000000;1.006148
8763.000000;1.007549
8762.000000;1.008780
8761.000000;1.009803
8760.000000;1.010651
8759.000000;1.011293
8758.000000;1.011687
8757.000000;1.011788
8756.000000;1.011570
8755.000000;1.011093
8754.000000;1.010483
8753.000000;1.009806
8752.000000;1.009074
8751.000000;1.008456
8750.000000;1.008250
8749.000000;1.008505
8748.000000;1.008835
8747.000000;1.008837
8746.000000;1.008578
8745.000000;1.008443
8744.000000;1.008583
8743.000000;1.008792
8742.000000;1.008885
8741.000000;1.008924
8740.000000;1.009005
8739.000000;1.009080
8738.000000;1.009093
8737.000000;1.009148
8736.000000;1.009440
8735.000000;1.010064
8734.000000;1.010886
8733.000000;1.011511
8732.000000;1.011484
8731.000000;1.010759
8730.000000;1.009917
8729.000000;1.009629
8728.000000;1.009873
8727.000000;1.009967
8726.000000;1.009473
8725.000000;1.008753
8724.000000;1.008475
8723.000000;1.008817
8722.000000;1.009440
8721.000000;1.010040
8720.000000;1.010604
8719.000000;1.011175
8718.000000;1.011645
8717.000000;1.011869
8716.000000;1.011830
8715.000000;1.011629
8714.000000;1.011388
8713.000000;1.011184
8712.000000;1.011028
8711.000000;1.010903
8710.000000;1.010833
8709.000000;1.010904
8708.000000;1.011200
8707.000000;1.011755
8706.000000;1.012539
8705.000000;1.013404
8704.000000;1.014075
8703.000000;1.014333
8702.000000;1.014244
8701.000000;1.014051
8700.000000;1.013846
8699.000000;1.013526
8698.000000;1.013128
8697.000000;1.012962
8696.000000;1.013246
8695.000000;1.013750
8694.000000;1.014011
8693.000000;1.013846
8692.000000;1.013530
8691.000000;1.013459
8690.000000;1.013743
8689.000000;1.014081
8688.000000;1.014002
8687.000000;1.013365
8686.000000;1.012661
8685.000000;1.012629
8684.000000;1.013455
8683.000000;1.014515
8682.000000;1.015053
8681.000000;1.014934
8680.000000;1.014560
8679.000000;1.014212
8678.000000;1.013811
8677.000000;1.013298
8676.000000;1.012912
8675.000000;1.013011
8674.000000;1.013754
8673.000000;1.014993
8672.000000;1.016350
8671.000000;1.017375
8670.000000;1.017799
8669.000000;1.017703
8668.000000;1.017373
8667.000000;1.016973
8666.000000;1.016468
8665.000000;1.015860
8664.000000;1.015342
8663.000000;1.015147
8662.000000;1.015277
8661.000000;1.015448
8660.000000;1.015285
8659.000000;1.014636
8658.000000;1.013747
8657.000000;1.013076
8656.000000;1.012908
8655.000000;1.013194
8654.000000;1.013781
8653.000000;1.014602
8652.000000;1.015518
8651.000000;1.016134
8650.000000;1.016063
8649.000000;1.015369
8648.000000;1.014512
8647.000000;1.013855
8646.000000;1.013405
8645.000000;1.013043
8644.000000;1.012803
8643.000000;1.012843
8642.000000;1.013267
8641.000000;1.014014
8640.000000;1.014820
8639.000000;1.015265
8638.000000;1.015060
8637.000000;1.014391
8636.000000;1.013801
8635.000000;1.013628
8634.000000;1.013734
8633.000000;1.013861
8632.000000;1.014043
8631.000000;1.014409
8630.000000;1.014745
8629.000000;1.014583
8628.000000;1.013803
8627.000000;1.012922
8626.000000;1.012666
8625.000000;1.013306
8624.000000;1.014455
8623.000000;1.015408
8622.000000;1.015693
8621.000000;1.015399
8620.000000;1.014995
8619.000000;1.014788
8618.000000;1.014616
8617.000000;1.014166
8616.000000;1.013460
8615.000000;1.012831
8614.000000;1.012462
8613.000000;1.012209
8612.000000;1.011985
8611.000000;1.012019
8610.000000;1.012502
8609.000000;1.013197
8608.000000;1.013671
8607.000000;1.013845
8606.000000;1.014005
8605.000000;1.014312
8604.000000;1.014612
8603.000000;1.014750
8602.000000;1.014750
8601.000000;1.014594
8600.000000;1.014120
8599.000000;1.013357
8598.000000;1.012710
8597.000000;1.012598
8596.000000;1.012994
8595.000000;1.013504
8594.000000;1.013778
8593.000000;1.013700
8592.000000;1.013333
8591.000000;1.012874
8590.000000;1.012574
8589.000000;1.012536
8588.000000;1.012640
8587.000000;1.012760
8586.000000;1.012906
8585.000000;1.013044
8584.000000;1.013020
8583.000000;1.012880
8582.000000;1.013003
8581.000000;1.013566
8580.000000;1.014071
8579.000000;1.013805
8578.000000;1.012735
8577.000000;1.011550
8576.000000;1.010841
8575.000000;1.010657
8574.000000;1.010827
8573.000000;1.011248
8572.000000;1.011720
8571.000000;1.011941
8570.000000;1.011907
8569.000000;1.011983
8568.000000;1.012384
8567.000000;1.012881
8566.000000;1.013186
8565.000000;1.013327
8564.000000;1.013415
8563.000000;1.013352
8562.000000;1.013078
8561.000000;1.012800
8560.000000;1.012653
8559.000000;1.012371
8558.000000;1.011675
8557.000000;1.010842
8556.000000;1.010479
8555.000000;1.010771
8554.000000;1.011301
8553.000000;1.011609
8552.000000;1.011616
8551.000000;1.011448
8550.000000;1.011152
8549.000000;1.010743
8548.000000;1.010366
8547.000000;1.010236
8546.000000;1.010415
8545.000000;1.010693
8544.000000;1.010696
8543.000000;1.010223
8542.000000;1.009519
8541.000000;1.009092
8540.000000;1.009159
8539.000000;1.009410
8538.000000;1.009429
8537.000000;1.009184
8536.000000;1.008930
8535.000000;1.008799
8534.000000;1.008752
8533.000000;1.008849
8532.000000;1.009237
8531.000000;1.009854
8530.000000;1.010387
8529.000000;1.010615
8528.000000;1.010614
8527.000000;1.010561
8526.000000;1.010486
8525.000000;1.010293
8524.000000;1.009930
8523.000000;1.009498
8522.000000;1.009200
8521.000000;1.009171
8520.000000;1.009330
8519.000000;1.009450
8518.000000;1.009424
8517.000000;1.009374
8516.000000;1.009423
8515.000000;1.009513
8514.000000;1.009564
8513.000000;1.009649
8512.000000;1.009829
8511.000000;1.009937
8510.000000;1.009774
8509.000000;1.009412
8508.000000;1.009069
8507.000000;1.008749
8506.000000;1.008309
8505.000000;1.007827
8504.000000;1.007585
8503.000000;1.007639
8502.000000;1.007726
8501.000000;1.007698
8500.000000;1.007789
8499.000000;1.008256
8498.000000;1.008948
8497.000000;1.009434
8496.000000;1.009471
8495.000000;1.009215
8494.000000;1.008990
8493.000000;1.008969
8492.000000;1.009061
8491.000000;1.009066
8490.000000;1.008925
8489.000000;1.008766
8488.000000;1.008668
8487.000000;1.008500
8486.000000;1.008116
8485.000000;1.007630
8484.000000;1.007310
8483.000000;1.007253
8482.000000;1.007360
8481.000000;1.007560
8480.000000;1.007816
8479.000000;1.007943
8478.000000;1.007736
8477.000000;1.007315
8476.000000;1.007022
8475.000000;1.006912
8474.000000;1.006669
8473.000000;1.006163
8472.000000;1.005773
8471.000000;1.005902
8470.000000;1.006470
8469.000000;1.007129
8468.000000;1.007728
8467.000000;1.008268
8466.000000;1.008583
8465.000000;1.008489
8464.000000;1.008148
8463.000000;1.007936
8462.000000;1.007945
8461.000000;1.007933
8460.000000;1.007748
8459.000000;1.007477
8458.000000;1.007145
8457.000000;1.006616
8456.000000;1.005924
8455.000000;1.005435
8454.000000;1.005477
8453.000000;1.006008
8452.000000;1.006759
8451.000000;1.007492
8450.000000;1.007958
8449.000000;1.007807
8448.000000;1.006904
8447.000000;1.005677
8446.000000;1.004881
8445.000000;1.004903
8444.000000;1.005458
8443.000000;1.006003
8442.000000;1.006346
8441.000000;1.006704
8440.000000;1.007232
8439.000000;1.007672
8438.000000;1.007603
8437.000000;1.006984
8436.000000;1.006292
8435.000000;1.005995
8434.000000;1.006007
8433.000000;1.005865
8432.000000;1.005376
8431.000000;1.004877
8430.000000;1.004778
8429.000000;1.005066
8428.000000;1.005395
8427.000000;1.005491
8426.000000;1.005298
8425.000000;1.004882
8424.000000;1.004413
8423.000000;1.004199
8422.000000;1.004478
8421.000000;1.005125
8420.000000;1.005724
8419.000000;1.005949
8418.000000;1.005777
8417.000000;1.005375
8416.000000;1.004956
8415.000000;1.004776
8414.000000;1.005008
8413.000000;1.005474
8412.000000;1.005667
8411.000000;1.005209
8410.000000;1.004264
8409.000000;1.003408
8408.000000;1.003133
8407.000000;1.003491
8406.000000;1.004154
8405.000000;1.004702
8404.000000;1.004900
8403.000000;1.004797
8402.000000;1.004588
8401.000000;1.004412
8400.000000;1.004322
8399.000000;1.004399
8398.000000;1.004724
8397.000000;1.005186
8396.000000;1.005505
8395.000000;1.005543
8394.000000;1.005487
8393.000000;1.005596
8392.000000;1.005888
8391.000000;1.006168
8390.000000;1.006251
8389.000000;1.006036
8388.000000;1.005502
8387.000000;1.004818
8386.000000;1.004359
8385.000000;1.004387
8384.000000;1.004731
8383.000000;1.004968
8382.000000;1.004890
8381.000000;1.004651
8380.000000;1.004479
8379.000000;1.004422
8378.000000;1.004400
8377.000000;1.004287
8376.000000;1.003948
8375.000000;1.003380
8374.000000;1.002869
8373.000000;1.002807
8372.000000;1.003265
8371.000000;1.003920
8370.000000;1.004454
8369.000000;1.004851
8368.000000;1.005171
8367.000000;1.005239
8366.000000;1.004801
8365.000000;1.003918
8364.000000;1.003015
8363.000000;1.002529
8362.000000;1.002574
8361.000000;1.002934
8360.000000;1.003267
8359.000000;1.003360
8358.000000;1.003256
8357.000000;1.003150
8356.000000;1.003138
8355.000000;1.003141
8354.000000;1.003097
8353.000000;1.003102
8352.000000;1.003233
8351.000000;1.003328
8350.000000;1.003137
8349.000000;1.002680
8348.000000;1.002300
8347.000000;1.002296
8346.000000;1.002650
8345.000000;1.003170
8344.000000;1.003754
8343.000000;1.004392
8342.000000;1.004965
8341.000000;1.005235
8340.000000;1.005051
8339.000000;1.004486
8338.000000;1.003737
8337.000000;1.002982
8336.000000;1.002380
8335.000000;1.002092
8334.000000;1.002167
8333.000000;1.002415
8332.000000;1.002530
8331.000000;1.002383
8330.000000;1.002136
8329.000000;1.002075
8328.000000;1.002362
8327.000000;1.002923
8326.000000;1.003469
8325.000000;1.003660
8324.000000;1.003401
8323.000000;1.002986
8322.000000;1.002813
8321.000000;1.002913
8320.000000;1.002955
8319.000000;1.002742
8318.000000;1.002479
8317.000000;1.002379
8316.000000;1.002289
8315.000000;1.001970
8314.000000;1.001561
8313.000000;1.001412
8312.000000;1.001544
8311.000000;1.001629
8310.000000;1.001503
8309.000000;1.001363
8308.000000;1.001389
8307.000000;1.001488
8306.000000;1.001535
8305.000000;1.001599
8304.000000;1.001766
8303.000000;1.001959
8302.000000;1.002089
8301.000000;1.002216
8300.000000;1.002388
8299.000000;1.002479
8298.000000;1.002351
8297.000000;1.002055
8296.000000;1.001732
8295.000000;1.001428
8294.000000;1.001161
8293.000000;1.001035
8292.000000;1.001112
8291.000000;1.001254
8290.000000;1.001255
8289.000000;1.001120
8288.000000;1.001055
8287.000000;1.001171
8286.000000;1.001329
8285.000000;1.001292
8284.000000;1.000983
8283.000000;1.000611
8282.000000;1.000556
8281.000000;1.000997
8280.000000;1.001602
8279.000000;1.001724
8278.000000;1.001043
8277.000000;0.999965
8276.000000;0.999237
8275.000000;0.999212
8274.000000;0.999598
8273.000000;0.999846
8272.000000;0.999699
8271.000000;0.999357
8270.000000;0.999225
8269.000000;0.999493
8268.000000;0.999954
8267.000000;1.000264
8266.000000;1.000358
8265.000000;1.000474
8264.000000;1.000751
8263.000000;1.001030
8262.000000;1.001172
8261.000000;1.001310
8260.000000;1.001581
8259.000000;1.001773
8258.000000;1.001581
8257.000000;1.001123
8256.000000;1.000878
8255.000000;1.001046
8254.000000;1.001267
8253.000000;1.001078
8252.000000;1.000439
8251.000000;0.999682
8250.000000;0.999110
8249.000000;0.998798
8248.000000;0.998679
8247.000000;0.998678
8246.000000;0.998773
8245.000000;0.999010
8244.000000;0.999442
8243.000000;1.000022
8242.000000;1.000617
8241.000000;1.001115
8240.000000;1.001444
8239.000000;1.001496
8238.000000;1.001158
8237.000000;1.000511
8236.000000;0.999883
8235.000000;0.999600
8234.000000;0.999703
8233.000000;0.999967
8232.000000;1.000155
8231.000000;1.000179
8230.000000;1.000077
8229.000000;0.999915
8228.000000;0.999755
8227.000000;0.999673
8226.000000;0.999749
8225.000000;0.999992
8224.000000;1.000270
8223.000000;1.000352
8222.000000;1.000123
8221.000000;0.999739
8220.000000;0.999483
8219.000000;0.999468
8218.000000;0.999572
8217.000000;0.999657
8216.000000;0.999722
8215.000000;0.999783
8214.000000;0.999736
8213.000000;0.999459
8212.000000;0.998974
8211.000000;0.998428
8210.000000;0.997943
8209.000000;0.997598
8208.000000;0.997503
8207.000000;0.997705
8206.000000;0.998037
8205.000000;0.998244
8204.000000;0.998291
8203.000000;0.998424
8202.000000;0.998799
8201.000000;0.999197
8200.000000;0.999226
8199.000000;0.998807
8198.000000;0.998311
8197.000000;0.998187
8196.000000;0.998538
8195.000000;0.999054
8194.000000;0.999329
8193.000000;0.999229
8192.000000;0.999006
8191.000000;0.999033
8190.000000;0.999429
8189.000000;0.999952
8188.000000;1.000255
8187.000000;1.000203
8186.000000;0.999886
8185.000000;0.999429
8184.000000;0.998907
8183.000000;0.998406
8182.000000;0.998016
8181.000000;0.997760
8180.000000;0.997631
8179.000000;0.997680
8178.000000;0.997943
8177.000000;0.998264
8176.000000;0.998380
8175.000000;0.998223
8174.000000;0.998009
8173.000000;0.997957
8172.000000;0.998081
8171.000000;0.998308
8170.000000;0.998630
8169.000000;0.999014
8168.000000;0.999309
8167.000000;0.999409
8166.000000;0.999387
8165.000000;0.999315
8164.000000;0.999081
8163.000000;0.998585
8162.000000;0.998014
8161.000000;0.997710
8160.000000;0.997794
8159.000000;0.998125
8158.000000;0.998548
8157.000000;0.998962
8156.000000;0.999163
8155.000000;0.998895
8154.000000;0.998154
8153.000000;0.997268
8152.000000;0.996592
8151.000000;0.996285
8150.000000;0.996367
8149.000000;0.996788
8148.000000;0.997345
8147.000000;0.997717
8146.000000;0.997744
8145.000000;0.997576
8144.000000;0.997443
8143.000000;0.997404
8142.000000;0.997395
8141.000000;0.997393
8140.000000;0.997416
8139.000000;0.997439
8138.000000;0.997405
8137.000000;0.997285
8136.000000;0.997063
8135.000000;0.996746
8134.000000;0.996462
8133.000000;0.996434
8132.000000;0.996750
8131.000000;0.997201
8130.000000;0.997459
8129.000000;0.997399
8128.000000;0.997208
8127.000000;0.997199
8126.000000;0.997512
8125.000000;0.997970
8124.000000;0.998217
8123.000000;0.998060
8122.000000;0.997674
8121.000000;0.997407
8120.000000;0.997409
8119.000000;0.997553
8118.000000;0.997690
8117.000000;0.997788
8116.000000;0.997803
8115.000000;0.997642
8114.000000;0.997348
8113.000000;0.997140
8112.000000;0.997129
8111.000000;0.997137
8110.000000;0.996934
8109.000000;0.996561
8108.000000;0.996274
8107.000000;0.996269
8106.000000;0.996551
8105.000000;0.996973
8104.000000;0.997288
8103.000000;0.997277
8102.000000;0.996975
8101.000000;0.996681
8100.000000;0.996612
8099.000000;0.996624
8098.000000;0.996444
8097.000000;0.996081
8096.000000;0.995806
8095.000000;0.995753
8094.000000;0.995768
8093.000000;0.995689
8092.000000;0.995590
8091.000000;0.995643
8090.000000;0.995852
8089.000000;0.996052
8088.000000;0.996125
8087.000000;0.996128
8086.000000;0.996175
8085.000000;0.996250
8084.000000;0.996183
8083.000000;0.995878
8082.000000;0.995502
8081.000000;0.995355
8080.000000;0.995526
8079.000000;0.995812
8078.000000;0.996012
8077.000000;0.996175
8076.000000;0.996455
8075.000000;0.996850
8074.000000;0.997204
8073.000000;0.997408
8072.000000;0.997451
8071.000000;0.997335
8070.000000;0.997103
8069.000000;0.996888
8068.000000;0.996798
8067.000000;0.996776
8066.000000;0.996702
8065.000000;0.996590
8064.000000;0.996502
8063.000000;0.996319
8062.000000;0.995820
8061.000000;0.995074
8060.000000;0.994546
8059.000000;0.994657
8058.000000;0.995334
8057.000000;0.996114
8056.000000;0.996618
8055.000000;0.996806
8054.000000;0.996819
8053.000000;0.996740
8052.000000;0.996573
8051.000000;0.996362
8050.000000;0.996214
8049.000000;0.996186
8048.000000;0.996195
8047.000000;0.996091
8046.000000;0.995819
8045.000000;0.995472
8044.000000;0.995201
8043.000000;0.995119
8042.000000;0.995271
8041.000000;0.995617
8040.000000;0.996001
8039.000000;0.996204
8038.000000;0.996146
8037.000000;0.996003
8036.000000;0.996065
8035.000000;0.996430
8034.000000;0.996881
8033.000000;0.997073
8032.000000;0.996834
8031.000000;0.996310
8030.000000;0.995844
8029.000000;0.995718
8028.000000;0.995965
8027.000000;0.996387
8026.000000;0.996733
8025.000000;0.996859
8024.000000;0.996784
8023.000000;0.996657
8022.000000;0.996658
8021.000000;0.996822
8020.000000;0.996941
8019.000000;0.996729
8018.000000;0.996170
8017.000000;0.995608
8016.000000;0.995414
8015.000000;0.995607
8014.000000;0.995876
8013.000000;0.995949
8012.000000;0.995872
8011.000000;0.995934
8010.000000;0.996356
8009.000000;0.997047
8008.000000;0.997649
8007.000000;0.997847
8006.000000;0.997634
8005.000000;0.997252
8004.000000;0.996895
8003.000000;0.996583
8002.000000;0.996307
8001.000000;0.996133
8000.000000;0.996083
7999.000000;0.996042
7998.000000;0.995900
7997.000000;0.995715
7996.000000;0.995631
7995.000000;0.995680
7994.000000;0.995768
7993.000000;0.995794
7992.000000;0.995697
7991.000000;0.995482
7990.000000;0.995318
7989.000000;0.995506
7988.000000;0.996149
7987.000000;0.996903
7986.000000;0.997245
7985.000000;0.997036
7984.000000;0.996640
7983.000000;0.996464
7982.000000;0.996572
7981.000000;0.996801
7980.000000;0.997069
7979.000000;0.997392
7978.000000;0.997686
7977.000000;0.997729
7976.000000;0.997355
7975.000000;0.996630
7974.000000;0.995841
7973.000000;0.995334
7972.000000;0.995316
7971.000000;0.995705
7970.000000;0.996182
7969.000000;0.996452
7968.000000;0.996490
7967.000000;0.996499
7966.000000;0.996639
7965.000000;0.996825
7964.000000;0.996836
7963.000000;0.996595
7962.000000;0.996295
7961.000000;0.996200
7960.000000;0.996371
7959.000000;0.996637
7958.000000;0.996812
7957.000000;0.996866
7956.000000;0.996864
7955.000000;0.996825
7954.000000;0.996731
7953.000000;0.996602
7952.000000;0.996521
7951.000000;0.996570
7950.000000;0.996796
7949.000000;0.997186
7948.000000;0.997612
7947.000000;0.997857
7946.000000;0.997789
7945.000000;0.997519
7944.000000;0.997322
7943.000000;0.997385
7942.000000;0.997659
7941.000000;0.997925
7940.000000;0.997963
7939.000000;0.997704
7938.000000;0.997286
7937.000000;0.996946
7936.000000;0.996814
7935.000000;0.996835
7934.000000;0.996924
7933.000000;0.997130
7932.000000;0.997526
7931.000000;0.998008
7930.000000;0.998335
7929.000000;0.998374
7928.000000;0.998193
7927.000000;0.997904
7926.000000;0.997550
7925.000000;0.997184
7924.000000;0.996930
7923.000000;0.996883
7922.000000;0.997022
7921.000000;0.997277
7920.000000;0.997625
7919.000000;0.998042
7918.000000;0.998408
7917.000000;0.998581
7916.000000;0.998544
7915.000000;0.998446
7914.000000;0.998447
7913.000000;0.998533
7912.000000;0.998493
7911.000000;0.998127
7910.000000;0.997500
7909.000000;0.996957
7908.000000;0.996804
7907.000000;0.996998
7906.000000;0.997226
7905.000000;0.997313
7904.000000;0.997421
7903.000000;0.997784
7902.000000;0.998352
7901.000000;0.998823
7900.000000;0.998992
7899.000000;0.998966
7898.000000;0.998987
7897.000000;0.999126
7896.000000;0.999222
7895.000000;0.999094
7894.000000;0.998764
7893.000000;0.998440
7892.000000;0.998297
7891.000000;0.998318
7890.000000;0.998362
7889.000000;0.998346
7888.000000;0.998301
7887.000000;0.998295
7886.000000;0.998363
7885.000000;0.998518
7884.000000;0.998731
7883.000000;0.998917
7882.000000;0.999009
7881.000000;0.999094
7880.000000;0.999354
7879.000000;0.999796
7878.000000;1.000143
7877.000000;1.000125
7876.000000;0.999828
7875.000000;0.999606
7874.000000;0.999655
7873.000000;0.999828
7872.000000;0.999908
7871.000000;0.999890
7870.000000;0.999889
7869.000000;0.999901
7868.000000;0.999820
7867.000000;0.999654
7866.000000;0.999547
7865.000000;0.999556
7864.000000;0.999560
7863.000000;0.999443
7862.000000;0.999283
7861.000000;0.999288
7860.000000;0.999581
7859.000000;1.000124
7858.000000;1.000774
7857.000000;1.001358
7856.000000;1.001722
7855.000000;1.001800
7854.000000;1.001665
7853.000000;1.001453
7852.000000;1.001228
7851.000000;1.000928
7850.000000;1.000491
7849.000000;1.000007
7848.000000;0.999717
7847.000000;0.999837
7846.000000;1.000326
7845.000000;1.000867
7844.000000;1.001133
7843.000000;1.001092
7842.000000;1.000988
7841.000000;1.001027
7840.000000;1.001168
7839.000000;1.001252
7838.000000;1.001234
7837.000000;1.001167
7836.000000;1.001051
7835.000000;1.000860
7834.000000;1.000721
7833.000000;1.000877
7832.000000;1.001375
7831.000000;1.001883
7830.000000;1.001955
7829.000000;1.001485
7828.000000;1.000844
7827.000000;1.000550
7826.000000;1.000803
7825.000000;1.001349
7824.000000;1.001775
7823.000000;1.001927
7822.000000;1.001994
7821.000000;1.002199
7820.000000;1.002492
7819.000000;1.002609
7818.000000;1.002391
7817.000000;1.001943
7816.000000;1.001498
7815.000000;1.001232
7814.000000;1.001208
7813.000000;1.001411
7812.000000;1.001791
7811.000000;1.002285
7810.000000;1.002811
7809.000000;1.003190
7808.000000;1.003194
7807.000000;1.002796
7806.000000;1.002328
7805.000000;1.002218
7804.000000;1.002524
7803.000000;1.002887
7802.000000;1.002979
7801.000000;1.002841
7800.000000;1.002702
7799.000000;1.002638
7798.000000;1.002570
7797.000000;1.002494
7796.000000;1.002521
7795.000000;1.002684
7794.000000;1.002861
7793.000000;1.002906
7792.000000;1.002790
7791.000000;1.002640
7790.000000;1.002676
7789.000000;1.003069
7788.000000;1.003765
7787.000000;1.004476
7786.000000;1.004924
7785.000000;1.005096
7784.000000;1.005177
7783.000000;1.005285
7782.000000;1.005381
7781.000000;1.005409
7780.000000;1.005391
7779.000000;1.005372
7778.000000;1.005363
7777.000000;1.005378
7776.000000;1.005433
7775.000000;1.005471
7774.000000;1.005400
7773.000000;1.005276
7772.000000;1.005344
7771.000000;1.005793
7770.000000;1.006465
7769.000000;1.006936
7768.000000;1.006918
7767.000000;1.006524
7766.000000;1.006108
7765.000000;1.005894
7764.000000;1.005833
7763.000000;1.005790
7762.000000;1.005756
7761.000000;1.005827
7760.000000;1.006037
7759.000000;1.006295
7758.000000;1.006485
7757.000000;1.006573
7756.000000;1.006607
7755.000000;1.006651
7754.000000;1.006745
7753.000000;1.006910
7752.000000;1.007162
7751.000000;1.007523
7750.000000;1.007982
7749.000000;1.008428
7748.000000;1.008670
7747.000000;1.008598
7746.000000;1.008307
7745.000000;1.008009
7744.000000;1.007830
7743.000000;1.007749
7742.000000;1.007720
7741.000000;1.007734
7740.000000;1.007770
7739.000000;1.007766
7738.000000;1.007701
7737.000000;1.007627
7736.000000;1.007602
7735.000000;1.007656
7734.000000;1.007813
7733.000000;1.008069
7732.000000;1.008321
7731.000000;1.008437
7730.000000;1.008434
7729.000000;1.008472
7728.000000;1.008608
7727.000000;1.008675
7726.000000;1.008524
7725.000000;1.008273
7724.000000;1.008208
7723.000000;1.008471
7722.000000;1.008946
7721.000000;1.009396
7720.000000;1.009648
7719.000000;1.009665
7718.000000;1.009558
7717.000000;1.009500
7716.000000;1.009573
7715.000000;1.009720
7714.000000;1.009879
7713.000000;1.010092
7712.000000;1.010408
7711.000000;1.010748
7710.000000;1.010985
7709.000000;1.011125
7708.000000;1.011286
7707.000000;1.011512
7706.000000;1.011710
7705.000000;1.011768
7704.000000;1.011671
7703.000000;1.011488
7702.000000;1.011312
7701.000000;1.011206
7700.000000;1.011172
7699.000000;1.011165
7698.000000;1.011183
7697.000000;1.011270
7696.000000;1.011400
7695.000000;1.011443
7694.000000;1.011321
7693.000000;1.011166
7692.000000;1.011185
7691.000000;1.011418
7690.000000;1.011732
7689.000000;1.012013
7688.000000;1.012252
7687.000000;1.012475
7686.000000;1.012710
7685.000000;1.013030
7684.000000;1.013485
7683.000000;1.013951
7682.000000;1.014182
7681.000000;1.014064
7680.000000;1.013738
7679.000000;1.013452
7678.000000;1.013369
7677.000000;1.013539
7676.000000;1.013932
7675.000000;1.014394
7674.000000;1.014666
7673.000000;1.014579
7672.000000;1.014241
7671.000000;1.013979
7670.000000;1.014055
7669.000000;1.014453
7668.000000;1.014909
7667.000000;1.015161
7666.000000;1.015169
7665.000000;1.015108
7664.000000;1.015162
7663.000000;1.015341
7662.000000;1.015543
7661.000000;1.015720
7660.000000;1.015907
7659.000000;1.016100
7658.000000;1.016190
7657.000000;1.016062
7656.000000;1.015761
7655.000000;1.015526
7654.000000;1.015639
7653.000000;1.016199
7652.000000;1.017008
7651.000000;1.017715
7650.000000;1.018117
7649.000000;1.018267
7648.000000;1.018298
7647.000000;1.018214
7646.000000;1.017951
7645.000000;1.017553
7644.000000;1.017194
7643.000000;1.017063
7642.000000;1.017275
7641.000000;1.017839
7640.000000;1.018592
7639.000000;1.019231
7638.000000;1.019569
7637.000000;1.019738
7636.000000;1.019990
7635.000000;1.020332
7634.000000;1.020525
7633.000000;1.020469
7632.000000;1.020385
7631.000000;1.020526
7630.000000;1.020860
7629.000000;1.021142
7628.000000;1.021216
7627.000000;1.021136
7626.000000;1.021074
7625.000000;1.021203
7624.000000;1.021575
7623.000000;1.022012
7622.000000;1.022193
7621.000000;1.021979
7620.000000;1.021619
7619.000000;1.021515
7618.000000;1.021811
7617.000000;1.022311
7616.000000;1.022766
7615.000000;1.023125
7614.000000;1.023474
7613.000000;1.023841
7612.000000;1.024126
7611.000000;1.024220
7610.000000;1.024128
7609.000000;1.023977
7608.000000;1.023914
7607.000000;1.024009
7606.000000;1.024243
7605.000000;1.024582
7604.000000;1.025013
7603.000000;1.025502
7602.000000;1.025959
7601.000000;1.026270
7600.000000;1.026373
7599.000000;1.026277
7598.000000;1.026056
7597.000000;1.025838
7596.000000;1.025753
7595.000000;1.025856
7594.000000;1.026109
7593.000000;1.026453
7592.000000;1.026854
7591.000000;1.027292
7590.000000;1.027726
7589.000000;1.028114
7588.000000;1.028449
7587.000000;1.028746
7586.000000;1.029015
7585.000000;1.029263
7584.000000;1.029505
7583.000000;1.029774
7582.000000;1.030082
7581.000000;1.030381
7580.000000;1.030534
7579.000000;1.030395
7578.000000;1.029999
7577.000000;1.029644
7576.000000;1.029675
7575.000000;1.030138
7574.000000;1.030729
7573.000000;1.031135
7572.000000;1.031345
7571.000000;1.031554
7570.000000;1.031868
7569.000000;1.032208
7568.000000;1.032473
7567.000000;1.032664
7566.000000;1.032828
7565.000000;1.032973
7564.000000;1.033094
7563.000000;1.033207
7562.000000;1.033333
7561.000000;1.033506
7560.000000;1.033807
7559.000000;1.034322
7558.000000;1.035007
7557.000000;1.035651
7556.000000;1.036052
7555.000000;1.036226
7554.000000;1.036369
7553.000000;1.036605
7552.000000;1.036846
7551.000000;1.036929
7550.000000;1.036824
7549.000000;1.036686
7548.000000;1.036721
7547.000000;1.037052
7546.000000;1.037676
7545.000000;1.038474
7544.000000;1.039248
7543.000000;1.039817
7542.000000;1.040127
7541.000000;1.040239
7540.000000;1.040235
7539.000000;1.040151
7538.000000;1.040038
7537.000000;1.040002
7536.000000;1.040146
7535.000000;1.040487
7534.000000;1.040955
7533.000000;1.041449
7532.000000;1.041874
7531.000000;1.042162
7530.000000;1.042313
7529.000000;1.042399
7528.000000;1.042489
7527.000000;1.042599
7526.000000;1.042728
7525.000000;1.042930
7524.000000;1.043279
7523.000000;1.043776
7522.000000;1.044337
7521.000000;1.044861
7520.000000;1.045296
7519.000000;1.045639
7518.000000;1.045936
7517.000000;1.046259
7516.000000;1.046643
7515.000000;1.047055
7514.000000;1.047449
7513.000000;1.047836
7512.000000;1.048241
7511.000000;1.048613
7510.000000;1.048834
7509.000000;1.048863
7508.000000;1.048813
7507.000000;1.048872
7506.000000;1.049138
7505.000000;1.049526
7504.000000;1.049840
7503.000000;1.049947
7502.000000;1.049914
7501.000000;1.049945
7500.000000;1.050166
7499.000000;1.050514
7498.000000;1.050869
7497.000000;1.051236
7496.000000;1.051706
7495.000000;1.052289
7494.000000;1.052876
7493.000000;1.053372
7492.000000;1.053781
7491.000000;1.054142
7490.000000;1.054357
7489.000000;1.054516
7488.000000;1.054589
7487.000000;1.054682
7486.000000;1.054905
7485.000000;1.055244
7484.000000;1.055541
7483.000000;1.055639
7482.000000;1.055582
7481.000000;1.055614
7480.000000;1.055938
7479.000000;1.056500
7478.000000;1.057076
7477.000000;1.057512
7476.000000;1.057814
7475.000000;1.058033
7474.000000;1.058211
7473.000000;1.058434
7472.000000;1.058822
7471.000000;1.059411
7470.000000;1.060097
7469.000000;1.060724
7468.000000;1.061203
7467.000000;1.061544
7466.000000;1.061835
7465.000000;1.062195
7464.000000;1.062666
7463.000000;1.063125
7462.000000;1.063382
7461.000000;1.063386
7460.000000;1.063299
7459.000000;1.063359
7458.000000;1.063690
7457.000000;1.064221
7456.000000;1.064745
7455.000000;1.065062
7454.000000;1.065136
7453.000000;1.065123
7452.000000;1.065196
7451.000000;1.065365
7450.000000;1.065539
7449.000000;1.065713
7448.000000;1.065999
7447.000000;1.066473
7446.000000;1.067076
7445.000000;1.067688
7444.000000;1.068200
7443.000000;1.068545
7442.000000;1.068729
7441.000000;1.068858
7440.000000;1.069039
7439.000000;1.069244
7438.000000;1.069384
7437.000000;1.069493
7436.000000;1.069730
7435.000000;1.070159
7434.000000;1.070637
7433.000000;1.070990
7432.000000;1.071223
7431.000000;1.071496
7430.000000;1.071944
7429.000000;1.072531
7428.000000;1.073058
7427.000000;1.073319
7426.000000;1.073311
7425.000000;1.073250
7424.000000;1.073319
7423.000000;1.073444
7422.000000;1.073436
7421.000000;1.073324
7420.000000;1.073378
7419.000000;1.073749
7418.000000;1.074241
7417.000000;1.074540
7416.000000;1.074569
7415.000000;1.074542
7414.000000;1.074727
7413.000000;1.075196
7412.000000;1.075773
7411.000000;1.076185
7410.000000;1.076311
7409.000000;1.076267
7408.000000;1.076197
7407.000000;1.076106
7406.000000;1.075997
7405.000000;1.076076
7404.000000;1.076597
7403.000000;1.077506
7402.000000;1.078398
7401.000000;1.078875
7400.000000;1.078848
7399.000000;1.078533
7398.000000;1.078311
7397.000000;1.078471
7396.000000;1.078916
7395.000000;1.079188
7394.000000;1.079007
7393.000000;1.078621
7392.000000;1.078434
7391.000000;1.078473
7390.000000;1.078515
7389.000000;1.078587
7388.000000;1.078923
7387.000000;1.079454
7386.000000;1.079797
7385.000000;1.079773
7384.000000;1.079455
7383.000000;1.078738
7382.000000;1.077477
7381.000000;1.076181
7380.000000;1.075848
7379.000000;1.076613
7378.000000;1.077223
7377.000000;1.076541
7376.000000;1.075093
7375.000000;1.074523
7374.000000;1.075687
7373.000000;1.077821
7372.000000;1.079553
7371.000000;1.080121
7370.000000;1.079650
7369.000000;1.078891
7368.000000;1.078762
7367.000000;1.079601
7366.000000;1.080882
7365.000000;1.081931
7364.000000;1.082647
7363.000000;1.083241
7362.000000;1.083673
7361.000000;1.083806
7360.000000;1.083849
7359.000000;1.083994
7358.000000;1.083795
7357.000000;1.082719
7356.000000;1.081267
7355.000000;1.080753
7354.000000;1.081767
7353.000000;1.083484
7352.000000;1.084696
7351.000000;1.084875
7350.000000;1.084167
7349.000000;1.083040
7348.000000;1.082152
7347.000000;1.081892
7346.000000;1.081872
7345.000000;1.081401
7344.000000;1.080338
7343.000000;1.078843
7342.000000;1.076595
7341.000000;1.073392
7340.000000;1.070548
7339.000000;1.070315
7338.000000;1.073213
7337.000000;1.077203
7336.000000;1.080173
7335.000000;1.082054
7334.000000;1.083989
7333.000000;1.086371
7332.000000;1.088509
7331.000000;1.089570
7330.000000;1.089148
7329.000000;1.087501
7328.000000;1.085888
7327.000000;1.085879
7326.000000;1.087494
7325.000000;1.088918
7324.000000;1.088910
7323.000000;1.088403
7322.000000;1.088984
7321.000000;1.090668
7320.000000;1.092215
7319.000000;1.093165
7318.000000;1.094316
7317.000000;1.096300
7316.000000;1.098704
7315.000000;1.100723
7314.000000;1.101852
7313.000000;1.101936
7312.000000;1.101314
7311.000000;1.100875
7310.000000;1.101097
7309.000000;1.101167
7308.000000;1.100096
7307.000000;1.098542
7306.000000;1.098379
7305.000000;1.100244
7304.000000;1.102609
7303.000000;1.103828
7302.000000;1.103929
7301.000000;1.103954
7300.000000;1.104551
7299.000000;1.105742
7298.000000;1.107272
7297.000000;1.108446
7296.000000;1.108397
7295.000000;1.107252
7294.000000;1.106518
7293.000000;1.107525
7292.000000;1.109702
7291.000000;1.111351
7290.000000;1.111839
7289.000000;1.112023
7288.000000;1.112871
7287.000000;1.114503
7286.000000;1.116540
7285.000000;1.118730
7284.000000;1.120969
7283.000000;1.123127
7282.000000;1.125101
7281.000000;1.126883
7280.000000;1.128432
7279.000000;1.129617
7278.000000;1.130428
7277.000000;1.131046
7276.000000;1.131639
7275.000000;1.132264
7274.000000;1.132988
7273.000000;1.133966
7272.000000;1.135322
7271.000000;1.136954
7270.000000;1.138524
7269.000000;1.139745
7268.000000;1.140673
7267.000000;1.141605
7266.000000;1.142618
7265.000000;1.143320
7264.000000;1.143325
7263.000000;1.142981
7262.000000;1.143273
7261.000000;1.144831
7260.000000;1.147230
7259.000000;1.149506
7258.000000;1.151100
7257.000000;1.152042
7256.000000;1.152465
7255.000000;1.152408
7254.000000;1.152163
7253.000000;1.152416
7252.000000;1.153753
7251.000000;1.156088
7250.000000;1.158741
7249.000000;1.161046
7248.000000;1.162717
7247.000000;1.163669
7246.000000;1.163550
7245.000000;1.161821
7244.000000;1.158719
7243.000000;1.155943
7242.000000;1.155683
7241.000000;1.158507
7240.000000;1.162737
7239.000000;1.166379
7238.000000;1.168945
7237.000000;1.170934
7236.000000;1.172256
7235.000000;1.171952
7234.000000;1.169635
7233.000000;1.166817
7232.000000;1.166261
7231.000000;1.169535
7230.000000;1.175250
7229.000000;1.180350
7228.000000;1.183062
7227.000000;1.184152
7226.000000;1.185548
7225.000000;1.188273
7224.000000;1.191858
7223.000000;1.195310
7222.000000;1.198163
7221.000000;1.200660
7220.000000;1.203398
7219.000000;1.206843
7218.000000;1.210813
7217.000000;1.214433
7216.000000;1.216947
7215.000000;1.218563
7214.000000;1.220245
7213.000000;1.222651
7212.000000;1.225567
7211.000000;1.228517
7210.000000;1.231490
7209.000000;1.234663
7208.000000;1.237693
7207.000000;1.239836
7206.000000;1.240811
7205.000000;1.241314
7204.000000;1.242615
7203.000000;1.245564
7202.000000;1.249863
7201.000000;1.254362
7200.000000;1.258104
7199.000000;1.261090
7198.000000;1.263900
7197.000000;1.266771
7196.000000;1.269430
7195.000000;1.271873
7194.000000;1.274746
7193.000000;1.278532
7192.000000;1.282791
7191.000000;1.286688
7190.000000;1.289971
7189.000000;1.292928
7188.000000;1.295700
7187.000000;1.298258
7186.000000;1.300815
7185.000000;1.303504
7184.000000;1.305690
7183.000000;1.306482
7182.000000;1.306232
7181.000000;1.306744
7180.000000;1.309372
7179.000000;1.313516
7178.000000;1.317629
7177.000000;1.321076
7176.000000;1.324359
7175.000000;1.328002
7174.000000;1.331950
7173.000000;1.335880
7172.000000;1.339496
7171.000000;1.342481
7170.000000;1.344684
7169.000000;1.346444
7168.000000;1.348402
7167.000000;1.350965
7166.000000;1.354038
7165.000000;1.357149
7164.000000;1.359567
7163.000000;1.360695
7162.000000;1.360911
7161.000000;1.361782
7160.000000;1.364779
7159.000000;1.369663
7158.000000;1.374782
7157.000000;1.379020
7156.000000;1.382762
7155.000000;1.386826
7154.000000;1.391193
7153.000000;1.395258
7152.000000;1.398916
7151.000000;1.402692
7150.000000;1.406884
7149.000000;1.411056
7148.000000;1.414468
7147.000000;1.416795
7146.000000;1.418372
7145.000000;1.419866
7144.000000;1.421738
7143.000000;1.423879
7142.000000;1.425654
7141.000000;1.426553
7140.000000;1.426933
7139.000000;1.427889
7138.000000;1.430140
7137.000000;1.433245
7136.000000;1.436271
7135.000000;1.438962
7134.000000;1.441819
7133.000000;1.445177
7132.000000;1.448778
7131.000000;1.452309
7130.000000;1.455822
7129.000000;1.459390
7128.000000;1.462793
7127.000000;1.465915
7126.000000;1.469064
7125.000000;1.472413
7124.000000;1.475504
7123.000000;1.477820
7122.000000;1.479542
7121.000000;1.481142
7120.000000;1.482487
7119.000000;1.483101
7118.000000;1.483312
7117.000000;1.484255
7116.000000;1.486419
7115.000000;1.488963
7114.000000;1.490992
7113.000000;1.492710
7112.000000;1.494712
7111.000000;1.496855
7110.000000;1.498580
7109.000000;1.499994
7108.000000;1.501771
7107.000000;1.504111
7106.000000;1.506507
7105.000000;1.508585
7104.000000;1.510533
7103.000000;1.512538
7102.000000;1.514469
7101.000000;1.516264
7100.000000;1.518103
7099.000000;1.519947
7098.000000;1.521222
7097.000000;1.521410
7096.000000;1.520901
7095.000000;1.520869
7094.000000;1.522159
7093.000000;1.524535
7092.000000;1.527072
7091.000000;1.529064
7090.000000;1.530470
7089.000000;1.531698
7088.000000;1.533190
7087.000000;1.535187
7086.000000;1.537626
7085.000000;1.540123
7084.000000;1.542161
7083.000000;1.543499
7082.000000;1.544399
7081.000000;1.545394
7080.000000;1.546830
7079.000000;1.548688
7078.000000;1.550723
7077.000000;1.552617
7076.000000;1.554038
7075.000000;1.554735
7074.000000;1.554679
7073.000000;1.554145
7072.000000;1.553617
7071.000000;1.553548
7070.000000;1.554129
7069.000000;1.555171
7068.000000;1.556246
7067.000000;1.557095
7066.000000;1.557855
7065.000000;1.558805
7064.000000;1.559945
7063.000000;1.561036
7062.000000;1.562031
7061.000000;1.563208
7060.000000;1.564782
7059.000000;1.566595
7058.000000;1.568291
7057.000000;1.569641
7056.000000;1.570623
7055.000000;1.571360
7054.000000;1.572059
7053.000000;1.572923
7052.000000;1.573949
7051.000000;1.574826
7050.000000;1.575154
7049.000000;1.574791
7048.000000;1.573975
7047.000000;1.573228
7046.000000;1.573155
7045.000000;1.574083
7044.000000;1.575753
7043.000000;1.577462
7042.000000;1.578624
7041.000000;1.579183
7040.000000;1.579436
7039.000000;1.579598
7038.000000;1.579699
7037.000000;1.579776
7036.000000;1.580005
7035.000000;1.580615
7034.000000;1.581701
7033.000000;1.583088
7032.000000;1.584389
7031.000000;1.585265
7030.000000;1.585682
7029.000000;1.585827
7028.000000;1.585830
7027.000000;1.585739
7026.000000;1.585733
7025.000000;1.586091
7024.000000;1.586855
7023.000000;1.587733
7022.000000;1.588436
7021.000000;1.588896
7020.000000;1.589104
7019.000000;1.588987
7018.000000;1.588632
7017.000000;1.588368
7016.000000;1.588389
7015.000000;1.588545
7014.000000;1.588723
7013.000000;1.589212
7012.000000;1.590322
7011.000000;1.591813
7010.000000;1.593075
7009.000000;1.593819
7008.000000;1.594260
7007.000000;1.594626
7006.000000;1.594843
7005.000000;1.594784
7004.000000;1.594550
7003.000000;1.594375
7002.000000;1.594412
7001.000000;1.594696
7000.000000;1.595170
6999.000000;1.595690
6998.000000;1.596153
6997.000000;1.596644
6996.000000;1.597308
6995.000000;1.598077
6994.000000;1.598655
6993.000000;1.598819
6992.000000;1.598628
6991.000000;1.598358
6990.000000;1.598325
6989.000000;1.598732
6988.000000;1.599488
6987.000000;1.600126
6986.000000;1.600115
6985.000000;1.599369
6984.000000;1.598352
6983.000000;1.597632
6982.000000;1.597468
6981.000000;1.597824
6980.000000;1.598563
6979.000000;1.599454
6978.000000;1.600138
6977.000000;1.600338
6976.000000;1.600120
6975.000000;1.599823
6974.000000;1.599688
6973.000000;1.599671
6972.000000;1.599647
6971.000000;1.599664
6970.000000;1.599831
6969.000000;1.600048
6968.000000;1.600050
6967.000000;1.599751
6966.000000;1.599409
6965.000000;1.599357
6964.000000;1.599715
6963.000000;1.600437
6962.000000;1.601411
6961.000000;1.602307
6960.000000;1.602548
6959.000000;1.601857
6958.000000;1.600768
6957.000000;1.600211
6956.000000;1.600511
6955.000000;1.601107
6954.000000;1.601364
6953.000000;1.601325
6952.000000;1.601427
6951.000000;1.601779
6950.000000;1.602084
6949.000000;1.602109
6948.000000;1.601940
6947.000000;1.601804
6946.000000;1.601920
6945.000000;1.602451
6944.000000;1.603373
6943.000000;1.604340
6942.000000;1.604885
6941.000000;1.604794
6940.000000;1.604227
6939.000000;1.603531
6938.000000;1.603024
6937.000000;1.602859
6936.000000;1.602939
6935.000000;1.603021
6934.000000;1.602994
6933.000000;1.602954
6932.000000;1.602931
6931.000000;1.602762
6930.000000;1.602425
6929.000000;1.602294
6928.000000;1.602710
6927.000000;1.603398
6926.000000;1.603663
6925.000000;1.603180
6924.000000;1.602329
6923.000000;1.601708
6922.000000;1.601588
6921.000000;1.601880
6920.000000;1.602297
6919.000000;1.602491
6918.000000;1.602306
6917.000000;1.602020
6916.000000;1.602106
6915.000000;1.602615
6914.000000;1.603009
6913.000000;1.602777
6912.000000;1.602060
6911.000000;1.601448
6910.000000;1.601287
6909.000000;1.601383
6908.000000;1.601350
6907.000000;1.601035
6906.000000;1.600592
6905.000000;1.600261
6904.000000;1.600155
6903.000000;1.600233
6902.000000;1.600440
6901.000000;1.600839
6900.000000;1.601513
6899.000000;1.602316
6898.000000;1.602820
6897.000000;1.602632
6896.000000;1.601789
6895.000000;1.600820
6894.000000;1.600351
6893.000000;1.600594
6892.000000;1.601151
6891.000000;1.601332
6890.000000;1.600761
6889.000000;1.599725
6888.000000;1.598933
6887.000000;1.598915
6886.000000;1.599620
6885.000000;1.600539
6884.000000;1.601188
6883.000000;1.601445
6882.000000;1.601489
6881.000000;1.601504
6880.000000;1.601586
6879.000000;1.601849
6878.000000;1.602406
6877.000000;1.603095
6876.000000;1.603370
6875.000000;1.602736
6874.000000;1.601321
6873.000000;1.599840
6872.000000;1.598972
6871.000000;1.598891
6870.000000;1.599372
6869.000000;1.600123
6868.000000;1.600893
6867.000000;1.601421
6866.000000;1.601502
6865.000000;1.601115
6864.000000;1.600455
6863.000000;1.599851
6862.000000;1.599612
6861.000000;1.599784
6860.000000;1.600023
6859.000000;1.599903
6858.000000;1.599402
6857.000000;1.598944
6856.000000;1.598861
6855.000000;1.599011
6854.000000;1.599040
6853.000000;1.598842
6852.000000;1.598592
6851.000000;1.598504
6850.000000;1.598720
6849.000000;1.599287
6848.000000;1.599979
6847.000000;1.600246
6846.000000;1.599633
6845.000000;1.598286
6844.000000;1.596856
6843.000000;1.595887
6842.000000;1.595413
6841.000000;1.595108
6840.000000;1.594679
6839.000000;1.594140
6838.000000;1.593798
6837.000000;1.593951
6836.000000;1.594501
6835.000000;1.594951
6834.000000;1.594906
6833.000000;1.594495
6832.000000;1.594158
6831.000000;1.594073
6830.000000;1.593996
6829.000000;1.593650
6828.000000;1.593049
6827.000000;1.592423
6826.000000;1.591968
6825.000000;1.591687
6824.000000;1.591406
6823.000000;1.590926
6822.000000;1.590245
6821.000000;1.589567
6820.000000;1.589027
6819.000000;1.588527
6818.000000;1.587945
6817.000000;1.587371
6816.000000;1.586935
6815.000000;1.586545
6814.000000;1.586021
6813.000000;1.585421
6812.000000;1.585008
6811.000000;1.584886
6810.000000;1.584926
6809.000000;1.585004
6808.000000;1.585072
6807.000000;1.584942
6806.000000;1.584314
6805.000000;1.583162
6804.000000;1.581908
6803.000000;1.581055
6802.000000;1.580729
6801.000000;1.580647
6800.000000;1.580384
6799.000000;1.579628
6798.000000;1.578327
6797.000000;1.576735
6796.000000;1.575268
6795.000000;1.574233
6794.000000;1.573687
6793.000000;1.573517
6792.000000;1.573531
6791.000000;1.573502
6790.000000;1.573243
6789.000000;1.572706
6788.000000;1.571955
6787.000000;1.571047
6786.000000;1.570055
6785.000000;1.569173
6784.000000;1.568630
6783.000000;1.568445
6782.000000;1.568386
6781.000000;1.568188
6780.000000;1.567733
6779.000000;1.566989
6778.000000;1.565985
6777.000000;1.564937
6776.000000;1.564222
6775.000000;1.564028
6774.000000;1.564046
6773.000000;1.563658
6772.000000;1.562531
6771.000000;1.560963
6770.000000;1.559600
6769.000000;1.558796
6768.000000;1.558308
6767.000000;1.557660
6766.000000;1.556753
6765.000000;1.555968
6764.000000;1.555603
6763.000000;1.555423
6762.000000;1.554905
6761.000000;1.553852
6760.000000;1.552556
6759.000000;1.551359
6758.000000;1.550297
6757.000000;1.549225
6756.000000;1.548118
6755.000000;1.547121
6754.000000;1.546344
6753.000000;1.545752
6752.000000;1.545222
6751.000000;1.544692
6750.000000;1.544185
6749.000000;1.543680
6748.000000;1.543036
6747.000000;1.542145
6746.000000;1.541179
6745.000000;1.540513
6744.000000;1.540285
6743.000000;1.540153
6742.000000;1.539666
6741.000000;1.538798
6740.000000;1.537934
6739.000000;1.537339
6738.000000;1.536829
6737.000000;1.536012
6736.000000;1.534705
6735.000000;1.533119
6734.000000;1.531729
6733.000000;1.530945
6732.000000;1.530740
6731.000000;1.530578
6730.000000;1.529879
6729.000000;1.528600
6728.000000;1.527249
6727.000000;1.526282
6726.000000;1.525674
6725.000000;1.525093
6724.000000;1.524338
6723.000000;1.523445
6722.000000;1.522488
6721.000000;1.521465
6720.000000;1.520378
6719.000000;1.519319
6718.000000;1.518405
6717.000000;1.517626
6716.000000;1.516781
6715.000000;1.515653
6714.000000;1.514310
6713.000000;1.513155
6712.000000;1.512541
6711.000000;1.512341
6710.000000;1.512040
6709.000000;1.511254
6708.000000;1.510074
6707.000000;1.508876
6706.000000;1.507931
6705.000000;1.507278
6704.000000;1.506745
6703.000000;1.506108
6702.000000;1.505254
6701.000000;1.504259
6700.000000;1.503282
6699.000000;1.502421
6698.000000;1.501509
6697.000000;1.500558
6696.000000;1.499415
6695.000000;1.498254
6694.000000;1.497369
6693.000000;1.496776
6692.000000;1.496323
6691.000000;1.495699
6690.000000;1.494744
6689.000000;1.493600
6688.000000;1.492550
6687.000000;1.491674
6686.000000;1.490801
6685.000000;1.489766
6684.000000;1.488600
6683.000000;1.487414
6682.000000;1.486252
6681.000000;1.485122
6680.000000;1.484070
6679.000000;1.483136
6678.000000;1.482281
6677.000000;1.481459
6676.000000;1.480707
6675.000000;1.480077
6674.000000;1.479483
6673.000000;1.478702
6672.000000;1.477569
6671.000000;1.476162
6670.000000;1.474790
6669.000000;1.473762
6668.000000;1.473134
6667.000000;1.472673
6666.000000;1.472081
6665.000000;1.471248
6664.000000;1.470246
6663.000000;1.469146
6662.000000;1.467936
6661.000000;1.466631
6660.000000;1.465346
6659.000000;1.464217
6658.000000;1.463282
6657.000000;1.462479
6656.000000;1.461729
6655.000000;1.461003
6654.000000;1.460317
6653.000000;1.459687
6652.000000;1.459068
6651.000000;1.458369
6650.000000;1.457557
6649.000000;1.456710
6648.000000;1.455928
6647.000000;1.455212
6646.000000;1.454457
6645.000000;1.453550
6644.000000;1.452427
6643.000000;1.451115
6642.000000;1.449779
6641.000000;1.448672
6640.000000;1.447920
6639.000000;1.447358
6638.000000;1.446693
6637.000000;1.445823
6636.000000;1.444916
6635.000000;1.444139
6634.000000;1.443445
6633.000000;1.442664
6632.000000;1.441722
6631.000000;1.440681
6630.000000;1.439604
6629.000000;1.438459
6628.000000;1.437195
6627.000000;1.435857
6626.000000;1.434596
6625.000000;1.433540
6624.000000;1.432689
6623.000000;1.431960
6622.000000;1.431317
6621.000000;1.430766
6620.000000;1.430231
6619.000000;1.429555
6618.000000;1.428671
6617.000000;1.427674
6616.000000;1.426638
6615.000000;1.425502
6614.000000;1.424213
6613.000000;1.422876
6612.000000;1.421623
6611.000000;1.420450
6610.000000;1.419350
6609.000000;1.418485
6608.000000;1.418013
6607.000000;1.417767
6606.000000;1.417338
6605.000000;1.416488
6604.000000;1.415327
6603.000000;1.414071
6602.000000;1.412860
6601.000000;1.411803
6600.000000;1.410980
6599.000000;1.410279
6598.000000;1.409429
6597.000000;1.408320
6596.000000;1.407168
6595.000000;1.406255
6594.000000;1.405638
6593.000000;1.405173
6592.000000;1.404714
6591.000000;1.404165
6590.000000;1.403444
6589.000000;1.402505
6588.000000;1.401364
6587.000000;1.400065
6586.000000;1.398689
6585.000000;1.397425
6584.000000;1.396449
6583.000000;1.395696
6582.000000;1.394882
6581.000000;1.393857
6580.000000;1.392794
6579.000000;1.391916
6578.000000;1.391219
6577.000000;1.390559
6576.000000;1.389882
6575.000000;1.389174
6574.000000;1.388341
6573.000000;1.387348
6572.000000;1.386376
6571.000000;1.385609
6570.000000;1.384934
6569.000000;1.384065
6568.000000;1.382954
6567.000000;1.381875
6566.000000;1.381062
6565.000000;1.380478
6564.000000;1.379980
6563.000000;1.379507
6562.000000;1.379007
6561.000000;1.378342
6560.000000;1.377404
6559.000000;1.376271
6558.000000;1.375128
6557.000000;1.374069
6556.000000;1.373044
6555.000000;1.371992
6554.000000;1.370943
6553.000000;1.369993
6552.000000;1.369188
6551.000000;1.368462
6550.000000;1.367704
6549.000000;1.366909
6548.000000;1.366208
6547.000000;1.365691
6546.000000;1.365240
6545.000000;1.364614
6544.000000;1.363704
6543.000000;1.362625
6542.000000;1.361575
6541.000000;1.360667
6540.000000;1.359910
6539.000000;1.359253
6538.000000;1.358605
6537.000000;1.357866
6536.000000;1.356969
6535.000000;1.355887
6534.000000;1.354658
6533.000000;1.353445
6532.000000;1.352522
6531.000000;1.352068
6530.000000;1.351940
6529.000000;1.351749
6528.000000;1.351203
6527.000000;1.350318
6526.000000;1.349298
6525.000000;1.348309
6524.000000;1.347413
6523.000000;1.346598
6522.000000;1.345792
6521.000000;1.344919
6520.000000;1.344008
6519.000000;1.343194
6518.000000;1.342554
6517.000000;1.341995
6516.000000;1.341382
6515.000000;1.340690
6514.000000;1.339963
6513.000000;1.339176
6512.000000;1.338264
6511.000000;1.337276
6510.000000;1.336369
6509.000000;1.335641
6508.000000;1.335025
6507.000000;1.334385
6506.000000;1.333664
6505.000000;1.332914
6504.000000;1.332235
6503.000000;1.331682
6502.000000;1.331204
6501.000000;1.330675
6500.000000;1.329999
6499.000000;1.329181
6498.000000;1.328303
6497.000000;1.327447
6496.000000;1.326662
6495.000000;1.325957
6494.000000;1.325269
6493.000000;1.324518
6492.000000;1.323741
6491.000000;1.323099
6490.000000;1.322635
6489.000000;1.322110
6488.000000;1.321229
6487.000000;1.320041
6486.000000;1.318957
6485.000000;1.318316
6484.000000;1.318062
6483.000000;1.317900
6482.000000;1.317607
6481.000000;1.317089
6480.000000;1.316276
6479.000000;1.315166
6478.000000;1.313949
6477.000000;1.312936
6476.000000;1.312313
6475.000000;1.312009
6474.000000;1.311800
6473.000000;1.311474
6472.000000;1.310927
6471.000000;1.310197
6470.000000;1.309421
6469.000000;1.308693
6468.000000;1.307962
6467.000000;1.307132
6466.000000;1.306250
6465.000000;1.305494
6464.000000;1.304947
6463.000000;1.304482
6462.000000;1.303910
6461.000000;1.303195
6460.000000;1.302454
6459.000000;1.301793
6458.000000;1.301199
6457.000000;1.300577
6456.000000;1.299856
6455.000000;1.299039
6454.000000;1.298175
6453.000000;1.297281
6452.000000;1.296337
6451.000000;1.295393
6450.000000;1.294620
6449.000000;1.294167
6448.000000;1.293952
6447.000000;1.293691
6446.000000;1.293176
6445.000000;1.292460
6444.000000;1.291746
6443.000000;1.291150
6442.000000;1.290654
6441.000000;1.290198
6440.000000;1.289738
6439.000000;1.289220
6438.000000;1.288585
6437.000000;1.287834
6436.000000;1.287037
6435.000000;1.286280
6434.000000;1.285595
6433.000000;1.284958
6432.000000;1.284327
6431.000000;1.283704
6430.000000;1.283148
6429.000000;1.282715
6428.000000;1.282369
6427.000000;1.282006
6426.000000;1.281568
6425.000000;1.281073
6424.000000;1.280534
6423.000000;1.279900
6422.000000;1.279154
6421.000000;1.278387
6420.000000;1.277706
6419.000000;1.277099
6418.000000;1.276486
6417.000000;1.275875
6416.000000;1.275358
6415.000000;1.274960
6414.000000;1.274564
6413.000000;1.274056
6412.000000;1.273452
6411.000000;1.272859
6410.000000;1.272345
6409.000000;1.271886
6408.000000;1.271407
6407.000000;1.270841
6406.000000;1.270179
6405.000000;1.269503
6404.000000;1.268946
6403.000000;1.268577
6402.000000;1.268331
6401.000000;1.268041
6400.000000;1.267556
6399.000000;1.266836
6398.000000;1.265975
6397.000000;1.265155
6396.000000;1.264542
6395.000000;1.264159
6394.000000;1.263877
6393.000000;1.263514
6392.000000;1.262967
6391.000000;1.262253
6390.000000;1.261471
6389.000000;1.260752
6388.000000;1.260195
6387.000000;1.259806
6386.000000;1.259493
6385.000000;1.259164
6384.000000;1.258812
6383.000000;1.258474
6382.000000;1.258127
6381.000000;1.257675
6380.000000;1.257052
6379.000000;1.256316
6378.000000;1.255603
6377.000000;1.255032
6376.000000;1.254658
6375.000000;1.254453
6374.000000;1.254301
6373.000000;1.254027
6372.000000;1.253506
6371.000000;1.252778
6370.000000;1.252029
6369.000000;1.251423
6368.000000;1.250980
6367.000000;1.250607
6366.000000;1.250237
6365.000000;1.249884
6364.000000;1.249573
6363.000000;1.249250
6362.000000;1.248795
6361.000000;1.248143
6360.000000;1.247364
6359.000000;1.246617
6358.000000;1.246012
6357.000000;1.245540
6356.000000;1.245129
6355.000000;1.244748
6354.000000;1.244419
6353.000000;1.244144
6352.000000;1.243864
6351.000000;1.243510
6350.000000;1.243063
6349.000000;1.242557
6348.000000;1.242037
6347.000000;1.241540
6346.000000;1.241102
6345.000000;1.240720
6344.000000;1.240338
6343.000000;1.239887
6342.000000;1.239366
6341.000000;1.238836
6340.000000;1.238348
6339.000000;1.237889
6338.000000;1.237422
6337.000000;1.236935
6336.000000;1.236462
6335.000000;1.236069
6334.000000;1.235820
6333.000000;1.235708
6332.000000;1.235596
6331.000000;1.235283
6330.000000;1.234680
6329.000000;1.233922
6328.000000;1.233245
6327.000000;1.232768
6326.000000;1.232431
6325.000000;1.232126
6324.000000;1.231837
6323.000000;1.231611
6322.000000;1.231440
6321.000000;1.231242
6320.000000;1.230952
6319.000000;1.230581
6318.000000;1.230192
6317.000000;1.229827
6316.000000;1.229495
6315.000000;1.229179
6314.000000;1.228832
6313.000000;1.228398
6312.000000;1.227868
6311.000000;1.227330
6310.000000;1.226908
6309.000000;1.226635
6308.000000;1.226406
6307.000000;1.226092
6306.000000;1.225676
6305.000000;1.225271
6304.000000;1.224974
6303.000000;1.224757
6302.000000;1.224492
6301.000000;1.224087
6300.000000;1.223589
6299.000000;1.223135
6298.000000;1.222797
6297.000000;1.222483
6296.000000;1.222019
6295.000000;1.221354
6294.000000;1.220656
6293.000000;1.220155
6292.000000;1.219900
6291.000000;1.219713
6290.000000;1.219404
6289.000000;1.218997
6288.000000;1.218683
6287.000000;1.218579
6286.000000;1.218588
6285.000000;1.218510
6284.000000;1.218243
6283.000000;1.217825
6282.000000;1.217326
6281.000000;1.216788
6280.000000;1.216265
6279.000000;1.215847
6278.000000;1.215566
6277.000000;1.215327
6276.000000;1.214998
6275.000000;1.214564
6274.000000;1.214135
6273.000000;1.213813
6272.000000;1.213601
6271.000000;1.213434
6270.000000;1.213253
6269.000000;1.213016
6268.000000;1.212717
6267.000000;1.212414
6266.000000;1.212197
6265.000000;1.212070
6264.000000;1.211914
6263.000000;1.211594
6262.000000;1.211104
6261.000000;1.210558
6260.000000;1.210060
6259.000000;1.209633
6258.000000;1.209241
6257.000000;1.208847
6256.000000;1.208450
6255.000000;1.208101
6254.000000;1.207860
6253.000000;1.207730
6252.000000;1.207642
6251.000000;1.207547
6250.000000;1.207459
6249.000000;1.207370
6248.000000;1.207176
6247.000000;1.206763
6246.000000;1.206164
6245.000000;1.205568
6244.000000;1.205150
6243.000000;1.204947
6242.000000;1.204875
6241.000000;1.204808
6240.000000;1.204631
6239.000000;1.204293
6238.000000;1.203853
6237.000000;1.203443
6236.000000;1.203156
6235.000000;1.202965
6234.000000;1.202779
6233.000000;1.202528
6232.000000;1.202210
6231.000000;1.201877
6230.000000;1.201593
6229.000000;1.201365
6228.000000;1.201130
6227.000000;1.200830
6226.000000;1.200507
6225.000000;1.200267
6224.000000;1.200135
6223.000000;1.200015
6222.000000;1.199803
6221.000000;1.199500
6220.000000;1.199174
6219.000000;1.198853
6218.000000;1.198515
6217.000000;1.198156
6216.000000;1.197815
6215.000000;1.197513
6214.000000;1.197220
6213.000000;1.196886
6212.000000;1.196521
6211.000000;1.196202
6210.000000;1.196006
6209.000000;1.195929
6208.000000;1.195875
6207.000000;1.195750
6206.000000;1.195544
6205.000000;1.195310
6204.000000;1.195091
6203.000000;1.194897
6202.000000;1.194739
6201.000000;1.194617
6200.000000;1.194473
6199.000000;1.194214
6198.000000;1.193833
6197.000000;1.193442
6196.000000;1.193151
6195.000000;1.192931
6194.000000;1.192661
6193.000000;1.192294
6192.000000;1.191926
6191.000000;1.191694
6190.000000;1.191630
6189.000000;1.191631
6188.000000;1.191547
6187.000000;1.191287
6186.000000;1.190858
6185.000000;1.190348
6184.000000;1.189877
6183.000000;1.189550
6182.000000;1.189418
6181.000000;1.189446
6180.000000;1.189528
6179.000000;1.189556
6178.000000;1.189475
6177.000000;1.189288
6176.000000;1.189015
6175.000000;1.188693
6174.000000;1.188392
6173.000000;1.188171
6172.000000;1.188003
6171.000000;1.187789
6170.000000;1.187472
6169.000000;1.187127
6168.000000;1.186895
6167.000000;1.186852
6166.000000;1.186942
6165.000000;1.187029
6164.000000;1.186982
6163.000000;1.186747
6162.000000;1.186363
6161.000000;1.185946
6160.000000;1.185609
6159.000000;1.185401
6158.000000;1.185300
6157.000000;1.185234
6156.000000;1.185119
6155.000000;1.184890
6154.000000;1.184558
6153.000000;1.184210
6152.000000;1.183935
6151.000000;1.183736
6150.000000;1.183540
6149.000000;1.183293
6148.000000;1.183004
6147.000000;1.182709
6146.000000;1.182421
6145.000000;1.182145
6144.000000;1.181911
6143.000000;1.181758
6142.000000;1.181700
6141.000000;1.181707
6140.000000;1.181716
6139.000000;1.181643
6138.000000;1.181421
6137.000000;1.181068
6136.000000;1.180721
6135.000000;1.180540
6134.000000;1.180564
6133.000000;1.180670
6132.000000;1.180715
6131.000000;1.180647
6130.000000;1.180492
6129.000000;1.180258
6128.000000;1.179952
6127.000000;1.179646
6126.000000;1.179465
6125.000000;1.179480
6124.000000;1.179635
6123.000000;1.179795
6122.000000;1.179821
6121.000000;1.179620
6120.000000;1.179189
6119.000000;1.178648
6118.000000;1.178179
6117.000000;1.177892
6116.000000;1.177748
6115.000000;1.177648
6114.000000;1.177537
6113.000000;1.177423
6112.000000;1.177307
6111.000000;1.177165
6110.000000;1.176978
6109.000000;1.176748
6108.000000;1.176498
6107.000000;1.176271
6106.000000;1.176104
6105.000000;1.175997
6104.000000;1.175918
6103.000000;1.175854
6102.000000;1.175801
6101.000000;1.175724
6100.000000;1.175558
6099.000000;1.175318
6098.000000;1.175135
6097.000000;1.175130
6096.000000;1.175256
6095.000000;1.175323
6094.000000;1.175195
6093.000000;1.174903
6092.000000;1.174580
6091.000000;1.174321
6090.000000;1.174129
6089.000000;1.173957
6088.000000;1.173766
6087.000000;1.173554
6086.000000;1.173344
6085.000000;1.173146
6084.000000;1.172956
6083.000000;1.172791
6082.000000;1.172700
6081.000000;1.172719
6080.000000;1.172826
6079.000000;1.172943
6078.000000;1.172978
6077.000000;1.172868
6076.000000;1.172630
6075.000000;1.172369
6074.000000;1.172203
6073.000000;1.172159
6072.000000;1.172166
6071.000000;1.172133
6070.000000;1.172014
6069.000000;1.171778
6068.000000;1.171436
6067.000000;1.171102
6066.000000;1.170947
6065.000000;1.171010
6064.000000;1.171131
6063.000000;1.171130
6062.000000;1.171014
6061.000000;1.170898
6060.000000;1.170819
6059.000000;1.170706
6058.000000;1.170532
6057.000000;1.170359
6056.000000;1.170238
6055.000000;1.170160
6054.000000;1.170107
6053.000000;1.170075
6052.000000;1.170014
6051.000000;1.169850
6050.000000;1.169579
6049.000000;1.169287
6048.000000;1.169052
6047.000000;1.168885
6046.000000;1.168793
6045.000000;1.168798
6044.000000;1.168878
6043.000000;1.168953
6042.000000;1.168969
6041.000000;1.168949
6040.000000;1.168934
6039.000000;1.168919
6038.000000;1.168874
6037.000000;1.168781
6036.000000;1.168633
6035.000000;1.168444
6034.000000;1.168271
6033.000000;1.168173
6032.000000;1.168129
6031.000000;1.168046
6030.000000;1.167875
6029.000000;1.167664
6028.000000;1.167483
6027.000000;1.167368
6026.000000;1.167343
6025.000000;1.167434
6024.000000;1.167609
6023.000000;1.167761
6022.000000;1.167814
6021.000000;1.167796
6020.000000;1.167768
6019.000000;1.167736
6018.000000;1.167673
6017.000000;1.167592
6016.000000;1.167517
6015.000000;1.167434
6014.000000;1.167317
6013.000000;1.167201
6012.000000;1.167135
6011.000000;1.167097
6010.000000;1.167025
6009.000000;1.166927
6008.000000;1.166885
6007.000000;1.166935
6006.000000;1.166990
6005.000000;1.166933
6004.000000;1.166746
6003.000000;1.166509
6002.000000;1.166280
6001.000000;1.166054
6000.000000;1.165825
5999.000000;1.165646
5998.000000;1.165589
5997.000000;1.165661
5996.000000;1.165799
5995.000000;1.165947
5994.000000;1.166078
5993.000000;1.166153
5992.000000;1.166117
5991.000000;1.165993
5990.000000;1.165901
5989.000000;1.165945
5988.000000;1.166081
5987.000000;1.166172
5986.000000;1.166159
5985.000000;1.166103
5984.000000;1.166074
5983.000000;1.166052
5982.000000;1.165983
5981.000000;1.165865
5980.000000;1.165741
5979.000000;1.165645
5978.000000;1.165587
5977.000000;1.165569
5976.000000;1.165588
5975.000000;1.165628
5974.000000;1.165675
5973.000000;1.165711
5972.000000;1.165702
5971.000000;1.165623
5970.000000;1.165510
5969.000000;1.165449
5968.000000;1.165494
5967.000000;1.165612
5966.000000;1.165730
5965.000000;1.165812
5964.000000;1.165866
5963.000000;1.165899
5962.000000;1.165899
5961.000000;1.165860
5960.000000;1.165789
5959.000000;1.165696
5958.000000;1.165581
5957.000000;1.165467
5956.000000;1.165413
5955.000000;1.165486
5954.000000;1.165684
5953.000000;1.165922
5952.000000;1.166109
5951.000000;1.166238
5950.000000;1.166374
5949.000000;1.166536
5948.000000;1.166660
5947.000000;1.166685
5946.000000;1.166643
5945.000000;1.166603
5944.000000;1.166578
5943.000000;1.166532
5942.000000;1.166453
5941.000000;1.166362
5940.000000;1.166276
5939.000000;1.166202
5938.000000;1.166164
5937.000000;1.166185
5936.000000;1.166251
5935.000000;1.166355
5934.000000;1.166534
5933.000000;1.166799
5932.000000;1.167055
5931.000000;1.167165
5930.000000;1.167103
5929.000000;1.166981
5928.000000;1.166926
5927.000000;1.166986
5926.000000;1.167148
5925.000000;1.167352
5924.000000;1.167498
5923.000000;1.167509
5922.000000;1.167432
5921.000000;1.167397
5920.000000;1.167470
5919.000000;1.167600
5918.000000;1.167720
5917.000000;1.167830
5916.000000;1.167940
5915.000000;1.168028
5914.000000;1.168074
5913.000000;1.168103
5912.000000;1.168125
5911.000000;1.168120
5910.000000;1.168104
5909.000000;1.168149
5908.000000;1.168289
5907.000000;1.168468
5906.000000;1.168629
5905.000000;1.168800
5904.000000;1.169019
5903.000000;1.169228
5902.000000;1.169315
5901.000000;1.169242
5900.000000;1.169071
5899.000000;1.168891
5898.000000;1.168768
5897.000000;1.168750
5896.000000;1.168849
5895.000000;1.169005
5894.000000;1.169118
5893.000000;1.169136
5892.000000;1.169098
5891.000000;1.169086
5890.000000;1.169160
5889.000000;1.169324
5888.000000;1.169534
5887.000000;1.169745
5886.000000;1.169949
5885.000000;1.170160
5884.000000;1.170368
5883.000000;1.170537
5882.000000;1.170667
5881.000000;1.170801
5880.000000;1.170958
5879.000000;1.171096
5878.000000;1.171171
5877.000000;1.171196
5876.000000;1.171212
5875.000000;1.171224
5874.000000;1.171208
5873.000000;1.171162
5872.000000;1.171122
5871.000000;1.171147
5870.000000;1.171301
5869.000000;1.171595
5868.000000;1.171940
5867.000000;1.172192
5866.000000;1.172297
5865.000000;1.172369
5864.000000;1.172556
5863.000000;1.172872
5862.000000;1.173191
5861.000000;1.173414
5860.000000;1.173544
5859.000000;1.173637
5858.000000;1.173717
5857.000000;1.173787
5856.000000;1.173863
5855.000000;1.173972
5854.000000;1.174117
5853.000000;1.174266
5852.000000;1.174376
5851.000000;1.174431
5850.000000;1.174465
5849.000000;1.174550
5848.000000;1.174737
5847.000000;1.175013
5846.000000;1.175318
5845.000000;1.175595
5844.000000;1.175808
5843.000000;1.175945
5842.000000;1.176041
5841.000000;1.176168
5840.000000;1.176379
5839.000000;1.176634
5838.000000;1.176836
5837.000000;1.176937
5836.000000;1.177008
5835.000000;1.177175
5834.000000;1.177502
5833.000000;1.177935
5832.000000;1.178366
5831.000000;1.178727
5830.000000;1.179029
5829.000000;1.179317
5828.000000;1.179603
5827.000000;1.179863
5826.000000;1.180077
5825.000000;1.180251
5824.000000;1.180408
5823.000000;1.180563
5822.000000;1.180723
5821.000000;1.180904
5820.000000;1.181123
5819.000000;1.181385
5818.000000;1.181669
5817.000000;1.181940
5816.000000;1.182180
5815.000000;1.182407
5814.000000;1.182658
5813.000000;1.182937
5812.000000;1.183211
5811.000000;1.183456
5810.000000;1.183687
5809.000000;1.183922
5808.000000;1.184143
5807.000000;1.184333
5806.000000;1.184523
5805.000000;1.184768
5804.000000;1.185071
5803.000000;1.185393
5802.000000;1.185720
5801.000000;1.186090
5800.000000;1.186516
5799.000000;1.186939
5798.000000;1.187278
5797.000000;1.187520
5796.000000;1.187728
5795.000000;1.187978
5794.000000;1.188301
5793.000000;1.188679
5792.000000;1.189083
5791.000000;1.189505
5790.000000;1.189943
5789.000000;1.190372
5788.000000;1.190753
5787.000000;1.191066
5786.000000;1.191334
5785.000000;1.191589
5784.000000;1.191842
5783.000000;1.192101
5782.000000;1.192391
5781.000000;1.192725
5780.000000;1.193071
5779.000000;1.193396
5778.000000;1.193720
5777.000000;1.194094
5776.000000;1.194526
5775.000000;1.194967
5774.000000;1.195369
5773.000000;1.195712
5772.000000;1.195993
5771.000000;1.196223
5770.000000;1.196458
5769.000000;1.196776
5768.000000;1.197215
5767.000000;1.197745
5766.000000;1.198309
5765.000000;1.198849
5764.000000;1.199297
5763.000000;1.199588
5762.000000;1.199718
5761.000000;1.199769
5760.000000;1.199872
5759.000000;1.200137
5758.000000;1.200601
5757.000000;1.201207
5756.000000;1.201834
5755.000000;1.202370
5754.000000;1.202797
5753.000000;1.203181
5752.000000;1.203588
5751.000000;1.204041
5750.000000;1.204530
5749.000000;1.205038
5748.000000;1.205543
5747.000000;1.206029
5746.000000;1.206501
5745.000000;1.206969
5744.000000;1.207419
5743.000000;1.207836
5742.000000;1.208234
5741.000000;1.208655
5740.000000;1.209118
5739.000000;1.209607
5738.000000;1.210099
5737.000000;1.210584
5736.000000;1.211042
5735.000000;1.211460
5734.000000;1.211860
5733.000000;1.212279
5732.000000;1.212726
5731.000000;1.213189
5730.000000;1.213673
5729.000000;1.214200
5728.000000;1.214752
5727.000000;1.215262
5726.000000;1.215683
5725.000000;1.216028
5724.000000;1.216349
5723.000000;1.216700
5722.000000;1.217138
5721.000000;1.217708
5720.000000;1.218394
5719.000000;1.219118
5718.000000;1.219795
5717.000000;1.220400
5716.000000;1.220966
5715.000000;1.221538
5714.000000;1.222120
5713.000000;1.222668
5712.000000;1.223138
5711.000000;1.223559
5710.000000;1.224023
5709.000000;1.224586
5708.000000;1.225196
5707.000000;1.225769
5706.000000;1.226320
5705.000000;1.226943
5704.000000;1.227682
5703.000000;1.228471
5702.000000;1.229214
5701.000000;1.229866
5700.000000;1.230430
5699.000000;1.230936
5698.000000;1.231436
5697.000000;1.231979
5696.000000;1.232562
5695.000000;1.233106
5694.000000;1.233585
5693.000000;1.233984
5692.000000;1.234432
5691.000000;1.234979
5690.000000;1.235570
5689.000000;1.236183
5688.000000;1.236790
5687.000000;1.237411
5686.000000;1.238075
5685.000000;1.238775
5684.000000;1.239425
5683.000000;1.239944
5682.000000;1.240364
5681.000000;1.240836
5680.000000;1.241487
5679.000000;1.242288
5678.000000;1.243094
5677.000000;1.243771
5676.000000;1.244294
5675.000000;1.244737
5674.000000;1.245207
5673.000000;1.245774
5672.000000;1.246432
5671.000000;1.247114
5670.000000;1.247733
5669.000000;1.248236
5668.000000;1.248640
5667.000000;1.249038
5666.000000;1.249522
5665.000000;1.250089
5664.000000;1.250637
5663.000000;1.251091
5662.000000;1.251501
5661.000000;1.251979
5660.000000;1.252577
5659.000000;1.253249
5658.000000;1.253919
5657.000000;1.254532
5656.000000;1.255067
5655.000000;1.255549
5654.000000;1.256027
5653.000000;1.256524
5652.000000;1.257003
5651.000000;1.257452
5650.000000;1.257949
5649.000000;1.258584
5648.000000;1.259330
5647.000000;1.260053
5646.000000;1.260664
5645.000000;1.261180
5644.000000;1.261661
5643.000000;1.262139
5642.000000;1.262638
5641.000000;1.263185
5640.000000;1.263767
5639.000000;1.264330
5638.000000;1.264834
5637.000000;1.265274
5636.000000;1.265654
5635.000000;1.265985
5634.000000;1.266321
5633.000000;1.266735
5632.000000;1.267237
5631.000000;1.267760
5630.000000;1.268242
5629.000000;1.268672
5628.000000;1.269048
5627.000000;1.269352
5626.000000;1.269582
5625.000000;1.269789
5624.000000;1.270039
5623.000000;1.270362
5622.000000;1.270729
5621.000000;1.271079
5620.000000;1.271368
5619.000000;1.271621
5618.000000;1.271913
5617.000000;1.272260
5616.000000;1.272588
5615.000000;1.272836
5614.000000;1.273050
5613.000000;1.273311
5612.000000;1.273615
5611.000000;1.273912
5610.000000;1.274219
5609.000000;1.274602
5608.000000;1.275059
5607.000000;1.275525
5606.000000;1.275967
5605.000000;1.276388
5604.000000;1.276725
5603.000000;1.276881
5602.000000;1.276884
5601.000000;1.276902
5600.000000;1.277076
5599.000000;1.277390
5598.000000;1.277758
5597.000000;1.278133
5596.000000;1.278503
5595.000000;1.278855
5594.000000;1.279197
5593.000000;1.279543
5592.000000;1.279846
5591.000000;1.280006
5590.000000;1.279998
5589.000000;1.279932
5588.000000;1.279939
5587.000000;1.280055
5586.000000;1.280234
5585.000000;1.280424
5584.000000;1.280578
5583.000000;1.280659
5582.000000;1.280690
5581.000000;1.280748
5580.000000;1.280869
5579.000000;1.280993
5578.000000;1.281070
5577.000000;1.281142
5576.000000;1.281295
5575.000000;1.281556
5574.000000;1.281878
5573.000000;1.282184
5572.000000;1.282397
5571.000000;1.282472
5570.000000;1.282439
5569.000000;1.282375
5568.000000;1.282332
5567.000000;1.282322
5566.000000;1.282373
5565.000000;1.282512
5564.000000;1.282675
5563.000000;1.282737
5562.000000;1.282675
5561.000000;1.282606
5560.000000;1.282613
5559.000000;1.282644
5558.000000;1.282624
5557.000000;1.282595
5556.000000;1.282636
5555.000000;1.282724
5554.000000;1.282763
5553.000000;1.282715
5552.000000;1.282595
5551.000000;1.282390
5550.000000;1.282101
5549.000000;1.281829
5548.000000;1.281724
5547.000000;1.281841
5546.000000;1.282095
5545.000000;1.282364
5544.000000;1.282581
5543.000000;1.282758
5542.000000;1.282973
5541.000000;1.283303
5540.000000;1.283691
5539.000000;1.283917
5538.000000;1.283791
5537.000000;1.283349
5536.000000;1.282811
5535.000000;1.282374
5534.000000;1.282110
5533.000000;1.282010
5532.000000;1.282029
5531.000000;1.282102
5530.000000;1.282194
5529.000000;1.282334
5528.000000;1.282561
5527.000000;1.282853
5526.000000;1.283137
5525.000000;1.283328
5524.000000;1.283361
5523.000000;1.283255
5522.000000;1.283130
5521.000000;1.283090
5520.000000;1.283041
5519.000000;1.282776
5518.000000;1.282286
5517.000000;1.281866
5516.000000;1.281823
5515.000000;1.282169
5514.000000;1.282682
5513.000000;1.283159
5512.000000;1.283475
5511.000000;1.283505
5510.000000;1.283209
5509.000000;1.282767
5508.000000;1.282458
5507.000000;1.282379
5506.000000;1.282383
5505.000000;1.282308
5504.000000;1.282170
5503.000000;1.282109
5502.000000;1.282234
5501.000000;1.282569
5500.000000;1.283086
5499.000000;1.283733
5498.000000;1.284443
5497.000000;1.285019
5496.000000;1.285074
5495.000000;1.284300
5494.000000;1.282843
5493.000000;1.281278
5492.000000;1.280091
5491.000000;1.279243
5490.000000;1.278449
5489.000000;1.277684
5488.000000;1.277211
5487.000000;1.277274
5486.000000;1.277981
5485.000000;1.279351
5484.000000;1.281232
5483.000000;1.283222
5482.000000;1.284913
5481.000000;1.286264
5480.000000;1.287463
5479.000000;1.288332
5478.000000;1.288272
5477.000000;1.286972
5476.000000;1.284973
5475.000000;1.283326
5474.000000;1.282619
5473.000000;1.282565
5472.000000;1.282635
5471.000000;1.282695
5470.000000;1.282939
5469.000000;1.283556
5468.000000;1.284571
5467.000000;1.285824
5466.000000;1.287047
5465.000000;1.287889
5464.000000;1.288006
5463.000000;1.287349
5462.000000;1.286337
5461.000000;1.285605
5460.000000;1.285493
5459.000000;1.285822
5458.000000;1.286276
5457.000000;1.286817
5456.000000;1.287640
5455.000000;1.288932
5454.000000;1.290722
5453.000000;1.292741
5452.000000;1.294446
5451.000000;1.295415
5450.000000;1.295673
5449.000000;1.295431
5448.000000;1.294638
5447.000000;1.293195
5446.000000;1.291483
5445.000000;1.290064
5444.000000;1.288956
5443.000000;1.287808
5442.000000;1.286749
5441.000000;1.286459
5440.000000;1.287402
5439.000000;1.289270
5438.000000;1.291297
5437.000000;1.292913
5436.000000;1.293947
5435.000000;1.294670
5434.000000;1.295661
5433.000000;1.297031
5432.000000;1.298043
5431.000000;1.297940
5430.000000;1.296855
5429.000000;1.295764
5428.000000;1.295660
5427.000000;1.296787
5426.000000;1.298707
5425.000000;1.300912
5424.000000;1.303209
5423.000000;1.305783
5422.000000;1.308982
5421.000000;1.312906
5420.000000;1.317197
5419.000000;1.321233
5418.000000;1.324348
5417.000000;1.325974
5416.000000;1.325893
5415.000000;1.324419
5414.000000;1.322239
5413.000000;1.319830
5412.000000;1.317208
5411.000000;1.314545
5410.000000;1.312665
5409.000000;1.312447
5408.000000;1.314069
5407.000000;1.317251
5406.000000;1.321824
5405.000000;1.327538
5404.000000;1.333599
5403.000000;1.339050
5402.000000;1.343557
5401.000000;1.347363
5400.000000;1.350533
5399.000000;1.352879
5398.000000;1.354409
5397.000000;1.355306
5396.000000;1.355665
5395.000000;1.355564
5394.000000;1.355407
5393.000000;1.355731
5392.000000;1.356718
5391.000000;1.358263
5390.000000;1.360384
5389.000000;1.363117
5388.000000;1.366196
5387.000000;1.369288
5386.000000;1.372539
5385.000000;1.376360
5384.000000;1.380585
5383.000000;1.384471
5382.000000;1.387777
5381.000000;1.390950
5380.000000;1.394180
5379.000000;1.397124
5378.000000;1.399572
5377.000000;1.401832
5376.000000;1.404286
5375.000000;1.406882
5374.000000;1.409503
5373.000000;1.412468
5372.000000;1.416163
5371.000000;1.420639
5370.000000;1.425852
5369.000000;1.431909
5368.000000;1.438712
5367.000000;1.445553
5366.000000;1.451525
5365.000000;1.456343
5364.000000;1.460476
5363.000000;1.464477
5362.000000;1.468594
5361.000000;1.472903
5360.000000;1.477481
5359.000000;1.482377
5358.000000;1.487490
5357.000000;1.492526
5356.000000;1.497057
5355.000000;1.500765
5354.000000;1.503807
5353.000000;1.506815
5352.000000;1.510280
5351.000000;1.514141
5350.000000;1.518301
5349.000000;1.522983
5348.000000;1.528220
5347.000000;1.533510
5346.000000;1.538327
5345.000000;1.542846
5344.000000;1.547853
5343.000000;1.553683
5342.000000;1.559690
5341.000000;1.565233
5340.000000;1.570326
5339.000000;1.575331
5338.000000;1.580779
5337.000000;1.587222
5336.000000;1.594701
5335.000000;1.602588
5334.000000;1.610211
5333.000000;1.617621
5332.000000;1.625587
5331.000000;1.634613
5330.000000;1.644142
5329.000000;1.652973
5328.000000;1.660358
5327.000000;1.666543
5326.000000;1.672268
5325.000000;1.678047
5324.000000;1.684129
5323.000000;1.690708
5322.000000;1.697822
5321.000000;1.705351
5320.000000;1.713096
5319.000000;1.720700
5318.000000;1.727630
5317.000000;1.733542
5316.000000;1.738611
5315.000000;1.743347
5314.000000;1.748111
5313.000000;1.752955
5312.000000;1.757783
5311.000000;1.762371
5310.000000;1.766396
5309.000000;1.769689
5308.000000;1.772440
5307.000000;1.775046
5306.000000;1.777749
5305.000000;1.780560
5304.000000;1.783461
5303.000000;1.786502
5302.000000;1.789705
5301.000000;1.793039
5300.000000;1.796502
5299.000000;1.800055
5298.000000;1.803477
5297.000000;1.806402
5296.000000;1.808647
5295.000000;1.810394
5294.000000;1.811906
5293.000000;1.813224
5292.000000;1.814261
5291.000000;1.815041
5290.000000;1.815772
5289.000000;1.816638
5288.000000;1.817572
5287.000000;1.818332
5286.000000;1.818765
5285.000000;1.819016
5284.000000;1.819512
5283.000000;1.820630
5282.000000;1.822322
5281.000000;1.824157
5280.000000;1.825777
5279.000000;1.827206
5278.000000;1.828626
5277.000000;1.829976
5276.000000;1.831009
5275.000000;1.831721
5274.000000;1.832461
5273.000000;1.833539
5272.000000;1.834868
5271.000000;1.836035
5270.000000;1.836680
5269.000000;1.836816
5268.000000;1.836676
5267.000000;1.836293
5266.000000;1.835364
5265.000000;1.833583
5264.000000;1.831160
5263.000000;1.828899
5262.000000;1.827593
5261.000000;1.827442
5260.000000;1.828212
5259.000000;1.829568
5258.000000;1.831174
5257.000000;1.832721
5256.000000;1.834028
5255.000000;1.835117
5254.000000;1.836126
5253.000000;1.837081
5252.000000;1.837840
5251.000000;1.838242
5250.000000;1.838121
5249.000000;1.837443
5248.000000;1.836472
5247.000000;1.835616
5246.000000;1.835007
5245.000000;1.834440
5244.000000;1.833888
5243.000000;1.833778
5242.000000;1.834630
5241.000000;1.836546
5240.000000;1.839309
5239.000000;1.842629
5238.000000;1.846031
5237.000000;1.848742
5236.000000;1.850139
5235.000000;1.850308
5234.000000;1.849866
5233.000000;1.849234
5232.000000;1.848390
5231.000000;1.847387
5230.000000;1.846609
5229.000000;1.846176
5228.000000;1.845628
5227.000000;1.844614
5226.000000;1.843469
5225.000000;1.842736
5224.000000;1.842445
5223.000000;1.842273
5222.000000;1.842150
5221.000000;1.842256
5220.000000;1.842691
5219.000000;1.843555
5218.000000;1.845029
5217.000000;1.846987
5216.000000;1.848788
5215.000000;1.849830
5214.000000;1.850210
5213.000000;1.850492
5212.000000;1.850984
5211.000000;1.851569
5210.000000;1.851935
5209.000000;1.851632
5208.000000;1.850178
5207.000000;1.847572
5206.000000;1.844639
5205.000000;1.842487
5204.000000;1.841645
5203.000000;1.841966
5202.000000;1.843161
5201.000000;1.844996
5200.000000;1.847105
5199.000000;1.849048
5198.000000;1.850588
5197.000000;1.851674
5196.000000;1.852174
5195.000000;1.851939
5194.000000;1.851182
5193.000000;1.850460
5192.000000;1.850209
5191.000000;1.850499
5190.000000;1.851186
5189.000000;1.852040
5188.000000;1.852685
5187.000000;1.852682
5186.000000;1.851857
5185.000000;1.850525
5184.000000;1.849280
5183.000000;1.848546
5182.000000;1.848381
5181.000000;1.848633
5180.000000;1.849127
5179.000000;1.849751
5178.000000;1.850445
5177.000000;1.851152
5176.000000;1.851810
5175.000000;1.852358
5174.000000;1.852715
5173.000000;1.852788
5172.000000;1.852592
5171.000000;1.852365
5170.000000;1.852430
5169.000000;1.852858
5168.000000;1.853328
5167.000000;1.853424
5166.000000;1.853037
5165.000000;1.852405
5164.000000;1.851833
5163.000000;1.851477
5162.000000;1.851328
5161.000000;1.851290
5160.000000;1.851265
5159.000000;1.851218
5158.000000;1.851191
5157.000000;1.851200
5156.000000;1.851152
5155.000000;1.850916
5154.000000;1.850481
5153.000000;1.849994
5152.000000;1.849649
5151.000000;1.849570
5150.000000;1.849786
5149.000000;1.850271
5148.000000;1.850946
5147.000000;1.851670
5146.000000;1.852276
5145.000000;1.852606
5144.000000;1.852525
5143.000000;1.851965
5142.000000;1.851042
5141.000000;1.850052
5140.000000;1.849340
5139.000000;1.849108
5138.000000;1.849339
5137.000000;1.849813
5136.000000;1.850200
5135.000000;1.850226
5134.000000;1.849851
5133.000000;1.849299
5132.000000;1.848884
5131.000000;1.848724
5130.000000;1.848624
5129.000000;1.848282
5128.000000;1.847668
5127.000000;1.847127
5126.000000;1.847045
5125.000000;1.847426
5124.000000;1.847892
5123.000000;1.848060
5122.000000;1.847887
5121.000000;1.847625
5120.000000;1.847517
5119.000000;1.847563
5118.000000;1.847523
5117.000000;1.847121
5116.000000;1.846296
5115.000000;1.845293
5114.000000;1.844515
5113.000000;1.844273
5112.000000;1.844620
5111.000000;1.845338
5110.000000;1.846024
5109.000000;1.846284
5108.000000;1.846012
5107.000000;1.845499
5106.000000;1.845157
5105.000000;1.845093
5104.000000;1.845051
5103.000000;1.844786
5102.000000;1.844389
5101.000000;1.844144
5100.000000;1.844152
5099.000000;1.844239
5098.000000;1.844206
5097.000000;1.844003
5096.000000;1.843647
5095.000000;1.843102
5094.000000;1.842374
5093.000000;1.841651
5092.000000;1.841226
5091.000000;1.841221
5090.000000;1.841434
5089.000000;1.841507
5088.000000;1.841250
5087.000000;1.840762
5086.000000;1.840260
5085.000000;1.839842
5084.000000;1.839465
5083.000000;1.839099
5082.000000;1.838828
5081.000000;1.838758
5080.000000;1.838859
5079.000000;1.838947
5078.000000;1.838872
5077.000000;1.838710
5076.000000;1.838693
5075.000000;1.838872
5074.000000;1.838919
5073.000000;1.838416
5072.000000;1.837371
5071.000000;1.836308
5070.000000;1.835752
5069.000000;1.835753
5068.000000;1.835965
5067.000000;1.836056
5066.000000;1.835903
5065.000000;1.835529
5064.000000;1.835089
5063.000000;1.834820
5062.000000;1.834767
5061.000000;1.834599
5060.000000;1.833978
5059.000000;1.833131
5058.000000;1.832727
5057.000000;1.833083
5056.000000;1.833793
5055.000000;1.834282
5054.000000;1.834447
5053.000000;1.834507
5052.000000;1.834460
5051.000000;1.834103
5050.000000;1.833495
5049.000000;1.832992
5048.000000;1.832759
5047.000000;1.832564
5046.000000;1.832166
5045.000000;1.831674
5044.000000;1.831351
5043.000000;1.831256
5042.000000;1.831245
5041.000000;1.831228
5040.000000;1.831240
5039.000000;1.831260
5038.000000;1.831112
5037.000000;1.830580
5036.000000;1.829618
5035.000000;1.828452
5034.000000;1.827505
5033.000000;1.827113
5032.000000;1.827233
5031.000000;1.827467
5030.000000;1.827444
5029.000000;1.827154
5028.000000;1.826814
5027.000000;1.826483
5026.000000;1.825952
5025.000000;1.825088
5024.000000;1.824124
5023.000000;1.823511
5022.000000;1.823498
5021.000000;1.823939
5020.000000;1.824478
5019.000000;1.824822
5018.000000;1.824826
5017.000000;1.824446
5016.000000;1.823737
5015.000000;1.822882
5014.000000;1.822103
5013.000000;1.821478
5012.000000;1.820902
5011.000000;1.820271
5010.000000;1.819656
5009.000000;1.819220
5008.000000;1.819009
5007.000000;1.818928
5006.000000;1.818927
5005.000000;1.819076
5004.000000;1.819360
5003.000000;1.819489
5002.000000;1.819074
5001.000000;1.818031
5000.000000;1.816741
4999.000000;1.815728
4998.000000;1.815312
4997.000000;1.815403
4996.000000;1.815597
4995.000000;1.815505
4994.000000;1.814845
4993.000000;1.813754
4992.000000;1.812715
4991.000000;1.812137
4990.000000;1.811940
4989.000000;1.811667
4988.000000;1.811007
4987.000000;1.810104
4986.000000;1.809331
4985.000000;1.808901
4984.000000;1.808769
4983.000000;1.808768
4982.000000;1.808710
4981.000000;1.808456
4980.000000;1.808040
4979.000000;1.807701
4978.000000;1.807648
4977.000000;1.807799
4976.000000;1.807827
4975.000000;1.807495
4974.000000;1.806851
4973.000000;1.806102
4972.000000;1.805418
4971.000000;1.804858
4970.000000;1.804386
4969.000000;1.803905
4968.000000;1.803340
4967.000000;1.802747
4966.000000;1.802273
4965.000000;1.801987
4964.000000;1.801774
4963.000000;1.801441
4962.000000;1.800875
4961.000000;1.800112
4960.000000;1.799282
4959.000000;1.798513
4958.000000;1.797845
4957.000000;1.797219
4956.000000;1.796596
4955.000000;1.796035
4954.000000;1.795581
4953.000000;1.795141
4952.000000;1.794601
4951.000000;1.794062
4950.000000;1.793758
4949.000000;1.793690
4948.000000;1.793540
4947.000000;1.793061
4946.000000;1.792410
4945.000000;1.791876
4944.000000;1.791399
4943.000000;1.790604
4942.000000;1.789333
4941.000000;1.787929
4940.000000;1.786885
4939.000000;1.786366
4938.000000;1.786158
4937.000000;1.785988
4936.000000;1.785757
4935.000000;1.785501
4934.000000;1.785240
4933.000000;1.784942
4932.000000;1.784600
4931.000000;1.784265
4930.000000;1.783984
4929.000000;1.783674
4928.000000;1.783127
4927.000000;1.782186
4926.000000;1.780901
4925.000000;1.779509
4924.000000;1.778282
4923.000000;1.777410
4922.000000;1.776941
4921.000000;1.776732
4920.000000;1.776496
4919.000000;1.776010
4918.000000;1.775309
4917.000000;1.774617
4916.000000;1.774084
4915.000000;1.773672
4914.000000;1.773278
4913.000000;1.772858
4912.000000;1.772365
4911.000000;1.771703
4910.000000;1.770821
4909.000000;1.769815
4908.000000;1.768840
4907.000000;1.767952
4906.000000;1.767085
4905.000000;1.766154
4904.000000;1.765130
4903.000000;1.764086
4902.000000;1.763191
4901.000000;1.762623
4900.000000;1.762393
4899.000000;1.762276
4898.000000;1.761993
4897.000000;1.761426
4896.000000;1.760634
4895.000000;1.759727
4894.000000;1.758839
4893.000000;1.758146
4892.000000;1.757747
4891.000000;1.757492
4890.000000;1.757037
4889.000000;1.756135
4888.000000;1.754827
4887.000000;1.753346
4886.000000;1.751961
4885.000000;1.750930
4884.000000;1.750428
4883.000000;1.750378
4882.000000;1.750400
4881.000000;1.750059
4880.000000;1.749193
4879.000000;1.747963
4878.000000;1.746628
4877.000000;1.745348
4876.000000;1.744176
4875.000000;1.743119
4874.000000;1.742151
4873.000000;1.741217
4872.000000;1.740269
4871.000000;1.739301
4870.000000;1.738359
4869.000000;1.737523
4868.000000;1.736859
4867.000000;1.736376
4866.000000;1.736018
4865.000000;1.735721
4864.000000;1.735444
4863.000000;1.735121
4862.000000;1.734630
4861.000000;1.733846
4860.000000;1.732738
4859.000000;1.731368
4858.000000;1.729832
4857.000000;1.728229
4856.000000;1.726674
4855.000000;1.725278
4854.000000;1.724089
4853.000000;1.723082
4852.000000;1.722200
4851.000000;1.721405
4850.000000;1.720678
4849.000000;1.720026
4848.000000;1.719448
4847.000000;1.718877
4846.000000;1.718160
4845.000000;1.717157
4844.000000;1.715890
4843.000000;1.714551
4842.000000;1.713362
4841.000000;1.712435
4840.000000;1.711736
4839.000000;1.711118
4838.000000;1.710404
4837.000000;1.709511
4836.000000;1.708527
4835.000000;1.707604
4834.000000;1.706748
4833.000000;1.705792
4832.000000;1.704624
4831.000000;1.703363
4830.000000;1.702213
4829.000000;1.701183
4828.000000;1.700094
4827.000000;1.698865
4826.000000;1.697690
4825.000000;1.696848
4824.000000;1.696362
4823.000000;1.695948
4822.000000;1.695289
4821.000000;1.694318
4820.000000;1.693194
4819.000000;1.692049
4818.000000;1.690847
4817.000000;1.689484
4816.000000;1.687981
4815.000000;1.686505
4814.000000;1.685228
4813.000000;1.684205
4812.000000;1.683402
4811.000000;1.682764
4810.000000;1.682203
4809.000000;1.681563
4808.000000;1.680698
4807.000000;1.679624
4806.000000;1.678524
4805.000000;1.677551
4804.000000;1.676649
4803.000000;1.675622
4802.000000;1.674352
4801.000000;1.672914
4800.000000;1.671468
4799.000000;1.670131
4798.000000;1.668962
4797.000000;1.667976
4796.000000;1.667090
4795.000000;1.666108
4794.000000;1.664886
4793.000000;1.663523
4792.000000;1.662306
4791.000000;1.661407
4790.000000;1.660683
4789.000000;1.659812
4788.000000;1.658596
4787.000000;1.657123
4786.000000;1.655644
4785.000000;1.654326
4784.000000;1.653109
4783.000000;1.651819
4782.000000;1.650426
4781.000000;1.649157
4780.000000;1.648274
4779.000000;1.647754
4778.000000;1.647254
4777.000000;1.646410
4776.000000;1.645131
4775.000000;1.643604
4774.000000;1.642099
4773.000000;1.640796
4772.000000;1.639679
4771.000000;1.638540
4770.000000;1.637168
4769.000000;1.635637
4768.000000;1.634304
4767.000000;1.633444
4766.000000;1.632937
4765.000000;1.632436
4764.000000;1.631768
4763.000000;1.631039
4762.000000;1.630369
4761.000000;1.629689
4760.000000;1.628825
4759.000000;1.627675
4758.000000;1.626243
4757.000000;1.624607
4756.000000;1.622903
4755.000000;1.621297
4754.000000;1.619920
4753.000000;1.618821
4752.000000;1.617966
4751.000000;1.617219
4750.000000;1.616361
4749.000000;1.615250
4748.000000;1.613966
4747.000000;1.612723
4746.000000;1.611613
4745.000000;1.610535
4744.000000;1.609403
4743.000000;1.608287
4742.000000;1.607273
4741.000000;1.606280
4740.000000;1.605107
4739.000000;1.603663
4738.000000;1.602075
4737.000000;1.600604
4736.000000;1.599457
4735.000000;1.598632
4734.000000;1.597897
4733.000000;1.596962
4732.000000;1.595736
4731.000000;1.594396
4730.000000;1.593196
4729.000000;1.592247
4728.000000;1.591478
4727.000000;1.590735
4726.000000;1.589877
4725.000000;1.588868
4724.000000;1.587835
4723.000000;1.586981
4722.000000;1.586351
4721.000000;1.585731
4720.000000;1.584871
4719.000000;1.583757
4718.000000;1.582576
4717.000000;1.581450
4716.000000;1.580314
4715.000000;1.579066
4714.000000;1.577735
4713.000000;1.576442
4712.000000;1.575290
4711.000000;1.574319
4710.000000;1.573507
4709.000000;1.572752
4708.000000;1.571895
4707.000000;1.570825
4706.000000;1.569571
4705.000000;1.568267
4704.000000;1.567043
4703.000000;1.565966
4702.000000;1.565067
4701.000000;1.564348
4700.000000;1.563749
4699.000000;1.563134
4698.000000;1.562371
4697.000000;1.561420
4696.000000;1.560340
4695.000000;1.559206
4694.000000;1.558046
4693.000000;1.556864
4692.000000;1.555703
4691.000000;1.554673
4690.000000;1.553886
4689.000000;1.553367
4688.000000;1.552969
4687.000000;1.552418
4686.000000;1.551508
4685.000000;1.550296
4684.000000;1.549078
4683.000000;1.548093
4682.000000;1.547287
4681.000000;1.546398
4680.000000;1.545283
4679.000000;1.544072
4678.000000;1.542997
4677.000000;1.542132
4676.000000;1.541358
4675.000000;1.540525
4674.000000;1.539606
4673.000000;1.538679
4672.000000;1.537820
4671.000000;1.537032
4670.000000;1.536273
4669.000000;1.535507
4668.000000;1.534712
4667.000000;1.533843
4666.000000;1.532848
4665.000000;1.531760
4664.000000;1.530732
4663.000000;1.529909
4662.000000;1.529276
4661.000000;1.528674
4660.000000;1.527959
4659.000000;1.527093
4658.000000;1.526110
4657.000000;1.525078
4656.000000;1.524112
4655.000000;1.523332
4654.000000;1.522751
4653.000000;1.522259
4652.000000;1.521734
4651.000000;1.521136
4650.000000;1.520488
4649.000000;1.519832
4648.000000;1.519224
4647.000000;1.518696
4646.000000;1.518175
4645.000000;1.517500
4644.000000;1.516608
4643.000000;1.515635
4642.000000;1.514758
4641.000000;1.513968
4640.000000;1.513111
4639.000000;1.512108
4638.000000;1.511053
4637.000000;1.510085
4636.000000;1.509238
4635.000000;1.508463
4634.000000;1.507702
4633.000000;1.506922
4632.000000;1.506114
4631.000000;1.505320
4630.000000;1.504612
4629.000000;1.504020
4628.000000;1.503476
4627.000000;1.502881
4626.000000;1.502185
4625.000000;1.501419
4624.000000;1.500630
4623.000000;1.499833
4622.000000;1.499011
4621.000000;1.498160
4620.000000;1.497329
4619.000000;1.496590
4618.000000;1.495971
4617.000000;1.495446
4616.000000;1.495006
4615.000000;1.494685
4614.000000;1.494480
4613.000000;1.494265
4612.000000;1.493873
4611.000000;1.493265
4610.000000;1.492535
4609.000000;1.491730
4608.000000;1.490764
4607.000000;1.489598
4606.000000;1.488422
4605.000000;1.487538
4604.000000;1.487039
4603.000000;1.486712
4602.000000;1.486305
4601.000000;1.485792
4600.000000;1.485290
4599.000000;1.484798
4598.000000;1.484144
4597.000000;1.483232
4596.000000;1.482210
4595.000000;1.481336
4594.000000;1.480710
4593.000000;1.480221
4592.000000;1.479731
4591.000000;1.479244
4590.000000;1.478854
4589.000000;1.478555
4588.000000;1.478171
4587.000000;1.477526
4586.000000;1.476665
4585.000000;1.475843
4584.000000;1.475261
4583.000000;1.474881
4582.000000;1.474528
4581.000000;1.474115
4580.000000;1.473659
4579.000000;1.473121
4578.000000;1.472390
4577.000000;1.471472
4576.000000;1.470563
4575.000000;1.469848
4574.000000;1.469335
4573.000000;1.468943
4572.000000;1.468650
4571.000000;1.468398
4570.000000;1.467988
4569.000000;1.467257
4568.000000;1.466361
4567.000000;1.465672
4566.000000;1.465354
4565.000000;1.465200
4564.000000;1.464942
4563.000000;1.464529
4562.000000;1.464046
4561.000000;1.463512
4560.000000;1.462918
4559.000000;1.462334
4558.000000;1.461798
4557.000000;1.461196
4556.000000;1.460440
4555.000000;1.459726
4554.000000;1.459385
4553.000000;1.459447
4552.000000;1.459522
4551.000000;1.459205
4550.000000;1.458501
4549.000000;1.457759
4548.000000;1.457287
4547.000000;1.457095
4546.000000;1.456938
4545.000000;1.456516
4544.000000;1.455707
4543.000000;1.454695
4542.000000;1.453855
4541.000000;1.453394
4540.000000;1.453141
4539.000000;1.452769
4538.000000;1.452208
4537.000000;1.451726
4536.000000;1.451568
4535.000000;1.451634
4534.000000;1.451598
4533.000000;1.451244
4532.000000;1.450605
4531.000000;1.449828
4530.000000;1.449038
4529.000000;1.448351
4528.000000;1.447885
4527.000000;1.447659
4526.000000;1.447519
4525.000000;1.447247
4524.000000;1.446744
4523.000000;1.446087
4522.000000;1.445425
4521.000000;1.444859
4520.000000;1.444422
4519.000000;1.444133
4518.000000;1.444036
4517.000000;1.444152
4516.000000;1.444407
4515.000000;1.444640
4514.000000;1.444738
4513.000000;1.444728
4512.000000;1.444684
4511.000000;1.444551
4510.000000;1.444182
4509.000000;1.443583
4508.000000;1.443015
4507.000000;1.442754
4506.000000;1.442789
4505.000000;1.442844
4504.000000;1.442676
4503.000000;1.442273
4502.000000;1.441768
4501.000000;1.441288
4500.000000;1.440878
4499.000000;1.440513
4498.000000;1.440134
4497.000000;1.439737
4496.000000;1.439421
4495.000000;1.439284
4494.000000;1.439282
4493.000000;1.439285
4492.000000;1.439272
4491.000000;1.439330
4490.000000;1.439435
4489.000000;1.439367
4488.000000;1.438979
4487.000000;1.438456
4486.000000;1.438167
4485.000000;1.438296
4484.000000;1.438706
4483.000000;1.439130
4482.000000;1.439384
4481.000000;1.439386
4480.000000;1.439136
4479.000000;1.438720
4478.000000;1.438307
4477.000000;1.438076
4476.000000;1.438164
4475.000000;1.438620
4474.000000;1.439320
4473.000000;1.439939
4472.000000;1.440125
4471.000000;1.439782
4470.000000;1.439138
4469.000000;1.438521
4468.000000;1.438127
4467.000000;1.437998
4466.000000;1.438108
4465.000000;1.438374
4464.000000;1.438642
4463.000000;1.438793
4462.000000;1.438871
4461.000000;1.439029
4460.000000;1.439350
4459.000000;1.439739
4458.000000;1.440022
4457.000000;1.440081
4456.000000;1.439918
4455.000000;1.439638
4454.000000;1.439415
4453.000000;1.439405
4452.000000;1.439620
4451.000000;1.439898
4450.000000;1.440038
4449.000000;1.439992
4448.000000;1.439881
4447.000000;1.439840
4446.000000;1.439899
4445.000000;1.440058
4444.000000;1.440394
4443.000000;1.441020
4442.000000;1.441892
4441.000000;1.442731
4440.000000;1.443194
4439.000000;1.443141
4438.000000;1.442713
4437.000000;1.442210
4436.000000;1.441921
4435.000000;1.442030
4434.000000;1.442542
4433.000000;1.443223
4432.000000;1.443671
4431.000000;1.443589
4430.000000;1.443039
4429.000000;1.442424
4428.000000;1.442167
4427.000000;1.442394
4426.000000;1.442899
4425.000000;1.443395
4424.000000;1.443792
4423.000000;1.444241
4422.000000;1.444872
4421.000000;1.445537
4420.000000;1.445885
4419.000000;1.445741
4418.000000;1.445331
4417.000000;1.445032
4416.000000;1.444916
4415.000000;1.444694
4414.000000;1.444152
4413.000000;1.443554
4412.000000;1.443462
4411.000000;1.444177
4410.000000;1.445431
4409.000000;1.446624
4408.000000;1.447290
4407.000000;1.447330
4406.000000;1.446935
4405.000000;1.446428
4404.000000;1.446119
4403.000000;1.446166
4402.000000;1.446505
4401.000000;1.446969
4400.000000;1.447481
4399.000000;1.448072
4398.000000;1.448671
4397.000000;1.448999
4396.000000;1.448789
4395.000000;1.448080
4394.000000;1.447214
4393.000000;1.446537
4392.000000;1.446231
4391.000000;1.446372
4390.000000;1.446959
4389.000000;1.447792
4388.000000;1.448488
4387.000000;1.448777
4386.000000;1.448772
4385.000000;1.448787
4384.000000;1.448918
4383.000000;1.448954
4382.000000;1.448701
4381.000000;1.448263
4380.000000;1.447929
4379.000000;1.447882
4378.000000;1.448093
4377.000000;1.448441
4376.000000;1.448854
4375.000000;1.449331
4374.000000;1.449865
4373.000000;1.450317
4372.000000;1.450374
4371.000000;1.449741
4370.000000;1.448470
4369.000000;1.447060
4368.000000;1.446155
4367.000000;1.446077
4366.000000;1.446619
4365.000000;1.447242
4364.000000;1.447471
4363.000000;1.447207
4362.000000;1.446711
4361.000000;1.446288
4360.000000;1.445973
4359.000000;1.445591
4358.000000;1.445084
4357.000000;1.444611
4356.000000;1.444285
4355.000000;1.443963
4354.000000;1.443430
4353.000000;1.442731
4352.000000;1.442186
4351.000000;1.442102
4350.000000;1.442517
4349.000000;1.443160
4348.000000;1.443600
4347.000000;1.443542
4346.000000;1.443077
4345.000000;1.442585
4344.000000;1.442270
4343.000000;1.441922
4342.000000;1.441257
4341.000000;1.440382
4340.000000;1.439732
4339.000000;1.439589
4338.000000;1.439856
4337.000000;1.440222
4336.000000;1.440333
4335.000000;1.439869
4334.000000;1.438760
4333.000000;1.437387
4332.000000;1.436316
4331.000000;1.435718
4330.000000;1.435248
4329.000000;1.434581
4328.000000;1.433828
4327.000000;1.433278
4326.000000;1.432930
4325.000000;1.432473
4324.000000;1.431604
4323.000000;1.430215
4322.000000;1.428422
4321.000000;1.426557
4320.000000;1.425032
4319.000000;1.424027
4318.000000;1.423377
4317.000000;1.422848
4316.000000;1.422394
4315.000000;1.422023
4314.000000;1.421585
4313.000000;1.420916
4312.000000;1.420086
4311.000000;1.419254
4310.000000;1.418343
4309.000000;1.417072
4308.000000;1.415340
4307.000000;1.413400
4306.000000;1.411652
4305.000000;1.410372
4304.000000;1.409554
4303.000000;1.408834
4302.000000;1.407619
4301.000000;1.405572
4300.000000;1.403067
4299.000000;1.401013
4298.000000;1.400118
4297.000000;1.400324
4296.000000;1.400835
4295.000000;1.400589
4294.000000;1.398836
4293.000000;1.395569
4292.000000;1.391541
4291.000000;1.387754
4290.000000;1.384800
4289.000000;1.382618
4288.000000;1.380764
4287.000000;1.378834
4286.000000;1.376712
4285.000000;1.374589
4284.000000;1.372714
4283.000000;1.370991
4282.000000;1.368842
4281.000000;1.365743
4280.000000;1.361979
4279.000000;1.358608
4278.000000;1.356439
4277.000000;1.355092
4276.000000;1.353289
4275.000000;1.350181
4274.000000;1.346369
4273.000000;1.343387
4272.000000;1.342042
4271.000000;1.341461
4270.000000;1.340006
4269.000000;1.337073
4268.000000;1.333606
4267.000000;1.330658
4266.000000;1.327964
4265.000000;1.324392
4264.000000;1.319542
4263.000000;1.314202
4262.000000;1.309225
4261.000000;1.304624
4260.000000;1.300069
4259.000000;1.295721
4258.000000;1.292090
4257.000000;1.289201
4256.000000;1.286330
4255.000000;1.282627
4254.000000;1.277857
4253.000000;1.272574
4252.000000;1.267639
4251.000000;1.263423
4250.000000;1.259349
4249.000000;1.254360
4248.000000;1.247917
4247.000000;1.240461
4246.000000;1.232844
4245.000000;1.225526
4244.000000;1.218485
4243.000000;1.211630
4242.000000;1.205181
4241.000000;1.199355
4240.000000;1.193993
4239.000000;1.188558
4238.000000;1.182585
4237.000000;1.176109
4236.000000;1.169487
4235.000000;1.162694
4234.000000;1.154937
4233.000000;1.145331
4232.000000;1.134001
4231.000000;1.122144
4230.000000;1.110772
4229.000000;1.099644
4228.000000;1.087677
4227.000000;1.074339
4226.000000;1.060400
4225.000000;1.047182
4224.000000;1.035169
4223.000000;1.023410
4222.000000;1.010389
4221.000000;0.995486
4220.000000;0.979396
4219.000000;0.962993
4218.000000;0.946188
4217.000000;0.928319
4216.000000;0.909288
4215.000000;0.889575
4214.000000;0.869137
4213.000000;0.846961
4212.000000;0.821896
4211.000000;0.793595
4210.000000;0.762782
4209.000000;0.730891
4208.000000;0.698783
4207.000000;0.664890
4206.000000;0.625433
4205.000000;0.578160
4204.000000;0.525514
4203.000000;0.471744
4202.000000;0.416584
4201.000000;0.355999
4200.000000;0.292849
4199.000000;0.243713
4198.000000;0.227625
4197.000000;0.249920
4196.000000;0.301361
4195.000000;0.365922
4194.000000;0.431614
4193.000000;0.494700
4192.000000;0.554468
4191.000000;0.609847
4190.000000;0.660985
4189.000000;0.709392
4188.000000;0.755178
4187.000000;0.796460
4186.000000;0.832484
4185.000000;0.865613
4184.000000;0.898944
4183.000000;0.932934
4182.000000;0.965499
4181.000000;0.994835
4180.000000;1.021119
4179.000000;1.045737
4178.000000;1.069717
4177.000000;1.093142
4176.000000;1.115524
4175.000000;1.136340
4174.000000;1.155561
4173.000000;1.173938
4172.000000;1.192518
4171.000000;1.211829
4170.000000;1.231620
4169.000000;1.251225
4168.000000;1.269981
4167.000000;1.287511
4166.000000;1.303906
4165.000000;1.319479
4164.000000;1.334093
4163.000000;1.347076
4162.000000;1.358346
4161.000000;1.369456
4160.000000;1.382711
4159.000000;1.398947
4158.000000;1.416587
4157.000000;1.433378
4156.000000;1.448819
4155.000000;1.463861
4154.000000;1.478454
4153.000000;1.490911
4152.000000;1.500266
4151.000000;1.508031
4150.000000;1.516532
4149.000000;1.526540
4148.000000;1.537806
4147.000000;1.550887
4146.000000;1.566471
4145.000000;1.582942
4144.000000;1.596519
4143.000000;1.605079
4142.000000;1.610728
4141.000000;1.617344
4140.000000;1.626688
4139.000000;1.637885
4138.000000;1.649448
4137.000000;1.660510
4136.000000;1.670592
4135.000000;1.679487
4134.000000;1.687766
4133.000000;1.696912
4132.000000;1.708282
4131.000000;1.721662
4130.000000;1.734653
4129.000000;1.743814
4128.000000;1.747694
4127.000000;1.749336
4126.000000;1.754402
4125.000000;1.765615
4124.000000;1.779322
4123.000000;1.788766
4122.000000;1.791516
4121.000000;1.792070
4120.000000;1.796435
4119.000000;1.806238
4118.000000;1.818473
4117.000000;1.829123
4116.000000;1.836056
4115.000000;1.839234
4114.000000;1.839840
4113.000000;1.839892
4112.000000;1.841981
4111.000000;1.848244
4110.000000;1.858981
4109.000000;1.871871
4108.000000;1.882961
4107.000000;1.889540
4106.000000;1.892836
4105.000000;1.897295
4104.000000;1.906786
4103.000000;1.921212
4102.000000;1.935844
4101.000000;1.944113
4100.000000;1.942925
4099.000000;1.936337
4098.000000;1.932830
4097.000000;1.938106
4096.000000;1.950745
4095.000000;1.964565
4094.000000;1.974976
4093.000000;1.982609
4092.000000;1.990763
4091.000000;2.000814
4090.000000;2.011011
4089.000000;2.018588
4088.000000;2.022449
4087.000000;2.024066
4086.000000;2.026132
4085.000000;2.030013
4084.000000;2.034630
4083.000000;2.038613
4082.000000;2.042731
4081.000000;2.048595
4080.000000;2.055500
4079.000000;2.061419
4078.000000;2.067326
4077.000000;2.077130
4076.000000;2.092053
4075.000000;2.106967
4074.000000;2.114607
4073.000000;2.113838
4072.000000;2.111101
4071.000000;2.113238
4070.000000;2.121269
4069.000000;2.130397
4068.000000;2.134723
4067.000000;2.132189
4066.000000;2.126633
4065.000000;2.125252
4064.000000;2.132432
4063.000000;2.146105
4062.000000;2.159816
4061.000000;2.167981
4060.000000;2.169558
4059.000000;2.167251
4058.000000;2.164555
4057.000000;2.164130
4056.000000;2.167641
4055.000000;2.176006
4054.000000;2.189335
4053.000000;2.205782
4052.000000;2.220991
4051.000000;2.230947
4050.000000;2.235958
4049.000000;2.240089
4048.000000;2.245975
4047.000000;2.252391
4046.000000;2.257819
4045.000000;2.263872
4044.000000;2.272344
4043.000000;2.280441
4042.000000;2.283100
4041.000000;2.279965
4040.000000;2.276252
4039.000000;2.276838
4038.000000;2.280474
4037.000000;2.280934
4036.000000;2.275315
4035.000000;2.267592
4034.000000;2.263576
4033.000000;2.265361
4032.000000;2.269858
4031.000000;2.272297
4030.000000;2.272065
4029.000000;2.274662
4028.000000;2.286156
4027.000000;2.306065
4026.000000;2.326864
4025.000000;2.341810
4024.000000;2.352198
4023.000000;2.362703
4022.000000;2.371976
4021.000000;2.374465
4020.000000;2.370653
4019.000000;2.369067
4018.000000;2.377610
4017.000000;2.395817
4016.000000;2.415196
4015.000000;2.426901
4014.000000;2.429582
4013.000000;2.429167
4012.000000;2.429880
4011.000000;2.428179
4010.000000;2.419019
4009.000000;2.405303
4008.000000;2.396739
4007.000000;2.400007
4006.000000;2.412250
4005.000000;2.425623
4004.000000;2.437118
4003.000000;2.449907
4002.000000;2.464746
4001.000000;2.475261
4000.000000;2.476080
3999.000000;2.472088
3998.000000;2.473055
3997.000000;2.482851
3996.000000;2.497045
3995.000000;2.508963
3994.000000;2.515768
3993.000000;2.518942
3992.000000;2.519653
3991.000000;2.516139
3990.000000;2.507368
3989.000000;2.496460
3988.000000;2.490283
3987.000000;2.494324
3986.000000;2.505582
3985.000000;2.512239
3984.000000;2.506609
3983.000000;2.497022
3982.000000;2.497804
3981.000000;2.512787
3980.000000;2.532684
3979.000000;2.547537
3978.000000;2.558999
3977.000000;2.573809
3976.000000;2.590734
3975.000000;2.602750
3974.000000;2.609967
3973.000000;2.620958
3972.000000;2.639874
3971.000000;2.661796
3970.000000;2.680118
3969.000000;2.689294
3968.000000;2.684979
3967.000000;2.669778
3966.000000;2.653188
3965.000000;2.644037
3964.000000;2.642624
3963.000000;2.638838
3962.000000;2.626749
3961.000000;2.617988
3960.000000;2.627249
3959.000000;2.652634
3958.000000;2.677265
3957.000000;2.686972
3956.000000;2.680839
3955.000000;2.665555
3954.000000;2.651089
3953.000000;2.649164
3952.000000;2.668672
3951.000000;2.706778
3950.000000;2.744117
3949.000000;2.766046
3948.000000;2.784715
3947.000000;2.814375
3946.000000;2.845050
3945.000000;2.856279
3944.000000;2.846999
3943.000000;2.840874
3942.000000;2.863196
3941.000000;2.907267
3940.000000;2.928690
3939.000000;2.898485
3938.000000;2.834186
3937.000000;2.779667
3936.000000;2.772845
3935.000000;2.813035
3934.000000;2.860514
3933.000000;2.877420
3932.000000;2.869306
3931.000000;2.869153
3930.000000;2.896740
3929.000000;2.945320
3928.000000;2.990658
3927.000000;3.006449
3926.000000;2.982844
3925.000000;2.942505
3924.000000;2.925997
3923.000000;2.957123
3922.000000;3.021158
3921.000000;3.077635
3920.000000;3.107088
3919.000000;3.118830
3918.000000;3.116469
3917.000000;3.099711
3916.000000;3.072829
3915.000000;3.047298
3914.000000;3.037845
3913.000000;3.033839
3912.000000;3.013555
3911.000000;2.987515
3910.000000;2.997147
3909.000000;3.072972
3908.000000;3.204978
3907.000000;3.323446
3906.000000;3.349880
3905.000000;3.302580
3904.000000;3.238122
3903.000000;3.188374
3902.000000;3.158253
3901.000000;3.128599
3900.000000;3.078276
3899.000000;3.020964
3898.000000;3.010831
3897.000000;3.083152
3896.000000;3.218274
3895.000000;3.338050
3894.000000;3.379681
3893.000000;3.378900
3892.000000;3.342543
3891.000000;3.278228
3890.000000;3.277389
3889.000000;3.376953
3888.000000;3.544174
3887.000000;3.951056
3886.000000;3.878344
3885.000000;3.482546
3884.000000;3.536313
3883.000000;3.672517
3882.000000;3.519575
3881.000000;3.376081
3880.000000;3.312026
3879.000000;3.302976
3878.000000;3.296666
3877.000000;3.285698
3876.000000;3.258263
3875.000000;3.225326
3874.000000;3.216167
3873.000000;3.249166
3872.000000;3.334233
3871.000000;3.424989
3870.000000;3.443802
3869.000000;3.420550
3868.000000;3.462583
3867.000000;3.581540
3866.000000;3.624456
3865.000000;3.563965
3864.000000;3.458075
3863.000000;3.340455
3862.000000;3.311084
3861.000000;3.342468
3860.000000;3.330278
3859.000000;3.282530
3858.000000;3.261304
3857.000000;3.306510
3856.000000;3.401494
3855.000000;3.480883
3854.000000;3.527566
3853.000000;3.626487
3852.000000;3.772415
3851.000000;3.825387
3850.000000;3.861673
3849.000000;4.080605
3848.000000;3.929803
3847.000000;3.585988
3846.000000;3.536146
3845.000000;3.635372
3844.000000;3.654681
3843.000000;3.549333
3842.000000;3.454708
3841.000000;3.447697
3840.000000;3.523887
3839.000000;3.705637
3838.000000;3.970743
3837.000000;3.890818
3836.000000;3.721635
3835.000000;3.700992
3834.000000;3.711752
3833.000000;3.800282
3832.000000;4.133063
3831.000000;4.269181
3830.000000;3.824760
3829.000000;3.528104
3828.000000;3.379340
3827.000000;3.347547
3826.000000;3.377562
3825.000000;3.441037
3824.000000;3.563589
3823.000000;3.714347
3822.000000;3.819600
3821.000000;3.673028
3820.000000;3.744027
3819.000000;4.116090
3818.000000;3.618919
3817.000000;3.342060
3816.000000;3.234259
3815.000000;3.320391
3814.000000;3.713475
3813.000000;3.940854
3812.000000;3.628363
3811.000000;3.427974
3810.000000;3.398714
3809.000000;3.576156
3808.000000;3.852800
3807.000000;3.792303
3806.000000;3.513206
3805.000000;3.333998
3804.000000;3.247996
3803.000000;3.171053
3802.000000;3.121984
3801.000000;3.214792
3800.000000;3.574766
3799.000000;4.239902
3798.000000;4.349583
3797.000000;4.068486
3796.000000;3.738818
3795.000000;3.546472
3794.000000;3.507066
3793.000000;3.524646
3792.000000;3.544776
3791.000000;3.571674
3790.000000;3.536961
3789.000000;3.456505
3788.000000;3.475663
3787.000000;3.630106
3786.000000;3.780556
3785.000000;3.831794
3784.000000;3.880846
3783.000000;3.853523
3782.000000;3.871367
3781.000000;3.964866
3780.000000;3.869678
3779.000000;3.639222
3778.000000;3.479878
3777.000000;3.410905
3776.000000;3.399630
3775.000000;3.408952
3774.000000;3.456527
3773.000000;3.586633
3772.000000;3.818779
3771.000000;4.255181
3770.000000;4.214853
3769.000000;3.913283
3768.000000;3.828783
3767.000000;3.695201
3766.000000;3.530124
3765.000000;3.552961
3764.000000;3.671043
3763.000000;3.537168
3762.000000;3.425478
3761.000000;3.360636
3760.000000;3.278775
3759.000000;3.277105
3758.000000;3.414767
3757.000000;3.535236
3756.000000;3.475693
3755.000000;3.441918
3754.000000;3.485548
3753.000000;3.531415
3752.000000;3.659789
3751.000000;4.048648
3750.000000;3.953144
3749.000000;3.714884
3748.000000;3.744411
3747.000000;3.693462
3746.000000;3.572557
3745.000000;3.439026
3744.000000;3.626016
3743.000000;4.098410
3742.000000;3.702231
3741.000000;3.639405
3740.000000;3.603347
3739.000000;3.450256
3738.000000;3.603855
3737.000000;4.153249
3736.000000;3.954106
3735.000000;3.712817
3734.000000;3.677804
3733.000000;3.727976
3732.000000;3.803428
3731.000000;3.797199
3730.000000;3.886375
3729.000000;4.118869
3728.000000;3.840066
3727.000000;3.489518
3726.000000;3.330726
3725.000000;3.328376
3724.000000;3.439796
3723.000000;3.621497
3722.000000;3.815822
3721.000000;3.913303
3720.000000;3.834770
3719.000000;3.685010
3718.000000;3.502300
3717.000000;3.458796
3716.000000;3.449645
3715.000000;3.585643
3714.000000;4.261888
3713.000000;3.584675
3712.000000;3.228014
3711.000000;3.159585
3710.000000;3.230867
3709.000000;3.410987
3708.000000;3.511273
3707.000000;3.488669
3706.000000;3.425957
3705.000000;3.338743
3704.000000;3.261191
3703.000000;3.261302
3702.000000;3.370241
3701.000000;3.573754
3700.000000;3.546420
3699.000000;3.375478
3698.000000;3.321596
3697.000000;3.312806
3696.000000;3.367105
3695.000000;3.430683
3694.000000;3.394172
3693.000000;3.403758
3692.000000;3.555749
3691.000000;3.737386
3690.000000;3.684069
3689.000000;3.678465
3688.000000;3.584770
3687.000000;3.393526
3686.000000;3.327796
3685.000000;3.314913
3684.000000;3.316626
3683.000000;3.345463
3682.000000;3.481926
3681.000000;3.660149
3680.000000;3.574370
3679.000000;3.458107
3678.000000;3.432049
3677.000000;3.465949
3676.000000;3.494072
3675.000000;3.483385
3674.000000;3.561523
3673.000000;3.744061
3672.000000;3.816792
3671.000000;3.587313
3670.000000;3.502276
3669.000000;3.769013
3668.000000;4.205261
3667.000000;4.121141
3666.000000;3.806702
3665.000000;3.448960
3664.000000;3.344102
3663.000000;3.426508
3662.000000;3.678286
3661.000000;4.091279
3660.000000;3.649223
3659.000000;3.371325
3658.000000;3.265511
3657.000000;3.205653
3656.000000;3.192875
3655.000000;3.245124
3654.000000;3.385791
3653.000000;3.479431
3652.000000;3.418312
3651.000000;3.401577
3650.000000;3.486737
3649.000000;3.586100
3648.000000;3.474091
3647.000000;3.345029
3646.000000;3.318413
3645.000000;3.345935
3644.000000;3.704431
3643.000000;3.771495
3642.000000;3.384933
3641.000000;3.369765
3640.000000;3.439096
3639.000000;3.480533
3638.000000;3.541092
3637.000000;3.641110
3636.000000;3.561631
3635.000000;3.439990
3634.000000;3.477781
3633.000000;3.759478
3632.000000;4.102356
3631.000000;3.712829
3630.000000;3.511345
3629.000000;3.413531
3628.000000;3.386343
3627.000000;3.466296
3626.000000;3.574495
3625.000000;3.528420
3624.000000;3.402630
3623.000000;3.390526
3622.000000;3.386468
3621.000000;3.418935
3620.000000;3.692601
3619.000000;4.197510
3618.000000;4.006853
3617.000000;3.779054
3616.000000;3.652886
3615.000000;3.527712
3614.000000;3.464303
3613.000000;3.479837
3612.000000;3.550896
3611.000000;3.615005
3610.000000;3.600117
3609.000000;3.425942
3608.000000;3.207664
3607.000000;3.096482
3606.000000;3.122952
3605.000000;3.223025
3604.000000;3.333432
3603.000000;3.451544
3602.000000;3.695312
3601.000000;4.085967
3600.000000;3.799985
3599.000000;3.563810
3598.000000;3.566887
3597.000000;3.845207
3596.000000;4.284557
3595.000000;4.131604
3594.000000;3.952778
3593.000000;3.670628
3592.000000;3.678231
3591.000000;4.042386
3590.000000;3.910152
3589.000000;3.579482
3588.000000;3.568108
3587.000000;3.958305
3586.000000;3.783785
3585.000000;3.489112
3584.000000;3.466536
3583.000000;3.607677
3582.000000;4.136072
3581.000000;4.054928
3580.000000;3.750400
3579.000000;3.558886
3578.000000;3.447749
3577.000000;3.549869
3576.000000;3.873628
3575.000000;3.799638
3574.000000;3.536144
3573.000000;3.464026
3572.000000;3.428411
3571.000000;3.468355
3570.000000;3.614967
3569.000000;3.963992
3568.000000;4.319784
3567.000000;3.880440
3566.000000;3.630586
3565.000000;3.574311
3564.000000;3.630392
3563.000000;3.781813
3562.000000;4.213814
3561.000000;4.274100
3560.000000;3.884493
3559.000000;3.928487
3558.000000;4.255493
3557.000000;3.894534
3556.000000;3.630876
3555.000000;3.644500
3554.000000;3.958706
3553.000000;4.379929
3552.000000;3.949014
3551.000000;3.868467
3550.000000;3.894975
3549.000000;3.756766
3548.000000;3.545764
3547.000000;3.391811
3546.000000;3.365597
3545.000000;3.459990
3544.000000;3.660575
3543.000000;3.959214
3542.000000;4.223908
3541.000000;4.087051
3540.000000;3.999931
3539.000000;4.291177
3538.000000;4.109077
3537.000000;3.681619
3536.000000;3.639446
3535.000000;3.914142
3534.000000;3.753490
3533.000000;3.499544
3532.000000;3.531110
3531.000000;3.578801
3530.000000;3.510482
3529.000000;3.584768
3528.000000;3.796534
3527.000000;3.843410
3526.000000;3.726705
3525.000000;3.543155
3524.000000;3.450189
3523.000000;3.481965
3522.000000;3.590867
3521.000000;3.642889
3520.000000;3.500265
3519.000000;3.327205
3518.000000;3.217897
3517.000000;3.176706
3516.000000;3.185467
3515.000000;3.217290
3514.000000;3.238793
3513.000000;3.251986
3512.000000;3.290989
3511.000000;3.427227
3510.000000;3.652270
3509.000000;3.682276
3508.000000;3.586662
3507.000000;3.661989
3506.000000;4.085691
3505.000000;4.135893
3504.000000;4.222774
3503.000000;3.858185
3502.000000;3.350821
3501.000000;3.189801
3500.000000;3.194246
3499.000000;3.275707
3498.000000;3.366267
3497.000000;3.416643
3496.000000;3.475419
3495.000000;3.519972
3494.000000;3.496333
3493.000000;3.449145
3492.000000;3.413391
3491.000000;3.394102
3490.000000;3.386847
3489.000000;3.405406
3488.000000;3.546368
3487.000000;3.851425
3486.000000;3.695767
3485.000000;3.440067
3484.000000;3.409024
3483.000000;3.508876
3482.000000;3.587480
3481.000000;3.523513
3480.000000;3.452357
3479.000000;3.398467
3478.000000;3.358474
3477.000000;3.396310
3476.000000;3.531363
3475.000000;3.603198
3474.000000;3.670532
3473.000000;3.656486
3472.000000;3.490361
3471.000000;3.518760
3470.000000;3.873882
3469.000000;3.876132
3468.000000;3.505630
3467.000000;3.411366
3466.000000;3.434018
3465.000000;3.454600
3464.000000;3.432339
3463.000000;3.447802
3462.000000;3.494148
3461.000000;3.463920
3460.000000;3.455185
3459.000000;3.649051
3458.000000;3.873736
3457.000000;3.730288
3456.000000;3.685559
3455.000000;3.633920
3454.000000;3.476788
3453.000000;3.361588
3452.000000;3.285306
3451.000000;3.197989
3450.000000;3.120407
3449.000000;3.095463
3448.000000;3.116454
3447.000000;3.151325
3446.000000;3.187130
3445.000000;3.241388
3444.000000;3.353952
3443.000000;3.540581
3442.000000;3.603112
3441.000000;3.491954
3440.000000;3.413024
3439.000000;3.390282
3438.000000;3.455144
3437.000000;3.744784
3436.000000;3.972254
3435.000000;3.565045
3434.000000;3.468443
3433.000000;3.722431
3432.000000;3.782971
3431.000000;3.408326
3430.000000;3.316396
3429.000000;3.340706
3428.000000;3.434594
3427.000000;3.516050
3426.000000;3.435835
3425.000000;3.321955
3424.000000;3.279823
3423.000000;3.336896
3422.000000;3.524058
3421.000000;3.757400
3420.000000;3.705641
3419.000000;3.787761
3418.000000;4.307553
3417.000000;3.848958
3416.000000;3.625415
3415.000000;3.596017
3414.000000;3.601654
3413.000000;3.527750
3412.000000;3.395118
3411.000000;3.353584
3410.000000;3.521151
3409.000000;3.795288
3408.000000;3.624175
3407.000000;3.496859
3406.000000;3.464105
3405.000000;3.485037
3404.000000;3.583598
3403.000000;3.628488
3402.000000;3.482673
3401.000000;3.329122
3400.000000;3.250351
3399.000000;3.226661
3398.000000;3.236446
3397.000000;3.270402
3396.000000;3.342032
3395.000000;3.455300
3394.000000;3.511724
3393.000000;3.463870
3392.000000;3.440220
3391.000000;3.620925
3390.000000;4.149347
3389.000000;3.688697
3388.000000;3.544514
3387.000000;3.572169
3386.000000;3.584504
3385.000000;3.509137
3384.000000;3.428639
3383.000000;3.401033
3382.000000;3.386281
3381.000000;3.348431
3380.000000;3.304420
3379.000000;3.250717
3378.000000;3.176163
3377.000000;3.108337
3376.000000;3.086265
3375.000000;3.143355
3374.000000;3.314983
3373.000000;3.605997
3372.000000;3.762566
3371.000000;3.872589
3370.000000;4.011881
3369.000000;3.770742
3368.000000;3.764668
3367.000000;4.445581
3366.000000;3.634775
3365.000000;3.377064
3364.000000;3.429226
3363.000000;3.890234
3362.000000;3.625204
3361.000000;3.225152
3360.000000;3.069161
3359.000000;3.018590
3358.000000;3.058165
3357.000000;3.189366
3356.000000;3.440874
3355.000000;3.683256
3354.000000;3.587302
3353.000000;3.527880
3352.000000;3.581979
3351.000000;3.822910
3350.000000;4.133895
3349.000000;3.827848
3348.000000;3.788681
3347.000000;4.198958
3346.000000;3.681840
3345.000000;3.355818
3344.000000;3.267080
3343.000000;3.257222
3342.000000;3.284065
3341.000000;3.323045
3340.000000;3.437833
3339.000000;3.727115
3338.000000;4.155446
3337.000000;3.797682
3336.000000;3.676135
3335.000000;3.692804
3334.000000;3.699833
3333.000000;3.603864
3332.000000;3.434263
3331.000000;3.274033
3330.000000;3.177367
3329.000000;3.166621
3328.000000;3.216544
3327.000000;3.291290
3326.000000;3.381956
3325.000000;3.861090
3324.000000;4.152509
3323.000000;3.554305
3322.000000;3.623744
3321.000000;3.750391
3320.000000;3.810934
3319.000000;3.826272
3318.000000;3.733733
3317.000000;3.701048
3316.000000;3.716833
3315.000000;3.703761
3314.000000;3.813033
3313.000000;3.668042
3312.000000;3.349298
3311.000000;3.152933
3310.000000;3.077124
3309.000000;3.126335
3308.000000;3.333098
3307.000000;3.475757
3306.000000;3.298912
3305.000000;3.256895
3304.000000;3.262062
3303.000000;3.240369
3302.000000;3.218542
3301.000000;3.226590
3300.000000;3.300575
3299.000000;3.472093
3298.000000;3.741581
3297.000000;3.933830
3296.000000;4.218655
3295.000000;4.726495
3294.000000;4.128218
3293.000000;3.853105
3292.000000;3.700048
3291.000000;4.402391
3290.000000;3.693089
3289.000000;3.326463
3288.000000;3.346642
3287.000000;3.767640
3286.000000;3.827322
3285.000000;3.553492
3284.000000;3.563062
3283.000000;3.588659
3282.000000;3.604654
3281.000000;3.770629
3280.000000;3.558874
3279.000000;3.306298
3278.000000;3.261017
3277.000000;3.392841
3276.000000;3.742888
3275.000000;3.780979
3274.000000;3.509553
3273.000000;3.471701
3272.000000;3.523547
3271.000000;3.643070
3270.000000;3.742254
3269.000000;3.753820
3268.000000;3.719892
3267.000000;3.724146
3266.000000;3.703272
3265.000000;3.579612
3264.000000;3.423434
3263.000000;3.296100
3262.000000;3.224927
3261.000000;3.224475
3260.000000;3.290034
3259.000000;3.369740
3258.000000;3.359443
3257.000000;3.320117
3256.000000;3.420681
3255.000000;3.808244
3254.000000;3.636878
3253.000000;3.549690
3252.000000;3.648604
3251.000000;3.507310
3250.000000;3.360296
3249.000000;3.330116
3248.000000;3.377578
3247.000000;3.543044
3246.000000;3.676077
3245.000000;3.420443
3244.000000;3.286474
3243.000000;3.335198
3242.000000;3.643268
3241.000000;4.017811
3240.000000;3.747058
3239.000000;3.677058
3238.000000;3.869011
3237.000000;3.833163
3236.000000;3.527140
3235.000000;3.378485
3234.000000;3.338934
3233.000000;3.335626
3232.000000;3.329049
3231.000000;3.324156
3230.000000;3.364834
3229.000000;3.500142
3228.000000;3.856601
3227.000000;3.598233
3226.000000;3.266428
3225.000000;3.128008
3224.000000;3.085780
3223.000000;3.092071
3222.000000;3.124783
3221.000000;3.175628
3220.000000;3.253958
3219.000000;3.354558
3218.000000;3.657332
3217.000000;4.081051
3216.000000;3.645129
3215.000000;3.461206
3214.000000;3.278354
3213.000000;3.180905
3212.000000;3.237728
3211.000000;3.616531
3210.000000;3.964626
3209.000000;3.593400
3208.000000;3.475672
3207.000000;3.483077
3206.000000;3.615050
3205.000000;4.084651
3204.000000;3.759470
3203.000000;3.508654
3202.000000;3.507838
3201.000000;3.980025
3200.000000;3.505632
3199.000000;3.163654
3198.000000;3.057308
3197.000000;3.051620
3196.000000;3.070604
3195.000000;3.086290
3194.000000;3.124289
3193.000000;3.214436
3192.000000;3.323121
3191.000000;3.530495
3190.000000;3.896009
3189.000000;3.538050
3188.000000;3.328894
3187.000000;3.370205
3186.000000;3.657355
3185.000000;3.822079
3184.000000;3.576040
3183.000000;3.508671
3182.000000;3.517044
3181.000000;3.507228
3180.000000;3.475245
3179.000000;3.497194
3178.000000;3.650095
3177.000000;3.610787
3176.000000;3.419005
3175.000000;3.421436
3174.000000;3.694991
3173.000000;4.084645
3172.000000;3.494429
3171.000000;3.357289
3170.000000;3.426523
3169.000000;3.889423
3168.000000;3.978154
3167.000000;3.902412
3166.000000;3.939606
3165.000000;3.413094
3164.000000;3.374313
3163.000000;3.363513
3162.000000;3.373849
3161.000000;3.454136
3160.000000;3.488970
3159.000000;3.414924
3158.000000;3.376856
3157.000000;3.315941
3156.000000;3.249740
3155.000000;3.256105
3154.000000;3.291425
3153.000000;3.278983
3152.000000;3.210026
3151.000000;3.197997
3150.000000;3.336878
3149.000000;3.832252
3148.000000;3.449573
3147.000000;3.271760
3146.000000;3.316488
3145.000000;3.440483
3144.000000;3.422752
3143.000000;3.376116
3142.000000;3.348185
3141.000000;3.348087
3140.000000;3.455073
3139.000000;3.589011
3138.000000;3.472285
3137.000000;3.379628
3136.000000;3.445053
3135.000000;3.608230
3134.000000;3.488842
3133.000000;3.293122
3132.000000;3.282270
3131.000000;3.448965
3130.000000;3.854693
3129.000000;4.104493
3128.000000;3.782501
3127.000000;3.544480
3126.000000;3.512625
3125.000000;3.740352
3124.000000;3.601808
3123.000000;3.437765
3122.000000;3.519305
3121.000000;3.688115
3120.000000;3.396840
3119.000000;3.253267
3118.000000;3.309612
3117.000000;3.566816
3116.000000;3.630352
3115.000000;3.501484
3114.000000;3.554171
3113.000000;3.430659
3112.000000;3.187680
3111.000000;3.016465
3110.000000;2.924015
3109.000000;2.917961
3108.000000;2.997311
3107.000000;3.131610
3106.000000;3.473831
3105.000000;3.883275
3104.000000;3.487167
3103.000000;3.383606
3102.000000;3.481848
3101.000000;3.632554
3100.000000;4.340119
3099.000000;3.872110
3098.000000;3.429204
3097.000000;3.252647
3096.000000;3.196812
3095.000000;3.266705
3094.000000;3.455970
3093.000000;3.446873
3092.000000;3.238415
3091.000000;3.124527
3090.000000;3.080332
3089.000000;3.069924
3088.000000;3.080095
3087.000000;3.131394
3086.000000;3.236611
3085.000000;3.450180
3084.000000;3.861451
3083.000000;3.636696
3082.000000;3.354508
3081.000000;3.339522
3080.000000;3.458514
3079.000000;3.767843
3078.000000;3.734276
3077.000000;3.459637
3076.000000;3.289225
3075.000000;3.169844
3074.000000;3.136416
3073.000000;3.216579
3072.000000;3.438792
3071.000000;3.819002
3070.000000;3.681952
3069.000000;3.544886
3068.000000;3.578634
3067.000000;3.560374
3066.000000;3.438547
3065.000000;3.377582
3064.000000;3.397187
3063.000000;3.487384
3062.000000;3.557960
3061.000000;3.426829
3060.000000;3.283513
3059.000000;3.270549
3058.000000;3.424924
3057.000000;3.749211
3056.000000;3.830201
3055.000000;3.502578
3054.000000;3.276158
3053.000000;3.184815
3052.000000;3.162499
3051.000000;3.150376
3050.000000;3.142660
3049.000000;3.170987
3048.000000;3.210288
3047.000000;3.203548
3046.000000;3.235413
3045.000000;3.390461
3044.000000;4.295055
3043.000000;3.605906
3042.000000;3.346416
3041.000000;3.398958
3040.000000;3.629338
3039.000000;3.969243
3038.000000;4.069176
3037.000000;3.822690
3036.000000;3.448068
3035.000000;3.165233
3034.000000;3.057566
3033.000000;3.113510
3032.000000;3.357754
3031.000000;3.820524
3030.000000;3.891503
3029.000000;3.873686
3028.000000;4.204031
3027.000000;4.105944
3026.000000;4.015646
3025.000000;3.724754
3024.000000;3.515379
3023.000000;3.633702
3022.000000;3.619113
3021.000000;3.313261
3020.000000;3.179663
3019.000000;3.211912
3018.000000;3.320431
3017.000000;3.385327
3016.000000;3.463644
3015.000000;3.659759
3014.000000;3.853754
3013.000000;4.044586
3012.000000;3.790303
3011.000000;3.491484
3010.000000;3.478807
3009.000000;3.516201
3008.000000;3.348982
3007.000000;3.225532
3006.000000;3.191683
3005.000000;3.235046
3004.000000;3.329973
3003.000000;3.314491
3002.000000;3.181387
3001.000000;3.114062
3000.000000;3.173278
2999.000000;3.376217
2998.000000;3.655444
2997.000000;3.837169
2996.000000;4.499660
2995.000000;3.880784
2994.000000;3.418763
2993.000000;3.295608
2992.000000;3.332922
2991.000000;3.700361
2990.000000;3.645956
2989.000000;3.230998
2988.000000;3.085709
2987.000000;3.075237
2986.000000;3.110800
2985.000000;3.137166
2984.000000;3.166049
2983.000000;3.174747
2982.000000;3.166097
2981.000000;3.217528
2980.000000;3.387562
2979.000000;3.726102
2978.000000;4.321549
2977.000000;4.433508
2976.000000;3.914814
2975.000000;3.721294
2974.000000;3.522253
2973.000000;3.354375
2972.000000;3.322955
2971.000000;3.436035
2970.000000;3.489966
2969.000000;3.371186
2968.000000;3.336007
2967.000000;3.474891
2966.000000;4.298667
2965.000000;3.631957
2964.000000;3.283250
2963.000000;3.224446
2962.000000;3.262613
2961.000000;3.362557
2960.000000;3.441831
2959.000000;3.549007
2958.000000;3.674062
2957.000000;3.538579
2956.000000;3.330616
2955.000000;3.278422
2954.000000;3.412116
2953.000000;3.826848
2952.000000;4.046279
2951.000000;3.608721
2950.000000;3.256368
2949.000000;2.986327
2948.000000;2.878887
2947.000000;2.911693
2946.000000;3.070077
2945.000000;3.418301
2944.000000;3.837507
2943.000000;3.559338
2942.000000;3.411603
2941.000000;3.509069
2940.000000;3.678070
2939.000000;3.557996
2938.000000;3.473326
2937.000000;3.645039
2936.000000;3.729065
2935.000000;3.428331
2934.000000;3.261204
2933.000000;3.241192
2932.000000;3.361864
2931.000000;3.655407
2930.000000;3.875772
2929.000000;3.585748
2928.000000;3.320178
2927.000000;3.177754
2926.000000;3.110785
2925.000000;3.107991
2924.000000;3.255301
2923.000000;3.618712
2922.000000;3.552199
2921.000000;3.354008
2920.000000;3.467366
2919.000000;3.849076
2918.000000;3.850059
2917.000000;3.558061
2916.000000;3.502605
2915.000000;3.519937
2914.000000;3.432764
2913.000000;3.303568
2912.000000;3.342202
2911.000000;3.612468
2910.000000;3.582610
2909.000000;3.376694
2908.000000;3.278425
2907.000000;3.193996
2906.000000;3.145445
2905.000000;3.160552
2904.000000;3.214698
2903.000000;3.263623
2902.000000;3.312024
2901.000000;3.368851
2900.000000;3.427650
2899.000000;3.501605
2898.000000;3.722233
2897.000000;3.982305
2896.000000;3.712795
2895.000000;3.587465
2894.000000;3.583007
2893.000000;3.595652
2892.000000;3.620909
2891.000000;3.637412
2890.000000;3.719136
2889.000000;3.812909
2888.000000;3.870616
2887.000000;3.755847
2886.000000;3.493840
2885.000000;3.314717
2884.000000;3.208035
2883.000000;3.139392
2882.000000;3.098026
2881.000000;3.073017
2880.000000;3.081023
2879.000000;3.156432
2878.000000;3.349715
2877.000000;3.776522
2876.000000;3.968998
2875.000000;3.632730
2874.000000;3.535114
2873.000000;3.549332
2872.000000;3.666368
2871.000000;3.793592
2870.000000;3.773652
2869.000000;3.650940
2868.000000;3.562813
2867.000000;3.566002
2866.000000;3.444490
2865.000000;3.198768
2864.000000;3.014926
2863.000000;2.923881
2862.000000;2.923502
2861.000000;3.013857
2860.000000;3.195264
2859.000000;3.500655
2858.000000;3.756898
2857.000000;3.551631
2856.000000;3.350248
2855.000000;3.230002
2854.000000;3.179342
2853.000000;3.222972
2852.000000;3.386663
2851.000000;3.683529
2850.000000;3.914409
2849.000000;3.859654
2848.000000;3.625865
2847.000000;3.365362
2846.000000;3.211087
2845.000000;3.189555
2844.000000;3.267979
2843.000000;3.317683
2842.000000;3.254047
2841.000000;3.211896
2840.000000;3.346173
2839.000000;3.545949
2838.000000;3.416453
2837.000000;3.346173
2836.000000;3.483631
2835.000000;3.798560
2834.000000;4.001237
2833.000000;3.725582
2832.000000;3.523043
2831.000000;3.432666
2830.000000;3.314771
2829.000000;3.163276
2828.000000;3.086887
2827.000000;3.097787
2826.000000;3.149001
2825.000000;3.157326
2824.000000;3.124400
2823.000000;3.142779
2822.000000;3.271619
2821.000000;3.458947
2820.000000;3.400193
2819.000000;3.249537
2818.000000;3.206433
2817.000000;3.289083
2816.000000;3.553103
2815.000000;3.623573
2814.000000;3.468506
2813.000000;3.586814
2812.000000;3.725938
2811.000000;3.543387
2810.000000;3.439510
2809.000000;3.470821
2808.000000;3.643646
2807.000000;4.140599
2806.000000;3.875413
2805.000000;3.469011
2804.000000;3.338414
2803.000000;3.321891
2802.000000;3.438848
2801.000000;3.463674
2800.000000;3.475100
2799.000000;3.871993
2798.000000;3.613900
2797.000000;3.280799
2796.000000;3.256563
2795.000000;3.328342
2794.000000;3.300653
2793.000000;3.191420
2792.000000;3.144253
2791.000000;3.184600
2790.000000;3.390680
2789.000000;3.723920
2788.000000;3.898364
2787.000000;3.819688
2786.000000;3.444976
2785.000000;3.260417
2784.000000;3.269863
2783.000000;3.396844
2782.000000;3.577730
2781.000000;3.604562
2780.000000;3.506026
2779.000000;3.456894
2778.000000;3.537873
2777.000000;3.784648
2776.000000;3.771594
2775.000000;3.559321
2774.000000;3.532877
2773.000000;3.601742
2772.000000;3.713942
2771.000000;3.549646
2770.000000;3.222569
2769.000000;3.092568
2768.000000;3.118706
2767.000000;3.220268
2766.000000;3.306967
2765.000000;3.568806
2764.000000;4.097890
2763.000000;3.589346
2762.000000;3.461631
2761.000000;3.572473
2760.000000;3.368695
2759.000000;3.133802
2758.000000;3.089193
2757.000000;3.187996
2756.000000;3.405631
2755.000000;3.860853
2754.000000;4.279143
2753.000000;3.683453
2752.000000;3.305477
2751.000000;3.053284
2750.000000;2.959144
2749.000000;3.013189
2748.000000;3.281823
2747.000000;4.030487
2746.000000;3.725882
2745.000000;3.434045
2744.000000;3.317634
2743.000000;3.256285
2742.000000;3.350240
2741.000000;3.580859
2740.000000;3.567842
2739.000000;3.346199
2738.000000;3.276096
2737.000000;3.515442
2736.000000;3.970697
2735.000000;3.444926
2734.000000;3.262845
2733.000000;3.298109
2732.000000;3.470494
2731.000000;3.641437
2730.000000;3.545770
2729.000000;3.399853
2728.000000;3.274918
2727.000000;3.219314
2726.000000;3.413219
2725.000000;3.860247
2724.000000;3.410243
2723.000000;3.235238
2722.000000;3.362062
2721.000000;3.647825
2720.000000;3.768391
2719.000000;3.502418
2718.000000;3.333154
2717.000000;3.273715
2716.000000;3.333551
2715.000000;3.652783
2714.000000;4.061108
2713.000000;3.866695
2712.000000;4.022808
2711.000000;3.693571
2710.000000;3.392259
2709.000000;3.340855
2708.000000;3.496288
2707.000000;3.589297
2706.000000;3.417011
2705.000000;3.358744
2704.000000;3.466051
2703.000000;3.979349
2702.000000;3.678023
2701.000000;3.311533
2700.000000;3.309067
2699.000000;3.401908
2698.000000;3.525796
2697.000000;3.551988
2696.000000;3.489818
2695.000000;3.459746
2694.000000;3.501662
2693.000000;3.632331
2692.000000;3.708176
2691.000000;3.532683
2690.000000;3.336889
2689.000000;3.248808
2688.000000;3.228309
2687.000000;3.214139
2686.000000;3.168956
2685.000000;3.123388
2684.000000;3.129667
2683.000000;3.201165
2682.000000;3.312422
2681.000000;3.403647
2680.000000;3.557730
2679.000000;3.771000
2678.000000;3.813734
2677.000000;3.985769
2676.000000;3.860633
2675.000000;3.527360
2674.000000;3.476996
2673.000000;3.571068
2672.000000;3.733876
2671.000000;4.209007
2670.000000;3.689286
2669.000000;3.306412
2668.000000;3.204177
2667.000000;3.320110
2666.000000;3.790050
2665.000000;3.705481
2664.000000;3.453962
2663.000000;3.457264
2662.000000;3.510483
2661.000000;3.527363
2660.000000;3.433411
2659.000000;3.417864
2658.000000;3.478470
2657.000000;3.594790
2656.000000;3.709631
2655.000000;3.721800
2654.000000;3.730423
2653.000000;3.479552
2652.000000;3.234978
2651.000000;3.228780
2650.000000;3.605772
2649.000000;3.922025
2648.000000;3.495668
2647.000000;3.421906
2646.000000;3.428144
2645.000000;3.424116
2644.000000;3.391625
2643.000000;3.363314
2642.000000;3.425685
2641.000000;3.520262
2640.000000;3.549893
2639.000000;3.494694
2638.000000;3.441243
2637.000000;3.440953
2636.000000;3.581401
2635.000000;3.699979
2634.000000;3.582247
2633.000000;3.559844
2632.000000;3.573324
2631.000000;3.552492
2630.000000;3.595206
2629.000000;3.728097
2628.000000;3.824807
2627.000000;3.648869
2626.000000;3.482711
2625.000000;3.427214
2624.000000;3.457953
2623.000000;3.450491
2622.000000;3.321193
2621.000000;3.266234
2620.000000;3.364556
2619.000000;3.588389
2618.000000;3.833482
2617.000000;3.801074
2616.000000;3.744108
2615.000000;3.877022
2614.000000;4.024233
2613.000000;4.253854
2612.000000;4.116118
2611.000000;3.682237
2610.000000;3.508041
2609.000000;3.489378
2608.000000;3.547971
2607.000000;3.580145
2606.000000;3.562272
2605.000000;3.611489
2604.000000;3.648586
2603.000000;3.542228
2602.000000;3.443384
2601.000000;3.471737
2600.000000;3.689012
2599.000000;3.749479
2598.000000;3.493108
2597.000000;3.373845
2596.000000;3.358434
2595.000000;3.440679
2594.000000;3.620516
2593.000000;3.719411
2592.000000;3.725488
2591.000000;3.721427
2590.000000;3.640076
2589.000000;3.554833
2588.000000;3.573772
2587.000000;3.592690
2586.000000;3.497949
2585.000000;3.438547
2584.000000;3.576463
2583.000000;3.875194
2582.000000;3.770607
2581.000000;3.601425
2580.000000;3.584409
2579.000000;3.547423
2578.000000;3.771356
2577.000000;4.238219
2576.000000;3.555986
2575.000000;3.290130
2574.000000;3.197226
2573.000000;3.174954
2572.000000;3.233392
2571.000000;3.358774
2570.000000;3.565062
2569.000000;3.652584
2568.000000;3.593055
2567.000000;3.588980
2566.000000;3.791551
2565.000000;4.359770
2564.000000;3.916183
2563.000000;3.517962
2562.000000;3.361137
2561.000000;3.325410
2560.000000;3.419861
2559.000000;3.774603
2558.000000;4.261732
2557.000000;3.863977
2556.000000;3.896139
2555.000000;4.043603
2554.000000;4.237078
2553.000000;4.030943
2552.000000;3.539692
2551.000000;3.390744
2550.000000;3.345400
2549.000000;3.339777
2548.000000;3.413306
2547.000000;3.465176
2546.000000;3.407390
2545.000000;3.346526
2544.000000;3.316805
2543.000000;3.439246
2542.000000;3.892608
2541.000000;3.944363
2540.000000;3.501783
2539.000000;3.225391
2538.000000;3.059218
2537.000000;3.065836
2536.000000;3.185745
2535.000000;3.376934
2534.000000;3.803340
2533.000000;3.469423
2532.000000;3.103868
2531.000000;3.005956
2530.000000;3.065072
2529.000000;3.269169
2528.000000;3.563134
2527.000000;3.666720
2526.000000;3.521310
2525.000000;3.409752
2524.000000;3.591263
2523.000000;4.035234
2522.000000;3.452626
2521.000000;3.172502
2520.000000;3.105613
2519.000000;3.165862
2518.000000;3.296141
2517.000000;3.294103
2516.000000;3.206238
2515.000000;3.165465
2514.000000;3.225662
2513.000000;3.384888
2512.000000;3.614397
2511.000000;3.632574
2510.000000;3.360856
2509.000000;3.193815
2508.000000;3.194856
2507.000000;3.453011
2506.000000;3.576776
2505.000000;3.235467
2504.000000;3.135982
2503.000000;3.247138
2502.000000;3.458414
2501.000000;3.582696
2500.000000;3.612103
2499.000000;3.534059
2498.000000;3.460104
2497.000000;3.637059
2496.000000;4.019870
2495.000000;3.752638
2494.000000;3.544691
2493.000000;3.563437
2492.000000;3.886772
2491.000000;4.352861
2490.000000;3.911048
2489.000000;3.734408
2488.000000;3.673761
2487.000000;3.608300
2486.000000;3.461264
2485.000000;3.402715
2484.000000;3.537107
2483.000000;3.703160
2482.000000;3.595947
2481.000000;3.491794
2480.000000;3.456110
2479.000000;3.390488
2478.000000;3.356303
2477.000000;3.408262
2476.000000;3.581222
2475.000000;3.882632
2474.000000;3.996179
2473.000000;3.891962
2472.000000;3.822345
2471.000000;3.813831
2470.000000;3.951823
2469.000000;4.118251
2468.000000;4.018876
2467.000000;3.859546
2466.000000;3.755542
2465.000000;3.666073
2464.000000;3.601617
2463.000000;3.531082
2462.000000;3.397808
2461.000000;3.281466
2460.000000;3.267131
2459.000000;3.367977
2458.000000;3.584320
2457.000000;3.876637
2456.000000;3.729326
2455.000000;3.459696
2454.000000;3.359687
2453.000000;3.364813
2452.000000;3.422317
2451.000000;3.497479
2450.000000;3.655110
2449.000000;3.675106
2448.000000;3.477746
2447.000000;3.438514
2446.000000;3.712968
2445.000000;4.165493
2444.000000;3.648761
2443.000000;3.468457
2442.000000;3.409381
2441.000000;3.395355
2440.000000;3.427777
2439.000000;3.502897
2438.000000;3.723066
2437.000000;3.929493
2436.000000;3.826134
2435.000000;3.705042
2434.000000;3.763269
2433.000000;4.060372
2432.000000;3.743704
2431.000000;3.488631
2430.000000;3.539155
2429.000000;3.727143
2428.000000;3.824820
2427.000000;3.812290
2426.000000;3.814068
2425.000000;3.724384
2424.000000;3.589620
2423.000000;3.543418
2422.000000;3.626029
2421.000000;3.808593
2420.000000;3.919760
2419.000000;3.763819
2418.000000;3.550481
2417.000000;3.417202
2416.000000;3.375440
2415.000000;3.376478
2414.000000;3.311570
2413.000000;3.218680
2412.000000;3.208696
2411.000000;3.314525
2410.000000;3.520270
2409.000000;3.896627
2408.000000;4.329161
2407.000000;3.844283
2406.000000;3.580977
2405.000000;3.522548
2404.000000;3.597730
2403.000000;3.659683
2402.000000;3.607199
2401.000000;3.593555
2400.000000;3.657558
2399.000000;3.913296
2398.000000;4.023138
2397.000000;3.945764
2396.000000;3.866508
2395.000000;3.599625
2394.000000;3.491965
2393.000000;3.516148
2392.000000;3.565001
2391.000000;3.813752
2390.000000;4.434788
2389.000000;3.741057
2388.000000;3.510875
2387.000000;3.478582
2386.000000;3.607367
2385.000000;3.710612
2384.000000;3.560744
2383.000000;3.473056
2382.000000;3.427927
2381.000000;3.392209
2380.000000;3.337083
2379.000000;3.292263
2378.000000;3.341686
2377.000000;3.535553
2376.000000;4.071673
2375.000000;3.856832
2374.000000;3.480785
2373.000000;3.312210
2372.000000;3.205796
2371.000000;3.191996
2370.000000;3.318869
2369.000000;3.616348
2368.000000;3.509255
2367.000000;3.273797
2366.000000;3.266730
2365.000000;3.469332
2364.000000;3.401463
2363.000000;3.156937
2362.000000;3.099949
2361.000000;3.147458
2360.000000;3.266236
2359.000000;3.631579
2358.000000;4.119185
2357.000000;3.729178
2356.000000;3.718161
2355.000000;3.465408
2354.000000;3.300185
2353.000000;3.356718
2352.000000;3.669796
2351.000000;4.020418
2350.000000;3.502306
2349.000000;3.276681
2348.000000;3.311190
2347.000000;3.509925
2346.000000;3.545546
2345.000000;3.340629
2344.000000;3.180423
2343.000000;3.086214
2342.000000;3.064583
2341.000000;3.126736
2340.000000;3.325211
2339.000000;3.819737
2338.000000;3.979187
2337.000000;3.811250
2336.000000;3.667170
2335.000000;3.345026
2334.000000;3.223900
2333.000000;3.250131
2332.000000;3.401169
2331.000000;3.745377
2330.000000;3.943133
2329.000000;3.610555
2328.000000;3.490194
2327.000000;3.476016
2326.000000;3.505170
2325.000000;3.455001
2324.000000;3.347305
2323.000000;3.310911
2322.000000;3.439399
2321.000000;4.073792
2320.000000;3.609563
2319.000000;3.361658
2318.000000;3.370599
2317.000000;3.363344
2316.000000;3.343863
2315.000000;3.327219
2314.000000;3.346723
2313.000000;3.485958
2312.000000;3.901058
2311.000000;3.572881
2310.000000;3.262802
2309.000000;3.179095
2308.000000;3.246731
2307.000000;3.490007
2306.000000;3.793178
2305.000000;3.697344
2304.000000;3.538387
2303.000000;3.439116
2302.000000;3.388407
2301.000000;3.349878
2300.000000;3.252165
2299.000000;3.129914
2298.000000;3.049336
2297.000000;3.029192
2296.000000;3.065319
2295.000000;3.148996
2294.000000;3.273053
2293.000000;3.427578
2292.000000;3.586997
2291.000000;3.708866
2290.000000;3.657915
2289.000000;3.458155
2288.000000;3.304237
2287.000000;3.245856
2286.000000;3.280114
2285.000000;3.378307
2284.000000;3.411904
2283.000000;3.312297
2282.000000;3.220140
2281.000000;3.202680
2280.000000;3.270619
2279.000000;3.519560
2278.000000;3.974895
2277.000000;3.629640
2276.000000;3.410595
2275.000000;3.418550
2274.000000;3.567773
2273.000000;3.697851
2272.000000;3.587852
2271.000000;3.436788
2270.000000;3.340289
2269.000000;3.337361
2268.000000;3.431284
2267.000000;3.498855
2266.000000;3.451495
2265.000000;3.424821
2264.000000;3.453657
2263.000000;3.479704
2262.000000;3.493922
2261.000000;3.583374
2260.000000;3.785835
2259.000000;3.605080
2258.000000;3.428119
2257.000000;3.436173
2256.000000;3.662286
2255.000000;4.110980
2254.000000;3.817346
2253.000000;3.703496
2252.000000;3.728072
2251.000000;3.692544
2250.000000;3.548313
2249.000000;3.414511
2248.000000;3.373434
2247.000000;3.455051
2246.000000;3.873625
2245.000000;3.829033
2244.000000;3.455688
2243.000000;3.385212
2242.000000;3.397738
2241.000000;3.428786
2240.000000;3.477563
2239.000000;3.546350
2238.000000;3.359163
2237.000000;3.219908
2236.000000;3.241466
2235.000000;3.369503
2234.000000;3.550616
2233.000000;3.987140
2232.000000;4.013263
2231.000000;3.702622
2230.000000;3.834758
2229.000000;4.228381
2228.000000;3.972127
2227.000000;3.866333
2226.000000;4.187196
2225.000000;4.080629
2224.000000;3.654159
2223.000000;3.738319
2222.000000;4.011251
2221.000000;3.951798
2220.000000;3.747738
2219.000000;3.603625
2218.000000;3.528068
2217.000000;3.548988
2216.000000;3.597126
2215.000000;3.671019
2214.000000;3.899653
2213.000000;4.136406
2212.000000;4.104985
2211.000000;4.327563
2210.000000;3.936986
2209.000000;3.653960
2208.000000;3.541540
2207.000000;3.524614
2206.000000;3.656878
2205.000000;4.084502
2204.000000;3.774967
2203.000000;3.520058
2202.000000;3.437981
2201.000000;3.466080
2200.000000;3.636159
2199.000000;3.798762
2198.000000;3.624154
2197.000000;3.545089
2196.000000;3.589086
2195.000000;3.682104
2194.000000;3.745026
2193.000000;3.798819
2192.000000;4.124320
2191.000000;4.197407
2190.000000;3.934261
2189.000000;4.068912
2188.000000;4.209035
2187.000000;3.995301
2186.000000;3.850455
2185.000000;3.834013
2184.000000;3.915019
2183.000000;4.092809
2182.000000;4.133932
2181.000000;3.937946
2180.000000;3.780385
2179.000000;3.696275
2178.000000;3.646879
2177.000000;3.602311
2176.000000;3.569368
2175.000000;3.557358
2174.000000;3.543584
2173.000000;3.509426
2172.000000;3.475297
2171.000000;3.464595
2170.000000;3.503476
2169.000000;3.538941
2168.000000;3.743386
2167.000000;4.086731
2166.000000;3.649545
2165.000000;3.496949
2164.000000;3.795369
2163.000000;4.043265
2162.000000;3.791449
2161.000000;3.927580
2160.000000;3.670775
2159.000000;3.435998
2158.000000;3.408373
2157.000000;3.525077
2156.000000;3.870937
2155.000000;4.093570
2154.000000;3.949785
2153.000000;3.797084
2152.000000;3.619176
2151.000000;3.645180
2150.000000;4.024177
2149.000000;4.253905
2148.000000;3.957909
2147.000000;3.821362
2146.000000;3.613046
2145.000000;3.632820
2144.000000;3.868715
2143.000000;4.072505
2142.000000;3.898278
2141.000000;3.874000
2140.000000;3.903507
2139.000000;3.964093
2138.000000;3.926740
2137.000000;3.787662
2136.000000;3.729257
2135.000000;3.768620
2134.000000;3.907967
2133.000000;4.042598
2132.000000;4.005178
2131.000000;4.028916
2130.000000;4.086128
2129.000000;4.190133
2128.000000;4.996900
2127.000000;4.113832
2126.000000;3.641640
2125.000000;3.420613
2124.000000;3.367142
2123.000000;3.457895
2122.000000;3.769031
2121.000000;4.469000
2120.000000;3.786445
2119.000000;3.677176
2118.000000;3.721777
2117.000000;4.094571
2116.000000;3.987401
2115.000000;3.552953
2114.000000;3.469247
2113.000000;3.507921
2112.000000;3.655647
2111.000000;3.797273
2110.000000;4.074932
2109.000000;3.719873
2108.000000;3.393018
2107.000000;3.312630
2106.000000;3.368740
2105.000000;3.502779
2104.000000;3.599528
2103.000000;3.749438
2102.000000;4.233249
2101.000000;4.703627
2100.000000;4.177066
2099.000000;3.745905
2098.000000;3.540407
2097.000000;3.484415
2096.000000;3.541085
2095.000000;3.677203
2094.000000;3.757187
2093.000000;3.688984
2092.000000;3.631773
2091.000000;3.607931
2090.000000;3.588247
2089.000000;3.567153
2088.000000;3.563269
2087.000000;3.538810
2086.000000;3.514293
2085.000000;3.536531
2084.000000;3.885776
2083.000000;4.114364
2082.000000;3.653457
2081.000000;3.533338
2080.000000;3.547242
2079.000000;3.729948
2078.000000;3.632351
2077.000000;3.398928
2076.000000;3.340096
2075.000000;3.438591
2074.000000;3.714724
2073.000000;4.111617
2072.000000;4.314758
2071.000000;4.283808
2070.000000;3.740764
2069.000000;3.657976
2068.000000;3.778836
2067.000000;3.813506
2066.000000;3.724659
2065.000000;3.643045
2064.000000;3.554725
2063.000000;3.499445
2062.000000;3.481963
2061.000000;3.575729
2060.000000;3.661985
2059.000000;3.539044
2058.000000;3.449963
2057.000000;3.495317
2056.000000;3.731401
2055.000000;3.833341
2054.000000;4.462929
2053.000000;3.944431
2052.000000;3.451247
2051.000000;3.318383
2050.000000;3.325754
2049.000000;3.469164
2048.000000;3.913077
2047.000000;3.954955
2046.000000;3.601911
2045.000000;3.534678
2044.000000;3.575430
2043.000000;3.572509
2042.000000;3.487078
2041.000000;3.422245
2040.000000;3.402673
2039.000000;3.382564
2038.000000;3.317249
2037.000000;3.284600
2036.000000;3.364235
2035.000000;3.572839
2034.000000;3.808237
2033.000000;3.887462
2032.000000;3.859436
2031.000000;3.738819
2030.000000;3.630543
2029.000000;3.621124
2028.000000;3.803557
2027.000000;4.063287
2026.000000;3.874043
2025.000000;3.740914
2024.000000;3.754065
2023.000000;3.902726
2022.000000;4.769518
2021.000000;4.122878
2020.000000;3.898456
2019.000000;3.652681
2018.000000;3.449007
2017.000000;3.389982
2016.000000;3.460302
2015.000000;3.677112
2014.000000;4.146135
2013.000000;4.156631
2012.000000;3.853124
2011.000000;3.873709
2010.000000;3.875849
2009.000000;3.699139
2008.000000;3.605359
2007.000000;3.605026
2006.000000;3.620068
2005.000000;3.592372
2004.000000;3.541898
2003.000000;3.540548
2002.000000;3.664738
2001.000000;4.023597
2000.000000;3.975030
1999.000000;3.764318
1998.000000;3.657276
1997.000000;3.602365
1996.000000;3.645879
1995.000000;3.560491
1994.000000;3.387694
1993.000000;3.298114
1992.000000;3.310963
1991.000000;3.400147
1990.000000;3.463946
1989.000000;3.503104
1988.000000;3.683549
1987.000000;4.017678
1986.000000;3.881294
1985.000000;3.712470
1984.000000;3.688299
1983.000000;3.765800
1982.000000;3.950448
1981.000000;4.070739
1980.000000;3.934177
1979.000000;3.840319
1978.000000;3.796237
1977.000000;3.740749
1976.000000;3.720224
1975.000000;3.828940
1974.000000;4.052705
1973.000000;3.877765
1972.000000;3.660285
1971.000000;3.576983
1970.000000;3.602684
1969.000000;3.791919
1968.000000;4.336267
1967.000000;3.927285
1966.000000;3.673943
1965.000000;3.669225
1964.000000;3.849023
1963.000000;4.084550
1962.000000;3.917610
1961.000000;3.806606
1960.000000;3.849058
1959.000000;3.873144
1958.000000;3.944889
1957.000000;4.248582
1956.000000;4.008970
1955.000000;3.743626
1954.000000;3.624660
1953.000000;3.531206
1952.000000;3.496525
1951.000000;3.562795
1950.000000;3.755362
1949.000000;4.384315
1948.000000;4.130443
1947.000000;3.795645
1946.000000;3.857909
1945.000000;4.055495
1944.000000;4.082284
1943.000000;3.839693
1942.000000;3.773021
1941.000000;4.047250
1940.000000;3.968375
1939.000000;3.593289
1938.000000;3.505640
1937.000000;3.551739
1936.000000;3.539041
1935.000000;3.467775
1934.000000;3.475567
1933.000000;3.608550
1932.000000;3.825538
1931.000000;3.889735
1930.000000;3.905790
1929.000000;4.068780
1928.000000;4.106575
1927.000000;3.908712
1926.000000;3.823227
1925.000000;3.824196
1924.000000;3.646481
1923.000000;3.406240
1922.000000;3.269446
1921.000000;3.241525
1920.000000;3.346208
1919.000000;3.806937
1918.000000;3.939925
1917.000000;3.701275
1916.000000;3.728396
1915.000000;3.495441
1914.000000;3.323806
1913.000000;3.320650
1912.000000;3.451272
1911.000000;3.695435
1910.000000;4.102935
1909.000000;3.899332
1908.000000;3.565909
1907.000000;3.485895
1906.000000;3.553619
1905.000000;3.641166
1904.000000;3.622436
1903.000000;3.735969
1902.000000;4.154571
1901.000000;3.950795
1900.000000;3.654023
1899.000000;3.619064
1898.000000;3.654951
1897.000000;3.738176
1896.000000;3.835246
1895.000000;3.920874
1894.000000;4.000685
1893.000000;4.307312
1892.000000;4.264013
1891.000000;3.860198
1890.000000;3.721223
1889.000000;3.757661
1888.000000;3.904945
1887.000000;4.023086
1886.000000;3.964718
1885.000000;3.790926
1884.000000;3.630397
1883.000000;3.511916
1882.000000;3.453227
1881.000000;3.451853
1880.000000;3.479410
1879.000000;3.501474
1878.000000;3.486953
1877.000000;3.458848
1876.000000;3.482295
1875.000000;3.634345
1874.000000;3.966365
1873.000000;3.906158
1872.000000;3.617529
1871.000000;3.511748
1870.000000;3.488850
1869.000000;3.511797
1868.000000;3.525709
1867.000000;3.512832
1866.000000;3.512620
1865.000000;3.571758
1864.000000;3.699885
1863.000000;3.785143
1862.000000;3.662680
1861.000000;3.443325
1860.000000;3.274498
1859.000000;3.204045
1858.000000;3.247113
1857.000000;3.411210
1856.000000;3.682690
1855.000000;3.868282
1854.000000;3.761689
1853.000000;3.588801
1852.000000;3.448309
1851.000000;3.369327
1850.000000;3.354459
1849.000000;3.389226
1848.000000;3.482695
1847.000000;3.560282
1846.000000;3.453277
1845.000000;3.334663
1844.000000;3.303998
1843.000000;3.286487
1842.000000;3.226868
1841.000000;3.175497
1840.000000;3.213805
1839.000000;3.367419
1838.000000;3.527871
1837.000000;3.535500
1836.000000;3.541388
1835.000000;3.541247
1834.000000;3.412637
1833.000000;3.308986
1832.000000;3.297441
1831.000000;3.383433
1830.000000;3.542881
1829.000000;3.774912
1828.000000;4.274041
1827.000000;3.931253
1826.000000;3.552525
1825.000000;3.466967
1824.000000;3.525243
1823.000000;3.921326
1822.000000;4.589330
1821.000000;3.938841
1820.000000;4.029737
1819.000000;3.948379
1818.000000;3.687737
1817.000000;3.582161
1816.000000;3.596579
1815.000000;3.745436
1814.000000;4.247373
1813.000000;4.113435
1812.000000;3.795811
1811.000000;3.904854
1810.000000;3.962000
1809.000000;3.839273
1808.000000;3.746659
1807.000000;3.660175
1806.000000;3.582254
1805.000000;3.624002
1804.000000;3.916859
1803.000000;3.788781
1802.000000;3.421171
1801.000000;3.257546
1800.000000;3.203137
1799.000000;3.235725
1798.000000;3.355549
1797.000000;3.716658
1796.000000;4.240861
1795.000000;4.009712
1794.000000;4.017289
1793.000000;3.616999
1792.000000;3.383660
1791.000000;3.316933
1790.000000;3.334935
1789.000000;3.508307
1788.000000;4.042918
1787.000000;3.926664
1786.000000;3.559863
1785.000000;3.483641
1784.000000;3.488683
1783.000000;3.624415
1782.000000;3.924120
1781.000000;3.937476
1780.000000;3.591525
1779.000000;3.456640
1778.000000;3.517389
1777.000000;3.811827
1776.000000;4.490651
1775.000000;4.426775
1774.000000;4.102240
1773.000000;3.790139
1772.000000;3.657145
1771.000000;3.639015
1770.000000;3.629344
1769.000000;3.608488
1768.000000;3.568837
1767.000000;3.623841
1766.000000;3.720610
1765.000000;3.576089
1764.000000;3.460802
1763.000000;3.479456
1762.000000;3.470578
1761.000000;3.396443
1760.000000;3.371981
1759.000000;3.492859
1758.000000;3.719741
1757.000000;3.622445
1756.000000;3.413670
1755.000000;3.301917
1754.000000;3.232718
1753.000000;3.213160
1752.000000;3.210837
1751.000000;3.243599
1750.000000;3.297697
1749.000000;3.572690
1748.000000;4.017635
1747.000000;3.400757
1746.000000;3.230998
1745.000000;3.220696
1744.000000;3.241402
1743.000000;3.309083
1742.000000;3.418128
1741.000000;3.603978
1740.000000;3.717534
1739.000000;3.717609
1738.000000;3.712049
1737.000000;3.784957
1736.000000;3.935400
1735.000000;3.921552
1734.000000;3.791775
1733.000000;3.724645
1732.000000;3.635017
1731.000000;3.536219
1730.000000;3.482218
1729.000000;3.479834
1728.000000;3.520107
1727.000000;3.607601
1726.000000;3.763913
1725.000000;3.852565
1724.000000;3.761457
1723.000000;3.691657
1722.000000;3.681934
1721.000000;3.738744
1720.000000;3.758216
1719.000000;3.692652
1718.000000;3.684939
1717.000000;3.715761
1716.000000;3.786066
1715.000000;3.909389
1714.000000;4.108923
1713.000000;3.990297
1712.000000;3.652855
1711.000000;3.490271
1710.000000;3.480657
1709.000000;3.667964
1708.000000;3.693108
1707.000000;3.472657
1706.000000;3.413831
1705.000000;3.437333
1704.000000;3.395310
1703.000000;3.406221
1702.000000;3.674855
1701.000000;3.726857
1700.000000;3.507102
1699.000000;3.494198
1698.000000;3.573804
1697.000000;3.699065
1696.000000;3.765263
1695.000000;3.757029
1694.000000;3.762351
1693.000000;3.851150
1692.000000;4.064591
1691.000000;4.138341
1690.000000;3.885839
1689.000000;3.695374
1688.000000;3.533007
1687.000000;3.342927
1686.000000;3.242390
1685.000000;3.289781
1684.000000;3.443937
1683.000000;3.632742
1682.000000;4.001223
1681.000000;3.694024
1680.000000;3.313052
1679.000000;3.209461
1678.000000;3.205594
1677.000000;3.287542
1676.000000;3.491324
1675.000000;3.736374
1674.000000;3.903519
1673.000000;4.530221
1672.000000;3.994545
1671.000000;3.595553
1670.000000;3.508107
1669.000000;3.478053
1668.000000;3.516302
1667.000000;3.575279
1666.000000;3.728547
1665.000000;3.918244
1664.000000;3.732502
1663.000000;3.578594
1662.000000;3.578558
1661.000000;3.621322
1660.000000;3.624916
1659.000000;3.587658
1658.000000;3.567141
1657.000000;3.546584
1656.000000;3.545314
1655.000000;3.551524
1654.000000;3.561907
1653.000000;3.553638
1652.000000;3.571174
1651.000000;3.578448
1650.000000;3.675869
1649.000000;4.429773
1648.000000;4.104382
1647.000000;3.773256
1646.000000;3.889777
1645.000000;3.794678
1644.000000;3.578925
1643.000000;3.371318
1642.000000;3.284467
1641.000000;3.301967
1640.000000;3.371278
1639.000000;3.454403
1638.000000;3.564804
1637.000000;3.937995
1636.000000;4.504561
1635.000000;4.056699
1634.000000;3.932838
1633.000000;3.718461
1632.000000;3.597050
1631.000000;3.578940
1630.000000;3.546453
1629.000000;3.522995
1628.000000;3.525667
1627.000000;3.542615
1626.000000;3.505653
1625.000000;3.486072
1624.000000;3.533394
1623.000000;3.611447
1622.000000;3.659846
1621.000000;3.664727
1620.000000;3.640434
1619.000000;3.657553
1618.000000;3.778456
1617.000000;4.083440
1616.000000;4.428783
1615.000000;4.023100
1614.000000;3.660830
1613.000000;3.394272
1612.000000;3.290944
1611.000000;3.350664
1610.000000;3.648526
1609.000000;4.192927
1608.000000;3.739675
1607.000000;3.494821
1606.000000;3.375727
1605.000000;3.302310
1604.000000;3.285444
1603.000000;3.351306
1602.000000;3.657783
1601.000000;3.589666
1600.000000;3.267427
1599.000000;3.182001
1598.000000;3.203318
1597.000000;3.304438
1596.000000;3.484112
1595.000000;3.714561
1594.000000;4.069884
1593.000000;4.252075
1592.000000;3.823295
1591.000000;3.534376
1590.000000;3.385680
1589.000000;3.329407
1588.000000;3.367142
1587.000000;3.473915
1586.000000;3.592910
1585.000000;3.567739
1584.000000;3.401516
1583.000000;3.252752
1582.000000;3.176244
1581.000000;3.181352
1580.000000;3.261070
1579.000000;3.383824
1578.000000;3.464884
1577.000000;3.470649
1576.000000;3.474858
1575.000000;3.467940
1574.000000;3.401132
1573.000000;3.316350
1572.000000;3.314889
1571.000000;3.471320
1570.000000;3.665579
1569.000000;3.654457
1568.000000;3.546721
1567.000000;3.427979
1566.000000;3.384483
1565.000000;3.494267
1564.000000;3.758611
1563.000000;3.767713
1562.000000;3.553565
1561.000000;3.473134
1560.000000;3.488040
1559.000000;3.526962
1558.000000;3.564220
1557.000000;3.530171
1556.000000;3.462121
1555.000000;3.454318
1554.000000;3.457749
1553.000000;3.464366
1552.000000;3.506096
1551.000000;3.557024
1550.000000;3.543140
1549.000000;3.432830
1548.000000;3.320722
1547.000000;3.262044
1546.000000;3.233147
1545.000000;3.220920
1544.000000;3.249527
1543.000000;3.404244
1542.000000;3.640554
1541.000000;3.694438
1540.000000;3.668328
1539.000000;3.612034
1538.000000;3.477998
1537.000000;3.350741
1536.000000;3.315727
1535.000000;3.430771
1534.000000;3.774277
1533.000000;3.763993
1532.000000;3.335637
1531.000000;3.090742
1530.000000;2.992296
1529.000000;3.023871
1528.000000;3.157425
1527.000000;3.320548
1526.000000;3.348533
1525.000000;3.326986
1524.000000;3.417402
1523.000000;3.590315
1522.000000;3.730808
1521.000000;3.707925
1520.000000;3.757953
1519.000000;3.688643
1518.000000;3.326160
1517.000000;3.149446
1516.000000;3.197972
1515.000000;3.365860
1514.000000;3.284466
1513.000000;3.131634
1512.000000;3.103001
1511.000000;3.116821
1510.000000;3.143082
1509.000000;3.159917
1508.000000;3.131932
1507.000000;3.069809
1506.000000;3.056211
1505.000000;3.070399
1504.000000;3.078695
1503.000000;3.097146
1502.000000;3.104228
1501.000000;3.110752
1500.000000;3.124572
1499.000000;3.127251
1498.000000;3.119140
1497.000000;3.102100
1496.000000;3.076852
1495.000000;3.058890
1494.000000;3.053402
1493.000000;3.051052
1492.000000;3.039163
1491.000000;3.011443
1490.000000;2.972288
1489.000000;2.948261
1488.000000;2.968505
1487.000000;3.009957
1486.000000;3.008188
1485.000000;2.962890
1484.000000;2.936579
1483.000000;2.963439
1482.000000;3.030041
1481.000000;3.080597
1480.000000;3.068939
1479.000000;3.015603
1478.000000;2.957239
1477.000000;2.899017
1476.000000;2.842042
1475.000000;2.820919
1474.000000;2.866849
1473.000000;2.943624
1472.000000;2.960886
1471.000000;2.915460
1470.000000;2.884359
1469.000000;2.900416
1468.000000;2.940355
1467.000000;2.970258
1466.000000;2.988939
1465.000000;3.020430
1464.000000;3.099505
1463.000000;3.179850
1462.000000;3.127161
1461.000000;3.043069
1460.000000;3.015488
1459.000000;3.013400
1458.000000;3.022651
1457.000000;3.042449
1456.000000;3.069131
1455.000000;3.100808
1454.000000;3.114931
1453.000000;3.094405
1452.000000;3.067013
1451.000000;3.059408
1450.000000;3.064185
1449.000000;3.088530
1448.000000;3.164451
1447.000000;3.365522
1446.000000;3.833141
1445.000000;3.647398
1444.000000;3.287580
1443.000000;3.226621
1442.000000;3.292957
1441.000000;3.421325
1440.000000;3.516088
1439.000000;3.709018
1438.000000;3.996861
1437.000000;3.511681
1436.000000;3.153607
1435.000000;2.942336
1434.000000;2.820133
1433.000000;2.804837
1432.000000;2.869845
1431.000000;2.990230
1430.000000;3.179093
1429.000000;3.511124
1428.000000;3.705237
1427.000000;3.805763
1426.000000;4.114983
1425.000000;3.578621
1424.000000;3.359185
1423.000000;3.283513
1422.000000;3.233701
1421.000000;3.260183
1420.000000;3.376301
1419.000000;3.732112
1418.000000;4.250942
1417.000000;3.863430
1416.000000;4.157589
1415.000000;4.269560
1414.000000;3.784808
1413.000000;3.665063
1412.000000;3.627976
1411.000000;3.779392
1410.000000;4.409171
1409.000000;4.154963
1408.000000;3.682964
1407.000000;3.460760
1406.000000;3.322555
1405.000000;3.289148
1404.000000;3.377771
1403.000000;3.549015
1402.000000;3.865879
1401.000000;4.267174
1400.000000;3.658162
1399.000000;3.454243
1398.000000;3.490528
1397.000000;3.628838
1396.000000;3.638628
1395.000000;3.607268
1394.000000;3.501407
1393.000000;3.331792
1392.000000;3.294920
1391.000000;3.299331
1390.000000;3.255739
1389.000000;3.198007
1388.000000;3.171419
1387.000000;3.209899
1386.000000;3.345414
1385.000000;3.567913
1384.000000;3.785935
1383.000000;4.006500
1382.000000;4.088505
1381.000000;3.856395
1380.000000;3.616638
1379.000000;3.393306
1378.000000;3.184406
1377.000000;3.042851
1376.000000;2.994479
1375.000000;3.028529
1374.000000;3.114233
1373.000000;3.243219
1372.000000;3.542518
1371.000000;3.519524
1370.000000;3.174560
1369.000000;3.071162
1368.000000;3.116648
1367.000000;3.182733
1366.000000;3.147001
1365.000000;3.146764
1364.000000;3.281146
1363.000000;3.358735
1362.000000;3.152911
1361.000000;2.958100
1360.000000;2.856396
1359.000000;2.864950
1358.000000;2.971874
1357.000000;3.098409
1356.000000;3.146296
1355.000000;3.087207
1354.000000;2.999505
1353.000000;2.987051
1352.000000;3.117368
1351.000000;3.524520
1350.000000;4.041791
1349.000000;3.850357
1348.000000;3.750011
1347.000000;3.419425
1346.000000;3.257610
1345.000000;3.274368
1344.000000;3.433052
1343.000000;3.513579
1342.000000;3.271856
1341.000000;3.104758
1340.000000;3.063602
1339.000000;3.134983
1338.000000;3.126929
1337.000000;3.070388
1336.000000;3.279749
1335.000000;3.383721
1334.000000;3.105539
1333.000000;3.001266
1332.000000;2.993379
1331.000000;3.012761
1330.000000;3.023714
1329.000000;3.038554
1328.000000;3.075025
1327.000000;3.132545
1326.000000;3.215265
1325.000000;3.257218
1324.000000;3.193468
1323.000000;3.098177
1322.000000;3.056438
1321.000000;3.081532
1320.000000;3.114303
1319.000000;3.135219
1318.000000;3.251995
1317.000000;3.345289
1316.000000;3.200775
1315.000000;3.135038
1314.000000;3.182211
1313.000000;3.340257
1312.000000;3.633122
1311.000000;3.807482
1310.000000;3.840169
1309.000000;3.781632
1308.000000;3.630517
1307.000000;3.720736
1306.000000;3.872585
1305.000000;3.726470
1304.000000;3.625768
1303.000000;3.543703
1302.000000;3.426089
1301.000000;3.392878
1300.000000;3.482730
1299.000000;3.759740
1298.000000;4.319305
1297.000000;3.675323
1296.000000;3.328334
1295.000000;3.211922
1294.000000;3.230482
1293.000000;3.371287
1292.000000;3.550684
1291.000000;3.561265
1290.000000;3.482927
1289.000000;3.475857
1288.000000;3.525957
1287.000000;3.597490
1286.000000;3.648112
1285.000000;3.622721
1284.000000;3.492463
1283.000000;3.301562
1282.000000;3.195552
1281.000000;3.224776
1280.000000;3.412478
1279.000000;3.562674
1278.000000;3.492550
1277.000000;3.900345
1276.000000;3.942992
1275.000000;3.447952
1274.000000;3.414458
1273.000000;3.431487
1272.000000;3.374815
1271.000000;3.404400
1270.000000;3.439183
1269.000000;3.307018
1268.000000;3.266298
1267.000000;3.259042
1266.000000;3.115823
1265.000000;3.023879
1264.000000;3.062313
1263.000000;3.228020
1262.000000;3.583313
1261.000000;4.085211
1260.000000;3.627876
1259.000000;3.415664
1258.000000;3.305147
1257.000000;3.266656
1256.000000;3.260203
1255.000000;3.270723
1254.000000;3.344356
1253.000000;3.411496
1252.000000;3.404241
1251.000000;3.450545
1250.000000;3.735124
1249.000000;3.833137
1248.000000;3.700643
1247.000000;4.096055
1246.000000;3.615952
1245.000000;3.351945
1244.000000;3.437064
1243.000000;3.782552
1242.000000;3.640109
1241.000000;3.443803
1240.000000;3.421567
1239.000000;3.419853
1238.000000;3.423433
1237.000000;3.481659
1236.000000;3.590408
1235.000000;3.839328
1234.000000;3.939966
1233.000000;3.508565
1232.000000;3.388379
1231.000000;3.299056
1230.000000;3.192400
1229.000000;3.181624
1228.000000;3.291855
1227.000000;3.427549
1226.000000;3.483575
1225.000000;3.425595
1224.000000;3.274714
1223.000000;3.198038
1222.000000;3.255144
1221.000000;3.787383
1220.000000;3.745450
1219.000000;3.360026
1218.000000;3.332589
1217.000000;3.436430
1216.000000;3.393871
1215.000000;3.174090
1214.000000;3.096137
1213.000000;3.177150
1212.000000;3.453668
1211.000000;3.909207
1210.000000;3.634654
1209.000000;3.586140
1208.000000;3.759770
1207.000000;3.631023
1206.000000;3.316699
1205.000000;3.174542
1204.000000;3.125224
1203.000000;3.113664
1202.000000;3.107019
1201.000000;3.138923
1200.000000;3.321535
