Criado como novo conjunto de dados;"1909daniel.spp","-4272644.4 Secs"
cm-1;Abs
10000.000000;1.360413
9999.000000;1.360254
9998.000000;1.359372
9997.000000;1.357589
9996.000000;1.355591
9995.000000;1.354030
9994.000000;1.352979
9993.000000;1.352293
9992.000000;1.352065
9991.000000;1.352386
9990.000000;1.352890
9989.000000;1.352914
9988.000000;1.352087
9987.000000;1.350637
9986.000000;1.349290
9985.000000;1.348865
9984.000000;1.349621
9983.000000;1.350781
9982.000000;1.351038
9981.000000;1.349881
9980.000000;1.348116
9979.000000;1.346759
9978.000000;1.345820
9977.000000;1.344604
9976.000000;1.342958
9975.000000;1.341599
9974.000000;1.341180
9973.000000;1.341504
9972.000000;1.341803
9971.000000;1.341466
9970.000000;1.340373
9969.000000;1.338807
9968.000000;1.337300
9967.000000;1.336405
9966.000000;1.336359
9965.000000;1.336832
9964.000000;1.337019
9963.000000;1.336149
9962.000000;1.334169
9961.000000;1.332010
9960.000000;1.330965
9959.000000;1.331507
9958.000000;1.332719
9957.000000;1.333094
9956.000000;1.331988
9955.000000;1.330132
9954.000000;1.328755
9953.000000;1.328393
9952.000000;1.328573
9951.000000;1.328445
9950.000000;1.327635
9949.000000;1.326445
9948.000000;1.325288
9947.000000;1.324140
9946.000000;1.322789
9945.000000;1.321560
9944.000000;1.321235
9943.000000;1.322009
9942.000000;1.322893
9941.000000;1.322638
9940.000000;1.321114
9939.000000;1.319347
9938.000000;1.318259
9937.000000;1.317847
9936.000000;1.317582
9935.000000;1.317147
9934.000000;1.316596
9933.000000;1.316022
9932.000000;1.315312
9931.000000;1.314178
9930.000000;1.312472
9929.000000;1.310556
9928.000000;1.309214
9927.000000;1.308952
9926.000000;1.309446
9925.000000;1.309919
9924.000000;1.309953
9923.000000;1.309670
9922.000000;1.309232
9921.000000;1.308622
9920.000000;1.307845
9919.000000;1.306945
9918.000000;1.305811
9917.000000;1.304411
9916.000000;1.303164
9915.000000;1.302557
9914.000000;1.302336
9913.000000;1.301653
9912.000000;1.300176
9911.000000;1.298512
9910.000000;1.297262
9909.000000;1.296246
9908.000000;1.295051
9907.000000;1.293847
9906.000000;1.293132
9905.000000;1.292970
9904.000000;1.293034
9903.000000;1.293204
9902.000000;1.293600
9901.000000;1.294103
9900.000000;1.294336
9899.000000;1.294134
9898.000000;1.293630
9897.000000;1.292816
9896.000000;1.291465
9895.000000;1.289684
9894.000000;1.288209
9893.000000;1.287805
9892.000000;1.288394
9891.000000;1.288936
9890.000000;1.288273
9889.000000;1.286119
9888.000000;1.283187
9887.000000;1.280433
9886.000000;1.278415
9885.000000;1.277399
9884.000000;1.277646
9883.000000;1.279102
9882.000000;1.280917
9881.000000;1.281843
9880.000000;1.281360
9879.000000;1.280085
9878.000000;1.278911
9877.000000;1.278087
9876.000000;1.277348
9875.000000;1.276533
9874.000000;1.275725
9873.000000;1.274988
9872.000000;1.274331
9871.000000;1.273810
9870.000000;1.273424
9869.000000;1.273041
9868.000000;1.272597
9867.000000;1.272183
9866.000000;1.271772
9865.000000;1.271100
9864.000000;1.270059
9863.000000;1.268950
9862.000000;1.268036
9861.000000;1.267130
9860.000000;1.265945
9859.000000;1.264654
9858.000000;1.263720
9857.000000;1.263337
9856.000000;1.263339
9855.000000;1.263509
9854.000000;1.263650
9853.000000;1.263526
9852.000000;1.263098
9851.000000;1.262675
9850.000000;1.262473
9849.000000;1.262147
9848.000000;1.261172
9847.000000;1.259598
9846.000000;1.258004
9845.000000;1.256777
9844.000000;1.255870
9843.000000;1.255203
9842.000000;1.254808
9841.000000;1.254493
9840.000000;1.253818
9839.000000;1.252605
9838.000000;1.251150
9837.000000;1.249787
9836.000000;1.248537
9835.000000;1.247322
9834.000000;1.246268
9833.000000;1.245644
9832.000000;1.245594
9831.000000;1.245962
9830.000000;1.246274
9829.000000;1.245985
9828.000000;1.244965
9827.000000;1.243713
9826.000000;1.242836
9825.000000;1.242358
9824.000000;1.241826
9823.000000;1.241053
9822.000000;1.240412
9821.000000;1.240295
9820.000000;1.240560
9819.000000;1.240657
9818.000000;1.240150
9817.000000;1.239059
9816.000000;1.237845
9815.000000;1.237042
9814.000000;1.236741
9813.000000;1.236473
9812.000000;1.235770
9811.000000;1.234706
9810.000000;1.233644
9809.000000;1.232615
9808.000000;1.231360
9807.000000;1.229908
9806.000000;1.228673
9805.000000;1.227901
9804.000000;1.227436
9803.000000;1.227133
9802.000000;1.227090
9801.000000;1.227329
9800.000000;1.227524
9799.000000;1.227277
9798.000000;1.226481
9797.000000;1.225292
9796.000000;1.224012
9795.000000;1.223053
9794.000000;1.222675
9793.000000;1.222655
9792.000000;1.222448
9791.000000;1.221780
9790.000000;1.220825
9789.000000;1.219735
9788.000000;1.218326
9787.000000;1.216455
9786.000000;1.214460
9785.000000;1.213021
9784.000000;1.212669
9783.000000;1.213374
9782.000000;1.214433
9781.000000;1.214844
9780.000000;1.214175
9779.000000;1.213023
9778.000000;1.212273
9777.000000;1.212009
9776.000000;1.211574
9775.000000;1.210683
9774.000000;1.209854
9773.000000;1.209464
9772.000000;1.208986
9771.000000;1.207613
9770.000000;1.205315
9769.000000;1.202839
9768.000000;1.200941
9767.000000;1.199949
9766.000000;1.199821
9765.000000;1.200229
9764.000000;1.200708
9763.000000;1.200976
9762.000000;1.200962
9761.000000;1.200474
9760.000000;1.199252
9759.000000;1.197568
9758.000000;1.196328
9757.000000;1.196091
9756.000000;1.196282
9755.000000;1.195815
9754.000000;1.194357
9753.000000;1.192530
9752.000000;1.191041
9751.000000;1.190062
9750.000000;1.189403
9749.000000;1.188858
9748.000000;1.188362
9747.000000;1.188046
9746.000000;1.188066
9745.000000;1.188180
9744.000000;1.187724
9743.000000;1.186384
9742.000000;1.184809
9741.000000;1.184022
9740.000000;1.184272
9739.000000;1.184826
9738.000000;1.184830
9737.000000;1.184040
9736.000000;1.182759
9735.000000;1.181454
9734.000000;1.180506
9733.000000;1.179987
9732.000000;1.179566
9731.000000;1.178842
9730.000000;1.177840
9729.000000;1.176977
9728.000000;1.176525
9727.000000;1.176295
9726.000000;1.175853
9725.000000;1.174925
9724.000000;1.173664
9723.000000;1.172662
9722.000000;1.172508
9721.000000;1.173097
9720.000000;1.173507
9719.000000;1.172873
9718.000000;1.171315
9717.000000;1.169705
9716.000000;1.168679
9715.000000;1.168229
9714.000000;1.168049
9713.000000;1.167772
9712.000000;1.166951
9711.000000;1.165400
9710.000000;1.163644
9709.000000;1.162548
9708.000000;1.162326
9707.000000;1.162302
9706.000000;1.161815
9705.000000;1.160958
9704.000000;1.160197
9703.000000;1.159674
9702.000000;1.159227
9701.000000;1.158862
9700.000000;1.158784
9699.000000;1.159035
9698.000000;1.159333
9697.000000;1.159266
9696.000000;1.158545
9695.000000;1.157192
9694.000000;1.155629
9693.000000;1.154501
9692.000000;1.154207
9691.000000;1.154526
9690.000000;1.154728
9689.000000;1.154106
9688.000000;1.152576
9687.000000;1.150808
9686.000000;1.149642
9685.000000;1.149231
9684.000000;1.148881
9683.000000;1.147911
9682.000000;1.146500
9681.000000;1.145308
9680.000000;1.144450
9679.000000;1.143410
9678.000000;1.142000
9677.000000;1.140794
9676.000000;1.140345
9675.000000;1.140405
9674.000000;1.140281
9673.000000;1.139688
9672.000000;1.138866
9671.000000;1.138063
9670.000000;1.137327
9669.000000;1.136772
9668.000000;1.136674
9667.000000;1.137142
9666.000000;1.137810
9665.000000;1.137954
9664.000000;1.136965
9663.000000;1.134831
9662.000000;1.132261
9661.000000;1.130247
9660.000000;1.129419
9659.000000;1.129769
9658.000000;1.130900
9657.000000;1.132261
9656.000000;1.133154
9655.000000;1.132920
9654.000000;1.131438
9653.000000;1.129312
9652.000000;1.127330
9651.000000;1.125856
9650.000000;1.124830
9649.000000;1.124093
9648.000000;1.123463
9647.000000;1.122717
9646.000000;1.121861
9645.000000;1.121332
9644.000000;1.121554
9643.000000;1.122237
9642.000000;1.122425
9641.000000;1.121419
9640.000000;1.119544
9639.000000;1.117846
9638.000000;1.117116
9637.000000;1.117256
9636.000000;1.117491
9635.000000;1.117105
9634.000000;1.116063
9633.000000;1.115005
9632.000000;1.114635
9631.000000;1.115076
9630.000000;1.115755
9629.000000;1.115866
9628.000000;1.114948
9627.000000;1.113135
9626.000000;1.110961
9625.000000;1.108943
9624.000000;1.107330
9623.000000;1.106162
9622.000000;1.105454
9621.000000;1.105244
9620.000000;1.105462
9619.000000;1.105839
9618.000000;1.106002
9617.000000;1.105686
9616.000000;1.104906
9615.000000;1.103969
9614.000000;1.103236
9613.000000;1.102824
9612.000000;1.102556
9611.000000;1.102243
9610.000000;1.101843
9609.000000;1.101291
9608.000000;1.100396
9607.000000;1.099145
9606.000000;1.097964
9605.000000;1.097351
9604.000000;1.097268
9603.000000;1.097212
9602.000000;1.096866
9601.000000;1.096380
9600.000000;1.095959
9599.000000;1.095563
9598.000000;1.095123
9597.000000;1.094668
9596.000000;1.094044
9595.000000;1.092919
9594.000000;1.091387
9593.000000;1.090231
9592.000000;1.090113
9591.000000;1.090670
9590.000000;1.090835
9589.000000;1.089965
9588.000000;1.088305
9587.000000;1.086411
9586.000000;1.084600
9585.000000;1.083063
9584.000000;1.082075
9583.000000;1.081806
9582.000000;1.082060
9581.000000;1.082364
9580.000000;1.082313
9579.000000;1.081829
9578.000000;1.081182
9577.000000;1.080756
9576.000000;1.080657
9575.000000;1.080545
9574.000000;1.079998
9573.000000;1.079031
9572.000000;1.078100
9571.000000;1.077573
9570.000000;1.077360
9569.000000;1.077062
9568.000000;1.076340
9567.000000;1.075145
9566.000000;1.073775
9565.000000;1.072735
9564.000000;1.072367
9563.000000;1.072539
9562.000000;1.072797
9561.000000;1.072811
9560.000000;1.072534
9559.000000;1.071964
9558.000000;1.071035
9557.000000;1.069840
9556.000000;1.068710
9555.000000;1.067922
9554.000000;1.067431
9553.000000;1.066992
9552.000000;1.066402
9551.000000;1.065537
9550.000000;1.064345
9549.000000;1.063007
9548.000000;1.061993
9547.000000;1.061716
9546.000000;1.062121
9545.000000;1.062723
9544.000000;1.062986
9543.000000;1.062570
9542.000000;1.061358
9541.000000;1.059554
9540.000000;1.057757
9539.000000;1.056648
9538.000000;1.056391
9537.000000;1.056429
9536.000000;1.056067
9535.000000;1.055241
9534.000000;1.054573
9533.000000;1.054648
9532.000000;1.055331
9531.000000;1.055846
9530.000000;1.055452
9529.000000;1.054026
9528.000000;1.052050
9527.000000;1.050182
9526.000000;1.048861
9525.000000;1.048150
9524.000000;1.047834
9523.000000;1.047644
9522.000000;1.047459
9521.000000;1.047302
9520.000000;1.047181
9519.000000;1.047017
9518.000000;1.046751
9517.000000;1.046415
9516.000000;1.046033
9515.000000;1.045564
9514.000000;1.045046
9513.000000;1.044686
9512.000000;1.044602
9511.000000;1.044542
9510.000000;1.044089
9509.000000;1.043164
9508.000000;1.042102
9507.000000;1.041131
9506.000000;1.040071
9505.000000;1.038740
9504.000000;1.037452
9503.000000;1.036788
9502.000000;1.036946
9501.000000;1.037566
9500.000000;1.038203
9499.000000;1.038704
9498.000000;1.039045
9497.000000;1.039065
9496.000000;1.038583
9495.000000;1.037659
9494.000000;1.036561
9493.000000;1.035498
9492.000000;1.034509
9491.000000;1.033539
9490.000000;1.032540
9489.000000;1.031494
9488.000000;1.030442
9487.000000;1.029468
9486.000000;1.028620
9485.000000;1.027924
9484.000000;1.027488
9483.000000;1.027466
9482.000000;1.027784
9481.000000;1.028024
9480.000000;1.027789
9479.000000;1.027113
9478.000000;1.026329
9477.000000;1.025610
9476.000000;1.024886
9475.000000;1.024171
9474.000000;1.023610
9473.000000;1.023113
9472.000000;1.022309
9471.000000;1.021144
9470.000000;1.020195
9469.000000;1.020016
9468.000000;1.020359
9467.000000;1.020429
9466.000000;1.019889
9465.000000;1.019182
9464.000000;1.018769
9463.000000;1.018496
9462.000000;1.017935
9461.000000;1.016997
9460.000000;1.015854
9459.000000;1.014463
9458.000000;1.012600
9457.000000;1.010401
9456.000000;1.008543
9455.000000;1.007722
9454.000000;1.008010
9453.000000;1.008790
9452.000000;1.009289
9451.000000;1.009167
9450.000000;1.008659
9449.000000;1.008217
9448.000000;1.008065
9447.000000;1.008122
9446.000000;1.008228
9445.000000;1.008298
9444.000000;1.008220
9443.000000;1.007828
9442.000000;1.007087
9441.000000;1.006201
9440.000000;1.005442
9439.000000;1.004936
9438.000000;1.004710
9437.000000;1.004762
9436.000000;1.004900
9435.000000;1.004685
9434.000000;1.003817
9433.000000;1.002542
9432.000000;1.001378
9431.000000;1.000413
9430.000000;0.999224
9429.000000;0.997604
9428.000000;0.996090
9427.000000;0.995466
9426.000000;0.995849
9425.000000;0.996515
9424.000000;0.996575
9423.000000;0.995688
9422.000000;0.994197
9421.000000;0.992825
9420.000000;0.992243
9419.000000;0.992599
9418.000000;0.993319
9417.000000;0.993503
9416.000000;0.992719
9415.000000;0.991339
9414.000000;0.990036
9413.000000;0.989119
9412.000000;0.988505
9411.000000;0.988157
9410.000000;0.988217
9409.000000;0.988642
9408.000000;0.988989
9407.000000;0.988788
9406.000000;0.988061
9405.000000;0.987284
9404.000000;0.986852
9403.000000;0.986711
9402.000000;0.986524
9401.000000;0.986125
9400.000000;0.985696
9399.000000;0.985508
9398.000000;0.985510
9397.000000;0.985252
9396.000000;0.984262
9395.000000;0.982560
9394.000000;0.980784
9393.000000;0.979723
9392.000000;0.979645
9391.000000;0.980041
9390.000000;0.980102
9389.000000;0.979494
9388.000000;0.978651
9387.000000;0.978254
9386.000000;0.978526
9385.000000;0.979087
9384.000000;0.979417
9383.000000;0.979236
9382.000000;0.978490
9381.000000;0.977256
9380.000000;0.975844
9379.000000;0.974754
9378.000000;0.974240
9377.000000;0.974025
9376.000000;0.973663
9375.000000;0.973131
9374.000000;0.972769
9373.000000;0.972644
9372.000000;0.972368
9371.000000;0.971635
9370.000000;0.970614
9369.000000;0.969628
9368.000000;0.968715
9367.000000;0.967774
9366.000000;0.966871
9365.000000;0.966143
9364.000000;0.965518
9363.000000;0.964853
9362.000000;0.964224
9361.000000;0.963826
9360.000000;0.963642
9359.000000;0.963477
9358.000000;0.963309
9357.000000;0.963284
9356.000000;0.963370
9355.000000;0.963267
9354.000000;0.962755
9353.000000;0.961907
9352.000000;0.960902
9351.000000;0.959865
9350.000000;0.958969
9349.000000;0.958468
9348.000000;0.958450
9347.000000;0.958639
9346.000000;0.958593
9345.000000;0.958046
9344.000000;0.957079
9343.000000;0.956048
9342.000000;0.955345
9341.000000;0.955093
9340.000000;0.955028
9339.000000;0.954798
9338.000000;0.954397
9337.000000;0.954127
9336.000000;0.954092
9335.000000;0.953968
9334.000000;0.953383
9333.000000;0.952387
9332.000000;0.951426
9331.000000;0.950938
9330.000000;0.951018
9329.000000;0.951349
9328.000000;0.951397
9327.000000;0.950854
9326.000000;0.949972
9325.000000;0.949341
9324.000000;0.949269
9323.000000;0.949507
9322.000000;0.949619
9321.000000;0.949403
9320.000000;0.948844
9319.000000;0.947914
9318.000000;0.946714
9317.000000;0.945664
9316.000000;0.945221
9315.000000;0.945345
9314.000000;0.945453
9313.000000;0.945008
9312.000000;0.944101
9311.000000;0.943364
9310.000000;0.943324
9309.000000;0.943814
9308.000000;0.944070
9307.000000;0.943492
9306.000000;0.942285
9305.000000;0.941222
9304.000000;0.940780
9303.000000;0.940721
9302.000000;0.940545
9301.000000;0.940089
9300.000000;0.939536
9299.000000;0.939040
9298.000000;0.938567
9297.000000;0.938023
9296.000000;0.937356
9295.000000;0.936599
9294.000000;0.935939
9293.000000;0.935634
9292.000000;0.935705
9291.000000;0.935824
9290.000000;0.935687
9289.000000;0.935355
9288.000000;0.935064
9287.000000;0.934822
9286.000000;0.934448
9285.000000;0.933920
9284.000000;0.933385
9283.000000;0.932837
9282.000000;0.932095
9281.000000;0.931142
9280.000000;0.930231
9279.000000;0.929567
9278.000000;0.929085
9277.000000;0.928653
9276.000000;0.928323
9275.000000;0.928234
9274.000000;0.928343
9273.000000;0.928370
9272.000000;0.927981
9271.000000;0.927069
9270.000000;0.925939
9269.000000;0.925185
9268.000000;0.925174
9267.000000;0.925612
9266.000000;0.925853
9265.000000;0.925730
9264.000000;0.925786
9263.000000;0.926457
9262.000000;0.927265
9261.000000;0.927186
9260.000000;0.925817
9259.000000;0.923820
9258.000000;0.922168
9257.000000;0.921244
9256.000000;0.920821
9255.000000;0.920599
9254.000000;0.920438
9253.000000;0.920189
9252.000000;0.919700
9251.000000;0.919105
9250.000000;0.918821
9249.000000;0.919078
9248.000000;0.919594
9247.000000;0.919895
9246.000000;0.919797
9245.000000;0.919385
9244.000000;0.918658
9243.000000;0.917557
9242.000000;0.916313
9241.000000;0.915389
9240.000000;0.914941
9239.000000;0.914634
9238.000000;0.914180
9237.000000;0.913791
9236.000000;0.913809
9235.000000;0.914071
9234.000000;0.914025
9233.000000;0.913429
9232.000000;0.912621
9231.000000;0.912021
9230.000000;0.911655
9229.000000;0.911311
9228.000000;0.910914
9227.000000;0.910548
9226.000000;0.910241
9225.000000;0.909920
9224.000000;0.909548
9223.000000;0.909144
9222.000000;0.908689
9221.000000;0.908148
9220.000000;0.907629
9219.000000;0.907370
9218.000000;0.907488
9217.000000;0.907793
9216.000000;0.907950
9215.000000;0.907782
9214.000000;0.907357
9213.000000;0.906809
9212.000000;0.906252
9211.000000;0.905865
9210.000000;0.905858
9209.000000;0.906193
9208.000000;0.906440
9207.000000;0.906130
9206.000000;0.905265
9205.000000;0.904314
9204.000000;0.903714
9203.000000;0.903511
9202.000000;0.903478
9201.000000;0.903372
9200.000000;0.903036
9199.000000;0.902465
9198.000000;0.901917
9197.000000;0.901763
9196.000000;0.902033
9195.000000;0.902253
9194.000000;0.901883
9193.000000;0.900911
9192.000000;0.899851
9191.000000;0.899209
9190.000000;0.899094
9189.000000;0.899292
9188.000000;0.899531
9187.000000;0.899614
9186.000000;0.899437
9185.000000;0.898959
9184.000000;0.898195
9183.000000;0.897277
9182.000000;0.896522
9181.000000;0.896298
9180.000000;0.896694
9179.000000;0.897350
9178.000000;0.897723
9177.000000;0.897498
9176.000000;0.896709
9175.000000;0.895574
9174.000000;0.894382
9173.000000;0.893465
9172.000000;0.893073
9171.000000;0.893165
9170.000000;0.893394
9169.000000;0.893377
9168.000000;0.893001
9167.000000;0.892490
9166.000000;0.892182
9165.000000;0.892166
9164.000000;0.892125
9163.000000;0.891656
9162.000000;0.890794
9161.000000;0.890111
9160.000000;0.890139
9159.000000;0.890762
9158.000000;0.891307
9157.000000;0.891166
9156.000000;0.890234
9155.000000;0.888826
9154.000000;0.887420
9153.000000;0.886449
9152.000000;0.886121
9151.000000;0.886275
9150.000000;0.886499
9149.000000;0.886446
9148.000000;0.886052
9147.000000;0.885480
9146.000000;0.884942
9145.000000;0.884556
9144.000000;0.884287
9143.000000;0.884002
9142.000000;0.883633
9141.000000;0.883281
9140.000000;0.883101
9139.000000;0.883137
9138.000000;0.883341
9137.000000;0.883658
9136.000000;0.883989
9135.000000;0.884098
9134.000000;0.883751
9133.000000;0.882949
9132.000000;0.881935
9131.000000;0.881002
9130.000000;0.880399
9129.000000;0.880315
9128.000000;0.880722
9127.000000;0.881191
9126.000000;0.881126
9125.000000;0.880332
9124.000000;0.879230
9123.000000;0.878367
9122.000000;0.877834
9121.000000;0.877346
9120.000000;0.876812
9119.000000;0.876580
9118.000000;0.877004
9117.000000;0.877891
9116.000000;0.878550
9115.000000;0.878439
9114.000000;0.877654
9113.000000;0.876735
9112.000000;0.876098
9111.000000;0.875835
9110.000000;0.875964
9109.000000;0.876577
9108.000000;0.877571
9107.000000;0.878451
9106.000000;0.878655
9105.000000;0.878066
9104.000000;0.877018
9103.000000;0.875866
9102.000000;0.874756
9101.000000;0.873799
9100.000000;0.873182
9099.000000;0.872953
9098.000000;0.872855
9097.000000;0.872532
9096.000000;0.871886
9095.000000;0.871172
9094.000000;0.870766
9093.000000;0.870870
9092.000000;0.871385
9091.000000;0.871990
9090.000000;0.872320
9089.000000;0.872115
9088.000000;0.871308
9087.000000;0.870086
9086.000000;0.868874
9085.000000;0.868078
9084.000000;0.867722
9083.000000;0.867441
9082.000000;0.866984
9081.000000;0.866632
9080.000000;0.866852
9079.000000;0.867598
9078.000000;0.868224
9077.000000;0.868160
9076.000000;0.867458
9075.000000;0.866581
9074.000000;0.865900
9073.000000;0.865585
9072.000000;0.865780
9071.000000;0.866547
9070.000000;0.867606
9069.000000;0.868365
9068.000000;0.868344
9067.000000;0.867553
9066.000000;0.866433
9065.000000;0.865477
9064.000000;0.864907
9063.000000;0.864607
9062.000000;0.864308
9061.000000;0.863828
9060.000000;0.863182
9059.000000;0.862526
9058.000000;0.862046
9057.000000;0.861867
9056.000000;0.861994
9055.000000;0.862291
9054.000000;0.862553
9053.000000;0.862628
9052.000000;0.862465
9051.000000;0.862054
9050.000000;0.861385
9049.000000;0.860532
9048.000000;0.859736
9047.000000;0.859314
9046.000000;0.859397
9045.000000;0.859752
9044.000000;0.859906
9043.000000;0.859525
9042.000000;0.858719
9041.000000;0.857977
9040.000000;0.857780
9039.000000;0.858207
9038.000000;0.858847
9037.000000;0.859058
9036.000000;0.858419
9035.000000;0.857118
9034.000000;0.855910
9033.000000;0.855525
9032.000000;0.856021
9031.000000;0.856736
9030.000000;0.856961
9029.000000;0.856614
9028.000000;0.856221
9027.000000;0.856316
9026.000000;0.856964
9025.000000;0.857784
9024.000000;0.858332
9023.000000;0.858448
9022.000000;0.858290
9021.000000;0.858047
9020.000000;0.857632
9019.000000;0.856764
9018.000000;0.855431
9017.000000;0.854131
9016.000000;0.853446
9015.000000;0.853421
9014.000000;0.853538
9013.000000;0.853329
9012.000000;0.852854
9011.000000;0.852485
9010.000000;0.852382
9009.000000;0.852343
9008.000000;0.852134
9007.000000;0.851838
9006.000000;0.851762
9005.000000;0.852043
9004.000000;0.852440
9003.000000;0.852567
9002.000000;0.852287
9001.000000;0.851782
9000.000000;0.851288
8999.000000;0.850936
8998.000000;0.850830
8997.000000;0.851032
8996.000000;0.851340
8995.000000;0.851304
8994.000000;0.850692
8993.000000;0.849802
8992.000000;0.849114
8991.000000;0.848740
8990.000000;0.848454
8989.000000;0.848170
8988.000000;0.848047
8987.000000;0.848109
8986.000000;0.848115
8985.000000;0.847927
8984.000000;0.847748
8983.000000;0.847810
8982.000000;0.848021
8981.000000;0.848101
8980.000000;0.847948
8979.000000;0.847688
8978.000000;0.847497
8977.000000;0.847508
8976.000000;0.847784
8975.000000;0.848213
8974.000000;0.848502
8973.000000;0.848444
8972.000000;0.848102
8971.000000;0.847615
8970.000000;0.846949
8969.000000;0.846075
8968.000000;0.845295
8967.000000;0.845061
8966.000000;0.845399
8965.000000;0.845801
8964.000000;0.845836
8963.000000;0.845683
8962.000000;0.845834
8961.000000;0.846377
8960.000000;0.846810
8959.000000;0.846583
8958.000000;0.845610
8957.000000;0.844229
8956.000000;0.842865
8955.000000;0.841873
8954.000000;0.841561
8953.000000;0.842053
8952.000000;0.843039
8951.000000;0.843835
8950.000000;0.843884
8949.000000;0.843242
8948.000000;0.842499
8947.000000;0.842232
8946.000000;0.842560
8945.000000;0.843172
8944.000000;0.843648
8943.000000;0.843719
8942.000000;0.843343
8941.000000;0.842668
8940.000000;0.841966
8939.000000;0.841514
8938.000000;0.841443
8937.000000;0.841654
8936.000000;0.841911
8935.000000;0.842008
8934.000000;0.841871
8933.000000;0.841524
8932.000000;0.841013
8931.000000;0.840388
8930.000000;0.839726
8929.000000;0.839123
8928.000000;0.838686
8927.000000;0.838529
8926.000000;0.838729
8925.000000;0.839219
8924.000000;0.839758
8923.000000;0.840085
8922.000000;0.840136
8921.000000;0.840034
8920.000000;0.839912
8919.000000;0.839794
8918.000000;0.839624
8917.000000;0.839308
8916.000000;0.838762
8915.000000;0.838024
8914.000000;0.837372
8913.000000;0.837184
8912.000000;0.837603
8911.000000;0.838378
8910.000000;0.839093
8909.000000;0.839488
8908.000000;0.839535
8907.000000;0.839309
8906.000000;0.838879
8905.000000;0.838294
8904.000000;0.837628
8903.000000;0.837046
8902.000000;0.836766
8901.000000;0.836855
8900.000000;0.837086
8899.000000;0.837129
8898.000000;0.836879
8897.000000;0.836455
8896.000000;0.835900
8895.000000;0.835156
8894.000000;0.834386
8893.000000;0.834017
8892.000000;0.834277
8891.000000;0.834859
8890.000000;0.835251
8889.000000;0.835250
8888.000000;0.834942
8887.000000;0.834427
8886.000000;0.833853
8885.000000;0.833592
8884.000000;0.833967
8883.000000;0.834795
8882.000000;0.835463
8881.000000;0.835560
8880.000000;0.835191
8879.000000;0.834693
8878.000000;0.834294
8877.000000;0.834108
8876.000000;0.834198
8875.000000;0.834481
8874.000000;0.834719
8873.000000;0.834717
8872.000000;0.834433
8871.000000;0.833904
8870.000000;0.833242
8869.000000;0.832731
8868.000000;0.832718
8867.000000;0.833241
8866.000000;0.833907
8865.000000;0.834258
8864.000000;0.834190
8863.000000;0.833930
8862.000000;0.833732
8861.000000;0.833680
8860.000000;0.833672
8859.000000;0.833512
8858.000000;0.833091
8857.000000;0.832556
8856.000000;0.832236
8855.000000;0.832326
8854.000000;0.832711
8853.000000;0.833130
8852.000000;0.833384
8851.000000;0.833336
8850.000000;0.832905
8849.000000;0.832215
8848.000000;0.831650
8847.000000;0.831577
8846.000000;0.832010
8845.000000;0.832610
8844.000000;0.832975
8843.000000;0.832897
8842.000000;0.832435
8841.000000;0.831886
8840.000000;0.831611
8839.000000;0.831732
8838.000000;0.831987
8837.000000;0.831988
8836.000000;0.831655
8835.000000;0.831302
8834.000000;0.831271
8833.000000;0.831544
8832.000000;0.831788
8831.000000;0.831763
8830.000000;0.831628
8829.000000;0.831780
8828.000000;0.832406
8827.000000;0.833245
8826.000000;0.833841
8825.000000;0.833970
8824.000000;0.833756
8823.000000;0.833439
8822.000000;0.833152
8821.000000;0.832924
8820.000000;0.832762
8819.000000;0.832664
8818.000000;0.832597
8817.000000;0.832510
8816.000000;0.832322
8815.000000;0.831924
8814.000000;0.831281
8813.000000;0.830555
8812.000000;0.830030
8811.000000;0.829905
8810.000000;0.830233
8809.000000;0.831016
8808.000000;0.832206
8807.000000;0.833554
8806.000000;0.834620
8805.000000;0.835047
8804.000000;0.834842
8803.000000;0.834338
8802.000000;0.833943
8801.000000;0.833879
8800.000000;0.834052
8799.000000;0.834137
8798.000000;0.833918
8797.000000;0.833565
8796.000000;0.833465
8795.000000;0.833784
8794.000000;0.834308
8793.000000;0.834735
8792.000000;0.834936
8791.000000;0.834923
8790.000000;0.834788
8789.000000;0.834750
8788.000000;0.835030
8787.000000;0.835499
8786.000000;0.835659
8785.000000;0.835182
8784.000000;0.834355
8783.000000;0.833797
8782.000000;0.833853
8781.000000;0.834407
8780.000000;0.835125
8779.000000;0.835653
8778.000000;0.835706
8777.000000;0.835306
8776.000000;0.834908
8775.000000;0.834990
8774.000000;0.835474
8773.000000;0.835805
8772.000000;0.835668
8771.000000;0.835385
8770.000000;0.835498
8769.000000;0.836152
8768.000000;0.837015
8767.000000;0.837646
8766.000000;0.837784
8765.000000;0.837431
8764.000000;0.836853
8763.000000;0.836457
8762.000000;0.836540
8761.000000;0.837120
8760.000000;0.837985
8759.000000;0.838826
8758.000000;0.839346
8757.000000;0.839436
8756.000000;0.839344
8755.000000;0.839516
8754.000000;0.840116
8753.000000;0.840792
8752.000000;0.841058
8751.000000;0.840846
8750.000000;0.840499
8749.000000;0.840284
8748.000000;0.840134
8747.000000;0.839924
8746.000000;0.839777
8745.000000;0.839939
8744.000000;0.840450
8743.000000;0.841072
8742.000000;0.841515
8741.000000;0.841648
8740.000000;0.841508
8739.000000;0.841239
8738.000000;0.841061
8737.000000;0.841226
8736.000000;0.841875
8735.000000;0.842905
8734.000000;0.843957
8733.000000;0.844584
8732.000000;0.844551
8731.000000;0.844039
8730.000000;0.843492
8729.000000;0.843178
8728.000000;0.842939
8727.000000;0.842514
8726.000000;0.842014
8725.000000;0.841855
8724.000000;0.842176
8723.000000;0.842596
8722.000000;0.842757
8721.000000;0.842874
8720.000000;0.843417
8719.000000;0.844338
8718.000000;0.845012
8717.000000;0.845034
8716.000000;0.844755
8715.000000;0.844816
8714.000000;0.845390
8713.000000;0.846105
8712.000000;0.846590
8711.000000;0.846819
8710.000000;0.846964
8709.000000;0.847124
8708.000000;0.847269
8707.000000;0.847349
8706.000000;0.847385
8705.000000;0.847479
8704.000000;0.847717
8703.000000;0.848008
8702.000000;0.848113
8701.000000;0.847904
8700.000000;0.847562
8699.000000;0.847383
8698.000000;0.847413
8697.000000;0.847392
8696.000000;0.847097
8695.000000;0.846659
8694.000000;0.846498
8693.000000;0.846950
8692.000000;0.847916
8691.000000;0.848854
8690.000000;0.849196
8689.000000;0.848846
8688.000000;0.848244
8687.000000;0.847920
8686.000000;0.848059
8685.000000;0.848490
8684.000000;0.848905
8683.000000;0.848987
8682.000000;0.848521
8681.000000;0.847638
8680.000000;0.846873
8679.000000;0.846758
8678.000000;0.847310
8677.000000;0.848086
8676.000000;0.848696
8675.000000;0.849099
8674.000000;0.849416
8673.000000;0.849737
8672.000000;0.850111
8671.000000;0.850515
8670.000000;0.850749
8669.000000;0.850587
8668.000000;0.850104
8667.000000;0.849669
8666.000000;0.849533
8665.000000;0.849616
8664.000000;0.849759
8663.000000;0.849943
8662.000000;0.850121
8661.000000;0.850097
8660.000000;0.849812
8659.000000;0.849551
8658.000000;0.849598
8657.000000;0.849817
8656.000000;0.849867
8655.000000;0.849770
8654.000000;0.849923
8653.000000;0.850509
8652.000000;0.851189
8651.000000;0.851477
8650.000000;0.851222
8649.000000;0.850601
8648.000000;0.849812
8647.000000;0.848985
8646.000000;0.848290
8645.000000;0.847947
8644.000000;0.848052
8643.000000;0.848449
8642.000000;0.848822
8641.000000;0.848943
8640.000000;0.848840
8639.000000;0.848697
8638.000000;0.848581
8637.000000;0.848370
8636.000000;0.848010
8635.000000;0.847719
8634.000000;0.847760
8633.000000;0.848064
8632.000000;0.848261
8631.000000;0.848117
8630.000000;0.847788
8629.000000;0.847588
8628.000000;0.847691
8627.000000;0.848113
8626.000000;0.848797
8625.000000;0.849532
8624.000000;0.849937
8623.000000;0.849764
8622.000000;0.849192
8621.000000;0.848656
8620.000000;0.848377
8619.000000;0.848214
8618.000000;0.848000
8617.000000;0.847850
8616.000000;0.847992
8615.000000;0.848410
8614.000000;0.848808
8613.000000;0.848928
8612.000000;0.848780
8611.000000;0.848527
8610.000000;0.848257
8609.000000;0.847977
8608.000000;0.847773
8607.000000;0.847814
8606.000000;0.848119
8605.000000;0.848422
8604.000000;0.848397
8603.000000;0.848008
8602.000000;0.847529
8601.000000;0.847226
8600.000000;0.847112
8599.000000;0.847050
8598.000000;0.846981
8597.000000;0.846965
8596.000000;0.847081
8595.000000;0.847384
8594.000000;0.847922
8593.000000;0.848641
8592.000000;0.849270
8591.000000;0.849429
8590.000000;0.848933
8589.000000;0.847965
8588.000000;0.846930
8587.000000;0.846195
8586.000000;0.845956
8585.000000;0.846213
8584.000000;0.846764
8583.000000;0.847298
8582.000000;0.847599
8581.000000;0.847670
8580.000000;0.847595
8579.000000;0.847321
8578.000000;0.846723
8577.000000;0.845875
8576.000000;0.845117
8575.000000;0.844752
8574.000000;0.844759
8573.000000;0.844875
8572.000000;0.844893
8571.000000;0.844788
8570.000000;0.844625
8569.000000;0.844456
8568.000000;0.844320
8567.000000;0.844241
8566.000000;0.844198
8565.000000;0.844176
8564.000000;0.844233
8563.000000;0.844427
8562.000000;0.844666
8561.000000;0.844756
8560.000000;0.844647
8559.000000;0.844521
8558.000000;0.844539
8557.000000;0.844617
8556.000000;0.844554
8555.000000;0.844307
8554.000000;0.843984
8553.000000;0.843636
8552.000000;0.843223
8551.000000;0.842813
8550.000000;0.842618
8549.000000;0.842764
8548.000000;0.843145
8547.000000;0.843562
8546.000000;0.843933
8545.000000;0.844247
8544.000000;0.844398
8543.000000;0.844232
8542.000000;0.843739
8541.000000;0.843105
8540.000000;0.842512
8539.000000;0.842017
8538.000000;0.841651
8537.000000;0.841531
8536.000000;0.841730
8535.000000;0.842075
8534.000000;0.842241
8533.000000;0.842107
8532.000000;0.841942
8531.000000;0.842128
8530.000000;0.842742
8529.000000;0.843473
8528.000000;0.843924
8527.000000;0.843884
8526.000000;0.843384
8525.000000;0.842623
8524.000000;0.841899
8523.000000;0.841460
8522.000000;0.841325
8521.000000;0.841313
8520.000000;0.841300
8519.000000;0.841364
8518.000000;0.841638
8517.000000;0.842107
8516.000000;0.842620
8515.000000;0.843005
8514.000000;0.843067
8513.000000;0.842609
8512.000000;0.841678
8511.000000;0.840728
8510.000000;0.840301
8509.000000;0.840488
8508.000000;0.840851
8507.000000;0.840932
8506.000000;0.840729
8505.000000;0.840572
8504.000000;0.840687
8503.000000;0.840995
8502.000000;0.841265
8501.000000;0.841311
8500.000000;0.841102
8499.000000;0.840779
8498.000000;0.840573
8497.000000;0.840584
8496.000000;0.840662
8495.000000;0.840553
8494.000000;0.840211
8493.000000;0.839878
8492.000000;0.839850
8491.000000;0.840203
8490.000000;0.840760
8489.000000;0.841282
8488.000000;0.841623
8487.000000;0.841712
8486.000000;0.841474
8485.000000;0.840870
8484.000000;0.840044
8483.000000;0.839319
8482.000000;0.838955
8481.000000;0.838923
8480.000000;0.838992
8479.000000;0.839020
8478.000000;0.839077
8477.000000;0.839263
8476.000000;0.839505
8475.000000;0.839584
8474.000000;0.839343
8473.000000;0.838832
8472.000000;0.838308
8471.000000;0.838066
8470.000000;0.838204
8469.000000;0.838504
8468.000000;0.838611
8467.000000;0.838394
8466.000000;0.838076
8465.000000;0.837974
8464.000000;0.838158
8463.000000;0.838410
8462.000000;0.838490
8461.000000;0.838378
8460.000000;0.838253
8459.000000;0.838308
8458.000000;0.838597
8457.000000;0.839034
8456.000000;0.839478
8455.000000;0.839784
8454.000000;0.839793
8453.000000;0.839385
8452.000000;0.838625
8451.000000;0.837831
8450.000000;0.837366
8449.000000;0.837315
8448.000000;0.837416
8447.000000;0.837322
8446.000000;0.836925
8445.000000;0.836429
8444.000000;0.836172
8443.000000;0.836361
8442.000000;0.836901
8441.000000;0.837434
8440.000000;0.837574
8439.000000;0.837196
8438.000000;0.836534
8437.000000;0.836039
8436.000000;0.836098
8435.000000;0.836757
8434.000000;0.837612
8433.000000;0.838086
8432.000000;0.837937
8431.000000;0.837490
8430.000000;0.837224
8429.000000;0.837201
8428.000000;0.837064
8427.000000;0.836581
8426.000000;0.835969
8425.000000;0.835594
8424.000000;0.835543
8423.000000;0.835606
8422.000000;0.835545
8421.000000;0.835274
8420.000000;0.834886
8419.000000;0.834616
8418.000000;0.834685
8417.000000;0.835066
8416.000000;0.835461
8415.000000;0.835565
8414.000000;0.835314
8413.000000;0.834838
8412.000000;0.834344
8411.000000;0.834082
8410.000000;0.834264
8409.000000;0.834851
8408.000000;0.835510
8407.000000;0.835916
8406.000000;0.836008
8405.000000;0.835877
8404.000000;0.835573
8403.000000;0.835167
8402.000000;0.834862
8401.000000;0.834818
8400.000000;0.834942
8399.000000;0.835051
8398.000000;0.835146
8397.000000;0.835321
8396.000000;0.835486
8395.000000;0.835463
8394.000000;0.835323
8393.000000;0.835355
8392.000000;0.835622
8391.000000;0.835808
8390.000000;0.835614
8389.000000;0.835132
8388.000000;0.834719
8387.000000;0.834637
8386.000000;0.834930
8385.000000;0.835489
8384.000000;0.836083
8383.000000;0.836383
8382.000000;0.836143
8381.000000;0.835401
8380.000000;0.834471
8379.000000;0.833731
8378.000000;0.833408
8377.000000;0.833468
8376.000000;0.833671
8375.000000;0.833762
8374.000000;0.833679
8373.000000;0.833560
8372.000000;0.833576
8371.000000;0.833767
8370.000000;0.834035
8369.000000;0.834222
8368.000000;0.834236
8367.000000;0.834142
8366.000000;0.834082
8365.000000;0.834039
8364.000000;0.833767
8363.000000;0.833117
8362.000000;0.832383
8361.000000;0.832089
8360.000000;0.832405
8359.000000;0.832975
8358.000000;0.833379
8357.000000;0.833576
8356.000000;0.833753
8355.000000;0.833923
8354.000000;0.833888
8353.000000;0.833552
8352.000000;0.833088
8351.000000;0.832757
8350.000000;0.832682
8349.000000;0.832790
8348.000000;0.832895
8347.000000;0.832854
8346.000000;0.832723
8345.000000;0.832718
8344.000000;0.832952
8343.000000;0.833242
8342.000000;0.833266
8341.000000;0.832915
8340.000000;0.832398
8339.000000;0.832019
8338.000000;0.831962
8337.000000;0.832255
8336.000000;0.832796
8335.000000;0.833331
8334.000000;0.833535
8333.000000;0.833274
8332.000000;0.832757
8331.000000;0.832345
8330.000000;0.832209
8329.000000;0.832221
8328.000000;0.832166
8327.000000;0.831973
8326.000000;0.831698
8325.000000;0.831404
8324.000000;0.831119
8323.000000;0.830862
8322.000000;0.830635
8321.000000;0.830427
8320.000000;0.830276
8319.000000;0.830294
8318.000000;0.830524
8317.000000;0.830818
8316.000000;0.830974
8315.000000;0.830994
8314.000000;0.831062
8313.000000;0.831232
8312.000000;0.831265
8311.000000;0.830905
8310.000000;0.830239
8309.000000;0.829661
8308.000000;0.829526
8307.000000;0.829891
8306.000000;0.830528
8305.000000;0.831105
8304.000000;0.831378
8303.000000;0.831337
8302.000000;0.831140
8301.000000;0.830885
8300.000000;0.830522
8299.000000;0.830041
8298.000000;0.829631
8297.000000;0.829514
8296.000000;0.829672
8295.000000;0.829882
8294.000000;0.829987
8293.000000;0.829974
8292.000000;0.829831
8291.000000;0.829499
8290.000000;0.829029
8289.000000;0.828601
8288.000000;0.828340
8287.000000;0.828210
8286.000000;0.828131
8285.000000;0.828083
8284.000000;0.828055
8283.000000;0.828009
8282.000000;0.827972
8281.000000;0.828054
8280.000000;0.828277
8279.000000;0.828491
8278.000000;0.828545
8277.000000;0.828474
8276.000000;0.828423
8275.000000;0.828418
8274.000000;0.828318
8273.000000;0.828015
8272.000000;0.827601
8271.000000;0.827312
8270.000000;0.827283
8269.000000;0.827400
8268.000000;0.827439
8267.000000;0.827340
8266.000000;0.827261
8265.000000;0.827291
8264.000000;0.827257
8263.000000;0.826997
8262.000000;0.826736
8261.000000;0.826917
8260.000000;0.827614
8259.000000;0.828360
8258.000000;0.828675
8257.000000;0.828563
8256.000000;0.828352
8255.000000;0.828208
8254.000000;0.828013
8253.000000;0.827616
8252.000000;0.827009
8251.000000;0.826322
8250.000000;0.825814
8249.000000;0.825773
8248.000000;0.826234
8247.000000;0.826810
8246.000000;0.827012
8245.000000;0.826759
8244.000000;0.826403
8243.000000;0.826259
8242.000000;0.826315
8241.000000;0.826439
8240.000000;0.826640
8239.000000;0.826944
8238.000000;0.827190
8237.000000;0.827154
8236.000000;0.826852
8235.000000;0.826541
8234.000000;0.826394
8233.000000;0.826303
8232.000000;0.826069
8231.000000;0.825708
8230.000000;0.825450
8229.000000;0.825462
8228.000000;0.825645
8227.000000;0.825780
8226.000000;0.825808
8225.000000;0.825874
8224.000000;0.826092
8223.000000;0.826351
8222.000000;0.826433
8221.000000;0.826258
8220.000000;0.825927
8219.000000;0.825559
8218.000000;0.825205
8217.000000;0.824917
8216.000000;0.824785
8215.000000;0.824835
8214.000000;0.824950
8213.000000;0.824978
8212.000000;0.824862
8211.000000;0.824637
8210.000000;0.824345
8209.000000;0.824049
8208.000000;0.823872
8207.000000;0.823940
8206.000000;0.824262
8205.000000;0.824708
8204.000000;0.825123
8203.000000;0.825402
8202.000000;0.825490
8201.000000;0.825354
8200.000000;0.825000
8199.000000;0.824504
8198.000000;0.824010
8197.000000;0.823704
8196.000000;0.823724
8195.000000;0.824040
8194.000000;0.824421
8193.000000;0.824632
8192.000000;0.824685
8191.000000;0.824797
8190.000000;0.825073
8189.000000;0.825327
8188.000000;0.825328
8187.000000;0.825131
8186.000000;0.825000
8185.000000;0.825016
8184.000000;0.824939
8183.000000;0.824517
8182.000000;0.823839
8181.000000;0.823254
8180.000000;0.822997
8179.000000;0.823016
8178.000000;0.823136
8177.000000;0.823297
8176.000000;0.823566
8175.000000;0.823967
8174.000000;0.824362
8173.000000;0.824513
8172.000000;0.824272
8171.000000;0.823707
8170.000000;0.823071
8169.000000;0.822630
8168.000000;0.822508
8167.000000;0.822659
8166.000000;0.822926
8165.000000;0.823148
8164.000000;0.823245
8163.000000;0.823228
8162.000000;0.823143
8161.000000;0.823022
8160.000000;0.822929
8159.000000;0.822996
8158.000000;0.823330
8157.000000;0.823836
8156.000000;0.824211
8155.000000;0.824191
8154.000000;0.823786
8153.000000;0.823254
8152.000000;0.822851
8151.000000;0.822637
8150.000000;0.822501
8149.000000;0.822356
8148.000000;0.822291
8147.000000;0.822480
8146.000000;0.822910
8145.000000;0.823260
8144.000000;0.823174
8143.000000;0.822638
8142.000000;0.821980
8141.000000;0.821494
8140.000000;0.821194
8139.000000;0.820973
8138.000000;0.820816
8137.000000;0.820742
8136.000000;0.820690
8135.000000;0.820625
8134.000000;0.820651
8133.000000;0.820873
8132.000000;0.821185
8131.000000;0.821364
8130.000000;0.821342
8129.000000;0.821240
8128.000000;0.821158
8127.000000;0.821080
8126.000000;0.820963
8125.000000;0.820799
8124.000000;0.820582
8123.000000;0.820347
8122.000000;0.820241
8121.000000;0.820407
8120.000000;0.820767
8119.000000;0.821055
8118.000000;0.821108
8117.000000;0.821007
8116.000000;0.820922
8115.000000;0.820934
8114.000000;0.821048
8113.000000;0.821234
8112.000000;0.821380
8111.000000;0.821328
8110.000000;0.821055
8109.000000;0.820748
8108.000000;0.820608
8107.000000;0.820659
8106.000000;0.820793
8105.000000;0.820925
8104.000000;0.821016
8103.000000;0.821052
8102.000000;0.821066
8101.000000;0.821112
8100.000000;0.821133
8099.000000;0.820964
8098.000000;0.820579
8097.000000;0.820223
8096.000000;0.820147
8095.000000;0.820273
8094.000000;0.820286
8093.000000;0.820063
8092.000000;0.819817
8091.000000;0.819781
8090.000000;0.819905
8089.000000;0.819953
8088.000000;0.819805
8087.000000;0.819571
8086.000000;0.819448
8085.000000;0.819562
8084.000000;0.819894
8083.000000;0.820273
8082.000000;0.820454
8081.000000;0.820295
8080.000000;0.819886
8079.000000;0.819476
8078.000000;0.819254
8077.000000;0.819220
8076.000000;0.819263
8075.000000;0.819322
8074.000000;0.819416
8073.000000;0.819542
8072.000000;0.819605
8071.000000;0.819492
8070.000000;0.819208
8069.000000;0.818924
8068.000000;0.818877
8067.000000;0.819193
8066.000000;0.819752
8065.000000;0.820202
8064.000000;0.820187
8063.000000;0.819651
8062.000000;0.818933
8061.000000;0.818499
8060.000000;0.818557
8059.000000;0.818926
8058.000000;0.819258
8057.000000;0.819347
8056.000000;0.819231
8055.000000;0.819076
8054.000000;0.819008
8053.000000;0.819024
8052.000000;0.819018
8051.000000;0.818883
8050.000000;0.818623
8049.000000;0.818358
8048.000000;0.818201
8047.000000;0.818174
8046.000000;0.818231
8045.000000;0.818344
8044.000000;0.818502
8043.000000;0.818654
8042.000000;0.818708
8041.000000;0.818620
8040.000000;0.818441
8039.000000;0.818259
8038.000000;0.818118
8037.000000;0.818027
8036.000000;0.818018
8035.000000;0.818120
8034.000000;0.818268
8033.000000;0.818308
8032.000000;0.818156
8031.000000;0.817913
8030.000000;0.817753
8029.000000;0.817739
8028.000000;0.817792
8027.000000;0.817845
8026.000000;0.817913
8025.000000;0.817996
8024.000000;0.818017
8023.000000;0.817911
8022.000000;0.817724
8021.000000;0.817554
8020.000000;0.817446
8019.000000;0.817390
8018.000000;0.817371
8017.000000;0.817376
8016.000000;0.817388
8015.000000;0.817431
8014.000000;0.817560
8013.000000;0.817785
8012.000000;0.818032
8011.000000;0.818229
8010.000000;0.818356
8009.000000;0.818376
8008.000000;0.818222
8007.000000;0.817941
8006.000000;0.817738
8005.000000;0.817739
8004.000000;0.817798
8003.000000;0.817666
8002.000000;0.817334
8001.000000;0.817044
8000.000000;0.817014
7999.000000;0.817269
7998.000000;0.817720
7997.000000;0.818211
7996.000000;0.818494
7995.000000;0.818368
7994.000000;0.817915
7993.000000;0.817458
7992.000000;0.817233
7991.000000;0.817210
7990.000000;0.817269
7989.000000;0.817389
7988.000000;0.817552
7987.000000;0.817639
7986.000000;0.817545
7985.000000;0.817342
7984.000000;0.817194
7983.000000;0.817159
7982.000000;0.817172
7981.000000;0.817152
7980.000000;0.817066
7979.000000;0.816919
7978.000000;0.816779
7977.000000;0.816766
7976.000000;0.816931
7975.000000;0.817191
7974.000000;0.817412
7973.000000;0.817542
7972.000000;0.817593
7971.000000;0.817579
7970.000000;0.817516
7969.000000;0.817439
7968.000000;0.817356
7967.000000;0.817233
7966.000000;0.817078
7965.000000;0.816976
7964.000000;0.816966
7963.000000;0.816953
7962.000000;0.816839
7961.000000;0.816698
7960.000000;0.816702
7959.000000;0.816919
7958.000000;0.817253
7957.000000;0.817567
7956.000000;0.817769
7955.000000;0.817799
7954.000000;0.817652
7953.000000;0.817417
7952.000000;0.817213
7951.000000;0.817071
7950.000000;0.816924
7949.000000;0.816751
7948.000000;0.816658
7947.000000;0.816774
7946.000000;0.817089
7945.000000;0.817428
7944.000000;0.817593
7943.000000;0.817540
7942.000000;0.817407
7941.000000;0.817350
7940.000000;0.817358
7939.000000;0.817292
7938.000000;0.817119
7937.000000;0.817013
7936.000000;0.817149
7935.000000;0.817443
7934.000000;0.817605
7933.000000;0.817440
7932.000000;0.817038
7931.000000;0.816660
7930.000000;0.816495
7929.000000;0.816526
7928.000000;0.816581
7927.000000;0.816508
7926.000000;0.816341
7925.000000;0.816289
7924.000000;0.816523
7923.000000;0.816991
7922.000000;0.817482
7921.000000;0.817860
7920.000000;0.818148
7919.000000;0.818379
7918.000000;0.818443
7917.000000;0.818182
7916.000000;0.817625
7915.000000;0.817074
7914.000000;0.816889
7913.000000;0.817175
7912.000000;0.817683
7911.000000;0.818042
7910.000000;0.818073
7909.000000;0.817874
7908.000000;0.817645
7907.000000;0.817526
7906.000000;0.817570
7905.000000;0.817758
7904.000000;0.817972
7903.000000;0.818045
7902.000000;0.817906
7901.000000;0.817670
7900.000000;0.817510
7899.000000;0.817504
7898.000000;0.817622
7897.000000;0.817794
7896.000000;0.817919
7895.000000;0.817884
7894.000000;0.817695
7893.000000;0.817547
7892.000000;0.817630
7891.000000;0.817908
7890.000000;0.818168
7889.000000;0.818299
7888.000000;0.818360
7887.000000;0.818394
7886.000000;0.818344
7885.000000;0.818200
7884.000000;0.818099
7883.000000;0.818151
7882.000000;0.818280
7881.000000;0.818346
7880.000000;0.818367
7879.000000;0.818458
7878.000000;0.818600
7877.000000;0.818599
7876.000000;0.818336
7875.000000;0.817938
7874.000000;0.817651
7873.000000;0.817596
7872.000000;0.817727
7871.000000;0.817958
7870.000000;0.818248
7869.000000;0.818557
7868.000000;0.818817
7867.000000;0.818996
7866.000000;0.819130
7865.000000;0.819256
7864.000000;0.819326
7863.000000;0.819259
7862.000000;0.819057
7861.000000;0.818823
7860.000000;0.818659
7859.000000;0.818599
7858.000000;0.818657
7857.000000;0.818856
7856.000000;0.819154
7855.000000;0.819400
7854.000000;0.819451
7853.000000;0.819319
7852.000000;0.819138
7851.000000;0.818993
7850.000000;0.818860
7849.000000;0.818736
7848.000000;0.818723
7847.000000;0.818928
7846.000000;0.819303
7845.000000;0.819658
7844.000000;0.819827
7843.000000;0.819782
7842.000000;0.819619
7841.000000;0.819489
7840.000000;0.819498
7839.000000;0.819625
7838.000000;0.819702
7837.000000;0.819569
7836.000000;0.819291
7835.000000;0.819164
7834.000000;0.819441
7833.000000;0.820053
7832.000000;0.820637
7831.000000;0.820864
7830.000000;0.820686
7829.000000;0.820298
7828.000000;0.819950
7827.000000;0.819814
7826.000000;0.819948
7825.000000;0.820287
7824.000000;0.820671
7823.000000;0.820927
7822.000000;0.820972
7821.000000;0.820834
7820.000000;0.820625
7819.000000;0.820477
7818.000000;0.820468
7817.000000;0.820564
7816.000000;0.820648
7815.000000;0.820650
7814.000000;0.820617
7813.000000;0.820639
7812.000000;0.820734
7811.000000;0.820884
7810.000000;0.821106
7809.000000;0.821409
7808.000000;0.821677
7807.000000;0.821723
7806.000000;0.821497
7805.000000;0.821182
7804.000000;0.821008
7803.000000;0.821029
7802.000000;0.821126
7801.000000;0.821179
7800.000000;0.821189
7799.000000;0.821244
7798.000000;0.821405
7797.000000;0.821634
7796.000000;0.821832
7795.000000;0.821928
7794.000000;0.821931
7793.000000;0.821880
7792.000000;0.821789
7791.000000;0.821690
7790.000000;0.821702
7789.000000;0.821934
7788.000000;0.822301
7787.000000;0.822553
7786.000000;0.822540
7785.000000;0.822388
7784.000000;0.822326
7783.000000;0.822405
7782.000000;0.822484
7781.000000;0.822477
7780.000000;0.822483
7779.000000;0.822647
7778.000000;0.822959
7777.000000;0.823253
7776.000000;0.823383
7775.000000;0.823376
7774.000000;0.823405
7773.000000;0.823619
7772.000000;0.823984
7771.000000;0.824292
7770.000000;0.824354
7769.000000;0.824177
7768.000000;0.823938
7767.000000;0.823791
7766.000000;0.823750
7765.000000;0.823754
7764.000000;0.823811
7763.000000;0.824013
7762.000000;0.824402
7761.000000;0.824860
7760.000000;0.825175
7759.000000;0.825227
7758.000000;0.825091
7757.000000;0.824942
7756.000000;0.824895
7755.000000;0.824943
7754.000000;0.825029
7753.000000;0.825125
7752.000000;0.825255
7751.000000;0.825467
7750.000000;0.825796
7749.000000;0.826208
7748.000000;0.826579
7747.000000;0.826771
7746.000000;0.826732
7745.000000;0.826528
7744.000000;0.826273
7743.000000;0.826073
7742.000000;0.826009
7741.000000;0.826117
7740.000000;0.826342
7739.000000;0.826567
7738.000000;0.826709
7737.000000;0.826771
7736.000000;0.826792
7735.000000;0.826808
7734.000000;0.826854
7733.000000;0.826945
7732.000000;0.827027
7731.000000;0.827019
7730.000000;0.826937
7729.000000;0.826909
7728.000000;0.827026
7727.000000;0.827205
7726.000000;0.827298
7725.000000;0.827281
7724.000000;0.827272
7723.000000;0.827378
7722.000000;0.827593
7721.000000;0.827838
7720.000000;0.828043
7719.000000;0.828178
7718.000000;0.828249
7717.000000;0.828296
7716.000000;0.828364
7715.000000;0.828468
7714.000000;0.828594
7713.000000;0.828732
7712.000000;0.828894
7711.000000;0.829089
7710.000000;0.829305
7709.000000;0.829526
7708.000000;0.829748
7707.000000;0.829979
7706.000000;0.830204
7705.000000;0.830363
7704.000000;0.830390
7703.000000;0.830298
7702.000000;0.830211
7701.000000;0.830246
7700.000000;0.830371
7699.000000;0.830428
7698.000000;0.830332
7697.000000;0.830176
7696.000000;0.830118
7695.000000;0.830215
7694.000000;0.830419
7693.000000;0.830701
7692.000000;0.831075
7691.000000;0.831493
7690.000000;0.831782
7689.000000;0.831751
7688.000000;0.831410
7687.000000;0.831043
7686.000000;0.831028
7685.000000;0.831521
7684.000000;0.832305
7683.000000;0.832995
7682.000000;0.833380
7681.000000;0.833548
7680.000000;0.833680
7679.000000;0.833842
7678.000000;0.833987
7677.000000;0.834086
7676.000000;0.834145
7675.000000;0.834152
7674.000000;0.834084
7673.000000;0.833976
7672.000000;0.833930
7671.000000;0.834035
7670.000000;0.834290
7669.000000;0.834581
7668.000000;0.834761
7667.000000;0.834783
7666.000000;0.834780
7665.000000;0.834933
7664.000000;0.835253
7663.000000;0.835568
7662.000000;0.835762
7661.000000;0.835917
7660.000000;0.836151
7659.000000;0.836412
7658.000000;0.836563
7657.000000;0.836609
7656.000000;0.836704
7655.000000;0.836946
7654.000000;0.837279
7653.000000;0.837605
7652.000000;0.837857
7651.000000;0.837969
7650.000000;0.837895
7649.000000;0.837731
7648.000000;0.837696
7647.000000;0.837924
7646.000000;0.838315
7645.000000;0.838671
7644.000000;0.838930
7643.000000;0.839196
7642.000000;0.839561
7641.000000;0.839958
7640.000000;0.840224
7639.000000;0.840297
7638.000000;0.840317
7637.000000;0.840482
7636.000000;0.840817
7635.000000;0.841123
7634.000000;0.841225
7633.000000;0.841187
7632.000000;0.841200
7631.000000;0.841314
7630.000000;0.841403
7629.000000;0.841415
7628.000000;0.841502
7627.000000;0.841815
7626.000000;0.842274
7625.000000;0.842647
7624.000000;0.842804
7623.000000;0.842815
7622.000000;0.842827
7621.000000;0.842930
7620.000000;0.843139
7619.000000;0.843416
7618.000000;0.843695
7617.000000;0.843946
7616.000000;0.844207
7615.000000;0.844541
7614.000000;0.844940
7613.000000;0.845313
7612.000000;0.845595
7611.000000;0.845805
7610.000000;0.846012
7609.000000;0.846247
7608.000000;0.846500
7607.000000;0.846769
7606.000000;0.847077
7605.000000;0.847437
7604.000000;0.847817
7603.000000;0.848169
7602.000000;0.848472
7601.000000;0.848725
7600.000000;0.848917
7599.000000;0.849039
7598.000000;0.849130
7597.000000;0.849272
7596.000000;0.849485
7595.000000;0.849692
7594.000000;0.849813
7593.000000;0.849915
7592.000000;0.850169
7591.000000;0.850659
7590.000000;0.851258
7589.000000;0.851732
7588.000000;0.851944
7587.000000;0.851945
7586.000000;0.851893
7585.000000;0.851917
7584.000000;0.852055
7583.000000;0.852282
7582.000000;0.852578
7581.000000;0.852955
7580.000000;0.853402
7579.000000;0.853820
7578.000000;0.854076
7577.000000;0.854140
7576.000000;0.854153
7575.000000;0.854322
7574.000000;0.854732
7573.000000;0.855275
7572.000000;0.855769
7571.000000;0.856126
7570.000000;0.856411
7569.000000;0.856744
7568.000000;0.857159
7567.000000;0.857577
7566.000000;0.857907
7565.000000;0.858157
7564.000000;0.858419
7563.000000;0.858752
7562.000000;0.859090
7561.000000;0.859310
7560.000000;0.859382
7559.000000;0.859437
7558.000000;0.859637
7557.000000;0.859993
7556.000000;0.860348
7555.000000;0.860561
7554.000000;0.860674
7553.000000;0.860859
7552.000000;0.861224
7551.000000;0.861733
7550.000000;0.862272
7549.000000;0.862746
7548.000000;0.863114
7547.000000;0.863401
7546.000000;0.863711
7545.000000;0.864147
7544.000000;0.864694
7543.000000;0.865215
7542.000000;0.865591
7541.000000;0.865823
7540.000000;0.865980
7539.000000;0.866123
7538.000000;0.866317
7537.000000;0.866663
7536.000000;0.867219
7535.000000;0.867904
7534.000000;0.868547
7533.000000;0.869020
7532.000000;0.869307
7531.000000;0.869456
7530.000000;0.869541
7529.000000;0.869642
7528.000000;0.869813
7527.000000;0.870051
7526.000000;0.870321
7525.000000;0.870611
7524.000000;0.870938
7523.000000;0.871313
7522.000000;0.871728
7521.000000;0.872166
7520.000000;0.872621
7519.000000;0.873114
7518.000000;0.873693
7517.000000;0.874365
7516.000000;0.875019
7515.000000;0.875479
7514.000000;0.875684
7513.000000;0.875764
7512.000000;0.875877
7511.000000;0.876044
7510.000000;0.876200
7509.000000;0.876353
7508.000000;0.876596
7507.000000;0.876978
7506.000000;0.877466
7505.000000;0.878007
7504.000000;0.878556
7503.000000;0.879043
7502.000000;0.879422
7501.000000;0.879754
7500.000000;0.880149
7499.000000;0.880650
7498.000000;0.881194
7497.000000;0.881713
7496.000000;0.882189
7495.000000;0.882632
7494.000000;0.883043
7493.000000;0.883429
7492.000000;0.883770
7491.000000;0.884001
7490.000000;0.884092
7489.000000;0.884165
7488.000000;0.884443
7487.000000;0.885022
7486.000000;0.885761
7485.000000;0.886433
7484.000000;0.886946
7483.000000;0.887384
7482.000000;0.887862
7481.000000;0.888392
7480.000000;0.888882
7479.000000;0.889239
7478.000000;0.889481
7477.000000;0.889722
7476.000000;0.890057
7475.000000;0.890465
7474.000000;0.890883
7473.000000;0.891330
7472.000000;0.891897
7471.000000;0.892587
7470.000000;0.893258
7469.000000;0.893738
7468.000000;0.893988
7467.000000;0.894141
7466.000000;0.894397
7465.000000;0.894878
7464.000000;0.895524
7463.000000;0.896117
7462.000000;0.896466
7461.000000;0.896589
7460.000000;0.896707
7459.000000;0.897032
7458.000000;0.897590
7457.000000;0.898235
7456.000000;0.898788
7455.000000;0.899192
7454.000000;0.899534
7453.000000;0.899911
7452.000000;0.900286
7451.000000;0.900537
7450.000000;0.900661
7449.000000;0.900841
7448.000000;0.901234
7447.000000;0.901790
7446.000000;0.902385
7445.000000;0.903014
7444.000000;0.903729
7443.000000;0.904433
7442.000000;0.904930
7441.000000;0.905177
7440.000000;0.905341
7439.000000;0.905575
7438.000000;0.905872
7437.000000;0.906158
7436.000000;0.906409
7435.000000;0.906639
7434.000000;0.906876
7433.000000;0.907192
7432.000000;0.907658
7431.000000;0.908245
7430.000000;0.908846
7429.000000;0.909405
7428.000000;0.909933
7427.000000;0.910400
7426.000000;0.910738
7425.000000;0.910952
7424.000000;0.911120
7423.000000;0.911268
7422.000000;0.911364
7421.000000;0.911442
7420.000000;0.911621
7419.000000;0.911980
7418.000000;0.912489
7417.000000;0.913081
7416.000000;0.913689
7415.000000;0.914226
7414.000000;0.914650
7413.000000;0.915059
7412.000000;0.915582
7411.000000;0.916166
7410.000000;0.916595
7409.000000;0.916796
7408.000000;0.916943
7407.000000;0.917205
7406.000000;0.917551
7405.000000;0.917871
7404.000000;0.918165
7403.000000;0.918504
7402.000000;0.918874
7401.000000;0.919176
7400.000000;0.919375
7399.000000;0.919520
7398.000000;0.919676
7397.000000;0.919907
7396.000000;0.920217
7395.000000;0.920484
7394.000000;0.920667
7393.000000;0.921018
7392.000000;0.921837
7391.000000;0.922992
7390.000000;0.923960
7389.000000;0.924451
7388.000000;0.924673
7387.000000;0.924876
7386.000000;0.924995
7385.000000;0.924920
7384.000000;0.924757
7383.000000;0.924642
7382.000000;0.924574
7381.000000;0.924570
7380.000000;0.924783
7379.000000;0.925235
7378.000000;0.925654
7377.000000;0.925808
7376.000000;0.925802
7375.000000;0.925990
7374.000000;0.926657
7373.000000;0.927810
7372.000000;0.929161
7371.000000;0.930218
7370.000000;0.930562
7369.000000;0.930317
7368.000000;0.930180
7367.000000;0.930609
7366.000000;0.931334
7365.000000;0.931980
7364.000000;0.932615
7363.000000;0.933355
7362.000000;0.933984
7361.000000;0.934267
7360.000000;0.934355
7359.000000;0.934511
7358.000000;0.934639
7357.000000;0.934463
7356.000000;0.934047
7355.000000;0.933873
7354.000000;0.934290
7353.000000;0.935214
7352.000000;0.936367
7351.000000;0.937456
7350.000000;0.938097
7349.000000;0.938040
7348.000000;0.937587
7347.000000;0.937395
7346.000000;0.937732
7345.000000;0.938232
7344.000000;0.938394
7343.000000;0.937971
7342.000000;0.936965
7341.000000;0.935724
7340.000000;0.935145
7339.000000;0.936245
7338.000000;0.939056
7337.000000;0.942496
7336.000000;0.945431
7335.000000;0.947448
7334.000000;0.948667
7333.000000;0.949276
7332.000000;0.949360
7331.000000;0.949026
7330.000000;0.948341
7329.000000;0.947277
7328.000000;0.946079
7327.000000;0.945637
7326.000000;0.946722
7325.000000;0.948951
7324.000000;0.951230
7323.000000;0.952888
7322.000000;0.954004
7321.000000;0.954890
7320.000000;0.955713
7319.000000;0.956524
7318.000000;0.957202
7317.000000;0.957507
7316.000000;0.957462
7315.000000;0.957512
7314.000000;0.958054
7313.000000;0.958807
7312.000000;0.959102
7311.000000;0.958900
7310.000000;0.958953
7309.000000;0.959749
7308.000000;0.960861
7307.000000;0.961731
7306.000000;0.962547
7305.000000;0.963789
7304.000000;0.965380
7303.000000;0.966945
7302.000000;0.968317
7301.000000;0.969472
7300.000000;0.970320
7299.000000;0.970854
7298.000000;0.971362
7297.000000;0.972112
7296.000000;0.972957
7295.000000;0.973440
7294.000000;0.973489
7293.000000;0.973738
7292.000000;0.974747
7291.000000;0.976336
7290.000000;0.977903
7289.000000;0.979029
7288.000000;0.979766
7287.000000;0.980586
7286.000000;0.981973
7285.000000;0.983904
7284.000000;0.985836
7283.000000;0.987342
7282.000000;0.988502
7281.000000;0.989679
7280.000000;0.991037
7279.000000;0.992406
7278.000000;0.993609
7277.000000;0.994657
7276.000000;0.995619
7275.000000;0.996537
7274.000000;0.997519
7273.000000;0.998741
7272.000000;1.000311
7271.000000;1.002189
7270.000000;1.004175
7269.000000;1.005972
7268.000000;1.007388
7267.000000;1.008528
7266.000000;1.009655
7265.000000;1.010834
7264.000000;1.011899
7263.000000;1.012876
7262.000000;1.014196
7261.000000;1.016238
7260.000000;1.018825
7259.000000;1.021415
7258.000000;1.023637
7257.000000;1.025412
7256.000000;1.026737
7255.000000;1.027625
7254.000000;1.028243
7253.000000;1.029046
7252.000000;1.030647
7251.000000;1.033337
7250.000000;1.036795
7249.000000;1.040292
7248.000000;1.043052
7247.000000;1.044714
7246.000000;1.045501
7245.000000;1.045863
7244.000000;1.046059
7243.000000;1.046409
7242.000000;1.047732
7241.000000;1.050770
7240.000000;1.055193
7239.000000;1.059869
7238.000000;1.063867
7237.000000;1.066831
7236.000000;1.068803
7235.000000;1.069957
7234.000000;1.070507
7233.000000;1.070955
7232.000000;1.072309
7231.000000;1.075439
7230.000000;1.080186
7229.000000;1.085490
7228.000000;1.090240
7227.000000;1.093967
7226.000000;1.097035
7225.000000;1.100159
7224.000000;1.103592
7223.000000;1.107003
7222.000000;1.110090
7221.000000;1.112930
7220.000000;1.115821
7219.000000;1.119063
7218.000000;1.122786
7217.000000;1.126844
7216.000000;1.130981
7215.000000;1.135127
7214.000000;1.139380
7213.000000;1.143723
7212.000000;1.147965
7211.000000;1.151993
7210.000000;1.155915
7209.000000;1.159789
7208.000000;1.163375
7207.000000;1.166435
7206.000000;1.169188
7205.000000;1.172222
7204.000000;1.176026
7203.000000;1.180739
7202.000000;1.186214
7201.000000;1.192042
7200.000000;1.197674
7199.000000;1.202788
7198.000000;1.207507
7197.000000;1.212060
7196.000000;1.216453
7195.000000;1.220689
7194.000000;1.225138
7193.000000;1.230183
7192.000000;1.235659
7191.000000;1.241019
7190.000000;1.246092
7189.000000;1.251187
7188.000000;1.256503
7187.000000;1.261817
7186.000000;1.266844
7185.000000;1.271625
7184.000000;1.276310
7183.000000;1.280843
7182.000000;1.285170
7181.000000;1.289641
7180.000000;1.294770
7179.000000;1.300677
7178.000000;1.307131
7177.000000;1.313828
7176.000000;1.320420
7175.000000;1.326610
7174.000000;1.332402
7173.000000;1.338002
7172.000000;1.343363
7171.000000;1.348076
7170.000000;1.351985
7169.000000;1.355678
7168.000000;1.360173
7167.000000;1.365987
7166.000000;1.372693
7165.000000;1.379588
7164.000000;1.386370
7163.000000;1.392970
7162.000000;1.399171
7161.000000;1.404897
7160.000000;1.410640
7159.000000;1.417005
7158.000000;1.423960
7157.000000;1.430857
7156.000000;1.437099
7155.000000;1.442725
7154.000000;1.448330
7153.000000;1.454457
7152.000000;1.461213
7151.000000;1.468204
7150.000000;1.474830
7149.000000;1.480824
7148.000000;1.486457
7147.000000;1.492015
7146.000000;1.497410
7145.000000;1.502548
7144.000000;1.507749
7143.000000;1.513412
7142.000000;1.519450
7141.000000;1.525424
7140.000000;1.531162
7139.000000;1.536957
7138.000000;1.543173
7137.000000;1.549875
7136.000000;1.556929
7135.000000;1.564124
7134.000000;1.571082
7133.000000;1.577375
7132.000000;1.582973
7131.000000;1.588305
7130.000000;1.593775
7129.000000;1.599419
7128.000000;1.605107
7127.000000;1.610881
7126.000000;1.616926
7125.000000;1.623252
7124.000000;1.629511
7123.000000;1.635194
7122.000000;1.640055
7121.000000;1.644393
7120.000000;1.648795
7119.000000;1.653591
7118.000000;1.658675
7117.000000;1.663930
7116.000000;1.669486
7115.000000;1.675410
7114.000000;1.681460
7113.000000;1.687311
7112.000000;1.692832
7111.000000;1.698061
7110.000000;1.702972
7109.000000;1.707430
7108.000000;1.711456
7107.000000;1.715455
7106.000000;1.720002
7105.000000;1.725429
7104.000000;1.731556
7103.000000;1.737631
7102.000000;1.742845
7101.000000;1.747170
7100.000000;1.751402
7099.000000;1.756198
7098.000000;1.761289
7097.000000;1.765814
7096.000000;1.769256
7095.000000;1.771923
7094.000000;1.774642
7093.000000;1.778125
7092.000000;1.782406
7091.000000;1.786771
7090.000000;1.790475
7089.000000;1.793714
7088.000000;1.797547
7087.000000;1.802595
7086.000000;1.808170
7085.000000;1.813107
7084.000000;1.817120
7083.000000;1.820730
7082.000000;1.824228
7081.000000;1.827487
7080.000000;1.830590
7079.000000;1.833914
7078.000000;1.837554
7077.000000;1.841173
7076.000000;1.844589
7075.000000;1.848098
7074.000000;1.851965
7073.000000;1.855931
7072.000000;1.859473
7071.000000;1.862400
7070.000000;1.864990
7069.000000;1.867656
7068.000000;1.870689
7067.000000;1.874293
7066.000000;1.878589
7065.000000;1.883371
7064.000000;1.887911
7063.000000;1.891215
7062.000000;1.892852
7061.000000;1.893574
7060.000000;1.894685
7059.000000;1.896654
7058.000000;1.898784
7057.000000;1.900404
7056.000000;1.901850
7055.000000;1.903857
7054.000000;1.906355
7053.000000;1.908530
7052.000000;1.910028
7051.000000;1.911432
7050.000000;1.913358
7049.000000;1.915624
7048.000000;1.917600
7047.000000;1.919110
7046.000000;1.920636
7045.000000;1.922731
7044.000000;1.925457
7043.000000;1.928345
7042.000000;1.930727
7041.000000;1.932155
7040.000000;1.932647
7039.000000;1.932616
7038.000000;1.932598
7037.000000;1.933066
7036.000000;1.934362
7035.000000;1.936616
7034.000000;1.939596
7033.000000;1.942642
7032.000000;1.944973
7031.000000;1.946304
7030.000000;1.947160
7029.000000;1.948422
7028.000000;1.950535
7027.000000;1.953304
7026.000000;1.956379
7025.000000;1.959480
7024.000000;1.961967
7023.000000;1.962824
7022.000000;1.961779
7021.000000;1.960175
7020.000000;1.959953
7019.000000;1.961830
7018.000000;1.964963
7017.000000;1.968125
7016.000000;1.970469
7015.000000;1.971308
7014.000000;1.970372
7013.000000;1.968733
7012.000000;1.968395
7011.000000;1.970218
7010.000000;1.972902
7009.000000;1.974646
7008.000000;1.975222
7007.000000;1.975658
7006.000000;1.976569
7005.000000;1.977860
7004.000000;1.979621
7003.000000;1.982085
7002.000000;1.984732
7001.000000;1.986430
7000.000000;1.986772
6999.000000;1.986485
6998.000000;1.986297
6997.000000;1.986212
6996.000000;1.985997
6995.000000;1.985718
6994.000000;1.985615
6993.000000;1.985878
6992.000000;1.986786
6991.000000;1.988545
6990.000000;1.990726
6989.000000;1.992312
6988.000000;1.992589
6987.000000;1.991742
6986.000000;1.990595
6985.000000;1.990126
6984.000000;1.991045
6983.000000;1.993272
6982.000000;1.995632
6981.000000;1.996500
6980.000000;1.995190
6979.000000;1.992519
6978.000000;1.989937
6977.000000;1.988441
6976.000000;1.988291
6975.000000;1.989148
6974.000000;1.990244
6973.000000;1.990811
6972.000000;1.990667
6971.000000;1.990235
6970.000000;1.989916
6969.000000;1.989796
6968.000000;1.990031
6967.000000;1.990998
6966.000000;1.992781
6965.000000;1.994901
6964.000000;1.996826
6963.000000;1.998378
6962.000000;1.999403
6961.000000;1.999545
6960.000000;1.998826
6959.000000;1.998056
6958.000000;1.998028
6957.000000;1.998486
6956.000000;1.998484
6955.000000;1.997643
6954.000000;1.996423
6953.000000;1.995178
6952.000000;1.993682
6951.000000;1.991856
6950.000000;1.990277
6949.000000;1.989497
6948.000000;1.989330
6947.000000;1.989334
6946.000000;1.989745
6945.000000;1.991213
6944.000000;1.993618
6943.000000;1.995721
6942.000000;1.996321
6941.000000;1.995456
6940.000000;1.994203
6939.000000;1.993593
6938.000000;1.993917
6937.000000;1.994764
6936.000000;1.995348
6935.000000;1.994989
6934.000000;1.993652
6933.000000;1.992019
6932.000000;1.990830
6931.000000;1.990210
6930.000000;1.989792
6929.000000;1.989316
6928.000000;1.988796
6927.000000;1.988223
6926.000000;1.987516
6925.000000;1.986840
6924.000000;1.986630
6923.000000;1.987081
6922.000000;1.987837
6921.000000;1.988413
6920.000000;1.988761
6919.000000;1.989149
6918.000000;1.989508
6917.000000;1.989182
6916.000000;1.987511
6915.000000;1.984708
6914.000000;1.982044
6913.000000;1.980973
6912.000000;1.982003
6911.000000;1.984331
6910.000000;1.986529
6909.000000;1.987523
6908.000000;1.987009
6907.000000;1.985323
6906.000000;1.983185
6905.000000;1.981348
6904.000000;1.980159
6903.000000;1.979411
6902.000000;1.978715
6901.000000;1.977931
6900.000000;1.977174
6899.000000;1.976637
6898.000000;1.976562
6897.000000;1.976999
6896.000000;1.977338
6895.000000;1.976587
6894.000000;1.974705
6893.000000;1.973213
6892.000000;1.973681
6891.000000;1.975773
6890.000000;1.977533
6889.000000;1.977604
6888.000000;1.976368
6887.000000;1.974848
6886.000000;1.973498
6885.000000;1.972403
6884.000000;1.971766
6883.000000;1.971609
6882.000000;1.971556
6881.000000;1.971419
6880.000000;1.971486
6879.000000;1.971813
6878.000000;1.971813
6877.000000;1.971101
6876.000000;1.970187
6875.000000;1.969702
6874.000000;1.969374
6873.000000;1.968472
6872.000000;1.966972
6871.000000;1.965621
6870.000000;1.965012
6869.000000;1.965108
6868.000000;1.965471
6867.000000;1.965505
6866.000000;1.964705
6865.000000;1.963137
6864.000000;1.961552
6863.000000;1.960607
6862.000000;1.960153
6861.000000;1.959669
6860.000000;1.959069
6859.000000;1.958555
6858.000000;1.958004
6857.000000;1.957159
6856.000000;1.956296
6855.000000;1.956041
6854.000000;1.956436
6853.000000;1.956742
6852.000000;1.956296
6851.000000;1.955109
6850.000000;1.953477
6849.000000;1.951428
6848.000000;1.948883
6847.000000;1.946185
6846.000000;1.944150
6845.000000;1.943473
6844.000000;1.943992
6843.000000;1.944583
6842.000000;1.944123
6841.000000;1.942624
6840.000000;1.941019
6839.000000;1.939653
6838.000000;1.937685
6837.000000;1.934427
6836.000000;1.930691
6835.000000;1.927976
6834.000000;1.926682
6833.000000;1.925970
6832.000000;1.925275
6831.000000;1.925035
6830.000000;1.925649
6829.000000;1.926447
6828.000000;1.926254
6827.000000;1.924652
6826.000000;1.922330
6825.000000;1.920336
6824.000000;1.919117
6823.000000;1.918119
6822.000000;1.916326
6821.000000;1.913422
6820.000000;1.910275
6819.000000;1.907917
6818.000000;1.906237
6817.000000;1.904202
6816.000000;1.901276
6815.000000;1.898064
6814.000000;1.895501
6813.000000;1.894050
6812.000000;1.893782
6811.000000;1.894481
6810.000000;1.895270
6809.000000;1.894775
6808.000000;1.892292
6807.000000;1.888538
6806.000000;1.884811
6805.000000;1.881717
6804.000000;1.879016
6803.000000;1.876307
6802.000000;1.873415
6801.000000;1.870398
6800.000000;1.867587
6799.000000;1.865452
6798.000000;1.864081
6797.000000;1.862958
6796.000000;1.861564
6795.000000;1.859945
6794.000000;1.858281
6793.000000;1.856242
6792.000000;1.853345
6791.000000;1.849820
6790.000000;1.846505
6789.000000;1.843886
6788.000000;1.841736
6787.000000;1.839686
6786.000000;1.837621
6785.000000;1.835376
6784.000000;1.832587
6783.000000;1.829199
6782.000000;1.825812
6781.000000;1.823183
6780.000000;1.821481
6779.000000;1.820232
6778.000000;1.818843
6777.000000;1.817007
6776.000000;1.814819
6775.000000;1.812693
6774.000000;1.811058
6773.000000;1.809896
6772.000000;1.808645
6771.000000;1.806719
6770.000000;1.804066
6769.000000;1.801064
6768.000000;1.797987
6767.000000;1.794782
6766.000000;1.791356
6765.000000;1.787851
6764.000000;1.784588
6763.000000;1.781852
6762.000000;1.779762
6761.000000;1.778157
6760.000000;1.776603
6759.000000;1.774639
6758.000000;1.772119
6757.000000;1.769249
6756.000000;1.766283
6755.000000;1.763331
6754.000000;1.760492
6753.000000;1.757973
6752.000000;1.755890
6751.000000;1.754044
6750.000000;1.752090
6749.000000;1.749869
6748.000000;1.747448
6747.000000;1.744911
6746.000000;1.742308
6745.000000;1.739812
6744.000000;1.737683
6743.000000;1.735968
6742.000000;1.734354
6741.000000;1.732454
6740.000000;1.730126
6739.000000;1.727468
6738.000000;1.724608
6737.000000;1.721622
6736.000000;1.718583
6735.000000;1.715554
6734.000000;1.712563
6733.000000;1.709684
6732.000000;1.707067
6731.000000;1.704790
6730.000000;1.702698
6729.000000;1.700534
6728.000000;1.698203
6727.000000;1.695797
6726.000000;1.693368
6725.000000;1.690819
6724.000000;1.688049
6723.000000;1.685111
6722.000000;1.682177
6721.000000;1.679447
6720.000000;1.677102
6719.000000;1.675210
6718.000000;1.673617
6717.000000;1.672000
6716.000000;1.670168
6715.000000;1.668167
6714.000000;1.666130
6713.000000;1.664058
6712.000000;1.661894
6711.000000;1.659681
6710.000000;1.657460
6709.000000;1.654955
6708.000000;1.651856
6707.000000;1.648340
6706.000000;1.645057
6705.000000;1.642507
6704.000000;1.640435
6703.000000;1.638140
6702.000000;1.635312
6701.000000;1.632339
6700.000000;1.629739
6699.000000;1.627585
6698.000000;1.625588
6697.000000;1.623537
6696.000000;1.621413
6695.000000;1.619193
6694.000000;1.616795
6693.000000;1.614264
6692.000000;1.611812
6691.000000;1.609590
6690.000000;1.607497
6689.000000;1.605267
6688.000000;1.602713
6687.000000;1.599908
6686.000000;1.597179
6685.000000;1.594883
6684.000000;1.593066
6683.000000;1.591341
6682.000000;1.589231
6681.000000;1.586684
6680.000000;1.584122
6679.000000;1.581920
6678.000000;1.580004
6677.000000;1.578077
6676.000000;1.576072
6675.000000;1.574168
6674.000000;1.572398
6673.000000;1.570487
6672.000000;1.568171
6671.000000;1.565528
6670.000000;1.562869
6669.000000;1.560365
6668.000000;1.557914
6667.000000;1.555376
6666.000000;1.552815
6665.000000;1.550418
6664.000000;1.548239
6663.000000;1.546127
6662.000000;1.543964
6661.000000;1.541838
6660.000000;1.539893
6659.000000;1.538067
6658.000000;1.536142
6657.000000;1.534060
6656.000000;1.532004
6655.000000;1.530089
6654.000000;1.528111
6653.000000;1.525783
6652.000000;1.523159
6651.000000;1.520650
6650.000000;1.518606
6649.000000;1.516973
6648.000000;1.515368
6647.000000;1.513412
6646.000000;1.510999
6645.000000;1.508331
6644.000000;1.505768
6643.000000;1.503568
6642.000000;1.501726
6641.000000;1.500011
6640.000000;1.498164
6639.000000;1.496051
6638.000000;1.493689
6637.000000;1.491224
6636.000000;1.488878
6635.000000;1.486864
6634.000000;1.485269
6633.000000;1.483999
6632.000000;1.482796
6631.000000;1.481336
6630.000000;1.479386
6629.000000;1.476980
6628.000000;1.474421
6627.000000;1.472058
6626.000000;1.470017
6625.000000;1.468169
6624.000000;1.466304
6623.000000;1.464292
6622.000000;1.462124
6621.000000;1.459880
6620.000000;1.457654
6619.000000;1.455467
6618.000000;1.453264
6617.000000;1.451065
6616.000000;1.449058
6615.000000;1.447438
6614.000000;1.446155
6613.000000;1.444900
6612.000000;1.443402
6611.000000;1.441623
6610.000000;1.439674
6609.000000;1.437629
6608.000000;1.435495
6607.000000;1.433291
6606.000000;1.431074
6605.000000;1.428934
6604.000000;1.426979
6603.000000;1.425286
6602.000000;1.423795
6601.000000;1.422334
6600.000000;1.420750
6599.000000;1.419008
6598.000000;1.417122
6597.000000;1.415112
6596.000000;1.413067
6595.000000;1.411153
6594.000000;1.409467
6593.000000;1.407923
6592.000000;1.406366
6591.000000;1.404723
6590.000000;1.402975
6589.000000;1.401097
6588.000000;1.399146
6587.000000;1.397329
6586.000000;1.395798
6585.000000;1.394397
6584.000000;1.392791
6583.000000;1.390892
6582.000000;1.388967
6581.000000;1.387250
6580.000000;1.385628
6579.000000;1.383838
6578.000000;1.381858
6577.000000;1.379916
6576.000000;1.378160
6575.000000;1.376495
6574.000000;1.374780
6573.000000;1.373021
6572.000000;1.371315
6571.000000;1.369701
6570.000000;1.368169
6569.000000;1.366722
6568.000000;1.365342
6567.000000;1.363928
6566.000000;1.362383
6565.000000;1.360752
6564.000000;1.359181
6563.000000;1.357720
6562.000000;1.356248
6561.000000;1.354635
6560.000000;1.352906
6559.000000;1.351177
6558.000000;1.349479
6557.000000;1.347757
6556.000000;1.345999
6555.000000;1.344281
6554.000000;1.342658
6553.000000;1.341126
6552.000000;1.339682
6551.000000;1.338330
6550.000000;1.336994
6549.000000;1.335509
6548.000000;1.333802
6547.000000;1.332011
6546.000000;1.330347
6545.000000;1.328865
6544.000000;1.327454
6543.000000;1.325998
6542.000000;1.324475
6541.000000;1.322917
6540.000000;1.321364
6539.000000;1.319866
6538.000000;1.318448
6537.000000;1.317068
6536.000000;1.315658
6535.000000;1.314194
6534.000000;1.312691
6533.000000;1.311155
6532.000000;1.309619
6531.000000;1.308184
6530.000000;1.306923
6529.000000;1.305734
6528.000000;1.304409
6527.000000;1.302891
6526.000000;1.301343
6525.000000;1.299929
6524.000000;1.298589
6523.000000;1.297127
6522.000000;1.295446
6521.000000;1.293644
6520.000000;1.291920
6519.000000;1.290448
6518.000000;1.289296
6517.000000;1.288381
6516.000000;1.287500
6515.000000;1.286457
6514.000000;1.285151
6513.000000;1.283584
6512.000000;1.281850
6511.000000;1.280141
6510.000000;1.278670
6509.000000;1.277510
6508.000000;1.276525
6507.000000;1.275519
6506.000000;1.274412
6505.000000;1.273222
6504.000000;1.271943
6503.000000;1.270553
6502.000000;1.269114
6501.000000;1.267749
6500.000000;1.266494
6499.000000;1.265257
6498.000000;1.263943
6497.000000;1.262580
6496.000000;1.261262
6495.000000;1.260014
6494.000000;1.258757
6493.000000;1.257417
6492.000000;1.256027
6491.000000;1.254707
6490.000000;1.253542
6489.000000;1.252483
6488.000000;1.251386
6487.000000;1.250159
6486.000000;1.248840
6485.000000;1.247534
6484.000000;1.246295
6483.000000;1.245100
6482.000000;1.243916
6481.000000;1.242739
6480.000000;1.241586
6479.000000;1.240471
6478.000000;1.239379
6477.000000;1.238260
6476.000000;1.237065
6475.000000;1.235815
6474.000000;1.234597
6473.000000;1.233473
6472.000000;1.232416
6471.000000;1.231364
6470.000000;1.230297
6469.000000;1.229230
6468.000000;1.228150
6467.000000;1.227023
6466.000000;1.225840
6465.000000;1.224614
6464.000000;1.223328
6463.000000;1.221962
6462.000000;1.220567
6461.000000;1.219271
6460.000000;1.218183
6459.000000;1.217291
6458.000000;1.216456
6457.000000;1.215503
6456.000000;1.214358
6455.000000;1.213110
6454.000000;1.211921
6453.000000;1.210856
6452.000000;1.209843
6451.000000;1.208816
6450.000000;1.207825
6449.000000;1.206950
6448.000000;1.206144
6447.000000;1.205270
6446.000000;1.204258
6445.000000;1.203148
6444.000000;1.201995
6443.000000;1.200817
6442.000000;1.199649
6441.000000;1.198556
6440.000000;1.197572
6439.000000;1.196683
6438.000000;1.195889
6437.000000;1.195192
6436.000000;1.194496
6435.000000;1.193617
6434.000000;1.192479
6433.000000;1.191233
6432.000000;1.190109
6431.000000;1.189161
6430.000000;1.188225
6429.000000;1.187140
6428.000000;1.185940
6427.000000;1.184803
6426.000000;1.183846
6425.000000;1.183010
6424.000000;1.182159
6423.000000;1.181266
6422.000000;1.180424
6421.000000;1.179688
6420.000000;1.178957
6419.000000;1.178077
6418.000000;1.177042
6417.000000;1.175998
6416.000000;1.175065
6415.000000;1.174221
6414.000000;1.173369
6413.000000;1.172458
6412.000000;1.171491
6411.000000;1.170473
6410.000000;1.169418
6409.000000;1.168369
6408.000000;1.167380
6407.000000;1.166477
6406.000000;1.165647
6405.000000;1.164842
6404.000000;1.163990
6403.000000;1.163038
6402.000000;1.162017
6401.000000;1.161028
6400.000000;1.160148
6399.000000;1.159375
6398.000000;1.158662
6397.000000;1.157970
6396.000000;1.157262
6395.000000;1.156493
6394.000000;1.155661
6393.000000;1.154810
6392.000000;1.153952
6391.000000;1.153032
6390.000000;1.152018
6389.000000;1.151007
6388.000000;1.150151
6387.000000;1.149488
6386.000000;1.148898
6385.000000;1.148247
6384.000000;1.147508
6383.000000;1.146729
6382.000000;1.145934
6381.000000;1.145097
6380.000000;1.144198
6379.000000;1.143269
6378.000000;1.142377
6377.000000;1.141572
6376.000000;1.140853
6375.000000;1.140181
6374.000000;1.139518
6373.000000;1.138854
6372.000000;1.138171
6371.000000;1.137422
6370.000000;1.136586
6369.000000;1.135735
6368.000000;1.134995
6367.000000;1.134410
6366.000000;1.133883
6365.000000;1.133268
6364.000000;1.132507
6363.000000;1.131649
6362.000000;1.130775
6361.000000;1.129943
6360.000000;1.129181
6359.000000;1.128487
6358.000000;1.127805
6357.000000;1.127067
6356.000000;1.126270
6355.000000;1.125494
6354.000000;1.124831
6353.000000;1.124288
6352.000000;1.123778
6351.000000;1.123185
6350.000000;1.122450
6349.000000;1.121616
6348.000000;1.120794
6347.000000;1.120070
6346.000000;1.119434
6345.000000;1.118821
6344.000000;1.118203
6343.000000;1.117596
6342.000000;1.116988
6341.000000;1.116314
6340.000000;1.115538
6339.000000;1.114732
6338.000000;1.114011
6337.000000;1.113423
6336.000000;1.112934
6335.000000;1.112482
6334.000000;1.111998
6333.000000;1.111397
6332.000000;1.110628
6331.000000;1.109748
6330.000000;1.108898
6329.000000;1.108187
6328.000000;1.107638
6327.000000;1.107214
6326.000000;1.106847
6325.000000;1.106425
6324.000000;1.105837
6323.000000;1.105069
6322.000000;1.104229
6321.000000;1.103456
6320.000000;1.102815
6319.000000;1.102282
6318.000000;1.101786
6317.000000;1.101248
6316.000000;1.100629
6315.000000;1.099969
6314.000000;1.099337
6313.000000;1.098750
6312.000000;1.098153
6311.000000;1.097495
6310.000000;1.096780
6309.000000;1.096036
6308.000000;1.095301
6307.000000;1.094643
6306.000000;1.094122
6305.000000;1.093704
6304.000000;1.093269
6303.000000;1.092737
6302.000000;1.092149
6301.000000;1.091577
6300.000000;1.091029
6299.000000;1.090486
6298.000000;1.089965
6297.000000;1.089465
6296.000000;1.088921
6295.000000;1.088295
6294.000000;1.087664
6293.000000;1.087120
6292.000000;1.086615
6291.000000;1.086007
6290.000000;1.085280
6289.000000;1.084605
6288.000000;1.084164
6287.000000;1.083953
6286.000000;1.083792
6285.000000;1.083492
6284.000000;1.082992
6283.000000;1.082370
6282.000000;1.081749
6281.000000;1.081191
6280.000000;1.080670
6279.000000;1.080158
6278.000000;1.079685
6277.000000;1.079278
6276.000000;1.078874
6275.000000;1.078362
6274.000000;1.077717
6273.000000;1.077037
6272.000000;1.076440
6271.000000;1.075975
6270.000000;1.075626
6269.000000;1.075341
6268.000000;1.075038
6267.000000;1.074640
6266.000000;1.074119
6265.000000;1.073499
6264.000000;1.072819
6263.000000;1.072134
6262.000000;1.071536
6261.000000;1.071118
6260.000000;1.070874
6259.000000;1.070667
6258.000000;1.070340
6257.000000;1.069836
6256.000000;1.069210
6255.000000;1.068564
6254.000000;1.067990
6253.000000;1.067538
6252.000000;1.067192
6251.000000;1.066873
6250.000000;1.066479
6249.000000;1.065960
6248.000000;1.065355
6247.000000;1.064765
6246.000000;1.064268
6245.000000;1.063854
6244.000000;1.063458
6243.000000;1.063048
6242.000000;1.062666
6241.000000;1.062350
6240.000000;1.062061
6239.000000;1.061718
6238.000000;1.061287
6237.000000;1.060796
6236.000000;1.060283
6235.000000;1.059774
6234.000000;1.059302
6233.000000;1.058912
6232.000000;1.058615
6231.000000;1.058375
6230.000000;1.058147
6229.000000;1.057897
6228.000000;1.057582
6227.000000;1.057156
6226.000000;1.056601
6225.000000;1.055974
6224.000000;1.055379
6223.000000;1.054903
6222.000000;1.054555
6221.000000;1.054268
6220.000000;1.053978
6219.000000;1.053686
6218.000000;1.053407
6217.000000;1.053090
6216.000000;1.052653
6215.000000;1.052108
6214.000000;1.051587
6213.000000;1.051183
6212.000000;1.050849
6211.000000;1.050492
6210.000000;1.050123
6209.000000;1.049807
6208.000000;1.049523
6207.000000;1.049174
6206.000000;1.048734
6205.000000;1.048286
6204.000000;1.047902
6203.000000;1.047564
6202.000000;1.047227
6201.000000;1.046879
6200.000000;1.046515
6199.000000;1.046121
6198.000000;1.045711
6197.000000;1.045333
6196.000000;1.045011
6195.000000;1.044718
6194.000000;1.044426
6193.000000;1.044145
6192.000000;1.043876
6191.000000;1.043570
6190.000000;1.043174
6189.000000;1.042696
6188.000000;1.042202
6187.000000;1.041761
6186.000000;1.041398
6185.000000;1.041077
6184.000000;1.040724
6183.000000;1.040301
6182.000000;1.039851
6181.000000;1.039460
6180.000000;1.039168
6179.000000;1.038952
6178.000000;1.038782
6177.000000;1.038636
6176.000000;1.038442
6175.000000;1.038105
6174.000000;1.037613
6173.000000;1.037076
6172.000000;1.036617
6171.000000;1.036257
6170.000000;1.035949
6169.000000;1.035671
6168.000000;1.035433
6167.000000;1.035232
6166.000000;1.035029
6165.000000;1.034794
6164.000000;1.034530
6163.000000;1.034253
6162.000000;1.033972
6161.000000;1.033691
6160.000000;1.033423
6159.000000;1.033188
6158.000000;1.032993
6157.000000;1.032798
6156.000000;1.032534
6155.000000;1.032168
6154.000000;1.031754
6153.000000;1.031380
6152.000000;1.031061
6151.000000;1.030735
6150.000000;1.030354
6149.000000;1.029952
6148.000000;1.029585
6147.000000;1.029264
6146.000000;1.028970
6145.000000;1.028700
6144.000000;1.028465
6143.000000;1.028261
6142.000000;1.028076
6141.000000;1.027909
6140.000000;1.027771
6139.000000;1.027650
6138.000000;1.027510
6137.000000;1.027316
6136.000000;1.027054
6135.000000;1.026744
6134.000000;1.026433
6133.000000;1.026156
6132.000000;1.025905
6131.000000;1.025644
6130.000000;1.025366
6129.000000;1.025099
6128.000000;1.024868
6127.000000;1.024658
6126.000000;1.024447
6125.000000;1.024226
6124.000000;1.023980
6123.000000;1.023685
6122.000000;1.023340
6121.000000;1.023003
6120.000000;1.022748
6119.000000;1.022597
6118.000000;1.022497
6117.000000;1.022369
6116.000000;1.022157
6115.000000;1.021855
6114.000000;1.021497
6113.000000;1.021129
6112.000000;1.020789
6111.000000;1.020492
6110.000000;1.020244
6109.000000;1.020040
6108.000000;1.019863
6107.000000;1.019681
6106.000000;1.019474
6105.000000;1.019250
6104.000000;1.019040
6103.000000;1.018870
6102.000000;1.018744
6101.000000;1.018630
6100.000000;1.018489
6099.000000;1.018308
6098.000000;1.018117
6097.000000;1.017941
6096.000000;1.017756
6095.000000;1.017512
6094.000000;1.017201
6093.000000;1.016880
6092.000000;1.016609
6091.000000;1.016389
6090.000000;1.016170
6089.000000;1.015916
6088.000000;1.015634
6087.000000;1.015364
6086.000000;1.015133
6085.000000;1.014937
6084.000000;1.014744
6083.000000;1.014532
6082.000000;1.014314
6081.000000;1.014125
6080.000000;1.013989
6079.000000;1.013899
6078.000000;1.013808
6077.000000;1.013645
6076.000000;1.013365
6075.000000;1.013008
6074.000000;1.012690
6073.000000;1.012491
6072.000000;1.012384
6071.000000;1.012282
6070.000000;1.012153
6069.000000;1.012030
6068.000000;1.011921
6067.000000;1.011772
6066.000000;1.011548
6065.000000;1.011303
6064.000000;1.011120
6063.000000;1.011008
6062.000000;1.010878
6061.000000;1.010647
6060.000000;1.010315
6059.000000;1.009963
6058.000000;1.009673
6057.000000;1.009474
6056.000000;1.009347
6055.000000;1.009267
6054.000000;1.009236
6053.000000;1.009266
6052.000000;1.009327
6051.000000;1.009318
6050.000000;1.009134
6049.000000;1.008773
6048.000000;1.008367
6047.000000;1.008073
6046.000000;1.007941
6045.000000;1.007883
6044.000000;1.007799
6043.000000;1.007678
6042.000000;1.007565
6041.000000;1.007471
6040.000000;1.007360
6039.000000;1.007217
6038.000000;1.007060
6037.000000;1.006887
6036.000000;1.006682
6035.000000;1.006474
6034.000000;1.006334
6033.000000;1.006284
6032.000000;1.006239
6031.000000;1.006115
6030.000000;1.005933
6029.000000;1.005786
6028.000000;1.005702
6027.000000;1.005622
6026.000000;1.005492
6025.000000;1.005339
6024.000000;1.005236
6023.000000;1.005230
6022.000000;1.005292
6021.000000;1.005345
6020.000000;1.005321
6019.000000;1.005228
6018.000000;1.005127
6017.000000;1.005054
6016.000000;1.004984
6015.000000;1.004890
6014.000000;1.004792
6013.000000;1.004713
6012.000000;1.004615
6011.000000;1.004443
6010.000000;1.004221
6009.000000;1.004048
6008.000000;1.003994
6007.000000;1.004040
6006.000000;1.004106
6005.000000;1.004115
6004.000000;1.004010
6003.000000;1.003792
6002.000000;1.003539
6001.000000;1.003367
6000.000000;1.003331
5999.000000;1.003374
5998.000000;1.003391
5997.000000;1.003314
5996.000000;1.003151
5995.000000;1.002968
5994.000000;1.002842
5993.000000;1.002809
5992.000000;1.002832
5991.000000;1.002834
5990.000000;1.002765
5989.000000;1.002639
5988.000000;1.002500
5987.000000;1.002391
5986.000000;1.002328
5985.000000;1.002302
5984.000000;1.002298
5983.000000;1.002301
5982.000000;1.002304
5981.000000;1.002285
5980.000000;1.002217
5979.000000;1.002102
5978.000000;1.001981
5977.000000;1.001896
5976.000000;1.001856
5975.000000;1.001857
5974.000000;1.001910
5973.000000;1.002012
5972.000000;1.002122
5971.000000;1.002194
5970.000000;1.002230
5969.000000;1.002261
5968.000000;1.002290
5967.000000;1.002288
5966.000000;1.002249
5965.000000;1.002199
5964.000000;1.002168
5963.000000;1.002166
5962.000000;1.002179
5961.000000;1.002170
5960.000000;1.002088
5959.000000;1.001919
5958.000000;1.001726
5957.000000;1.001591
5956.000000;1.001550
5955.000000;1.001584
5954.000000;1.001674
5953.000000;1.001803
5952.000000;1.001928
5951.000000;1.001994
5950.000000;1.002000
5949.000000;1.002006
5948.000000;1.002064
5947.000000;1.002173
5946.000000;1.002289
5945.000000;1.002366
5944.000000;1.002366
5943.000000;1.002280
5942.000000;1.002135
5941.000000;1.001985
5940.000000;1.001871
5939.000000;1.001816
5938.000000;1.001848
5937.000000;1.001991
5936.000000;1.002224
5935.000000;1.002473
5934.000000;1.002649
5933.000000;1.002708
5932.000000;1.002672
5931.000000;1.002613
5930.000000;1.002598
5929.000000;1.002638
5928.000000;1.002692
5927.000000;1.002735
5926.000000;1.002787
5925.000000;1.002874
5924.000000;1.002972
5923.000000;1.003033
5922.000000;1.003044
5921.000000;1.003043
5920.000000;1.003089
5919.000000;1.003230
5918.000000;1.003471
5917.000000;1.003734
5916.000000;1.003880
5915.000000;1.003841
5914.000000;1.003704
5913.000000;1.003629
5912.000000;1.003691
5911.000000;1.003834
5910.000000;1.003964
5909.000000;1.004048
5908.000000;1.004114
5907.000000;1.004210
5906.000000;1.004361
5905.000000;1.004533
5904.000000;1.004647
5903.000000;1.004647
5902.000000;1.004578
5901.000000;1.004560
5900.000000;1.004681
5899.000000;1.004941
5898.000000;1.005265
5897.000000;1.005548
5896.000000;1.005718
5895.000000;1.005770
5894.000000;1.005765
5893.000000;1.005750
5892.000000;1.005728
5891.000000;1.005703
5890.000000;1.005725
5889.000000;1.005828
5888.000000;1.005962
5887.000000;1.006046
5886.000000;1.006083
5885.000000;1.006152
5884.000000;1.006296
5883.000000;1.006485
5882.000000;1.006676
5881.000000;1.006863
5880.000000;1.007041
5879.000000;1.007189
5878.000000;1.007287
5877.000000;1.007334
5876.000000;1.007315
5875.000000;1.007225
5874.000000;1.007120
5873.000000;1.007108
5872.000000;1.007262
5871.000000;1.007568
5870.000000;1.007958
5869.000000;1.008365
5868.000000;1.008737
5867.000000;1.009050
5866.000000;1.009331
5865.000000;1.009634
5864.000000;1.009965
5863.000000;1.010261
5862.000000;1.010457
5861.000000;1.010556
5860.000000;1.010618
5859.000000;1.010698
5858.000000;1.010813
5857.000000;1.010943
5856.000000;1.011070
5855.000000;1.011199
5854.000000;1.011362
5853.000000;1.011572
5852.000000;1.011800
5851.000000;1.012010
5850.000000;1.012213
5849.000000;1.012442
5848.000000;1.012704
5847.000000;1.012963
5846.000000;1.013188
5845.000000;1.013373
5844.000000;1.013532
5843.000000;1.013686
5842.000000;1.013867
5841.000000;1.014111
5840.000000;1.014426
5839.000000;1.014791
5838.000000;1.015171
5837.000000;1.015519
5836.000000;1.015806
5835.000000;1.016053
5834.000000;1.016318
5833.000000;1.016617
5832.000000;1.016884
5831.000000;1.017071
5830.000000;1.017231
5829.000000;1.017479
5828.000000;1.017853
5827.000000;1.018289
5826.000000;1.018712
5825.000000;1.019083
5824.000000;1.019385
5823.000000;1.019623
5822.000000;1.019848
5821.000000;1.020121
5820.000000;1.020450
5819.000000;1.020785
5818.000000;1.021090
5817.000000;1.021369
5816.000000;1.021626
5815.000000;1.021860
5814.000000;1.022109
5813.000000;1.022431
5812.000000;1.022820
5811.000000;1.023182
5810.000000;1.023435
5809.000000;1.023606
5808.000000;1.023803
5807.000000;1.024100
5806.000000;1.024484
5805.000000;1.024901
5804.000000;1.025331
5803.000000;1.025797
5802.000000;1.026301
5801.000000;1.026776
5800.000000;1.027118
5799.000000;1.027307
5798.000000;1.027451
5797.000000;1.027697
5796.000000;1.028104
5795.000000;1.028625
5794.000000;1.029199
5793.000000;1.029797
5792.000000;1.030407
5791.000000;1.031017
5790.000000;1.031621
5789.000000;1.032201
5788.000000;1.032703
5787.000000;1.033084
5786.000000;1.033372
5785.000000;1.033650
5784.000000;1.033984
5783.000000;1.034384
5782.000000;1.034837
5781.000000;1.035322
5780.000000;1.035802
5779.000000;1.036243
5778.000000;1.036648
5777.000000;1.037052
5776.000000;1.037482
5775.000000;1.037944
5774.000000;1.038430
5773.000000;1.038919
5772.000000;1.039383
5771.000000;1.039827
5770.000000;1.040306
5769.000000;1.040854
5768.000000;1.041424
5767.000000;1.041932
5766.000000;1.042364
5765.000000;1.042790
5764.000000;1.043274
5763.000000;1.043826
5762.000000;1.044425
5761.000000;1.045038
5760.000000;1.045621
5759.000000;1.046157
5758.000000;1.046693
5757.000000;1.047296
5756.000000;1.047965
5755.000000;1.048631
5754.000000;1.049252
5753.000000;1.049856
5752.000000;1.050486
5751.000000;1.051163
5750.000000;1.051887
5749.000000;1.052642
5748.000000;1.053365
5747.000000;1.053982
5746.000000;1.054482
5745.000000;1.054942
5744.000000;1.055451
5743.000000;1.056036
5742.000000;1.056661
5741.000000;1.057270
5740.000000;1.057820
5739.000000;1.058317
5738.000000;1.058818
5737.000000;1.059377
5736.000000;1.059990
5735.000000;1.060627
5734.000000;1.061285
5733.000000;1.061982
5732.000000;1.062699
5731.000000;1.063384
5730.000000;1.064011
5729.000000;1.064602
5728.000000;1.065193
5727.000000;1.065803
5726.000000;1.066452
5725.000000;1.067151
5724.000000;1.067891
5723.000000;1.068644
5722.000000;1.069402
5721.000000;1.070163
5720.000000;1.070913
5719.000000;1.071644
5718.000000;1.072392
5717.000000;1.073204
5716.000000;1.074069
5715.000000;1.074927
5714.000000;1.075723
5713.000000;1.076435
5712.000000;1.077060
5711.000000;1.077623
5710.000000;1.078183
5709.000000;1.078804
5708.000000;1.079515
5707.000000;1.080335
5706.000000;1.081283
5705.000000;1.082320
5704.000000;1.083310
5703.000000;1.084126
5702.000000;1.084796
5701.000000;1.085473
5700.000000;1.086243
5699.000000;1.087060
5698.000000;1.087843
5697.000000;1.088587
5696.000000;1.089329
5695.000000;1.090094
5694.000000;1.090886
5693.000000;1.091711
5692.000000;1.092551
5691.000000;1.093378
5690.000000;1.094190
5689.000000;1.095029
5688.000000;1.095931
5687.000000;1.096869
5686.000000;1.097765
5685.000000;1.098550
5684.000000;1.099216
5683.000000;1.099840
5682.000000;1.100536
5681.000000;1.101359
5680.000000;1.102263
5679.000000;1.103164
5678.000000;1.104037
5677.000000;1.104907
5676.000000;1.105781
5675.000000;1.106632
5674.000000;1.107441
5673.000000;1.108213
5672.000000;1.108962
5671.000000;1.109722
5670.000000;1.110538
5669.000000;1.111407
5668.000000;1.112251
5667.000000;1.113011
5666.000000;1.113731
5665.000000;1.114499
5664.000000;1.115320
5663.000000;1.116124
5662.000000;1.116883
5661.000000;1.117628
5660.000000;1.118379
5659.000000;1.119110
5658.000000;1.119819
5657.000000;1.120546
5656.000000;1.121306
5655.000000;1.122072
5654.000000;1.122832
5653.000000;1.123607
5652.000000;1.124412
5651.000000;1.125245
5650.000000;1.126110
5649.000000;1.126984
5648.000000;1.127784
5647.000000;1.128436
5646.000000;1.128989
5645.000000;1.129585
5644.000000;1.130297
5643.000000;1.131065
5642.000000;1.131799
5641.000000;1.132476
5640.000000;1.133128
5639.000000;1.133787
5638.000000;1.134470
5637.000000;1.135157
5636.000000;1.135777
5635.000000;1.136278
5634.000000;1.136722
5633.000000;1.137250
5632.000000;1.137931
5631.000000;1.138693
5630.000000;1.139414
5629.000000;1.140029
5628.000000;1.140535
5627.000000;1.140968
5626.000000;1.141379
5625.000000;1.141806
5624.000000;1.142246
5623.000000;1.142690
5622.000000;1.143174
5621.000000;1.143739
5620.000000;1.144360
5619.000000;1.144962
5618.000000;1.145517
5617.000000;1.146063
5616.000000;1.146621
5615.000000;1.147156
5614.000000;1.147627
5613.000000;1.148034
5612.000000;1.148407
5611.000000;1.148792
5610.000000;1.149226
5609.000000;1.149682
5608.000000;1.150066
5607.000000;1.150332
5606.000000;1.150584
5605.000000;1.150967
5604.000000;1.151482
5603.000000;1.152009
5602.000000;1.152489
5601.000000;1.152970
5600.000000;1.153454
5599.000000;1.153853
5598.000000;1.154121
5597.000000;1.154334
5596.000000;1.154573
5595.000000;1.154835
5594.000000;1.155093
5593.000000;1.155356
5592.000000;1.155606
5591.000000;1.155795
5590.000000;1.155949
5589.000000;1.156192
5588.000000;1.156576
5587.000000;1.156971
5586.000000;1.157200
5585.000000;1.157248
5584.000000;1.157249
5583.000000;1.157322
5582.000000;1.157481
5581.000000;1.157690
5580.000000;1.157923
5579.000000;1.158186
5578.000000;1.158494
5577.000000;1.158831
5576.000000;1.159135
5575.000000;1.159353
5574.000000;1.159520
5573.000000;1.159702
5572.000000;1.159897
5571.000000;1.160057
5570.000000;1.160192
5569.000000;1.160354
5568.000000;1.160525
5567.000000;1.160605
5566.000000;1.160562
5565.000000;1.160484
5564.000000;1.160469
5563.000000;1.160527
5562.000000;1.160643
5561.000000;1.160827
5560.000000;1.161047
5559.000000;1.161215
5558.000000;1.161297
5557.000000;1.161341
5556.000000;1.161381
5555.000000;1.161384
5554.000000;1.161354
5553.000000;1.161373
5552.000000;1.161489
5551.000000;1.161647
5550.000000;1.161782
5549.000000;1.161894
5548.000000;1.161996
5547.000000;1.162063
5546.000000;1.162087
5545.000000;1.162110
5544.000000;1.162133
5543.000000;1.162093
5542.000000;1.161971
5541.000000;1.161836
5540.000000;1.161743
5539.000000;1.161674
5538.000000;1.161608
5537.000000;1.161580
5536.000000;1.161624
5535.000000;1.161718
5534.000000;1.161831
5533.000000;1.161965
5532.000000;1.162103
5531.000000;1.162198
5530.000000;1.162231
5529.000000;1.162241
5528.000000;1.162258
5527.000000;1.162254
5526.000000;1.162206
5525.000000;1.162181
5524.000000;1.162257
5523.000000;1.162436
5522.000000;1.162656
5521.000000;1.162854
5520.000000;1.163009
5519.000000;1.163138
5518.000000;1.163262
5517.000000;1.163378
5516.000000;1.163460
5515.000000;1.163524
5514.000000;1.163645
5513.000000;1.163822
5512.000000;1.163913
5511.000000;1.163812
5510.000000;1.163625
5509.000000;1.163548
5508.000000;1.163627
5507.000000;1.163753
5506.000000;1.163883
5505.000000;1.164091
5504.000000;1.164370
5503.000000;1.164602
5502.000000;1.164766
5501.000000;1.164975
5500.000000;1.165294
5499.000000;1.165619
5498.000000;1.165763
5497.000000;1.165714
5496.000000;1.165669
5495.000000;1.165802
5494.000000;1.166058
5493.000000;1.166233
5492.000000;1.166261
5491.000000;1.166278
5490.000000;1.166454
5489.000000;1.166802
5488.000000;1.167201
5487.000000;1.167571
5486.000000;1.167941
5485.000000;1.168349
5484.000000;1.168724
5483.000000;1.168985
5482.000000;1.169228
5481.000000;1.169533
5480.000000;1.169758
5479.000000;1.169800
5478.000000;1.169835
5477.000000;1.170094
5476.000000;1.170484
5475.000000;1.170784
5474.000000;1.171073
5473.000000;1.171566
5472.000000;1.172290
5471.000000;1.173094
5470.000000;1.173843
5469.000000;1.174437
5468.000000;1.174841
5467.000000;1.175168
5466.000000;1.175604
5465.000000;1.176193
5464.000000;1.176767
5463.000000;1.177210
5462.000000;1.177657
5461.000000;1.178223
5460.000000;1.178792
5459.000000;1.179316
5458.000000;1.179981
5457.000000;1.180857
5456.000000;1.181706
5455.000000;1.182334
5454.000000;1.182845
5453.000000;1.183440
5452.000000;1.184144
5451.000000;1.184830
5450.000000;1.185427
5449.000000;1.185965
5448.000000;1.186613
5447.000000;1.187570
5446.000000;1.188715
5445.000000;1.189661
5444.000000;1.190305
5443.000000;1.191016
5442.000000;1.192149
5441.000000;1.193536
5440.000000;1.194702
5439.000000;1.195502
5438.000000;1.196293
5437.000000;1.197420
5436.000000;1.198761
5435.000000;1.199989
5434.000000;1.200996
5433.000000;1.201889
5432.000000;1.202906
5431.000000;1.204292
5430.000000;1.205903
5429.000000;1.207314
5428.000000;1.208470
5427.000000;1.209703
5426.000000;1.211221
5425.000000;1.212918
5424.000000;1.214561
5423.000000;1.216030
5422.000000;1.217413
5421.000000;1.218940
5420.000000;1.220729
5419.000000;1.222621
5418.000000;1.224451
5417.000000;1.226292
5416.000000;1.228307
5415.000000;1.230398
5414.000000;1.232286
5413.000000;1.234004
5412.000000;1.235878
5411.000000;1.238127
5410.000000;1.240676
5409.000000;1.243280
5408.000000;1.245767
5407.000000;1.248164
5406.000000;1.250645
5405.000000;1.253298
5404.000000;1.256041
5403.000000;1.258820
5402.000000;1.261599
5401.000000;1.264416
5400.000000;1.267438
5399.000000;1.270640
5398.000000;1.273819
5397.000000;1.276926
5396.000000;1.280140
5395.000000;1.283591
5394.000000;1.287177
5393.000000;1.290828
5392.000000;1.294586
5391.000000;1.298405
5390.000000;1.302226
5389.000000;1.306148
5388.000000;1.310303
5387.000000;1.314639
5386.000000;1.318969
5385.000000;1.323210
5384.000000;1.327539
5383.000000;1.332188
5382.000000;1.337076
5381.000000;1.342006
5380.000000;1.347074
5379.000000;1.352510
5378.000000;1.358231
5377.000000;1.363908
5376.000000;1.369471
5375.000000;1.375173
5374.000000;1.381200
5373.000000;1.387598
5372.000000;1.394335
5371.000000;1.401275
5370.000000;1.408261
5369.000000;1.415224
5368.000000;1.422189
5367.000000;1.429243
5366.000000;1.436550
5365.000000;1.444266
5364.000000;1.452486
5363.000000;1.461174
5362.000000;1.470112
5361.000000;1.479149
5360.000000;1.488311
5359.000000;1.497611
5358.000000;1.506991
5357.000000;1.516531
5356.000000;1.526497
5355.000000;1.536987
5354.000000;1.547742
5353.000000;1.558530
5352.000000;1.569532
5351.000000;1.581149
5350.000000;1.593452
5349.000000;1.606055
5348.000000;1.618621
5347.000000;1.631300
5346.000000;1.644482
5345.000000;1.658273
5344.000000;1.672435
5343.000000;1.686665
5342.000000;1.700866
5341.000000;1.715463
5340.000000;1.730947
5339.000000;1.747264
5338.000000;1.764131
5337.000000;1.781363
5336.000000;1.798774
5335.000000;1.816326
5334.000000;1.834288
5333.000000;1.852769
5332.000000;1.871502
5331.000000;1.890356
5330.000000;1.909606
5329.000000;1.929519
5328.000000;1.949877
5327.000000;1.970233
5326.000000;1.990592
5325.000000;2.011373
5324.000000;2.032755
5323.000000;2.054579
5322.000000;2.076724
5321.000000;2.099119
5320.000000;2.121605
5319.000000;2.144289
5318.000000;2.167700
5317.000000;2.191956
5316.000000;2.216136
5315.000000;2.239277
5314.000000;2.261756
5313.000000;2.284560
5312.000000;2.307563
5311.000000;2.329751
5310.000000;2.350769
5309.000000;2.371124
5308.000000;2.391248
5307.000000;2.411536
5306.000000;2.432662
5305.000000;2.454482
5304.000000;2.475206
5303.000000;2.493162
5302.000000;2.508916
5301.000000;2.524103
5300.000000;2.538722
5299.000000;2.551409
5298.000000;2.562105
5297.000000;2.572715
5296.000000;2.584951
5295.000000;2.598960
5294.000000;2.613929
5293.000000;2.628587
5292.000000;2.641251
5291.000000;2.650572
5290.000000;2.656454
5289.000000;2.659827
5288.000000;2.661926
5287.000000;2.664220
5286.000000;2.667741
5285.000000;2.671751
5284.000000;2.674509
5283.000000;2.676134
5282.000000;2.679039
5281.000000;2.684365
5280.000000;2.689676
5279.000000;2.691682
5278.000000;2.690003
5277.000000;2.686741
5276.000000;2.683774
5275.000000;2.682097
5274.000000;2.682431
5273.000000;2.684678
5272.000000;2.687389
5271.000000;2.689300
5270.000000;2.690562
5269.000000;2.691487
5268.000000;2.691631
5267.000000;2.690996
5266.000000;2.690846
5265.000000;2.692391
5264.000000;2.695686
5263.000000;2.700135
5262.000000;2.704856
5261.000000;2.708094
5260.000000;2.707921
5259.000000;2.704647
5258.000000;2.701148
5257.000000;2.699610
5256.000000;2.699326
5255.000000;2.698773
5254.000000;2.698079
5253.000000;2.697899
5252.000000;2.697710
5251.000000;2.697085
5250.000000;2.696972
5249.000000;2.698225
5248.000000;2.700200
5247.000000;2.701943
5246.000000;2.703636
5245.000000;2.705636
5244.000000;2.707233
5243.000000;2.707667
5242.000000;2.707380
5241.000000;2.706961
5240.000000;2.705905
5239.000000;2.703754
5238.000000;2.701492
5237.000000;2.700396
5236.000000;2.700347
5235.000000;2.700474
5234.000000;2.700485
5233.000000;2.700389
5232.000000;2.700003
5231.000000;2.699478
5230.000000;2.699141
5229.000000;2.698278
5228.000000;2.695586
5227.000000;2.691500
5226.000000;2.688651
5225.000000;2.688936
5224.000000;2.691299
5223.000000;2.693573
5222.000000;2.695270
5221.000000;2.697027
5220.000000;2.698603
5219.000000;2.699271
5218.000000;2.699379
5217.000000;2.699694
5216.000000;2.699742
5215.000000;2.698501
5214.000000;2.696458
5213.000000;2.695639
5212.000000;2.697403
5211.000000;2.700943
5210.000000;2.704065
5209.000000;2.705038
5208.000000;2.703761
5207.000000;2.701484
5206.000000;2.699407
5205.000000;2.697654
5204.000000;2.696064
5203.000000;2.695557
5202.000000;2.697291
5201.000000;2.700329
5200.000000;2.701749
5199.000000;2.699919
5198.000000;2.696231
5197.000000;2.692584
5196.000000;2.688958
5195.000000;2.684730
5194.000000;2.680995
5193.000000;2.679969
5192.000000;2.682512
5191.000000;2.687288
5190.000000;2.692104
5189.000000;2.695332
5188.000000;2.696264
5187.000000;2.695025
5186.000000;2.692362
5185.000000;2.689370
5184.000000;2.687519
5183.000000;2.688293
5182.000000;2.691842
5181.000000;2.696233
5180.000000;2.698752
5179.000000;2.698221
5178.000000;2.695847
5177.000000;2.693711
5176.000000;2.693121
5175.000000;2.694303
5174.000000;2.696349
5173.000000;2.697429
5172.000000;2.696540
5171.000000;2.695219
5170.000000;2.695888
5169.000000;2.698340
5168.000000;2.699712
5167.000000;2.698546
5166.000000;2.696805
5165.000000;2.696659
5164.000000;2.697246
5163.000000;2.696298
5162.000000;2.693760
5161.000000;2.691688
5160.000000;2.691238
5159.000000;2.691578
5158.000000;2.691466
5157.000000;2.690596
5156.000000;2.689344
5155.000000;2.688227
5154.000000;2.687797
5153.000000;2.688396
5152.000000;2.689897
5151.000000;2.691969
5150.000000;2.694282
5149.000000;2.696167
5148.000000;2.696809
5147.000000;2.696052
5146.000000;2.694299
5145.000000;2.691831
5144.000000;2.689208
5143.000000;2.687867
5142.000000;2.688876
5141.000000;2.690975
5140.000000;2.691532
5139.000000;2.690134
5138.000000;2.689262
5137.000000;2.690534
5136.000000;2.692371
5135.000000;2.692729
5134.000000;2.692137
5133.000000;2.691865
5132.000000;2.690861
5131.000000;2.687333
5130.000000;2.682586
5129.000000;2.680440
5128.000000;2.682719
5127.000000;2.687228
5126.000000;2.690428
5125.000000;2.690825
5124.000000;2.689194
5123.000000;2.686635
5122.000000;2.683741
5121.000000;2.681265
5120.000000;2.680529
5119.000000;2.682654
5118.000000;2.687139
5117.000000;2.691376
5116.000000;2.692584
5115.000000;2.690612
5114.000000;2.687948
5113.000000;2.686662
5112.000000;2.686483
5111.000000;2.686290
5110.000000;2.686264
5109.000000;2.687189
5108.000000;2.688265
5107.000000;2.687425
5106.000000;2.684065
5105.000000;2.680153
5104.000000;2.678317
5103.000000;2.679689
5102.000000;2.683541
5101.000000;2.688221
5100.000000;2.692146
5099.000000;2.694291
5098.000000;2.694304
5097.000000;2.692425
5096.000000;2.689607
5095.000000;2.687455
5094.000000;2.686959
5093.000000;2.687000
5092.000000;2.685236
5091.000000;2.681211
5090.000000;2.677433
5089.000000;2.676188
5088.000000;2.676581
5087.000000;2.676357
5086.000000;2.675803
5085.000000;2.677605
5084.000000;2.682706
5083.000000;2.688098
5082.000000;2.689745
5081.000000;2.687007
5080.000000;2.682813
5079.000000;2.679977
5078.000000;2.678850
5077.000000;2.678428
5076.000000;2.678501
5075.000000;2.679792
5074.000000;2.682219
5073.000000;2.684059
5072.000000;2.683594
5071.000000;2.681226
5070.000000;2.679016
5069.000000;2.678272
5068.000000;2.678598
5067.000000;2.679263
5066.000000;2.680474
5065.000000;2.682620
5064.000000;2.684826
5063.000000;2.685408
5062.000000;2.683859
5061.000000;2.681414
5060.000000;2.679411
5059.000000;2.677925
5058.000000;2.676363
5057.000000;2.674789
5056.000000;2.673963
5055.000000;2.674208
5054.000000;2.674839
5053.000000;2.675019
5052.000000;2.674851
5051.000000;2.675075
5050.000000;2.675783
5049.000000;2.676175
5048.000000;2.675795
5047.000000;2.675178
5046.000000;2.674615
5045.000000;2.673027
5044.000000;2.669139
5043.000000;2.663455
5042.000000;2.658049
5041.000000;2.654584
5040.000000;2.653439
5039.000000;2.654494
5038.000000;2.657580
5037.000000;2.661820
5036.000000;2.665451
5035.000000;2.666987
5034.000000;2.666176
5033.000000;2.663681
5032.000000;2.660560
5031.000000;2.658114
5030.000000;2.657232
5029.000000;2.657382
5028.000000;2.656871
5027.000000;2.654636
5026.000000;2.651425
5025.000000;2.648946
5024.000000;2.648377
5023.000000;2.649672
5022.000000;2.651672
5021.000000;2.652923
5020.000000;2.652924
5019.000000;2.652577
5018.000000;2.652759
5017.000000;2.652576
5016.000000;2.650193
5015.000000;2.645687
5014.000000;2.641625
5013.000000;2.640223
5012.000000;2.641047
5011.000000;2.642005
5010.000000;2.641698
5009.000000;2.640136
5008.000000;2.637937
5007.000000;2.635813
5006.000000;2.634376
5005.000000;2.633579
5004.000000;2.632550
5003.000000;2.630605
5002.000000;2.628113
5001.000000;2.625872
5000.000000;2.624106
4999.000000;2.622469
4998.000000;2.620563
4997.000000;2.617951
4996.000000;2.614211
4995.000000;2.609600
4994.000000;2.605340
4993.000000;2.602859
4992.000000;2.602769
4991.000000;2.604558
4990.000000;2.607071
4989.000000;2.609111
4988.000000;2.609862
4987.000000;2.608966
4986.000000;2.606202
4985.000000;2.601440
4984.000000;2.595370
4983.000000;2.589841
4982.000000;2.586380
4981.000000;2.584543
4980.000000;2.582674
4979.000000;2.580220
4978.000000;2.578158
4977.000000;2.576912
4976.000000;2.575363
4975.000000;2.572637
4974.000000;2.569730
4973.000000;2.568071
4972.000000;2.567300
4971.000000;2.565743
4970.000000;2.562673
4969.000000;2.559034
4968.000000;2.556142
4967.000000;2.554505
4966.000000;2.553698
4965.000000;2.552662
4964.000000;2.550306
4963.000000;2.546526
4962.000000;2.542566
4961.000000;2.539812
4960.000000;2.538190
4959.000000;2.536245
4958.000000;2.532943
4957.000000;2.528798
4956.000000;2.524906
4955.000000;2.521360
4954.000000;2.517211
4953.000000;2.512004
4952.000000;2.506943
4951.000000;2.504016
4950.000000;2.503825
4949.000000;2.504594
4948.000000;2.503748
4947.000000;2.500472
4946.000000;2.496137
4945.000000;2.492353
4944.000000;2.489448
4943.000000;2.486806
4942.000000;2.483896
4941.000000;2.480570
4940.000000;2.476849
4939.000000;2.473017
4938.000000;2.469622
4937.000000;2.466870
4936.000000;2.464172
4935.000000;2.460657
4934.000000;2.455887
4933.000000;2.450004
4932.000000;2.443713
4931.000000;2.438312
4930.000000;2.435009
4929.000000;2.433702
4928.000000;2.432888
4927.000000;2.431304
4926.000000;2.429262
4925.000000;2.427755
4924.000000;2.426740
4923.000000;2.425107
4922.000000;2.422132
4921.000000;2.418100
4920.000000;2.413401
4919.000000;2.407929
4918.000000;2.401677
4917.000000;2.395284
4916.000000;2.389619
4915.000000;2.385121
4914.000000;2.381785
4913.000000;2.379430
4912.000000;2.377628
4911.000000;2.375619
4910.000000;2.372791
4909.000000;2.369294
4908.000000;2.365833
4907.000000;2.362753
4906.000000;2.359562
4905.000000;2.355545
4904.000000;2.350644
4903.000000;2.345456
4902.000000;2.340526
4901.000000;2.336004
4900.000000;2.331999
4899.000000;2.328711
4898.000000;2.325948
4897.000000;2.322939
4896.000000;2.319103
4895.000000;2.314728
4894.000000;2.310452
4893.000000;2.306312
4892.000000;2.301909
4891.000000;2.297392
4890.000000;2.293555
4889.000000;2.290803
4888.000000;2.288599
4887.000000;2.286181
4886.000000;2.283299
4885.000000;2.279906
4884.000000;2.275668
4883.000000;2.270384
4882.000000;2.264663
4881.000000;2.259679
4880.000000;2.256198
4879.000000;2.253975
4878.000000;2.251943
4877.000000;2.248954
4876.000000;2.244614
4875.000000;2.239591
4874.000000;2.234936
4873.000000;2.230974
4872.000000;2.227107
4871.000000;2.222795
4870.000000;2.218325
4869.000000;2.214228
4868.000000;2.210366
4867.000000;2.206145
4866.000000;2.201541
4865.000000;2.197326
4864.000000;2.194080
4863.000000;2.191334
4862.000000;2.187990
4861.000000;2.183459
4860.000000;2.178166
4859.000000;2.172976
4858.000000;2.168374
4857.000000;2.164319
4856.000000;2.160708
4855.000000;2.157611
4854.000000;2.154923
4853.000000;2.152129
4852.000000;2.148780
4851.000000;2.145115
4850.000000;2.141784
4849.000000;2.138905
4848.000000;2.135795
4847.000000;2.131887
4846.000000;2.127534
4845.000000;2.123512
4844.000000;2.119952
4843.000000;2.116220
4842.000000;2.111821
4841.000000;2.107047
4840.000000;2.102643
4839.000000;2.099053
4838.000000;2.096064
4837.000000;2.093029
4836.000000;2.089445
4835.000000;2.085465
4834.000000;2.081807
4833.000000;2.078935
4832.000000;2.076338
4831.000000;2.072934
4830.000000;2.068325
4829.000000;2.063376
4828.000000;2.059320
4827.000000;2.056506
4826.000000;2.054184
4825.000000;2.051349
4824.000000;2.047602
4823.000000;2.043278
4822.000000;2.039032
4821.000000;2.035334
4820.000000;2.032177
4819.000000;2.029152
4818.000000;2.025894
4817.000000;2.022428
4816.000000;2.018978
4815.000000;2.015519
4814.000000;2.011799
4813.000000;2.007823
4812.000000;2.003928
4811.000000;2.000275
4810.000000;1.996517
4809.000000;1.992320
4808.000000;1.987985
4807.000000;1.984169
4806.000000;1.981088
4805.000000;1.978255
4804.000000;1.975053
4803.000000;1.971282
4802.000000;1.967123
4801.000000;1.962903
4800.000000;1.959053
4799.000000;1.955941
4798.000000;1.953486
4797.000000;1.951089
4796.000000;1.948169
4795.000000;1.944666
4794.000000;1.940858
4793.000000;1.936890
4792.000000;1.932746
4791.000000;1.928581
4790.000000;1.924726
4789.000000;1.921355
4788.000000;1.918345
4787.000000;1.915519
4786.000000;1.912814
4785.000000;1.910151
4784.000000;1.907314
4783.000000;1.904127
4782.000000;1.900672
4781.000000;1.897219
4780.000000;1.893966
4779.000000;1.890868
4778.000000;1.887720
4777.000000;1.884360
4776.000000;1.880817
4775.000000;1.877245
4774.000000;1.873756
4773.000000;1.870361
4772.000000;1.867091
4771.000000;1.864068
4770.000000;1.861350
4769.000000;1.858732
4768.000000;1.855842
4767.000000;1.852492
4766.000000;1.848910
4765.000000;1.845566
4764.000000;1.842768
4763.000000;1.840404
4762.000000;1.838061
4761.000000;1.835382
4760.000000;1.832274
4759.000000;1.828795
4758.000000;1.824976
4757.000000;1.820920
4756.000000;1.817007
4755.000000;1.813730
4754.000000;1.811216
4753.000000;1.809063
4752.000000;1.806753
4751.000000;1.804126
4750.000000;1.801306
4749.000000;1.798311
4748.000000;1.794997
4747.000000;1.791400
4746.000000;1.787940
4745.000000;1.785114
4744.000000;1.783016
4743.000000;1.781195
4742.000000;1.779021
4741.000000;1.776229
4740.000000;1.773111
4739.000000;1.770150
4738.000000;1.767523
4737.000000;1.765038
4736.000000;1.762503
4735.000000;1.759938
4734.000000;1.757428
4733.000000;1.754969
4732.000000;1.752553
4731.000000;1.750215
4730.000000;1.747854
4729.000000;1.745194
4728.000000;1.742097
4727.000000;1.738798
4726.000000;1.735674
4725.000000;1.732884
4724.000000;1.730380
4723.000000;1.728105
4722.000000;1.725954
4721.000000;1.723649
4720.000000;1.720958
4719.000000;1.718016
4718.000000;1.715228
4717.000000;1.712820
4716.000000;1.710705
4715.000000;1.708709
4714.000000;1.706690
4713.000000;1.704421
4712.000000;1.701667
4711.000000;1.698492
4710.000000;1.695311
4709.000000;1.692508
4708.000000;1.690145
4707.000000;1.688095
4706.000000;1.686245
4705.000000;1.684445
4704.000000;1.682462
4703.000000;1.680175
4702.000000;1.677764
4701.000000;1.675545
4700.000000;1.673656
4699.000000;1.671992
4698.000000;1.670367
4697.000000;1.668657
4696.000000;1.666805
4695.000000;1.664814
4694.000000;1.662735
4693.000000;1.660634
4692.000000;1.658564
4691.000000;1.656579
4690.000000;1.654693
4689.000000;1.652817
4688.000000;1.650791
4687.000000;1.648557
4686.000000;1.646221
4685.000000;1.643934
4684.000000;1.641727
4683.000000;1.639527
4682.000000;1.637263
4681.000000;1.634931
4680.000000;1.632625
4679.000000;1.630508
4678.000000;1.628687
4677.000000;1.627069
4676.000000;1.625430
4675.000000;1.623683
4674.000000;1.622005
4673.000000;1.620592
4672.000000;1.619385
4671.000000;1.618104
4670.000000;1.616540
4669.000000;1.614714
4668.000000;1.612790
4667.000000;1.610905
4666.000000;1.609096
4665.000000;1.607325
4664.000000;1.605541
4663.000000;1.603753
4662.000000;1.602030
4661.000000;1.600393
4660.000000;1.598745
4659.000000;1.596982
4658.000000;1.595132
4657.000000;1.593338
4656.000000;1.591683
4655.000000;1.590094
4654.000000;1.588434
4653.000000;1.586665
4652.000000;1.584895
4651.000000;1.583286
4650.000000;1.581912
4649.000000;1.580680
4648.000000;1.579393
4647.000000;1.577903
4646.000000;1.576241
4645.000000;1.574577
4644.000000;1.573065
4643.000000;1.571723
4642.000000;1.570443
4641.000000;1.569090
4640.000000;1.567595
4639.000000;1.566007
4638.000000;1.564478
4637.000000;1.563176
4636.000000;1.562157
4635.000000;1.561301
4634.000000;1.560371
4633.000000;1.559181
4632.000000;1.557725
4631.000000;1.556161
4630.000000;1.554656
4629.000000;1.553257
4628.000000;1.551914
4627.000000;1.550593
4626.000000;1.549331
4625.000000;1.548151
4624.000000;1.546984
4623.000000;1.545726
4622.000000;1.544354
4621.000000;1.542936
4620.000000;1.541524
4619.000000;1.540096
4618.000000;1.538644
4617.000000;1.537261
4616.000000;1.536060
4615.000000;1.535040
4614.000000;1.534084
4613.000000;1.533114
4612.000000;1.532154
4611.000000;1.531209
4610.000000;1.530178
4609.000000;1.528981
4608.000000;1.527712
4607.000000;1.526537
4606.000000;1.525469
4605.000000;1.524369
4604.000000;1.523207
4603.000000;1.522160
4602.000000;1.521366
4601.000000;1.520659
4600.000000;1.519708
4599.000000;1.518390
4598.000000;1.516936
4597.000000;1.515679
4596.000000;1.514727
4595.000000;1.513921
4594.000000;1.513072
4593.000000;1.512188
4592.000000;1.511444
4591.000000;1.510947
4590.000000;1.510541
4589.000000;1.509919
4588.000000;1.508909
4587.000000;1.507624
4586.000000;1.506307
4585.000000;1.505113
4584.000000;1.504055
4583.000000;1.503098
4582.000000;1.502211
4581.000000;1.501365
4580.000000;1.500558
4579.000000;1.499845
4578.000000;1.499276
4577.000000;1.498820
4576.000000;1.498366
4575.000000;1.497802
4574.000000;1.497047
4573.000000;1.496056
4572.000000;1.494848
4571.000000;1.493540
4570.000000;1.492279
4569.000000;1.491151
4568.000000;1.490187
4567.000000;1.489430
4566.000000;1.488928
4565.000000;1.488633
4564.000000;1.488384
4563.000000;1.487986
4562.000000;1.487292
4561.000000;1.486255
4560.000000;1.484990
4559.000000;1.483763
4558.000000;1.482822
4557.000000;1.482175
4556.000000;1.481587
4555.000000;1.480857
4554.000000;1.480035
4553.000000;1.479337
4552.000000;1.478873
4551.000000;1.478522
4550.000000;1.478068
4549.000000;1.477411
4548.000000;1.476635
4547.000000;1.475898
4546.000000;1.475262
4545.000000;1.474648
4544.000000;1.473941
4543.000000;1.473139
4542.000000;1.472359
4541.000000;1.471696
4540.000000;1.471105
4539.000000;1.470465
4538.000000;1.469762
4537.000000;1.469165
4536.000000;1.468873
4535.000000;1.468875
4534.000000;1.468903
4533.000000;1.468643
4532.000000;1.468016
4531.000000;1.467206
4530.000000;1.466468
4529.000000;1.465957
4528.000000;1.465721
4527.000000;1.465750
4526.000000;1.465944
4525.000000;1.466100
4524.000000;1.466049
4523.000000;1.465797
4522.000000;1.465472
4521.000000;1.465144
4520.000000;1.464752
4519.000000;1.464232
4518.000000;1.463631
4517.000000;1.463077
4516.000000;1.462683
4515.000000;1.462527
4514.000000;1.462647
4513.000000;1.462989
4512.000000;1.463337
4511.000000;1.463386
4510.000000;1.462966
4509.000000;1.462214
4508.000000;1.461495
4507.000000;1.461126
4506.000000;1.461179
4505.000000;1.461532
4504.000000;1.462015
4503.000000;1.462441
4502.000000;1.462573
4501.000000;1.462247
4500.000000;1.461592
4499.000000;1.461047
4498.000000;1.461041
4497.000000;1.461678
4496.000000;1.462703
4495.000000;1.463684
4494.000000;1.464232
4493.000000;1.464208
4492.000000;1.463856
4491.000000;1.463640
4490.000000;1.463815
4489.000000;1.464171
4488.000000;1.464312
4487.000000;1.464123
4486.000000;1.463853
4485.000000;1.463797
4484.000000;1.464069
4483.000000;1.464635
4482.000000;1.465357
4481.000000;1.465970
4480.000000;1.466213
4479.000000;1.466116
4478.000000;1.466038
4477.000000;1.466318
4476.000000;1.466942
4475.000000;1.467630
4474.000000;1.468174
4473.000000;1.468616
4472.000000;1.469137
4471.000000;1.469844
4470.000000;1.470632
4469.000000;1.471215
4468.000000;1.471344
4467.000000;1.471067
4466.000000;1.470744
4465.000000;1.470762
4464.000000;1.471243
4463.000000;1.472019
4462.000000;1.472786
4461.000000;1.473279
4460.000000;1.473447
4459.000000;1.473563
4458.000000;1.474084
4457.000000;1.475242
4456.000000;1.476750
4455.000000;1.478011
4454.000000;1.478629
4453.000000;1.478669
4452.000000;1.478503
4451.000000;1.478534
4450.000000;1.479037
4449.000000;1.480090
4448.000000;1.481534
4447.000000;1.483039
4446.000000;1.484307
4445.000000;1.485221
4444.000000;1.485843
4443.000000;1.486296
4442.000000;1.486695
4441.000000;1.487149
4440.000000;1.487765
4439.000000;1.488624
4438.000000;1.489726
4437.000000;1.490942
4436.000000;1.492049
4435.000000;1.492871
4434.000000;1.493398
4433.000000;1.493775
4432.000000;1.494166
4431.000000;1.494684
4430.000000;1.495395
4429.000000;1.496330
4428.000000;1.497454
4427.000000;1.498680
4426.000000;1.499937
4425.000000;1.501211
4424.000000;1.502484
4423.000000;1.503704
4422.000000;1.504865
4421.000000;1.506091
4420.000000;1.507514
4419.000000;1.509041
4418.000000;1.510358
4417.000000;1.511244
4416.000000;1.511834
4415.000000;1.512482
4414.000000;1.513387
4413.000000;1.514501
4412.000000;1.515769
4411.000000;1.517276
4410.000000;1.519039
4409.000000;1.520832
4408.000000;1.522390
4407.000000;1.523727
4406.000000;1.525050
4405.000000;1.526402
4404.000000;1.527581
4403.000000;1.528450
4402.000000;1.529117
4401.000000;1.529730
4400.000000;1.530304
4399.000000;1.530882
4398.000000;1.531731
4397.000000;1.533147
4396.000000;1.535089
4395.000000;1.537131
4394.000000;1.538761
4393.000000;1.539700
4392.000000;1.540027
4391.000000;1.540157
4390.000000;1.540666
4389.000000;1.541929
4388.000000;1.543822
4387.000000;1.545808
4386.000000;1.547375
4385.000000;1.548377
4384.000000;1.548997
4383.000000;1.549498
4382.000000;1.550023
4381.000000;1.550592
4380.000000;1.551204
4379.000000;1.551934
4378.000000;1.552886
4377.000000;1.554074
4376.000000;1.555440
4375.000000;1.556981
4374.000000;1.558762
4373.000000;1.560669
4372.000000;1.562297
4371.000000;1.563288
4370.000000;1.563820
4369.000000;1.564598
4368.000000;1.566214
4367.000000;1.568521
4366.000000;1.570665
4365.000000;1.571786
4364.000000;1.571756
4363.000000;1.571281
4362.000000;1.571267
4361.000000;1.572079
4360.000000;1.573457
4359.000000;1.575086
4358.000000;1.577026
4357.000000;1.579399
4356.000000;1.581894
4355.000000;1.583928
4354.000000;1.585323
4353.000000;1.586457
4352.000000;1.587637
4351.000000;1.588661
4350.000000;1.589258
4349.000000;1.589663
4348.000000;1.590367
4347.000000;1.591426
4346.000000;1.592385
4345.000000;1.592942
4344.000000;1.593410
4343.000000;1.594448
4342.000000;1.596521
4341.000000;1.599620
4340.000000;1.603218
4339.000000;1.606440
4338.000000;1.608579
4337.000000;1.609656
4336.000000;1.610268
4335.000000;1.610771
4334.000000;1.610916
4333.000000;1.610562
4332.000000;1.610442
4331.000000;1.611670
4330.000000;1.614476
4329.000000;1.617819
4328.000000;1.620388
4327.000000;1.621734
4326.000000;1.622317
4325.000000;1.622764
4324.000000;1.623382
4323.000000;1.624183
4322.000000;1.625027
4321.000000;1.625810
4320.000000;1.626737
4319.000000;1.628302
4318.000000;1.630718
4317.000000;1.633386
4316.000000;1.635249
4315.000000;1.635794
4314.000000;1.635534
4313.000000;1.635392
4312.000000;1.635825
4311.000000;1.636675
4310.000000;1.637641
4309.000000;1.638579
4308.000000;1.639389
4307.000000;1.639921
4306.000000;1.640264
4305.000000;1.640980
4304.000000;1.642642
4303.000000;1.645019
4302.000000;1.647081
4301.000000;1.648078
4300.000000;1.648372
4299.000000;1.648851
4298.000000;1.649773
4297.000000;1.650726
4296.000000;1.651488
4295.000000;1.652167
4294.000000;1.652428
4293.000000;1.651573
4292.000000;1.649853
4291.000000;1.648754
4290.000000;1.649127
4289.000000;1.649858
4288.000000;1.649421
4287.000000;1.648212
4286.000000;1.648067
4285.000000;1.649699
4284.000000;1.651914
4283.000000;1.653492
4282.000000;1.654693
4281.000000;1.656517
4280.000000;1.659449
4279.000000;1.663393
4278.000000;1.667844
4277.000000;1.671450
4276.000000;1.672391
4275.000000;1.670330
4274.000000;1.667428
4273.000000;1.666390
4272.000000;1.667735
4271.000000;1.669579
4270.000000;1.669737
4269.000000;1.667391
4268.000000;1.662983
4267.000000;1.657497
4266.000000;1.652024
4265.000000;1.647360
4264.000000;1.643789
4263.000000;1.641368
4262.000000;1.640222
4261.000000;1.640209
4260.000000;1.640583
4259.000000;1.640600
4258.000000;1.640388
4257.000000;1.640665
4256.000000;1.641631
4255.000000;1.642604
4254.000000;1.642679
4253.000000;1.641217
4252.000000;1.637815
4251.000000;1.632574
4250.000000;1.626535
4249.000000;1.621480
4248.000000;1.618578
4247.000000;1.617289
4246.000000;1.615798
4245.000000;1.612502
4244.000000;1.607271
4243.000000;1.601619
4242.000000;1.597501
4241.000000;1.595555
4240.000000;1.594197
4239.000000;1.590585
4238.000000;1.583157
4237.000000;1.573252
4236.000000;1.563805
4235.000000;1.556581
4234.000000;1.550937
4233.000000;1.545098
4232.000000;1.538320
4231.000000;1.531590
4230.000000;1.526114
4229.000000;1.521508
4228.000000;1.515834
4227.000000;1.507277
4226.000000;1.495723
4225.000000;1.482910
4224.000000;1.471135
4223.000000;1.461289
4222.000000;1.451682
4221.000000;1.439205
4220.000000;1.422301
4219.000000;1.402497
4218.000000;1.382714
4217.000000;1.364950
4216.000000;1.350087
4215.000000;1.338493
4214.000000;1.329067
4213.000000;1.318263
4212.000000;1.302037
4211.000000;1.278810
4210.000000;1.249361
4209.000000;1.215333
4208.000000;1.178968
4207.000000;1.142540
4206.000000;1.106094
4205.000000;1.065499
4204.000000;1.015033
4203.000000;0.953778
4202.000000;0.887717
4201.000000;0.825024
4200.000000;0.774538
4199.000000;0.746777
4198.000000;0.747830
4197.000000;0.774926
4196.000000;0.822095
4195.000000;0.882599
4194.000000;0.950496
4193.000000;1.021587
4192.000000;1.091266
4191.000000;1.156045
4190.000000;1.216770
4189.000000;1.275703
4188.000000;1.330830
4187.000000;1.377238
4186.000000;1.413713
4185.000000;1.443302
4184.000000;1.469763
4183.000000;1.497056
4182.000000;1.529226
4181.000000;1.567405
4180.000000;1.606830
4179.000000;1.639530
4178.000000;1.661795
4177.000000;1.677219
4176.000000;1.691136
4175.000000;1.705544
4174.000000;1.720409
4173.000000;1.735417
4172.000000;1.750663
4171.000000;1.768195
4170.000000;1.790465
4169.000000;1.817312
4168.000000;1.846181
4167.000000;1.874680
4166.000000;1.901478
4165.000000;1.924373
4164.000000;1.940596
4163.000000;1.951130
4162.000000;1.960895
4161.000000;1.972622
4160.000000;1.984701
4159.000000;1.996053
4158.000000;2.009840
4157.000000;2.028901
4156.000000;2.048915
4155.000000;2.061811
4154.000000;2.066514
4153.000000;2.070358
4152.000000;2.079100
4151.000000;2.091059
4150.000000;2.101898
4149.000000;2.111434
4148.000000;2.123287
4147.000000;2.140074
4146.000000;2.161148
4145.000000;2.184152
4144.000000;2.208334
4143.000000;2.234759
4142.000000;2.263486
4141.000000;2.292699
4140.000000;2.317934
4139.000000;2.332239
4138.000000;2.332354
4137.000000;2.322721
4136.000000;2.313033
4135.000000;2.314033
4134.000000;2.329717
4133.000000;2.351405
4132.000000;2.363362
4131.000000;2.362623
4130.000000;2.363505
4129.000000;2.378991
4128.000000;2.407655
4127.000000;2.435402
4126.000000;2.450597
4125.000000;2.455864
4124.000000;2.459853
4123.000000;2.464296
4122.000000;2.465583
4121.000000;2.461382
4120.000000;2.451554
4119.000000;2.440738
4118.000000;2.439147
4117.000000;2.454339
4116.000000;2.482840
4115.000000;2.508989
4114.000000;2.513498
4113.000000;2.490884
4112.000000;2.462472
4111.000000;2.455298
4110.000000;2.473754
4109.000000;2.500851
4108.000000;2.520621
4107.000000;2.532791
4106.000000;2.546342
4105.000000;2.570137
4104.000000;2.606349
4103.000000;2.646731
4102.000000;2.673447
4101.000000;2.671575
4100.000000;2.648557
4099.000000;2.631835
4098.000000;2.644446
4097.000000;2.684756
4096.000000;2.723870
4095.000000;2.733526
4094.000000;2.715892
4093.000000;2.699917
4092.000000;2.710817
4091.000000;2.746140
4090.000000;2.780721
4089.000000;2.785407
4088.000000;2.751864
4087.000000;2.707013
4086.000000;2.684515
4085.000000;2.693265
4084.000000;2.710077
4083.000000;2.707014
4082.000000;2.689297
4081.000000;2.677084
4080.000000;2.679649
4079.000000;2.693737
4078.000000;2.710157
4077.000000;2.722363
4076.000000;2.732603
4075.000000;2.749198
4074.000000;2.773247
4073.000000;2.796304
4072.000000;2.810488
4071.000000;2.810341
4070.000000;2.799521
4069.000000;2.788478
4068.000000;2.777674
4067.000000;2.762447
4066.000000;2.745792
4065.000000;2.738619
4064.000000;2.750070
4063.000000;2.780102
4062.000000;2.826616
4061.000000;2.894475
4060.000000;2.978999
4059.000000;3.040297
4058.000000;3.047086
4057.000000;3.029203
4056.000000;3.024978
4055.000000;3.039093
4054.000000;3.037639
4053.000000;2.994177
4052.000000;2.935678
4051.000000;2.900230
4050.000000;2.893004
4049.000000;2.893822
4048.000000;2.886961
4047.000000;2.878858
4046.000000;2.880974
4045.000000;2.891233
4044.000000;2.901011
4043.000000;2.910523
4042.000000;2.923039
4041.000000;2.928193
4040.000000;2.913057
4039.000000;2.887540
4038.000000;2.874670
4037.000000;2.884344
4036.000000;2.907516
4035.000000;2.928800
4034.000000;2.937938
4033.000000;2.929650
4032.000000;2.910471
4031.000000;2.899979
4030.000000;2.914079
4029.000000;2.953553
4028.000000;3.006815
4027.000000;3.064812
4026.000000;3.124038
4025.000000;3.158963
4024.000000;3.134144
4023.000000;3.074210
4022.000000;3.033490
4021.000000;3.027196
4020.000000;3.030656
4019.000000;3.021156
4018.000000;3.013669
4017.000000;3.035466
4016.000000;3.087796
4015.000000;3.142004
4014.000000;3.165491
4013.000000;3.160169
4012.000000;3.159090
4011.000000;3.149093
4010.000000;3.105648
4009.000000;3.075414
4008.000000;3.079412
4007.000000;3.089894
4006.000000;3.100981
4005.000000;3.132957
4004.000000;3.174352
4003.000000;3.191341
4002.000000;3.182535
4001.000000;3.176586
4000.000000;3.193782
3999.000000;3.216792
3998.000000;3.204755
3997.000000;3.167089
3996.000000;3.140234
3995.000000;3.110945
3994.000000;3.064805
3993.000000;3.020894
3992.000000;2.997030
3991.000000;3.015073
3990.000000;3.111743
3989.000000;3.335857
3988.000000;3.765531
3987.000000;4.590635
3986.000000;3.880887
3985.000000;3.386589
3984.000000;3.148380
3983.000000;3.044784
3982.000000;3.038410
3981.000000;3.087798
3980.000000;3.147191
3979.000000;3.215780
3978.000000;3.228215
3977.000000;3.175760
3976.000000;3.178150
3975.000000;3.221707
3974.000000;3.245258
3973.000000;3.249836
3972.000000;3.250335
3971.000000;3.227977
3970.000000;3.185666
3969.000000;3.165666
3968.000000;3.191622
3967.000000;3.237034
3966.000000;3.271684
3965.000000;3.338297
3964.000000;3.468853
3963.000000;3.518177
3962.000000;3.455157
3961.000000;3.420238
3960.000000;3.440837
3959.000000;3.512240
3958.000000;3.581257
3957.000000;3.530320
3956.000000;3.395598
3955.000000;3.260267
3954.000000;3.132186
3953.000000;3.028783
3952.000000;2.976125
3951.000000;2.977762
3950.000000;3.004429
3949.000000;3.015835
3948.000000;3.024480
3947.000000;3.066785
3946.000000;3.120289
3945.000000;3.159323
3944.000000;3.200731
3943.000000;3.245794
3942.000000;3.312271
3941.000000;3.422050
3940.000000;3.489086
3939.000000;3.416137
3938.000000;3.301836
3937.000000;3.242360
3936.000000;3.295956
3935.000000;3.654768
3934.000000;3.883485
3933.000000;3.638868
3932.000000;3.715555
3931.000000;3.805383
3930.000000;3.666954
3929.000000;3.623439
3928.000000;3.685323
3927.000000;3.524580
3926.000000;3.278784
3925.000000;3.164405
3924.000000;3.141503
3923.000000;3.120466
3922.000000;3.096017
3921.000000;3.123620
3920.000000;3.161220
3919.000000;3.173309
3918.000000;3.196073
3917.000000;3.276923
3916.000000;3.435267
3915.000000;3.644810
3914.000000;3.709074
3913.000000;3.560987
3912.000000;3.387114
3911.000000;3.284562
3910.000000;3.253988
3909.000000;3.294924
3908.000000;3.425834
3907.000000;3.637380
3906.000000;3.760017
3905.000000;3.612376
3904.000000;3.423179
3903.000000;3.332773
3902.000000;3.358102
3901.000000;3.504739
3900.000000;3.763878
3899.000000;4.158802
3898.000000;3.933925
3897.000000;3.732570
3896.000000;3.301382
3895.000000;3.284260
3894.000000;3.552842
3893.000000;3.663951
3892.000000;3.532537
3891.000000;3.839369
3890.000000;3.690075
3889.000000;3.725309
3888.000000;3.781418
3887.000000;3.225717
3886.000000;2.993776
3885.000000;2.988295
3884.000000;3.197247
3883.000000;3.420723
3882.000000;3.298970
3881.000000;3.091941
3880.000000;2.974735
3879.000000;3.003101
3878.000000;3.163318
3877.000000;3.424237
3876.000000;4.010883
3875.000000;3.921870
3874.000000;3.635248
3873.000000;3.450469
3872.000000;3.344256
3871.000000;3.249362
3870.000000;3.288807
3869.000000;3.527668
3868.000000;3.839962
3867.000000;3.707359
3866.000000;3.546981
3865.000000;3.489467
3864.000000;3.532548
3863.000000;3.695747
3862.000000;3.785089
3861.000000;3.736713
3860.000000;3.783103
3859.000000;4.336770
3858.000000;4.236289
3857.000000;3.774554
3856.000000;3.896227
3855.000000;4.242942
3854.000000;3.769827
3853.000000;3.529184
3852.000000;3.511006
3851.000000;3.591529
3850.000000;3.782908
3849.000000;4.065036
3848.000000;4.310246
3847.000000;4.014854
3846.000000;3.803170
3845.000000;3.705781
3844.000000;3.638245
3843.000000;3.550292
3842.000000;3.531298
3841.000000;3.544861
3840.000000;3.484183
3839.000000;3.424378
3838.000000;3.371303
3837.000000;3.287874
3836.000000;3.249415
3835.000000;3.241715
3834.000000;3.205117
3833.000000;3.186148
3832.000000;3.268755
3831.000000;3.587468
3830.000000;4.026906
3829.000000;3.739101
3828.000000;3.422668
3827.000000;3.173375
3826.000000;3.066111
3825.000000;3.196539
3824.000000;3.472856
3823.000000;3.512446
3822.000000;3.289085
3821.000000;3.186122
3820.000000;3.180296
3819.000000;3.242002
3818.000000;3.328339
3817.000000;3.389930
3816.000000;3.455410
3815.000000;3.516629
3814.000000;3.569548
3813.000000;3.721487
3812.000000;4.023836
3811.000000;3.700364
3810.000000;3.569280
3809.000000;3.664984
3808.000000;3.908765
3807.000000;3.690217
3806.000000;3.413429
3805.000000;3.468532
3804.000000;3.592610
3803.000000;3.607731
3802.000000;3.472367
3801.000000;3.407029
3800.000000;3.554507
3799.000000;3.883827
3798.000000;4.593633
3797.000000;3.994766
3796.000000;3.694599
3795.000000;3.784136
3794.000000;3.812589
3793.000000;3.560090
3792.000000;3.414208
3791.000000;3.387935
3790.000000;3.457972
3789.000000;3.749018
3788.000000;4.130484
3787.000000;3.940059
3786.000000;3.923519
3785.000000;4.018714
3784.000000;4.041003
3783.000000;4.015142
3782.000000;4.330388
3781.000000;4.124602
3780.000000;3.568556
3779.000000;3.414110
3778.000000;3.417874
3777.000000;3.477274
3776.000000;3.540773
3775.000000;3.608558
3774.000000;3.614539
3773.000000;3.573652
3772.000000;3.553460
3771.000000;3.547693
3770.000000;3.597459
3769.000000;3.667937
3768.000000;3.823553
3767.000000;3.827008
3766.000000;3.430754
3765.000000;3.243804
3764.000000;3.283083
3763.000000;3.429604
3762.000000;3.530427
3761.000000;3.422978
3760.000000;3.317219
3759.000000;3.082709
3758.000000;3.176132
3757.000000;3.375320
3756.000000;3.422729
3755.000000;3.698815
3754.000000;4.062069
3753.000000;3.852559
3752.000000;3.546303
3751.000000;3.486262
3750.000000;3.512185
3749.000000;3.625425
3748.000000;3.800082
3747.000000;4.002242
3746.000000;3.977913
3745.000000;3.757323
3744.000000;3.562724
3743.000000;3.412769
3742.000000;3.341512
3741.000000;3.375225
3740.000000;3.526301
3739.000000;3.800010
3738.000000;3.851692
3737.000000;4.729578
3736.000000;3.343639
3735.000000;3.178074
3734.000000;3.272067
3733.000000;3.211971
3732.000000;3.160730
3731.000000;3.100692
3730.000000;3.076470
3729.000000;3.033410
3728.000000;3.003847
3727.000000;3.034466
3726.000000;3.118550
3725.000000;3.198089
3724.000000;3.229435
3723.000000;3.184167
3722.000000;3.143724
3721.000000;3.146837
3720.000000;3.200914
3719.000000;3.237524
3718.000000;3.357163
3717.000000;3.720724
3716.000000;3.195953
3715.000000;3.020557
3714.000000;3.141023
3713.000000;3.316838
3712.000000;3.567371
3711.000000;3.752811
3710.000000;4.076514
3709.000000;4.097162
3708.000000;3.562479
3707.000000;3.294568
3706.000000;3.172434
3705.000000;3.169074
3704.000000;3.260946
3703.000000;3.379841
3702.000000;3.705747
3701.000000;4.004839
3700.000000;3.580909
3699.000000;3.388519
3698.000000;3.282049
3697.000000;3.197754
3696.000000;3.143020
3695.000000;3.119140
3694.000000;3.148494
3693.000000;3.267114
3692.000000;3.472594
3691.000000;3.630391
3690.000000;3.677272
3689.000000;3.651204
3688.000000;3.634834
3687.000000;3.636816
3686.000000;3.582980
3685.000000;3.507494
3684.000000;3.511539
3683.000000;3.606869
3682.000000;3.493827
3681.000000;3.078039
3680.000000;2.810734
3679.000000;2.783962
3678.000000;2.873296
3677.000000;2.876277
3676.000000;2.825391
3675.000000;2.881172
3674.000000;3.026534
3673.000000;3.107320
3672.000000;3.120038
3671.000000;3.158222
3670.000000;3.356956
3669.000000;3.842348
3668.000000;4.271812
3667.000000;3.864074
3666.000000;3.635396
3665.000000;3.553376
3664.000000;3.563360
3663.000000;3.617405
3662.000000;3.854269
3661.000000;4.393017
3660.000000;3.734571
3659.000000;3.451639
3658.000000;3.285310
3657.000000;3.095558
3656.000000;2.932062
3655.000000;2.798903
3654.000000;2.711596
3653.000000;2.709223
3652.000000;2.799146
3651.000000;2.945424
3650.000000;3.108395
3649.000000;3.272528
3648.000000;3.596366
3647.000000;4.074362
3646.000000;3.816155
3645.000000;3.781518
3644.000000;4.096448
3643.000000;3.843645
3642.000000;3.533276
3641.000000;3.467217
3640.000000;3.494359
3639.000000;3.712946
3638.000000;4.470087
3637.000000;3.959728
3636.000000;3.672847
3635.000000;3.508200
3634.000000;3.351421
3633.000000;3.076732
3632.000000;2.900289
3631.000000;2.894337
3630.000000;3.106289
3629.000000;3.696968
3628.000000;3.738087
3627.000000;3.557645
3626.000000;3.523461
3625.000000;3.641931
3624.000000;3.555688
3623.000000;3.179219
3622.000000;3.151170
3621.000000;3.299524
3620.000000;3.263196
3619.000000;3.166315
3618.000000;3.175438
3617.000000;3.279546
3616.000000;3.453570
3615.000000;3.300221
3614.000000;2.954199
3613.000000;2.818408
3612.000000;2.899093
3611.000000;3.137531
3610.000000;3.393805
3609.000000;3.598051
3608.000000;3.826144
3607.000000;3.665024
3606.000000;3.448198
3605.000000;3.392346
3604.000000;3.618369
3603.000000;3.975772
3602.000000;3.484889
3601.000000;3.312034
3600.000000;3.323031
3599.000000;3.405739
3598.000000;3.511708
3597.000000;3.376469
3596.000000;3.189147
3595.000000;3.105143
3594.000000;3.089556
3593.000000;3.121610
3592.000000;3.215317
3591.000000;3.480352
3590.000000;3.427294
3589.000000;3.072592
3588.000000;3.007323
3587.000000;3.157779
3586.000000;3.465682
3585.000000;3.708465
3584.000000;3.721005
3583.000000;3.604655
3582.000000;3.629578
3581.000000;4.170752
3580.000000;3.731412
3579.000000;3.419535
3578.000000;3.428586
3577.000000;3.639287
3576.000000;4.116138
3575.000000;4.000358
3574.000000;3.812141
3573.000000;3.426358
3572.000000;3.056156
3571.000000;2.907345
3570.000000;2.910499
3569.000000;2.978393
3568.000000;3.050720
3567.000000;3.073540
3566.000000;3.072764
3565.000000;3.113771
3564.000000;3.214403
3563.000000;3.391805
3562.000000;3.610575
3561.000000;3.682357
3560.000000;3.570472
3559.000000;3.481832
3558.000000;3.479751
3557.000000;3.744461
3556.000000;4.064626
3555.000000;3.667200
3554.000000;3.531312
3553.000000;3.624537
3552.000000;4.003254
3551.000000;3.957846
3550.000000;3.592100
3549.000000;3.523222
3548.000000;3.475619
3547.000000;3.355418
3546.000000;3.304097
3545.000000;3.362083
3544.000000;3.647128
3543.000000;4.151915
3542.000000;3.796514
3541.000000;3.630085
3540.000000;3.730934
3539.000000;3.981318
3538.000000;3.982377
3537.000000;3.993223
3536.000000;3.853062
3535.000000;3.460409
3534.000000;3.272936
3533.000000;3.224568
3532.000000;3.277794
3531.000000;3.413648
3530.000000;3.487048
3529.000000;3.472423
3528.000000;3.665454
3527.000000;3.578783
3526.000000;3.223633
3525.000000;3.088393
3524.000000;3.058013
3523.000000;3.078501
3522.000000;3.149794
3521.000000;3.234581
3520.000000;3.276358
3519.000000;3.346647
3518.000000;3.535342
3517.000000;3.622965
3516.000000;3.519852
3515.000000;3.512457
3514.000000;3.467908
3513.000000;3.405831
3512.000000;3.666060
3511.000000;4.035714
3510.000000;3.619653
3509.000000;3.554497
3508.000000;3.667348
3507.000000;3.656528
3506.000000;3.492435
3505.000000;3.383095
3504.000000;3.349798
3503.000000;3.456894
3502.000000;3.962555
3501.000000;3.674342
3500.000000;3.258751
3499.000000;3.094856
3498.000000;3.025666
3497.000000;3.044091
3496.000000;3.153908
3495.000000;3.367669
3494.000000;3.424837
3493.000000;3.279196
3492.000000;3.228883
3491.000000;3.260992
3490.000000;3.334978
3489.000000;3.410419
3488.000000;3.395104
3487.000000;3.331633
3486.000000;3.296466
3485.000000;3.465933
3484.000000;3.753765
3483.000000;3.472936
3482.000000;3.248501
3481.000000;3.254577
3480.000000;3.312789
3479.000000;3.471229
3478.000000;4.237749
3477.000000;3.783790
3476.000000;3.375930
3475.000000;3.333269
3474.000000;3.387938
3473.000000;3.691897
3472.000000;4.045653
3471.000000;3.651355
3470.000000;3.732685
3469.000000;4.136227
3468.000000;3.707337
3467.000000;3.614546
3466.000000;3.885123
3465.000000;3.796172
3464.000000;3.432696
3463.000000;3.334010
3462.000000;3.382929
3461.000000;3.449071
3460.000000;3.470369
3459.000000;3.526054
3458.000000;3.673726
3457.000000;4.020481
3456.000000;4.159112
3455.000000;3.669235
3454.000000;3.457500
3453.000000;3.462415
3452.000000;3.493355
3451.000000;3.333674
3450.000000;3.211497
3449.000000;3.205911
3448.000000;3.250167
3447.000000;3.361797
3446.000000;3.552861
3445.000000;3.542455
3444.000000;3.401305
3443.000000;3.384518
3442.000000;3.487959
3441.000000;3.668777
3440.000000;3.560568
3439.000000;3.264507
3438.000000;3.120113
3437.000000;3.127396
3436.000000;3.261253
3435.000000;3.460373
3434.000000;3.488093
3433.000000;3.356127
3432.000000;3.277766
3431.000000;3.259385
3430.000000;3.288286
3429.000000;3.395474
3428.000000;3.388679
3427.000000;3.267377
3426.000000;3.245269
3425.000000;3.400589
3424.000000;3.793827
3423.000000;3.757280
3422.000000;3.539957
3421.000000;3.592289
3420.000000;3.711295
3419.000000;3.566151
3418.000000;3.288121
3417.000000;3.159293
3416.000000;3.160422
3415.000000;3.404578
3414.000000;4.045779
3413.000000;3.750500
3412.000000;3.740641
3411.000000;4.179929
3410.000000;4.336216
3409.000000;4.070889
3408.000000;3.993481
3407.000000;3.964074
3406.000000;3.683515
3405.000000;3.600803
3404.000000;3.584998
3403.000000;3.488615
3402.000000;3.395966
3401.000000;3.422263
3400.000000;3.537222
3399.000000;3.482781
3398.000000;3.344560
3397.000000;3.305087
3396.000000;3.311250
3395.000000;3.237982
3394.000000;3.162519
3393.000000;3.196022
3392.000000;3.303128
3391.000000;3.354530
3390.000000;3.283867
3389.000000;3.186050
3388.000000;3.151561
3387.000000;3.193803
3386.000000;3.302911
3385.000000;3.473829
3384.000000;3.650245
3383.000000;3.676570
3382.000000;3.561263
3381.000000;3.469953
3380.000000;3.429489
3379.000000;3.491582
3378.000000;3.599695
3377.000000;3.441213
3376.000000;3.279570
3375.000000;3.273292
3374.000000;3.321798
3373.000000;3.357362
3372.000000;3.371590
3371.000000;3.461080
3370.000000;3.688265
3369.000000;3.791216
3368.000000;3.980001
3367.000000;4.437588
3366.000000;4.484015
3365.000000;3.951014
3364.000000;3.496719
3363.000000;3.343747
3362.000000;3.332846
3361.000000;3.356555
3360.000000;3.365313
3359.000000;3.366078
3358.000000;3.401971
3357.000000;3.598763
3356.000000;3.859704
3355.000000;3.558464
3354.000000;3.340714
3353.000000;3.249497
3352.000000;3.215973
3351.000000;3.247506
3350.000000;3.334119
3349.000000;3.499973
3348.000000;3.688638
3347.000000;3.648650
3346.000000;3.546193
3345.000000;3.556152
3344.000000;3.652160
3343.000000;3.803419
3342.000000;3.947614
3341.000000;4.101690
3340.000000;3.899927
3339.000000;3.522171
3338.000000;3.312075
3337.000000;3.239892
3336.000000;3.269407
3335.000000;3.371960
3334.000000;3.519800
3333.000000;3.594060
3332.000000;3.489085
3331.000000;3.457289
3330.000000;3.536251
3329.000000;3.688029
3328.000000;4.007328
3327.000000;3.608977
3326.000000;3.236442
3325.000000;3.138974
3324.000000;3.201182
3323.000000;3.440207
3322.000000;3.626138
3321.000000;3.549838
3320.000000;3.492648
3319.000000;3.566967
3318.000000;3.935396
3317.000000;3.745368
3316.000000;3.429420
3315.000000;3.387004
3314.000000;3.525635
3313.000000;3.529023
3312.000000;3.348127
3311.000000;3.303716
3310.000000;3.268121
3309.000000;3.147109
3308.000000;3.065266
3307.000000;3.070850
3306.000000;3.150738
3305.000000;3.336485
3304.000000;3.787712
3303.000000;3.791072
3302.000000;3.466765
3301.000000;3.549978
3300.000000;3.730143
3299.000000;3.823316
3298.000000;3.996100
3297.000000;3.761037
3296.000000;3.525621
3295.000000;3.470567
3294.000000;3.498225
3293.000000;3.743884
3292.000000;3.737047
3291.000000;3.389213
3290.000000;3.256063
3289.000000;3.171355
3288.000000;3.056739
3287.000000;2.998369
3286.000000;3.046314
3285.000000;3.205582
3284.000000;3.485062
3283.000000;3.747943
3282.000000;3.726140
3281.000000;3.612014
3280.000000;3.394185
3279.000000;3.220565
3278.000000;3.176465
3277.000000;3.271504
3276.000000;3.621699
3275.000000;3.985577
3274.000000;3.712301
3273.000000;3.881751
3272.000000;4.435635
3271.000000;4.226581
3270.000000;3.770867
3269.000000;3.487429
3268.000000;3.269323
3267.000000;3.149989
3266.000000;3.144228
3265.000000;3.341928
3264.000000;3.878685
3263.000000;3.458039
3262.000000;3.198596
3261.000000;3.181801
3260.000000;3.219247
3259.000000;3.280899
3258.000000;3.299910
3257.000000;3.334553
3256.000000;3.459093
3255.000000;3.621774
3254.000000;3.533490
3253.000000;3.428286
3252.000000;3.522600
3251.000000;3.588982
3250.000000;3.410203
3249.000000;3.331596
3248.000000;3.367199
3247.000000;3.442105
3246.000000;3.456606
3245.000000;3.320428
3244.000000;3.172026
3243.000000;3.120918
3242.000000;3.184396
3241.000000;3.306149
3240.000000;3.294085
3239.000000;3.202592
3238.000000;3.178586
3237.000000;3.219553
3236.000000;3.301823
3235.000000;3.421468
3234.000000;3.811811
3233.000000;3.871264
3232.000000;3.762769
3231.000000;4.223139
3230.000000;3.616876
3229.000000;3.434074
3228.000000;3.405854
3227.000000;3.314372
3226.000000;3.220570
3225.000000;3.169741
3224.000000;3.212126
3223.000000;3.530693
3222.000000;4.173619
3221.000000;3.498686
3220.000000;3.287681
3219.000000;3.184570
3218.000000;3.124356
3217.000000;3.091839
3216.000000;3.074470
3215.000000;3.109812
3214.000000;3.225662
3213.000000;3.419924
3212.000000;3.384739
3211.000000;3.210628
3210.000000;3.132354
3209.000000;3.128761
3208.000000;3.183224
3207.000000;3.313069
3206.000000;3.548427
3205.000000;3.588324
3204.000000;3.384714
3203.000000;3.285326
3202.000000;3.330990
3201.000000;3.477427
3200.000000;3.669591
3199.000000;3.706565
3198.000000;3.736382
3197.000000;3.940348
3196.000000;3.342963
3195.000000;3.033074
3194.000000;2.931670
3193.000000;2.950829
3192.000000;3.074156
3191.000000;3.301405
3190.000000;3.539169
3189.000000;3.558682
3188.000000;3.481260
3187.000000;3.402190
3186.000000;3.440368
3185.000000;3.464161
3184.000000;3.315932
3183.000000;3.288426
3182.000000;3.447886
3181.000000;3.626495
3180.000000;4.000831
3179.000000;4.016862
3178.000000;3.681428
3177.000000;3.674933
3176.000000;3.423326
3175.000000;3.175139
3174.000000;3.086607
3173.000000;3.125442
3172.000000;3.253898
3171.000000;3.378936
3170.000000;3.494263
3169.000000;3.558120
3168.000000;3.482844
3167.000000;3.403378
3166.000000;3.510906
3165.000000;3.742204
3164.000000;3.441397
3163.000000;3.198169
3162.000000;3.103138
3161.000000;3.091477
3160.000000;3.267133
3159.000000;3.631181
3158.000000;3.468748
3157.000000;3.391517
3156.000000;3.619841
3155.000000;3.560372
3154.000000;3.389139
3153.000000;3.297705
3152.000000;3.267974
3151.000000;3.298769
3150.000000;3.302908
3149.000000;3.316066
3148.000000;3.461535
3147.000000;3.452730
3146.000000;3.295110
3145.000000;3.194254
3144.000000;3.027765
3143.000000;2.931974
3142.000000;2.972287
3141.000000;3.148094
3140.000000;3.499552
3139.000000;4.140463
3138.000000;4.067869
3137.000000;3.689606
3136.000000;3.505304
3135.000000;3.358597
3134.000000;3.218813
3133.000000;3.072049
3132.000000;2.965375
3131.000000;2.926321
3130.000000;2.951572
3129.000000;3.003457
3128.000000;3.041898
3127.000000;3.084378
3126.000000;3.179266
3125.000000;3.348092
3124.000000;3.659648
3123.000000;4.016914
3122.000000;3.632011
3121.000000;3.494955
3120.000000;3.652069
3119.000000;3.999544
3118.000000;3.552811
3117.000000;3.335148
3116.000000;3.279594
3115.000000;3.335098
3114.000000;3.446283
3113.000000;3.444515
3112.000000;3.406605
3111.000000;3.472348
3110.000000;3.659816
3109.000000;3.688561
3108.000000;3.411205
3107.000000;3.232103
3106.000000;3.207897
3105.000000;3.331489
3104.000000;3.586767
3103.000000;4.069100
3102.000000;3.961336
3101.000000;3.511599
3100.000000;3.282780
3099.000000;3.125843
3098.000000;3.000841
3097.000000;2.888513
3096.000000;2.803884
3095.000000;2.785298
3094.000000;2.844450
3093.000000;2.969834
3092.000000;3.144903
3091.000000;3.399670
3090.000000;3.787210
3089.000000;3.910097
3088.000000;3.848435
3087.000000;3.591301
3086.000000;3.393346
3085.000000;3.375310
3084.000000;3.446036
3083.000000;3.502253
3082.000000;3.400622
3081.000000;3.223415
3080.000000;3.107935
3079.000000;3.075426
3078.000000;3.122871
3077.000000;3.246628
3076.000000;3.521657
3075.000000;3.880125
3074.000000;3.536252
3073.000000;3.393730
3072.000000;3.546374
3071.000000;3.911595
3070.000000;3.808090
3069.000000;3.895044
3068.000000;4.483044
3067.000000;3.800891
3066.000000;3.626422
3065.000000;3.549428
3064.000000;3.470345
3063.000000;3.450425
3062.000000;3.587625
3061.000000;3.931619
3060.000000;3.865924
3059.000000;3.707827
3058.000000;3.732412
3057.000000;3.763714
3056.000000;3.643921
3055.000000;3.436442
3054.000000;3.344740
3053.000000;3.389295
3052.000000;3.583439
3051.000000;3.770661
3050.000000;3.563720
3049.000000;3.414839
3048.000000;3.450503
3047.000000;3.395163
3046.000000;3.261966
3045.000000;3.225652
3044.000000;3.276835
3043.000000;3.325253
3042.000000;3.330994
3041.000000;3.339463
3040.000000;3.273562
3039.000000;3.229214
3038.000000;3.332443
3037.000000;3.550508
3036.000000;3.584369
3035.000000;3.354828
3034.000000;3.098219
3033.000000;2.986222
3032.000000;3.017773
3031.000000;3.181320
3030.000000;3.523722
3029.000000;3.864564
3028.000000;3.661643
3027.000000;3.612700
3026.000000;3.842934
3025.000000;3.581490
3024.000000;3.298607
3023.000000;3.280801
3022.000000;3.674991
3021.000000;3.824580
3020.000000;3.452619
3019.000000;3.462691
3018.000000;3.383590
3017.000000;3.250016
3016.000000;3.279035
3015.000000;3.426823
3014.000000;3.328457
3013.000000;3.134299
3012.000000;3.073148
3011.000000;3.181579
3010.000000;3.489625
3009.000000;3.410617
3008.000000;3.176623
3007.000000;3.125036
3006.000000;3.157156
3005.000000;3.244578
3004.000000;3.347308
3003.000000;3.452075
3002.000000;3.560399
3001.000000;3.374480
3000.000000;3.109655
2999.000000;2.974932
2998.000000;2.932163
2997.000000;2.979581
2996.000000;3.126837
2995.000000;3.374058
2994.000000;3.866461
2993.000000;3.448015
2992.000000;3.124346
2991.000000;3.026989
2990.000000;3.068109
2989.000000;3.238340
2988.000000;3.412999
2987.000000;3.370730
2986.000000;3.241353
2985.000000;3.192010
2984.000000;3.245174
2983.000000;3.282579
2982.000000;3.117814
2981.000000;2.968122
2980.000000;2.930911
2979.000000;2.997440
2978.000000;3.124413
2977.000000;3.254452
2976.000000;3.452793
2975.000000;3.881460
2974.000000;4.814038
2973.000000;3.990246
2972.000000;3.385008
2971.000000;3.127437
2970.000000;3.058105
2969.000000;3.133012
2968.000000;3.325698
2967.000000;3.608319
2966.000000;3.607641
2965.000000;3.360420
2964.000000;3.196122
2963.000000;3.120899
2962.000000;3.135770
2961.000000;3.245345
2960.000000;3.464981
2959.000000;3.875826
2958.000000;3.867103
2957.000000;3.562033
2956.000000;3.480516
2955.000000;3.540264
2954.000000;3.685019
2953.000000;3.887565
2952.000000;4.102216
2951.000000;3.868584
2950.000000;3.714777
2949.000000;3.907237
2948.000000;3.814143
2947.000000;3.649942
2946.000000;3.687780
2945.000000;3.375350
2944.000000;3.152827
2943.000000;3.100754
2942.000000;3.158141
2941.000000;3.264914
2940.000000;3.344711
2939.000000;3.392204
2938.000000;3.380689
2937.000000;3.337381
2936.000000;3.316003
2935.000000;3.315336
2934.000000;3.310828
2933.000000;3.308645
2932.000000;3.331742
2931.000000;3.395419
2930.000000;3.498464
2929.000000;3.726264
2928.000000;4.149178
2927.000000;3.549915
2926.000000;3.323430
2925.000000;3.276522
2924.000000;3.269794
2923.000000;3.193637
2922.000000;3.151921
2921.000000;3.137668
2920.000000;3.146801
2919.000000;3.246619
2918.000000;3.785870
2917.000000;3.695185
2916.000000;3.393689
2915.000000;3.530719
2914.000000;3.579977
2913.000000;3.612318
2912.000000;3.631850
2911.000000;3.702011
2910.000000;3.622121
2909.000000;3.399406
2908.000000;3.307814
2907.000000;3.389660
2906.000000;3.943365
2905.000000;3.581486
2904.000000;3.384558
2903.000000;3.594804
2902.000000;4.207136
2901.000000;3.506699
2900.000000;3.372141
2899.000000;3.263293
2898.000000;3.196981
2897.000000;3.214634
2896.000000;3.391408
2895.000000;3.497754
2894.000000;3.412816
2893.000000;3.522125
2892.000000;3.497224
2891.000000;3.306241
2890.000000;3.188546
2889.000000;3.130972
2888.000000;3.175544
2887.000000;3.323687
2886.000000;3.502632
2885.000000;3.684864
2884.000000;4.010753
2883.000000;3.989575
2882.000000;3.689211
2881.000000;3.500125
2880.000000;3.379297
2879.000000;3.292269
2878.000000;3.238384
2877.000000;3.271548
2876.000000;3.512277
2875.000000;3.861589
2874.000000;3.569839
2873.000000;3.697413
2872.000000;3.796997
2871.000000;3.447532
2870.000000;3.199332
2869.000000;3.100580
2868.000000;3.104472
2867.000000;3.127967
2866.000000;3.123427
2865.000000;3.119729
2864.000000;3.139041
2863.000000;3.164762
2862.000000;3.180755
2861.000000;3.239902
2860.000000;3.392284
2859.000000;3.525046
2858.000000;3.411879
2857.000000;3.213447
2856.000000;3.074407
2855.000000;2.986737
2854.000000;2.949195
2853.000000;2.993764
2852.000000;3.150385
2851.000000;3.406857
2850.000000;3.656082
2849.000000;4.083525
2848.000000;4.445522
2847.000000;3.773956
2846.000000;3.368690
2845.000000;3.165573
2844.000000;3.108643
2843.000000;3.120545
2842.000000;3.104582
2841.000000;3.077851
2840.000000;3.130483
2839.000000;3.363051
2838.000000;3.724310
2837.000000;3.412752
2836.000000;3.178344
2835.000000;3.136374
2834.000000;3.195651
2833.000000;3.323539
2832.000000;3.434496
2831.000000;3.494631
2830.000000;3.598568
2829.000000;3.779944
2828.000000;4.714268
2827.000000;3.894263
2826.000000;3.743505
2825.000000;3.869236
2824.000000;3.996066
2823.000000;3.993019
2822.000000;3.680381
2821.000000;3.416334
2820.000000;3.289696
2819.000000;3.301617
2818.000000;3.413309
2817.000000;3.787927
2816.000000;4.055702
2815.000000;3.411401
2814.000000;3.217154
2813.000000;3.128382
2812.000000;3.127155
2811.000000;3.163490
2810.000000;3.217876
2809.000000;3.293440
2808.000000;3.392345
2807.000000;3.790715
2806.000000;3.713161
2805.000000;3.369375
2804.000000;3.329469
2803.000000;3.547788
2802.000000;3.740037
2801.000000;3.398561
2800.000000;3.260044
2799.000000;3.245321
2798.000000;3.265264
2797.000000;3.255866
2796.000000;3.215112
2795.000000;3.215625
2794.000000;3.284635
2793.000000;3.333671
2792.000000;3.249766
2791.000000;3.129714
2790.000000;3.095740
2789.000000;3.188801
2788.000000;3.409764
2787.000000;3.707427
2786.000000;3.864250
2785.000000;3.749346
2784.000000;3.706292
2783.000000;3.848947
2782.000000;4.129640
2781.000000;4.105361
2780.000000;4.034960
2779.000000;4.139511
2778.000000;3.996221
2777.000000;3.622012
2776.000000;3.383717
2775.000000;3.340702
2774.000000;3.567988
2773.000000;3.687901
2772.000000;3.342277
2771.000000;3.248025
2770.000000;3.340004
2769.000000;3.628544
2768.000000;3.822781
2767.000000;3.650524
2766.000000;3.433841
2765.000000;3.321059
2764.000000;3.358727
2763.000000;3.570018
2762.000000;3.983290
2761.000000;3.568765
2760.000000;3.238847
2759.000000;3.139304
2758.000000;3.151233
2757.000000;3.253942
2756.000000;3.371024
2755.000000;3.415987
2754.000000;3.331126
2753.000000;3.165561
2752.000000;3.051322
2751.000000;3.028298
2750.000000;3.081020
2749.000000;3.166593
2748.000000;3.232970
2747.000000;3.284344
2746.000000;3.349329
2745.000000;3.419329
2744.000000;3.491261
2743.000000;3.558638
2742.000000;3.554039
2741.000000;3.549430
2740.000000;3.643290
2739.000000;3.793324
2738.000000;3.626306
2737.000000;3.405265
2736.000000;3.340092
2735.000000;3.495505
2734.000000;3.660510
2733.000000;3.460578
2732.000000;3.525936
2731.000000;3.768919
2730.000000;3.673896
2729.000000;3.789521
2728.000000;4.125190
2727.000000;3.761816
2726.000000;3.634698
2725.000000;3.636838
2724.000000;3.532962
2723.000000;3.428637
2722.000000;3.430638
2721.000000;3.538845
2720.000000;3.626313
2719.000000;3.591976
2718.000000;3.390534
2717.000000;3.176878
2716.000000;3.076879
2715.000000;3.100307
2714.000000;3.242385
2713.000000;3.468082
2712.000000;3.688839
2711.000000;3.833173
2710.000000;3.676731
2709.000000;3.472656
2708.000000;3.379517
2707.000000;3.349199
2706.000000;3.281661
2705.000000;3.223434
2704.000000;3.297615
2703.000000;3.658443
2702.000000;3.744191
2701.000000;3.549099
2700.000000;3.544126
2699.000000;3.439958
2698.000000;3.387454
2697.000000;3.445254
2696.000000;3.632579
2695.000000;4.013860
2694.000000;4.317855
2693.000000;3.837455
2692.000000;3.601112
2691.000000;3.489082
2690.000000;3.462333
2689.000000;3.520453
2688.000000;3.466378
2687.000000;3.349243
2686.000000;3.276448
2685.000000;3.210719
2684.000000;3.223910
2683.000000;3.362546
2682.000000;3.552670
2681.000000;3.553767
2680.000000;3.467372
2679.000000;3.523271
2678.000000;3.522646
2677.000000;3.308974
2676.000000;3.208812
2675.000000;3.280126
2674.000000;3.487148
2673.000000;3.654704
2672.000000;3.597469
2671.000000;3.533394
2670.000000;3.641441
2669.000000;3.675494
2668.000000;3.459412
2667.000000;3.250017
2666.000000;3.099028
2665.000000;3.053666
2664.000000;3.142559
2663.000000;3.380003
2662.000000;3.649346
2661.000000;3.776659
2660.000000;4.060030
2659.000000;3.918428
2658.000000;3.658390
2657.000000;3.583775
2656.000000;3.633713
2655.000000;3.768633
2654.000000;3.661003
2653.000000;3.436351
2652.000000;3.352704
2651.000000;3.385003
2650.000000;3.491240
2649.000000;3.563192
2648.000000;3.534235
2647.000000;3.548736
2646.000000;3.744740
2645.000000;3.716244
2644.000000;3.519531
2643.000000;3.469362
2642.000000;3.507951
2641.000000;3.496671
2640.000000;3.361154
2639.000000;3.239128
2638.000000;3.200437
2637.000000;3.266891
2636.000000;3.462105
2635.000000;3.755915
2634.000000;3.673821
2633.000000;3.407037
2632.000000;3.260211
2631.000000;3.238499
2630.000000;3.392306
2629.000000;3.858640
2628.000000;3.796713
2627.000000;3.500563
2626.000000;3.484160
2625.000000;3.512347
2624.000000;3.670849
2623.000000;3.503905
2622.000000;3.281242
2621.000000;3.225790
2620.000000;3.225991
2619.000000;3.242654
2618.000000;3.271505
2617.000000;3.345588
2616.000000;3.461441
2615.000000;3.912508
2614.000000;3.799504
2613.000000;3.364603
2612.000000;3.226323
2611.000000;3.199038
2610.000000;3.220496
2609.000000;3.288896
2608.000000;3.466611
2607.000000;3.802249
2606.000000;3.628346
2605.000000;3.402740
2604.000000;3.416514
2603.000000;3.760623
2602.000000;3.820118
2601.000000;3.442984
2600.000000;3.501761
2599.000000;3.884108
2598.000000;3.961127
2597.000000;3.556234
2596.000000;3.406894
2595.000000;3.289191
2594.000000;3.228097
2593.000000;3.203294
2592.000000;3.179806
2591.000000;3.162071
2590.000000;3.198777
2589.000000;3.329640
2588.000000;3.543443
2587.000000;3.976153
2586.000000;4.156758
2585.000000;3.700862
2584.000000;3.548729
2583.000000;3.600388
2582.000000;3.856310
2581.000000;3.728461
2580.000000;3.471610
2579.000000;3.351329
2578.000000;3.302496
2577.000000;3.330917
2576.000000;3.507929
2575.000000;3.997196
2574.000000;3.859092
2573.000000;3.499952
2572.000000;3.411861
2571.000000;3.430700
2570.000000;3.662858
2569.000000;3.685715
2568.000000;3.523546
2567.000000;3.616671
2566.000000;4.240140
2565.000000;4.281394
2564.000000;3.924215
2563.000000;4.014712
2562.000000;3.693948
2561.000000;3.491117
2560.000000;3.501444
2559.000000;3.754497
2558.000000;4.540656
2557.000000;3.840522
2556.000000;3.627648
2555.000000;3.532564
2554.000000;3.494450
2553.000000;3.560071
2552.000000;3.585251
2551.000000;3.459944
2550.000000;3.319098
2549.000000;3.197958
2548.000000;3.106443
2547.000000;3.068968
2546.000000;3.082220
2545.000000;3.123301
2544.000000;3.195703
2543.000000;3.325521
2542.000000;3.491296
2541.000000;3.703851
2540.000000;3.916995
2539.000000;3.693702
2538.000000;3.528535
2537.000000;3.612966
2536.000000;4.036839
2535.000000;4.493158
2534.000000;4.088895
2533.000000;3.870311
2532.000000;3.793630
2531.000000;3.787193
2530.000000;3.755266
2529.000000;3.716409
2528.000000;3.714184
2527.000000;3.620665
2526.000000;3.455865
2525.000000;3.342658
2524.000000;3.283760
2523.000000;3.272464
2522.000000;3.320470
2521.000000;3.435471
2520.000000;3.467769
2519.000000;3.360948
2518.000000;3.310436
2517.000000;3.351715
2516.000000;3.462030
2515.000000;3.727754
2514.000000;4.217487
2513.000000;3.825128
2512.000000;3.572335
2511.000000;3.576235
2510.000000;3.950768
2509.000000;3.883477
2508.000000;3.414485
2507.000000;3.251063
2506.000000;3.221542
2505.000000;3.283570
2504.000000;3.441457
2503.000000;3.775181
2502.000000;4.354889
2501.000000;3.778608
2500.000000;3.862828
2499.000000;4.695387
2498.000000;3.615123
2497.000000;3.361657
2496.000000;3.248316
2495.000000;3.205849
2494.000000;3.234513
2493.000000;3.344785
2492.000000;3.588384
2491.000000;3.817002
2490.000000;3.722981
2489.000000;3.560718
2488.000000;3.419576
2487.000000;3.374916
2486.000000;3.428532
2485.000000;3.581335
2484.000000;4.082882
2483.000000;3.658010
2482.000000;3.310712
2481.000000;3.212577
2480.000000;3.217998
2479.000000;3.322527
2478.000000;3.571088
2477.000000;4.222343
2476.000000;3.707545
2475.000000;3.411698
2474.000000;3.308065
2473.000000;3.266707
2472.000000;3.282063
2471.000000;3.361210
2470.000000;3.465721
2469.000000;3.420976
2468.000000;3.300774
2467.000000;3.204069
2466.000000;3.191961
2465.000000;3.306113
2464.000000;3.404318
2463.000000;3.371310
2462.000000;3.395089
2461.000000;3.494626
2460.000000;3.726844
2459.000000;4.089666
2458.000000;3.727735
2457.000000;3.575370
2456.000000;3.871092
2455.000000;4.052360
2454.000000;3.763578
2453.000000;3.595488
2452.000000;3.484503
2451.000000;3.483250
2450.000000;3.688468
2449.000000;3.847406
2448.000000;3.484894
2447.000000;3.307250
2446.000000;3.302162
2445.000000;3.425548
2444.000000;3.733979
2443.000000;4.138571
2442.000000;3.950598
2441.000000;3.877156
2440.000000;3.902563
2439.000000;3.721313
2438.000000;3.522420
2437.000000;3.457134
2436.000000;3.545603
2435.000000;3.724522
2434.000000;3.739469
2433.000000;3.637805
2432.000000;3.601078
2431.000000;3.551155
2430.000000;3.483601
2429.000000;3.444398
2428.000000;3.463702
2427.000000;3.561375
2426.000000;3.821563
2425.000000;4.180082
2424.000000;3.628249
2423.000000;3.391713
2422.000000;3.423237
2421.000000;3.757090
2420.000000;4.360867
2419.000000;3.952694
2418.000000;3.932618
2417.000000;3.847218
2416.000000;3.747894
2415.000000;3.715185
2414.000000;3.646148
2413.000000;3.517322
2412.000000;3.441082
2411.000000;3.483987
2410.000000;3.417058
2409.000000;3.292535
2408.000000;3.292585
2407.000000;3.321511
2406.000000;3.315742
2405.000000;3.333750
2404.000000;3.346055
2403.000000;3.312546
2402.000000;3.292825
2401.000000;3.349403
2400.000000;3.464614
2399.000000;3.525472
2398.000000;3.518274
2397.000000;3.566101
2396.000000;3.592794
2395.000000;3.600775
2394.000000;3.669425
2393.000000;3.612367
2392.000000;3.578147
2391.000000;3.660675
2390.000000;3.840686
2389.000000;4.218345
2388.000000;4.880986
2387.000000;4.256905
2386.000000;3.704608
2385.000000;3.532554
2384.000000;3.571402
2383.000000;3.754625
2382.000000;3.824803
2381.000000;3.748491
2380.000000;3.610171
2379.000000;3.422835
2378.000000;3.360849
2377.000000;3.405195
2376.000000;3.534343
2375.000000;3.801651
2374.000000;3.824262
2373.000000;3.634226
2372.000000;3.661661
2371.000000;3.840184
2370.000000;4.113831
2369.000000;4.540011
2368.000000;4.216608
2367.000000;4.026650
2366.000000;3.916143
2365.000000;3.776988
2364.000000;3.696164
2363.000000;3.652175
2362.000000;3.643985
2361.000000;3.687858
2360.000000;3.810281
2359.000000;3.968514
2358.000000;3.989622
2357.000000;3.830832
2356.000000;3.686291
2355.000000;3.624070
2354.000000;3.811179
2353.000000;4.079565
2352.000000;3.932366
2351.000000;3.898756
2350.000000;3.962380
2349.000000;3.972925
2348.000000;3.953013
2347.000000;3.901333
2346.000000;3.967232
2345.000000;4.026723
2344.000000;3.819848
2343.000000;3.652457
2342.000000;3.577853
2341.000000;3.573145
2340.000000;3.648312
2339.000000;3.813948
2338.000000;3.886699
2337.000000;3.803033
2336.000000;3.782820
2335.000000;3.854340
2334.000000;3.821243
2333.000000;3.617269
2332.000000;3.483516
2331.000000;3.481488
2330.000000;3.677947
2329.000000;3.929853
2328.000000;3.727418
2327.000000;3.620107
2326.000000;3.820109
2325.000000;3.958145
2324.000000;3.845209
2323.000000;3.815449
2322.000000;3.729481
2321.000000;3.636214
2320.000000;3.792328
2319.000000;4.396885
2318.000000;3.833278
2317.000000;3.613994
2316.000000;3.771572
2315.000000;3.857282
2314.000000;3.672332
2313.000000;3.551068
2312.000000;3.745668
2311.000000;4.431452
2310.000000;3.895755
2309.000000;3.913281
2308.000000;3.918722
2307.000000;3.534726
2306.000000;3.456407
2305.000000;3.601772
2304.000000;3.760939
2303.000000;3.568252
2302.000000;3.444744
2301.000000;3.442627
2300.000000;3.506757
2299.000000;3.552553
2298.000000;3.499476
2297.000000;3.441088
2296.000000;3.500852
2295.000000;3.857754
2294.000000;3.966146
2293.000000;3.665727
2292.000000;3.574205
2291.000000;3.518451
2290.000000;3.497927
2289.000000;3.527517
2288.000000;3.540358
2287.000000;3.491970
2286.000000;3.456219
2285.000000;3.477080
2284.000000;3.499124
2283.000000;3.475238
2282.000000;3.432199
2281.000000;3.410166
2280.000000;3.429153
2279.000000;3.482361
2278.000000;3.535899
2277.000000;3.560497
2276.000000;3.545706
2275.000000;3.515394
2274.000000;3.516444
2273.000000;3.580177
2272.000000;3.734403
2271.000000;3.900439
2270.000000;3.881279
2269.000000;3.847846
2268.000000;3.899990
2267.000000;3.987367
2266.000000;3.977709
2265.000000;3.729733
2264.000000;3.498690
2263.000000;3.366045
2262.000000;3.323658
2261.000000;3.356118
2260.000000;3.446731
2259.000000;3.570642
2258.000000;3.504276
2257.000000;3.364434
2256.000000;3.372638
2255.000000;3.676851
2254.000000;4.066588
2253.000000;3.717859
2252.000000;3.928916
2251.000000;4.432258
2250.000000;3.883242
2249.000000;3.683177
2248.000000;3.701020
2247.000000;3.914643
2246.000000;3.687173
2245.000000;3.430300
2244.000000;3.397498
2243.000000;3.459811
2242.000000;3.588061
2241.000000;3.700935
2240.000000;3.603860
2239.000000;3.487626
2238.000000;3.469554
2237.000000;3.488112
2236.000000;3.464044
2235.000000;3.375357
2234.000000;3.276949
2233.000000;3.229620
2232.000000;3.261058
2231.000000;3.363996
2230.000000;3.512736
2229.000000;3.690259
2228.000000;4.001371
2227.000000;4.632127
2226.000000;4.366434
2225.000000;3.918021
2224.000000;3.716749
2223.000000;3.680082
2222.000000;3.755523
2221.000000;3.940971
2220.000000;4.044422
2219.000000;4.005646
2218.000000;4.276556
2217.000000;4.291730
2216.000000;3.960431
2215.000000;3.683066
2214.000000;3.504675
2213.000000;3.472909
2212.000000;3.710717
2211.000000;4.245704
2210.000000;3.868607
2209.000000;3.770680
2208.000000;3.685960
2207.000000;3.482167
2206.000000;3.417775
2205.000000;3.445898
2204.000000;3.529192
2203.000000;3.532254
2202.000000;3.450273
2201.000000;3.423837
2200.000000;3.459132
2199.000000;3.777146
2198.000000;4.213662
2197.000000;3.664412
2196.000000;3.578814
2195.000000;3.760236
2194.000000;3.960122
2193.000000;3.839802
2192.000000;3.714944
2191.000000;3.715544
2190.000000;3.643591
2189.000000;3.553203
2188.000000;3.528323
2187.000000;3.604964
2186.000000;3.706197
2185.000000;3.720294
2184.000000;3.558780
2183.000000;3.412861
2182.000000;3.366084
2181.000000;3.462634
2180.000000;3.841454
2179.000000;3.725968
2178.000000;3.363427
2177.000000;3.290426
2176.000000;3.376381
2175.000000;3.572484
2174.000000;3.768294
2173.000000;3.802754
2172.000000;3.757903
2171.000000;3.733433
2170.000000;3.701936
2169.000000;3.644620
2168.000000;3.602803
2167.000000;3.613634
2166.000000;3.633688
2165.000000;3.711848
2164.000000;3.992798
2163.000000;3.888003
2162.000000;3.645301
2161.000000;3.623612
2160.000000;3.868613
2159.000000;4.230088
2158.000000;3.702477
2157.000000;3.459819
2156.000000;3.416610
2155.000000;3.470282
2154.000000;3.617444
2153.000000;3.738363
2152.000000;3.754605
2151.000000;3.693484
2150.000000;3.630045
2149.000000;3.606904
2148.000000;3.603756
2147.000000;3.743067
2146.000000;4.033711
2145.000000;3.863647
2144.000000;3.704751
2143.000000;3.716712
2142.000000;3.722475
2141.000000;3.653785
2140.000000;3.547265
2139.000000;3.458129
2138.000000;3.350860
2137.000000;3.263976
2136.000000;3.258127
2135.000000;3.364320
2134.000000;3.575956
2133.000000;3.845912
2132.000000;3.968249
2131.000000;4.010788
2130.000000;4.429585
2129.000000;4.237332
2128.000000;3.939011
2127.000000;3.951087
2126.000000;4.016839
2125.000000;4.003772
2124.000000;4.227068
2123.000000;4.623412
2122.000000;4.038128
2121.000000;3.928484
2120.000000;3.988490
2119.000000;4.041958
2118.000000;4.160392
2117.000000;4.199379
2116.000000;3.975797
2115.000000;3.734554
2114.000000;3.642670
2113.000000;3.808683
2112.000000;4.278688
2111.000000;3.975578
2110.000000;3.773114
2109.000000;3.771386
2108.000000;3.712907
2107.000000;3.696577
2106.000000;3.696356
2105.000000;3.773858
2104.000000;3.998738
2103.000000;4.133948
2102.000000;3.706278
2101.000000;3.469181
2100.000000;3.384650
2099.000000;3.555690
2098.000000;4.207791
2097.000000;3.718040
2096.000000;3.506804
2095.000000;3.623028
2094.000000;4.027751
2093.000000;4.124557
2092.000000;3.691560
2091.000000;3.625725
2090.000000;3.630333
2089.000000;3.767428
2088.000000;3.942844
2087.000000;3.709634
2086.000000;3.479768
2085.000000;3.403216
2084.000000;3.453348
2083.000000;3.618094
2082.000000;3.852073
2081.000000;3.993974
2080.000000;3.914565
2079.000000;3.727071
2078.000000;3.594059
2077.000000;3.596648
2076.000000;3.770223
2075.000000;3.882447
2074.000000;3.740167
2073.000000;3.679136
2072.000000;3.701998
2071.000000;3.732526
2070.000000;3.756820
2069.000000;3.763557
2068.000000;3.774113
2067.000000;3.764550
2066.000000;3.683058
2065.000000;3.583042
2064.000000;3.540506
2063.000000;3.598660
2062.000000;3.605237
2061.000000;3.423898
2060.000000;3.293003
2059.000000;3.289931
2058.000000;3.400904
2057.000000;3.613829
2056.000000;3.881670
2055.000000;4.204330
2054.000000;4.146372
2053.000000;4.007153
2052.000000;4.297656
2051.000000;4.190080
2050.000000;3.852214
2049.000000;3.857318
2048.000000;3.941286
2047.000000;3.764988
2046.000000;3.559624
2045.000000;3.484517
2044.000000;3.530736
2043.000000;3.789831
2042.000000;4.037449
2041.000000;3.721315
2040.000000;3.603135
2039.000000;3.637645
2038.000000;3.666890
2037.000000;3.580028
2036.000000;3.442729
2035.000000;3.380914
2034.000000;3.431821
2033.000000;3.644036
2032.000000;3.947319
2031.000000;4.374627
2030.000000;4.255409
2029.000000;3.748755
2028.000000;3.490435
2027.000000;3.418334
2026.000000;3.448731
2025.000000;3.645617
2024.000000;4.440912
2023.000000;4.093022
2022.000000;3.818241
2021.000000;3.980178
2020.000000;4.099226
2019.000000;3.940817
2018.000000;3.638144
2017.000000;3.466107
2016.000000;3.431037
2015.000000;3.494729
2014.000000;3.638063
2013.000000;3.931341
2012.000000;3.824645
2011.000000;3.537783
2010.000000;3.453275
2009.000000;3.431374
2008.000000;3.421949
2007.000000;3.421589
2006.000000;3.452047
2005.000000;3.595697
2004.000000;3.759994
2003.000000;3.586137
2002.000000;3.424450
2001.000000;3.411260
2000.000000;3.462210
1999.000000;3.526894
1998.000000;3.601727
1997.000000;3.723625
1996.000000;3.713621
1995.000000;3.620715
1994.000000;3.645668
1993.000000;3.808397
1992.000000;3.972984
1991.000000;4.161400
1990.000000;4.674941
1989.000000;4.120545
1988.000000;3.772235
1987.000000;3.698560
1986.000000;3.715125
1985.000000;3.970988
1984.000000;4.326577
1983.000000;3.809952
1982.000000;3.551503
1981.000000;3.476440
1980.000000;3.510661
1979.000000;3.616797
1978.000000;3.877945
1977.000000;4.139580
1976.000000;3.718687
1975.000000;3.532315
1974.000000;3.581258
1973.000000;3.778165
1972.000000;4.009299
1971.000000;4.075327
1970.000000;4.105798
1969.000000;3.897170
1968.000000;3.665808
1967.000000;3.551224
1966.000000;3.581182
1965.000000;3.747173
1964.000000;3.629619
1963.000000;3.437159
1962.000000;3.423539
1961.000000;3.532661
1960.000000;3.754675
1959.000000;3.894840
1958.000000;3.704621
1957.000000;3.599094
1956.000000;3.659978
1955.000000;3.740455
1954.000000;3.756375
1953.000000;3.871934
1952.000000;4.060985
1951.000000;4.084745
1950.000000;4.055126
1949.000000;4.014307
1948.000000;3.924638
1947.000000;3.875183
1946.000000;3.857125
1945.000000;3.903470
1944.000000;3.864431
1943.000000;3.784395
1942.000000;4.022996
1941.000000;4.074567
1940.000000;3.751277
1939.000000;3.762849
1938.000000;3.836576
1937.000000;3.634821
1936.000000;3.476419
1935.000000;3.436196
1934.000000;3.488930
1933.000000;3.620064
1932.000000;3.763228
1931.000000;3.765053
1930.000000;3.674697
1929.000000;3.605636
1928.000000;3.545269
1927.000000;3.517745
1926.000000;3.592829
1925.000000;3.772371
1924.000000;3.883995
1923.000000;3.833030
1922.000000;3.730162
1921.000000;3.614015
1920.000000;3.464050
1919.000000;3.365476
1918.000000;3.394193
1917.000000;3.518152
1916.000000;3.600904
1915.000000;3.542581
1914.000000;3.423792
1913.000000;3.343830
1912.000000;3.343341
1911.000000;3.438758
1910.000000;3.567445
1909.000000;3.614456
1908.000000;3.596179
1907.000000;3.874323
1906.000000;4.420730
1905.000000;3.718206
1904.000000;3.600361
1903.000000;3.659078
1902.000000;3.676525
1901.000000;3.648108
1900.000000;3.634785
1899.000000;3.687634
1898.000000;3.844228
1897.000000;4.050224
1896.000000;3.816414
1895.000000;3.572316
1894.000000;3.416204
1893.000000;3.340538
1892.000000;3.391678
1891.000000;3.615802
1890.000000;4.047979
1889.000000;4.152113
1888.000000;3.895039
1887.000000;3.724546
1886.000000;3.643402
1885.000000;3.650516
1884.000000;3.729810
1883.000000;3.904970
1882.000000;4.006169
1881.000000;3.878151
1880.000000;3.796384
1879.000000;3.982966
1878.000000;4.118715
1877.000000;3.718478
1876.000000;3.606986
1875.000000;3.719165
1874.000000;3.774604
1873.000000;3.616987
1872.000000;3.556868
1871.000000;3.623361
1870.000000;3.714303
1869.000000;3.669916
1868.000000;3.534451
1867.000000;3.476129
1866.000000;3.557592
1865.000000;3.971011
1864.000000;4.287590
1863.000000;4.055939
1862.000000;4.072651
1861.000000;3.779713
1860.000000;3.576380
1859.000000;3.525939
1858.000000;3.563777
1857.000000;3.657031
1856.000000;3.800141
1855.000000;4.143134
1854.000000;4.861200
1853.000000;4.107893
1852.000000;3.554806
1851.000000;3.320951
1850.000000;3.288003
1849.000000;3.413276
1848.000000;3.641701
1847.000000;3.786682
1846.000000;3.725072
1845.000000;3.686929
1844.000000;3.773107
1843.000000;3.954262
1842.000000;4.139714
1841.000000;4.035229
1840.000000;3.827353
1839.000000;3.698880
1838.000000;3.601942
1837.000000;3.572739
1836.000000;3.604698
1835.000000;3.749882
1834.000000;3.920575
1833.000000;3.992419
1832.000000;4.328356
1831.000000;3.798590
1830.000000;3.499244
1829.000000;3.444292
1828.000000;3.538852
1827.000000;3.742119
1826.000000;3.921466
1825.000000;3.868584
1824.000000;3.601995
1823.000000;3.495597
1822.000000;3.525417
1821.000000;3.623740
1820.000000;3.675728
1819.000000;3.615061
1818.000000;3.563883
1817.000000;3.597982
1816.000000;3.727148
1815.000000;3.919469
1814.000000;4.149145
1813.000000;4.480724
1812.000000;4.265110
1811.000000;3.905331
1810.000000;3.792649
1809.000000;3.791622
1808.000000;3.729919
1807.000000;3.680208
1806.000000;3.703812
1805.000000;3.731022
1804.000000;3.781850
1803.000000;3.855705
1802.000000;3.851284
1801.000000;3.822247
1800.000000;3.818568
1799.000000;3.802496
1798.000000;3.769429
1797.000000;3.854151
1796.000000;4.179417
1795.000000;3.950469
1794.000000;3.652646
1793.000000;3.616193
1792.000000;3.621867
1791.000000;3.618299
1790.000000;3.603651
1789.000000;3.616532
1788.000000;3.794821
1787.000000;3.911701
1786.000000;3.722373
1785.000000;3.683956
1784.000000;3.802823
1783.000000;3.998096
1782.000000;4.194580
1781.000000;4.172388
1780.000000;3.914345
1779.000000;3.688533
1778.000000;3.600265
1777.000000;3.657067
1776.000000;3.812321
1775.000000;3.815172
1774.000000;3.654195
1773.000000;3.538505
1772.000000;3.488051
1771.000000;3.507955
1770.000000;3.642685
1769.000000;3.809777
1768.000000;3.721843
1767.000000;3.630653
1766.000000;3.671359
1765.000000;3.763947
1764.000000;3.720198
1763.000000;3.639100
1762.000000;3.668382
1761.000000;3.874339
1760.000000;4.229419
1759.000000;3.895067
1758.000000;3.710190
1757.000000;3.851376
1756.000000;4.024216
1755.000000;3.988666
1754.000000;3.931672
1753.000000;3.900588
1752.000000;3.872727
1751.000000;3.828674
1750.000000;3.849089
1749.000000;4.079426
1748.000000;4.450282
1747.000000;3.965975
1746.000000;3.753705
1745.000000;3.740651
1744.000000;3.890462
1743.000000;4.067048
1742.000000;4.060565
1741.000000;4.108598
1740.000000;4.163766
1739.000000;4.135876
1738.000000;4.034420
1737.000000;3.928135
1736.000000;3.717987
1735.000000;3.587360
1734.000000;3.652074
1733.000000;3.853369
1732.000000;4.291090
1731.000000;4.832905
1730.000000;4.703531
1729.000000;4.673450
1728.000000;4.248297
1727.000000;3.932085
1726.000000;3.738442
1725.000000;3.626924
1724.000000;3.616491
1723.000000;3.722200
1722.000000;3.932596
1721.000000;3.982949
1720.000000;3.850134
1719.000000;3.805327
1718.000000;3.873630
1717.000000;3.970710
1716.000000;3.856173
1715.000000;3.715817
1714.000000;3.742438
1713.000000;3.920746
1712.000000;3.976757
1711.000000;3.737279
1710.000000;3.544213
1709.000000;3.454011
1708.000000;3.475028
1707.000000;3.622718
1706.000000;3.871818
1705.000000;3.807204
1704.000000;3.558283
1703.000000;3.453552
1702.000000;3.574522
1701.000000;3.783896
1700.000000;3.768204
1699.000000;3.745567
1698.000000;3.709177
1697.000000;3.712578
1696.000000;3.758951
1695.000000;3.749038
1694.000000;3.656104
1693.000000;3.606158
1692.000000;3.711918
1691.000000;4.019220
1690.000000;3.946638
1689.000000;3.696896
1688.000000;3.636256
1687.000000;3.663433
1686.000000;3.762022
1685.000000;4.018309
1684.000000;4.114267
1683.000000;3.782150
1682.000000;3.604940
1681.000000;3.549149
1680.000000;3.587754
1679.000000;3.707280
1678.000000;3.921717
1677.000000;3.954278
1676.000000;3.733095
1675.000000;3.679677
1674.000000;3.778203
1673.000000;4.046980
1672.000000;4.264102
1671.000000;3.879551
1670.000000;3.687172
1669.000000;3.678154
1668.000000;3.911185
1667.000000;4.570230
1666.000000;3.950501
1665.000000;3.998774
1664.000000;4.228449
1663.000000;3.917446
1662.000000;3.946772
1661.000000;4.201261
1660.000000;4.054327
1659.000000;3.843252
1658.000000;4.059439
1657.000000;4.048449
1656.000000;3.652988
1655.000000;3.607301
1654.000000;3.725635
1653.000000;3.890725
1652.000000;4.072258
1651.000000;4.213864
1650.000000;3.985257
1649.000000;3.846542
1648.000000;4.006774
1647.000000;4.356874
1646.000000;4.185573
1645.000000;3.978752
1644.000000;3.925166
1643.000000;4.004989
1642.000000;4.265261
1641.000000;4.369358
1640.000000;4.104016
1639.000000;3.949592
1638.000000;3.957888
1637.000000;4.050669
1636.000000;3.963969
1635.000000;3.947460
1634.000000;4.122009
1633.000000;4.155731
1632.000000;3.969009
1631.000000;3.786214
1630.000000;3.643947
1629.000000;3.605365
1628.000000;3.647912
1627.000000;3.712927
1626.000000;3.772153
1625.000000;3.882265
1624.000000;3.798654
1623.000000;3.596785
1622.000000;3.503196
1621.000000;3.530358
1620.000000;3.715253
1619.000000;4.131167
1618.000000;4.087671
1617.000000;3.995254
1616.000000;3.976850
1615.000000;3.901994
1614.000000;3.828561
1613.000000;3.640867
1612.000000;3.491223
1611.000000;3.493748
1610.000000;3.653073
1609.000000;3.850568
1608.000000;3.805345
1607.000000;3.729035
1606.000000;3.692520
1605.000000;3.682395
1604.000000;3.702212
1603.000000;3.755479
1602.000000;3.895159
1601.000000;4.262901
1600.000000;3.947479
1599.000000;3.614522
1598.000000;3.573380
1597.000000;3.661820
1596.000000;4.156991
1595.000000;4.191757
1594.000000;3.778651
1593.000000;3.724577
1592.000000;3.839878
1591.000000;4.093081
1590.000000;4.044730
1589.000000;3.772829
1588.000000;3.588112
1587.000000;3.476748
1586.000000;3.430129
1585.000000;3.453100
1584.000000;3.545785
1583.000000;3.673879
1582.000000;3.749127
1581.000000;3.706810
1580.000000;3.651903
1579.000000;3.710481
1578.000000;3.910249
1577.000000;4.315052
1576.000000;4.460987
1575.000000;4.070186
1574.000000;3.804670
1573.000000;3.583644
1572.000000;3.456251
1571.000000;3.416943
1570.000000;3.438730
1569.000000;3.515945
1568.000000;3.639507
1567.000000;3.730093
1566.000000;3.709981
1565.000000;3.663112
1564.000000;3.670985
1563.000000;3.741859
1562.000000;3.730116
1561.000000;3.609975
1560.000000;3.583194
1559.000000;3.540900
1558.000000;3.530540
1557.000000;3.647138
1556.000000;3.846305
1555.000000;3.932144
1554.000000;4.090032
1553.000000;3.906489
1552.000000;3.554286
1551.000000;3.420335
1550.000000;3.381390
1549.000000;3.414099
1548.000000;3.518132
1547.000000;3.804653
1546.000000;4.172252
1545.000000;4.102530
1544.000000;4.171861
1543.000000;3.925667
1542.000000;3.762530
1541.000000;3.777508
1540.000000;3.787436
1539.000000;3.729878
1538.000000;3.616894
1537.000000;3.531440
1536.000000;3.532059
1535.000000;3.597270
1534.000000;3.707257
1533.000000;3.908181
1532.000000;4.142270
1531.000000;4.262086
1530.000000;4.512722
1529.000000;4.063711
1528.000000;3.789529
1527.000000;3.690696
1526.000000;3.662178
1525.000000;3.675763
1524.000000;3.795812
1523.000000;3.936350
1522.000000;3.764028
1521.000000;3.620144
1520.000000;3.615079
1519.000000;3.722373
1518.000000;3.918946
1517.000000;4.026341
1516.000000;3.954338
1515.000000;3.821210
1514.000000;3.702311
1513.000000;3.681516
1512.000000;3.852228
1511.000000;4.089980
1510.000000;3.761522
1509.000000;3.645702
1508.000000;3.658893
1507.000000;3.629886
1506.000000;3.643729
1505.000000;3.778954
1504.000000;3.923974
1503.000000;3.763998
1502.000000;3.711716
1501.000000;3.924881
1500.000000;3.990281
1499.000000;3.748711
1498.000000;3.751357
1497.000000;3.813192
1496.000000;3.867501
1495.000000;3.882605
1494.000000;3.839797
1493.000000;3.756452
1492.000000;3.752715
1491.000000;4.127773
1490.000000;4.131886
1489.000000;3.823804
1488.000000;3.795075
1487.000000;3.864067
1486.000000;3.981015
1485.000000;3.992050
1484.000000;3.807379
1483.000000;3.638037
1482.000000;3.584263
1481.000000;3.663998
1480.000000;3.877835
1479.000000;3.787752
1478.000000;3.578361
1477.000000;3.556315
1476.000000;3.725968
1475.000000;3.868060
1474.000000;3.777981
1473.000000;3.965187
1472.000000;3.985795
1471.000000;3.731842
1470.000000;3.675358
1469.000000;3.557279
1468.000000;3.436826
1467.000000;3.426406
1466.000000;3.552989
1465.000000;3.699524
1464.000000;3.708193
1463.000000;3.629438
1462.000000;3.550389
1461.000000;3.583036
1460.000000;3.816771
1459.000000;3.753959
1458.000000;3.687284
1457.000000;3.790551
1456.000000;3.789136
1455.000000;3.813974
1454.000000;3.986257
1453.000000;3.926210
1452.000000;3.905533
1451.000000;4.546368
1450.000000;3.776146
1449.000000;3.554520
1448.000000;3.578602
1447.000000;3.738954
1446.000000;3.866162
1445.000000;3.923608
1444.000000;3.963240
1443.000000;3.995932
1442.000000;4.068915
1441.000000;4.318624
1440.000000;4.805016
1439.000000;4.496411
1438.000000;4.705233
1437.000000;4.321212
1436.000000;4.030523
1435.000000;3.986115
1434.000000;3.949358
1433.000000;3.931460
1432.000000;3.892057
1431.000000;3.792871
1430.000000;3.714075
1429.000000;3.706402
1428.000000;3.757679
1427.000000;3.815876
1426.000000;3.817257
1425.000000;3.848456
1424.000000;3.930817
1423.000000;3.822753
1422.000000;3.649093
1421.000000;3.582367
1420.000000;3.663910
1419.000000;3.831706
1418.000000;3.879086
1417.000000;3.831513
1416.000000;3.762495
1415.000000;3.688434
1414.000000;3.627456
1413.000000;3.573634
1412.000000;3.550980
1411.000000;3.579568
1410.000000;3.667880
1409.000000;3.778133
1408.000000;3.901109
1407.000000;3.925045
1406.000000;4.999855
1405.000000;3.992359
1404.000000;3.584848
1403.000000;3.448352
1402.000000;3.381887
1401.000000;3.388244
1400.000000;3.483547
1399.000000;3.696239
1398.000000;4.089934
1397.000000;4.234482
1396.000000;3.877229
1395.000000;3.779881
1394.000000;3.849539
1393.000000;3.867708
1392.000000;3.683709
1391.000000;3.586368
1390.000000;3.607222
1389.000000;3.677046
1388.000000;3.637735
1387.000000;3.588515
1386.000000;3.637575
1385.000000;3.800831
1384.000000;4.004435
1383.000000;3.794920
1382.000000;3.566569
1381.000000;3.474209
1380.000000;3.455643
1379.000000;3.486355
1378.000000;3.536832
1377.000000;3.573858
1376.000000;3.577971
1375.000000;3.570925
1374.000000;3.563952
1373.000000;3.602303
1372.000000;3.731220
1371.000000;3.862489
1370.000000;3.929041
1369.000000;4.146346
1368.000000;3.912658
1367.000000;3.695169
1366.000000;3.710228
1365.000000;3.860417
1364.000000;3.950886
1363.000000;3.811194
1362.000000;3.620110
1361.000000;3.536926
1360.000000;3.594715
1359.000000;3.629103
1358.000000;3.457722
1357.000000;3.349742
1356.000000;3.397320
1355.000000;3.583562
1354.000000;3.609770
1353.000000;3.523949
1352.000000;3.576937
1351.000000;3.656931
1350.000000;3.612091
1349.000000;3.558422
1348.000000;3.518861
1347.000000;3.479789
1346.000000;3.492234
1345.000000;3.566806
1344.000000;3.677549
1343.000000;3.805129
1342.000000;3.899807
1341.000000;3.798954
1340.000000;3.610785
1339.000000;3.480370
1338.000000;3.445150
1337.000000;3.516157
1336.000000;3.755842
1335.000000;3.882022
1334.000000;3.608214
1333.000000;3.498850
1332.000000;3.498515
1331.000000;3.553707
1330.000000;3.563389
1329.000000;3.439565
1328.000000;3.332145
1327.000000;3.349550
1326.000000;3.504090
1325.000000;3.873375
1324.000000;4.328654
1323.000000;3.850138
1322.000000;3.692814
1321.000000;3.764145
1320.000000;3.801485
1319.000000;3.625551
1318.000000;3.514585
1317.000000;3.467751
1316.000000;3.444774
1315.000000;3.456042
1314.000000;3.531541
1313.000000;3.692114
1312.000000;3.865606
1311.000000;3.782211
1310.000000;3.599253
1309.000000;3.493339
1308.000000;3.474941
1307.000000;3.542554
1306.000000;3.664139
1305.000000;3.725362
1304.000000;3.707352
1303.000000;3.734238
1302.000000;3.798123
1301.000000;3.867248
1300.000000;3.955689
1299.000000;4.463231
1298.000000;3.939323
1297.000000;3.617271
1296.000000;3.549610
1295.000000;3.613624
1294.000000;3.825922
1293.000000;4.674179
1292.000000;4.042266
1291.000000;3.849575
1290.000000;3.943627
1289.000000;4.110978
1288.000000;3.959164
1287.000000;4.123264
1286.000000;4.741214
1285.000000;3.907414
1284.000000;3.818266
1283.000000;3.853128
1282.000000;3.768121
1281.000000;3.595374
1280.000000;3.531311
1279.000000;3.609704
1278.000000;3.667401
1277.000000;3.534644
1276.000000;3.476591
1275.000000;3.535286
1274.000000;3.591984
1273.000000;3.589833
1272.000000;3.582256
1271.000000;3.596304
1270.000000;3.605658
1269.000000;3.582850
1268.000000;3.575255
1267.000000;3.648798
1266.000000;3.821512
1265.000000;3.966543
1264.000000;4.030196
1263.000000;4.032313
1262.000000;4.046933
1261.000000;4.223369
1260.000000;4.010456
1259.000000;3.779266
1258.000000;3.697100
1257.000000;3.728197
1256.000000;3.817470
1255.000000;3.685640
1254.000000;3.508141
1253.000000;3.472666
1252.000000;3.553536
1251.000000;3.638785
1250.000000;3.620899
1249.000000;3.611478
1248.000000;3.676016
1247.000000;3.845886
1246.000000;4.155360
1245.000000;4.353152
1244.000000;4.129493
1243.000000;3.788797
1242.000000;3.567345
1241.000000;3.466467
1240.000000;3.449134
1239.000000;3.483076
1238.000000;3.544802
1237.000000;3.621025
1236.000000;3.694517
1235.000000;3.734199
1234.000000;3.725818
1233.000000;3.691913
1232.000000;3.604436
1231.000000;3.495251
1230.000000;3.475628
1229.000000;3.602508
1228.000000;3.939438
1227.000000;4.152139
1226.000000;3.922042
1225.000000;3.815956
1224.000000;3.826650
1223.000000;3.890910
1222.000000;3.791057
1221.000000;3.736363
1220.000000;3.732281
1219.000000;3.629505
1218.000000;3.576266
1217.000000;3.636732
1216.000000;3.768120
1215.000000;3.964612
1214.000000;4.219931
1213.000000;4.063408
1212.000000;3.865003
1211.000000;3.801088
1210.000000;3.846614
1209.000000;3.981727
1208.000000;3.994042
1207.000000;3.772475
1206.000000;3.596142
1205.000000;3.513308
1204.000000;3.503718
1203.000000;3.531258
1202.000000;3.575658
1201.000000;3.635328
1200.000000;3.705375
