Criado como novo conjunto de dados;"1909daniel.spp","-4263103.7 Secs"
cm-1;Abs
10000.000000;1.800401
9999.000000;1.794809
9998.000000;1.789357
9997.000000;1.786615
9996.000000;1.787894
9995.000000;1.791541
9994.000000;1.794256
9993.000000;1.793565
9992.000000;1.790362
9991.000000;1.787830
9990.000000;1.788502
9989.000000;1.791999
9988.000000;1.795617
9987.000000;1.796795
9986.000000;1.794981
9985.000000;1.791343
9984.000000;1.787423
9983.000000;1.784374
9982.000000;1.782788
9981.000000;1.782432
9980.000000;1.782247
9979.000000;1.781282
9978.000000;1.779726
9977.000000;1.778605
9976.000000;1.778489
9975.000000;1.779034
9974.000000;1.779767
9973.000000;1.780567
9972.000000;1.781111
9971.000000;1.780696
9970.000000;1.779160
9969.000000;1.777439
9968.000000;1.776575
9967.000000;1.776541
9966.000000;1.776606
9965.000000;1.776462
9964.000000;1.776435
9963.000000;1.776858
9962.000000;1.777473
9961.000000;1.777497
9960.000000;1.776232
9959.000000;1.773622
9958.000000;1.770401
9957.000000;1.767532
9956.000000;1.765304
9955.000000;1.763287
9954.000000;1.761435
9953.000000;1.760517
9952.000000;1.761005
9951.000000;1.762234
9950.000000;1.763184
9949.000000;1.763594
9948.000000;1.763653
9947.000000;1.763142
9946.000000;1.761774
9945.000000;1.760082
9944.000000;1.759000
9943.000000;1.758481
9942.000000;1.757482
9941.000000;1.755555
9940.000000;1.753573
9939.000000;1.752475
9938.000000;1.752047
9937.000000;1.751517
9936.000000;1.750914
9935.000000;1.751092
9934.000000;1.752441
9933.000000;1.754245
9932.000000;1.755609
9931.000000;1.756743
9930.000000;1.758576
9929.000000;1.761066
9928.000000;1.762601
9927.000000;1.761423
9926.000000;1.757496
9925.000000;1.752485
9924.000000;1.748064
9923.000000;1.745031
9922.000000;1.743893
9921.000000;1.744982
9920.000000;1.747248
9919.000000;1.748078
9918.000000;1.745823
9917.000000;1.742100
9916.000000;1.740076
9915.000000;1.740716
9914.000000;1.741919
9913.000000;1.741357
9912.000000;1.739003
9911.000000;1.736284
9910.000000;1.734058
9909.000000;1.732449
9908.000000;1.731793
9907.000000;1.732484
9906.000000;1.733941
9905.000000;1.734619
9904.000000;1.733413
9903.000000;1.730714
9902.000000;1.727917
9901.000000;1.726221
9900.000000;1.725965
9899.000000;1.726750
9898.000000;1.727848
9897.000000;1.728588
9896.000000;1.728663
9895.000000;1.728330
9894.000000;1.728281
9893.000000;1.728694
9892.000000;1.728467
9891.000000;1.726221
9890.000000;1.722096
9889.000000;1.717919
9888.000000;1.715404
9887.000000;1.714546
9886.000000;1.714096
9885.000000;1.713231
9884.000000;1.712165
9883.000000;1.711453
9882.000000;1.711405
9881.000000;1.712024
9880.000000;1.712782
9879.000000;1.712550
9878.000000;1.710645
9877.000000;1.708080
9876.000000;1.706973
9875.000000;1.708401
9874.000000;1.711274
9873.000000;1.713420
9872.000000;1.713377
9871.000000;1.711102
9870.000000;1.707630
9869.000000;1.704354
9868.000000;1.702033
9867.000000;1.700121
9866.000000;1.697521
9865.000000;1.694310
9864.000000;1.692186
9863.000000;1.692794
9862.000000;1.695994
9861.000000;1.700036
9860.000000;1.703063
9859.000000;1.704227
9858.000000;1.703877
9857.000000;1.703177
9856.000000;1.703137
9855.000000;1.703375
9854.000000;1.702059
9853.000000;1.697854
9852.000000;1.691932
9851.000000;1.687397
9850.000000;1.686577
9849.000000;1.689048
9848.000000;1.692052
9847.000000;1.692709
9846.000000;1.690172
9845.000000;1.685957
9844.000000;1.682366
9843.000000;1.680700
9842.000000;1.680695
9841.000000;1.681246
9840.000000;1.681424
9839.000000;1.681069
9838.000000;1.680807
9837.000000;1.681477
9836.000000;1.683228
9835.000000;1.685144
9834.000000;1.685998
9833.000000;1.685402
9832.000000;1.683852
9831.000000;1.681814
9830.000000;1.679444
9829.000000;1.677096
9828.000000;1.675337
9827.000000;1.674230
9826.000000;1.673249
9825.000000;1.672399
9824.000000;1.672917
9823.000000;1.676015
9822.000000;1.680970
9821.000000;1.685103
9820.000000;1.685932
9819.000000;1.683132
9818.000000;1.678296
9817.000000;1.673224
9816.000000;1.668764
9815.000000;1.665093
9814.000000;1.662656
9813.000000;1.662436
9812.000000;1.665023
9811.000000;1.669373
9810.000000;1.672871
9809.000000;1.673196
9808.000000;1.670268
9807.000000;1.666139
9806.000000;1.663082
9805.000000;1.661949
9804.000000;1.662147
9803.000000;1.662702
9802.000000;1.663113
9801.000000;1.663306
9800.000000;1.663152
9799.000000;1.662359
9798.000000;1.660855
9797.000000;1.658974
9796.000000;1.657068
9795.000000;1.655248
9794.000000;1.653766
9793.000000;1.653259
9792.000000;1.654056
9791.000000;1.655411
9790.000000;1.656081
9789.000000;1.655727
9788.000000;1.654931
9787.000000;1.653825
9786.000000;1.651835
9785.000000;1.649191
9784.000000;1.647593
9783.000000;1.648405
9782.000000;1.650716
9781.000000;1.652065
9780.000000;1.650919
9779.000000;1.647750
9778.000000;1.644001
9777.000000;1.640952
9776.000000;1.639438
9775.000000;1.639584
9774.000000;1.640537
9773.000000;1.641101
9772.000000;1.640923
9771.000000;1.640601
9770.000000;1.640584
9769.000000;1.640505
9768.000000;1.639759
9767.000000;1.638258
9766.000000;1.636524
9765.000000;1.635507
9764.000000;1.636226
9763.000000;1.638757
9762.000000;1.641442
9761.000000;1.641983
9760.000000;1.639687
9759.000000;1.636110
9758.000000;1.633293
9757.000000;1.631967
9756.000000;1.631638
9755.000000;1.631465
9754.000000;1.630571
9753.000000;1.628411
9752.000000;1.625715
9751.000000;1.624324
9750.000000;1.625182
9749.000000;1.626985
9748.000000;1.627633
9747.000000;1.626645
9746.000000;1.625123
9745.000000;1.623759
9744.000000;1.622303
9743.000000;1.620911
9742.000000;1.620382
9741.000000;1.620602
9740.000000;1.620058
9739.000000;1.617764
9738.000000;1.614797
9737.000000;1.613085
9736.000000;1.613263
9735.000000;1.614365
9734.000000;1.615116
9733.000000;1.614810
9732.000000;1.613295
9731.000000;1.611114
9730.000000;1.609541
9729.000000;1.609578
9728.000000;1.610894
9727.000000;1.612196
9726.000000;1.612580
9725.000000;1.612184
9724.000000;1.611683
9723.000000;1.611517
9722.000000;1.611461
9721.000000;1.610697
9720.000000;1.608655
9719.000000;1.606118
9718.000000;1.604753
9717.000000;1.604960
9716.000000;1.604938
9715.000000;1.602875
9714.000000;1.599530
9713.000000;1.597321
9712.000000;1.597167
9711.000000;1.597648
9710.000000;1.597273
9709.000000;1.596222
9708.000000;1.595386
9707.000000;1.595034
9706.000000;1.595229
9705.000000;1.596386
9704.000000;1.598397
9703.000000;1.599928
9702.000000;1.599551
9701.000000;1.597266
9700.000000;1.594275
9699.000000;1.591773
9698.000000;1.590527
9697.000000;1.590808
9696.000000;1.591834
9695.000000;1.591864
9694.000000;1.589879
9693.000000;1.586881
9692.000000;1.584661
9691.000000;1.583685
9690.000000;1.583095
9689.000000;1.582448
9688.000000;1.582336
9687.000000;1.583212
9686.000000;1.584529
9685.000000;1.585327
9684.000000;1.585106
9683.000000;1.584015
9682.000000;1.582700
9681.000000;1.581947
9680.000000;1.581888
9679.000000;1.581573
9678.000000;1.579979
9677.000000;1.577468
9676.000000;1.575535
9675.000000;1.575006
9674.000000;1.575104
9673.000000;1.574461
9672.000000;1.572502
9671.000000;1.569655
9670.000000;1.566771
9669.000000;1.564678
9668.000000;1.563893
9667.000000;1.564383
9666.000000;1.565660
9665.000000;1.567126
9664.000000;1.568076
9663.000000;1.567668
9662.000000;1.565644
9661.000000;1.563081
9660.000000;1.561642
9659.000000;1.561868
9658.000000;1.562757
9657.000000;1.563219
9656.000000;1.563255
9655.000000;1.563288
9654.000000;1.563048
9653.000000;1.561915
9652.000000;1.560130
9651.000000;1.558901
9650.000000;1.559111
9649.000000;1.560300
9648.000000;1.561124
9647.000000;1.560727
9646.000000;1.559438
9645.000000;1.558104
9644.000000;1.557011
9643.000000;1.555826
9642.000000;1.554487
9641.000000;1.553610
9640.000000;1.553675
9639.000000;1.554308
9638.000000;1.554815
9637.000000;1.555004
9636.000000;1.554913
9635.000000;1.554238
9634.000000;1.552866
9633.000000;1.551642
9632.000000;1.551462
9631.000000;1.551681
9630.000000;1.550709
9629.000000;1.548437
9628.000000;1.546784
9627.000000;1.547262
9626.000000;1.548982
9625.000000;1.549769
9624.000000;1.548647
9623.000000;1.546413
9622.000000;1.544263
9621.000000;1.542789
9620.000000;1.542054
9619.000000;1.541712
9618.000000;1.541038
9617.000000;1.539525
9616.000000;1.537572
9615.000000;1.536137
9614.000000;1.535654
9613.000000;1.535655
9612.000000;1.535467
9611.000000;1.534910
9610.000000;1.534230
9609.000000;1.533675
9608.000000;1.533233
9607.000000;1.532664
9606.000000;1.531803
9605.000000;1.530894
9604.000000;1.530367
9603.000000;1.530172
9602.000000;1.529669
9601.000000;1.528534
9600.000000;1.527470
9599.000000;1.527392
9598.000000;1.528132
9597.000000;1.528654
9596.000000;1.528542
9595.000000;1.528531
9594.000000;1.529271
9593.000000;1.530157
9592.000000;1.529888
9591.000000;1.528022
9590.000000;1.525532
9589.000000;1.523750
9588.000000;1.523028
9587.000000;1.522452
9586.000000;1.520809
9585.000000;1.517939
9584.000000;1.515089
9583.000000;1.513824
9582.000000;1.514597
9581.000000;1.516313
9580.000000;1.517361
9579.000000;1.517059
9578.000000;1.515906
9577.000000;1.514568
9576.000000;1.513089
9575.000000;1.511255
9574.000000;1.509321
9573.000000;1.507886
9572.000000;1.507126
9571.000000;1.506711
9570.000000;1.506476
9569.000000;1.506579
9568.000000;1.506753
9567.000000;1.505989
9566.000000;1.503545
9565.000000;1.500071
9564.000000;1.497200
9563.000000;1.496149
9562.000000;1.497035
9561.000000;1.499200
9560.000000;1.501506
9559.000000;1.502505
9558.000000;1.501333
9557.000000;1.498803
9556.000000;1.496918
9555.000000;1.496879
9554.000000;1.498024
9553.000000;1.498972
9552.000000;1.499244
9551.000000;1.499283
9550.000000;1.499413
9549.000000;1.499544
9548.000000;1.499646
9547.000000;1.499783
9546.000000;1.499659
9545.000000;1.498678
9544.000000;1.496614
9543.000000;1.493888
9542.000000;1.491204
9541.000000;1.489235
9540.000000;1.488563
9539.000000;1.489412
9538.000000;1.491226
9537.000000;1.492735
9536.000000;1.492727
9535.000000;1.490849
9534.000000;1.487711
9533.000000;1.484534
9532.000000;1.482611
9531.000000;1.482469
9530.000000;1.483305
9529.000000;1.483520
9528.000000;1.482108
9527.000000;1.479543
9526.000000;1.477207
9525.000000;1.476121
9524.000000;1.476367
9523.000000;1.477485
9522.000000;1.479080
9521.000000;1.480967
9520.000000;1.482918
9519.000000;1.484446
9518.000000;1.484945
9517.000000;1.484102
9516.000000;1.482217
9515.000000;1.480121
9514.000000;1.478692
9513.000000;1.478280
9512.000000;1.478396
9511.000000;1.478065
9510.000000;1.476754
9509.000000;1.474989
9508.000000;1.473833
9507.000000;1.473684
9506.000000;1.473768
9505.000000;1.472998
9504.000000;1.471138
9503.000000;1.468876
9502.000000;1.466977
9501.000000;1.465758
9500.000000;1.465358
9499.000000;1.466053
9498.000000;1.467900
9497.000000;1.470140
9496.000000;1.471474
9495.000000;1.471179
9494.000000;1.469768
9493.000000;1.468334
9492.000000;1.467435
9491.000000;1.466819
9490.000000;1.466124
9489.000000;1.465485
9488.000000;1.465242
9487.000000;1.465309
9486.000000;1.465121
9485.000000;1.464181
9484.000000;1.462522
9483.000000;1.460653
9482.000000;1.459196
9481.000000;1.458522
9480.000000;1.458543
9479.000000;1.458768
9478.000000;1.458649
9477.000000;1.457913
9476.000000;1.456548
9475.000000;1.454617
9474.000000;1.452311
9473.000000;1.450121
9472.000000;1.448728
9471.000000;1.448591
9470.000000;1.449707
9469.000000;1.451700
9468.000000;1.453913
9467.000000;1.455458
9466.000000;1.455494
9465.000000;1.453720
9464.000000;1.450677
9463.000000;1.447447
9462.000000;1.445029
9461.000000;1.443935
9460.000000;1.444112
9459.000000;1.445064
9458.000000;1.446070
9457.000000;1.446445
9456.000000;1.445754
9455.000000;1.443962
9454.000000;1.441505
9453.000000;1.439160
9452.000000;1.437690
9451.000000;1.437461
9450.000000;1.438311
9449.000000;1.439689
9448.000000;1.440932
9447.000000;1.441595
9446.000000;1.441626
9445.000000;1.441123
9444.000000;1.439961
9443.000000;1.437930
9442.000000;1.435365
9441.000000;1.433292
9440.000000;1.432640
9439.000000;1.433424
9438.000000;1.434891
9437.000000;1.436318
9436.000000;1.437343
9435.000000;1.437676
9434.000000;1.437036
9433.000000;1.435412
9432.000000;1.433033
9431.000000;1.430078
9430.000000;1.426850
9429.000000;1.424213
9428.000000;1.423289
9427.000000;1.424427
9426.000000;1.426679
9425.000000;1.428524
9424.000000;1.429012
9423.000000;1.428113
9422.000000;1.426260
9421.000000;1.423995
9420.000000;1.421943
9419.000000;1.420679
9418.000000;1.420487
9417.000000;1.421370
9416.000000;1.423164
9415.000000;1.425465
9414.000000;1.427521
9413.000000;1.428490
9412.000000;1.427872
9411.000000;1.425635
9410.000000;1.422128
9409.000000;1.418129
9408.000000;1.414904
9407.000000;1.413738
9406.000000;1.415010
9405.000000;1.417680
9404.000000;1.419864
9403.000000;1.420207
9402.000000;1.418752
9401.000000;1.416507
9400.000000;1.414396
9399.000000;1.412861
9398.000000;1.412235
9397.000000;1.412954
9396.000000;1.415012
9395.000000;1.417399
9394.000000;1.418556
9393.000000;1.417562
9392.000000;1.414729
9391.000000;1.411173
9390.000000;1.408135
9389.000000;1.406613
9388.000000;1.407054
9387.000000;1.408962
9386.000000;1.410984
9385.000000;1.411785
9384.000000;1.410981
9383.000000;1.409212
9382.000000;1.407403
9381.000000;1.406027
9380.000000;1.404931
9379.000000;1.403762
9378.000000;1.402534
9377.000000;1.401661
9376.000000;1.401404
9375.000000;1.401403
9374.000000;1.401021
9373.000000;1.400109
9372.000000;1.399129
9371.000000;1.398449
9370.000000;1.397868
9369.000000;1.396941
9368.000000;1.395503
9367.000000;1.393758
9366.000000;1.392138
9365.000000;1.391240
9364.000000;1.391596
9363.000000;1.393118
9362.000000;1.394817
9361.000000;1.395416
9360.000000;1.394451
9359.000000;1.392739
9358.000000;1.391713
9357.000000;1.392243
9356.000000;1.393842
9355.000000;1.394937
9354.000000;1.394157
9353.000000;1.391584
9352.000000;1.388676
9351.000000;1.386894
9350.000000;1.386504
9349.000000;1.386688
9348.000000;1.386567
9347.000000;1.385874
9346.000000;1.384790
9345.000000;1.383475
9344.000000;1.382013
9343.000000;1.380730
9342.000000;1.380306
9341.000000;1.381286
9340.000000;1.383423
9339.000000;1.385691
9338.000000;1.387183
9337.000000;1.387831
9336.000000;1.387952
9335.000000;1.387323
9334.000000;1.385359
9333.000000;1.382316
9332.000000;1.379648
9331.000000;1.378665
9330.000000;1.379158
9329.000000;1.379860
9328.000000;1.380146
9327.000000;1.380617
9326.000000;1.381882
9325.000000;1.383363
9324.000000;1.383717
9323.000000;1.382273
9322.000000;1.379644
9321.000000;1.376963
9320.000000;1.374961
9319.000000;1.373862
9318.000000;1.373730
9317.000000;1.374470
9316.000000;1.375534
9315.000000;1.376077
9314.000000;1.375655
9313.000000;1.374597
9312.000000;1.373499
9311.000000;1.372561
9310.000000;1.371680
9309.000000;1.370978
9308.000000;1.370770
9307.000000;1.371023
9306.000000;1.371255
9305.000000;1.371140
9304.000000;1.370900
9303.000000;1.370903
9302.000000;1.371144
9301.000000;1.371331
9300.000000;1.371281
9299.000000;1.371006
9298.000000;1.370449
9297.000000;1.369346
9296.000000;1.367463
9295.000000;1.364939
9294.000000;1.362377
9293.000000;1.360574
9292.000000;1.360034
9291.000000;1.360656
9290.000000;1.361896
9289.000000;1.363184
9288.000000;1.364131
9287.000000;1.364498
9286.000000;1.364222
9285.000000;1.363430
9284.000000;1.362230
9283.000000;1.360595
9282.000000;1.358753
9281.000000;1.357564
9280.000000;1.358029
9279.000000;1.360215
9278.000000;1.362908
9277.000000;1.364525
9276.000000;1.364252
9275.000000;1.362270
9274.000000;1.359311
9273.000000;1.356310
9272.000000;1.354072
9271.000000;1.352838
9270.000000;1.352277
9269.000000;1.352124
9268.000000;1.352546
9267.000000;1.353565
9266.000000;1.354458
9265.000000;1.354373
9264.000000;1.353427
9263.000000;1.352634
9262.000000;1.352682
9261.000000;1.353221
9260.000000;1.353458
9259.000000;1.353034
9258.000000;1.352143
9257.000000;1.351142
9256.000000;1.350324
9255.000000;1.349873
9254.000000;1.349771
9253.000000;1.349835
9252.000000;1.349981
9251.000000;1.350308
9250.000000;1.350765
9249.000000;1.350930
9248.000000;1.350392
9247.000000;1.349256
9246.000000;1.347949
9245.000000;1.346627
9244.000000;1.345148
9243.000000;1.343621
9242.000000;1.342483
9241.000000;1.341832
9240.000000;1.341149
9239.000000;1.340133
9238.000000;1.339530
9237.000000;1.340473
9236.000000;1.342945
9235.000000;1.345534
9234.000000;1.346959
9233.000000;1.347287
9232.000000;1.347220
9231.000000;1.346838
9230.000000;1.345745
9229.000000;1.344015
9228.000000;1.342109
9227.000000;1.340044
9226.000000;1.337603
9225.000000;1.335410
9224.000000;1.334813
9223.000000;1.336267
9222.000000;1.338577
9221.000000;1.340261
9220.000000;1.341085
9219.000000;1.341598
9218.000000;1.341716
9217.000000;1.340794
9216.000000;1.338868
9215.000000;1.336860
9214.000000;1.335442
9213.000000;1.334467
9212.000000;1.333664
9211.000000;1.333239
9210.000000;1.333428
9209.000000;1.333894
9208.000000;1.334026
9207.000000;1.333591
9206.000000;1.332794
9205.000000;1.331849
9204.000000;1.330822
9203.000000;1.329803
9202.000000;1.328981
9201.000000;1.328472
9200.000000;1.328169
9199.000000;1.327787
9198.000000;1.327084
9197.000000;1.326142
9196.000000;1.325384
9195.000000;1.325179
9194.000000;1.325427
9193.000000;1.325776
9192.000000;1.326175
9191.000000;1.326923
9190.000000;1.328061
9189.000000;1.329080
9188.000000;1.329435
9187.000000;1.329097
9186.000000;1.328347
9185.000000;1.327297
9184.000000;1.325970
9183.000000;1.324677
9182.000000;1.323829
9181.000000;1.323453
9180.000000;1.323305
9179.000000;1.323443
9178.000000;1.324209
9177.000000;1.325516
9176.000000;1.326566
9175.000000;1.326612
9174.000000;1.325694
9173.000000;1.324366
9172.000000;1.322992
9171.000000;1.321709
9170.000000;1.320852
9169.000000;1.320803
9168.000000;1.321345
9167.000000;1.321750
9166.000000;1.321720
9165.000000;1.321777
9164.000000;1.322321
9163.000000;1.322663
9162.000000;1.321629
9161.000000;1.319136
9160.000000;1.316558
9159.000000;1.315316
9158.000000;1.315507
9157.000000;1.316139
9156.000000;1.316322
9155.000000;1.315819
9154.000000;1.314786
9153.000000;1.313593
9152.000000;1.312880
9151.000000;1.313207
9150.000000;1.314398
9149.000000;1.315512
9148.000000;1.315702
9147.000000;1.314908
9146.000000;1.313588
9145.000000;1.312134
9144.000000;1.310928
9143.000000;1.310640
9142.000000;1.311803
9141.000000;1.313951
9140.000000;1.315691
9139.000000;1.315933
9138.000000;1.314811
9137.000000;1.313227
9136.000000;1.311869
9135.000000;1.310942
9134.000000;1.310432
9133.000000;1.310193
9132.000000;1.309936
9131.000000;1.309544
9130.000000;1.309316
9129.000000;1.309515
9128.000000;1.309744
9127.000000;1.309240
9126.000000;1.307886
9125.000000;1.306520
9124.000000;1.306060
9123.000000;1.306593
9122.000000;1.307435
9121.000000;1.307801
9120.000000;1.307299
9119.000000;1.306071
9118.000000;1.304697
9117.000000;1.303798
9116.000000;1.303510
9115.000000;1.303476
9114.000000;1.303480
9113.000000;1.303810
9112.000000;1.304762
9111.000000;1.306014
9110.000000;1.306788
9109.000000;1.306623
9108.000000;1.305777
9107.000000;1.304871
9106.000000;1.304309
9105.000000;1.304036
9104.000000;1.303684
9103.000000;1.302948
9102.000000;1.301863
9101.000000;1.300687
9100.000000;1.299607
9099.000000;1.298719
9098.000000;1.298298
9097.000000;1.298681
9096.000000;1.299739
9095.000000;1.300770
9094.000000;1.301153
9093.000000;1.300862
9092.000000;1.300133
9091.000000;1.299023
9090.000000;1.297652
9089.000000;1.296597
9088.000000;1.296482
9087.000000;1.297234
9086.000000;1.298080
9085.000000;1.298283
9084.000000;1.297646
9083.000000;1.296435
9082.000000;1.295205
9081.000000;1.294537
9080.000000;1.294492
9079.000000;1.294364
9078.000000;1.293528
9077.000000;1.292462
9076.000000;1.292334
9075.000000;1.293428
9074.000000;1.294666
9073.000000;1.295037
9072.000000;1.294967
9071.000000;1.295670
9070.000000;1.297456
9069.000000;1.299265
9068.000000;1.299813
9067.000000;1.298812
9066.000000;1.297029
9065.000000;1.295457
9064.000000;1.294504
9063.000000;1.293810
9062.000000;1.292776
9061.000000;1.291319
9060.000000;1.290021
9059.000000;1.289431
9058.000000;1.289401
9057.000000;1.289361
9056.000000;1.289057
9055.000000;1.288675
9054.000000;1.288350
9053.000000;1.287978
9052.000000;1.287575
9051.000000;1.287450
9050.000000;1.287818
9049.000000;1.288469
9048.000000;1.289028
9047.000000;1.289442
9046.000000;1.289960
9045.000000;1.290693
9044.000000;1.291300
9043.000000;1.291174
9042.000000;1.289992
9041.000000;1.288150
9040.000000;1.286531
9039.000000;1.285674
9038.000000;1.285202
9037.000000;1.284271
9036.000000;1.282608
9035.000000;1.280952
9034.000000;1.280349
9033.000000;1.281180
9032.000000;1.282978
9031.000000;1.285012
9030.000000;1.286774
9029.000000;1.287940
9028.000000;1.288195
9027.000000;1.287384
9026.000000;1.285765
9025.000000;1.283959
9024.000000;1.282580
9023.000000;1.281838
9022.000000;1.281508
9021.000000;1.281304
9020.000000;1.281270
9019.000000;1.281658
9018.000000;1.282442
9017.000000;1.283196
9016.000000;1.283581
9015.000000;1.283721
9014.000000;1.283845
9013.000000;1.283740
9012.000000;1.283017
9011.000000;1.281859
9010.000000;1.281002
9009.000000;1.280831
9008.000000;1.280976
9007.000000;1.281062
9006.000000;1.281385
9005.000000;1.282307
9004.000000;1.283258
9003.000000;1.283031
9002.000000;1.281170
9001.000000;1.278614
9000.000000;1.276789
8999.000000;1.276443
8998.000000;1.277379
8997.000000;1.278766
8996.000000;1.279477
8995.000000;1.278636
8994.000000;1.276393
8993.000000;1.274004
8992.000000;1.272744
8991.000000;1.272810
8990.000000;1.273446
8989.000000;1.273973
8988.000000;1.274384
8987.000000;1.274975
8986.000000;1.275781
8985.000000;1.276527
8984.000000;1.276933
8983.000000;1.276873
8982.000000;1.276360
8981.000000;1.275565
8980.000000;1.274877
8979.000000;1.274750
8978.000000;1.275291
8977.000000;1.275989
8976.000000;1.276060
8975.000000;1.275223
8974.000000;1.274049
8973.000000;1.273340
8972.000000;1.273231
8971.000000;1.273138
8970.000000;1.272584
8969.000000;1.271833
8968.000000;1.271511
8967.000000;1.271749
8966.000000;1.271975
8965.000000;1.271643
8964.000000;1.271018
8963.000000;1.271016
8962.000000;1.272130
8961.000000;1.273554
8960.000000;1.273659
8959.000000;1.271629
8958.000000;1.268480
8957.000000;1.266174
8956.000000;1.265835
8955.000000;1.267053
8954.000000;1.268725
8953.000000;1.270083
8952.000000;1.270859
8951.000000;1.271018
8950.000000;1.270758
8949.000000;1.270502
8948.000000;1.270526
8947.000000;1.270659
8946.000000;1.270529
8945.000000;1.269915
8944.000000;1.268752
8943.000000;1.267112
8942.000000;1.265454
8941.000000;1.264598
8940.000000;1.264991
8939.000000;1.266118
8938.000000;1.266995
8937.000000;1.267204
8936.000000;1.267154
8935.000000;1.267399
8934.000000;1.268016
8933.000000;1.268669
8932.000000;1.268982
8931.000000;1.268795
8930.000000;1.268206
8929.000000;1.267379
8928.000000;1.266288
8927.000000;1.264867
8926.000000;1.263520
8925.000000;1.263109
8924.000000;1.264062
8923.000000;1.265660
8922.000000;1.266635
8921.000000;1.266490
8920.000000;1.265862
8919.000000;1.265629
8918.000000;1.266052
8917.000000;1.266796
8916.000000;1.267342
8915.000000;1.267228
8914.000000;1.266280
8913.000000;1.264810
8912.000000;1.263408
8911.000000;1.262370
8910.000000;1.261512
8909.000000;1.260626
8908.000000;1.259866
8907.000000;1.259553
8906.000000;1.259762
8905.000000;1.260298
8904.000000;1.260993
8903.000000;1.261842
8902.000000;1.262822
8901.000000;1.263668
8900.000000;1.263949
8899.000000;1.263422
8898.000000;1.262331
8897.000000;1.261268
8896.000000;1.260704
8895.000000;1.260756
8894.000000;1.261343
8893.000000;1.262240
8892.000000;1.262917
8891.000000;1.262699
8890.000000;1.261440
8889.000000;1.259840
8888.000000;1.258779
8887.000000;1.258503
8886.000000;1.258708
8885.000000;1.259159
8884.000000;1.259786
8883.000000;1.260304
8882.000000;1.260286
8881.000000;1.259704
8880.000000;1.259015
8879.000000;1.258631
8878.000000;1.258559
8877.000000;1.258557
8876.000000;1.258360
8875.000000;1.257868
8874.000000;1.257404
8873.000000;1.257617
8872.000000;1.258648
8871.000000;1.259527
8870.000000;1.259087
8869.000000;1.257578
8868.000000;1.256628
8867.000000;1.257336
8866.000000;1.259043
8865.000000;1.260298
8864.000000;1.260490
8863.000000;1.260035
8862.000000;1.259439
8861.000000;1.258884
8860.000000;1.258519
8859.000000;1.258503
8858.000000;1.258690
8857.000000;1.258705
8856.000000;1.258360
8855.000000;1.257770
8854.000000;1.257139
8853.000000;1.256670
8852.000000;1.256589
8851.000000;1.256943
8850.000000;1.257431
8849.000000;1.257723
8848.000000;1.257865
8847.000000;1.258148
8846.000000;1.258703
8845.000000;1.259485
8844.000000;1.260440
8843.000000;1.261333
8842.000000;1.261549
8841.000000;1.260595
8840.000000;1.258818
8839.000000;1.257192
8838.000000;1.256308
8837.000000;1.255930
8836.000000;1.255565
8835.000000;1.255044
8834.000000;1.254424
8833.000000;1.253808
8832.000000;1.253569
8831.000000;1.254332
8830.000000;1.256234
8829.000000;1.258359
8828.000000;1.259356
8827.000000;1.258715
8826.000000;1.257141
8825.000000;1.255682
8824.000000;1.254817
8823.000000;1.254498
8822.000000;1.254680
8821.000000;1.255497
8820.000000;1.256874
8819.000000;1.258239
8818.000000;1.258845
8817.000000;1.258441
8816.000000;1.257526
8815.000000;1.256795
8814.000000;1.256423
8813.000000;1.256077
8812.000000;1.255638
8811.000000;1.255613
8810.000000;1.256530
8809.000000;1.258098
8808.000000;1.259348
8807.000000;1.259711
8806.000000;1.259644
8805.000000;1.259950
8804.000000;1.260742
8803.000000;1.261334
8802.000000;1.261083
8801.000000;1.260091
8800.000000;1.259034
8799.000000;1.258473
8798.000000;1.258460
8797.000000;1.258659
8796.000000;1.258696
8795.000000;1.258421
8794.000000;1.257932
8793.000000;1.257403
8792.000000;1.256928
8791.000000;1.256592
8790.000000;1.256652
8789.000000;1.257439
8788.000000;1.258938
8787.000000;1.260556
8786.000000;1.261489
8785.000000;1.261332
8784.000000;1.260309
8783.000000;1.259035
8782.000000;1.258188
8781.000000;1.258273
8780.000000;1.259337
8779.000000;1.260788
8778.000000;1.261717
8777.000000;1.261623
8776.000000;1.260772
8775.000000;1.259795
8774.000000;1.259123
8773.000000;1.258954
8772.000000;1.259525
8771.000000;1.260968
8770.000000;1.262826
8769.000000;1.264102
8768.000000;1.264085
8767.000000;1.263042
8766.000000;1.261911
8765.000000;1.261411
8764.000000;1.261577
8763.000000;1.261988
8762.000000;1.262194
8761.000000;1.261977
8760.000000;1.261551
8759.000000;1.261552
8758.000000;1.262530
8757.000000;1.264257
8756.000000;1.265733
8755.000000;1.266087
8754.000000;1.265392
8753.000000;1.264439
8752.000000;1.263873
8751.000000;1.263776
8750.000000;1.263933
8749.000000;1.264146
8748.000000;1.264261
8747.000000;1.264148
8746.000000;1.263821
8745.000000;1.263501
8744.000000;1.263497
8743.000000;1.264051
8742.000000;1.265178
8741.000000;1.266501
8740.000000;1.267341
8739.000000;1.267220
8738.000000;1.266337
8737.000000;1.265395
8736.000000;1.264928
8735.000000;1.264936
8734.000000;1.265125
8733.000000;1.265267
8732.000000;1.265290
8731.000000;1.265272
8730.000000;1.265420
8729.000000;1.265851
8728.000000;1.266317
8727.000000;1.266346
8726.000000;1.265825
8725.000000;1.265251
8724.000000;1.265268
8723.000000;1.266068
8722.000000;1.267270
8721.000000;1.268191
8720.000000;1.268267
8719.000000;1.267531
8718.000000;1.266759
8717.000000;1.266840
8716.000000;1.267856
8715.000000;1.268984
8714.000000;1.269447
8713.000000;1.269330
8712.000000;1.269268
8711.000000;1.269645
8710.000000;1.270408
8709.000000;1.271339
8708.000000;1.272065
8707.000000;1.271985
8706.000000;1.270740
8705.000000;1.268795
8704.000000;1.267187
8703.000000;1.266606
8702.000000;1.266940
8701.000000;1.267663
8700.000000;1.268367
8699.000000;1.268836
8698.000000;1.268934
8697.000000;1.268698
8696.000000;1.268407
8695.000000;1.268402
8694.000000;1.268882
8693.000000;1.269869
8692.000000;1.271172
8691.000000;1.272336
8690.000000;1.272795
8689.000000;1.272272
8688.000000;1.271062
8687.000000;1.269859
8686.000000;1.269272
8685.000000;1.269420
8684.000000;1.269895
8683.000000;1.270115
8682.000000;1.269795
8681.000000;1.269097
8680.000000;1.268366
8679.000000;1.267838
8678.000000;1.267601
8677.000000;1.267712
8676.000000;1.268202
8675.000000;1.269084
8674.000000;1.270419
8673.000000;1.272201
8672.000000;1.274044
8671.000000;1.275141
8670.000000;1.274852
8669.000000;1.273293
8668.000000;1.271191
8667.000000;1.269307
8666.000000;1.268165
8665.000000;1.268099
8664.000000;1.269052
8663.000000;1.270318
8662.000000;1.270980
8661.000000;1.270889
8660.000000;1.270866
8659.000000;1.271601
8658.000000;1.272677
8657.000000;1.273040
8656.000000;1.272252
8655.000000;1.270938
8654.000000;1.270038
8653.000000;1.269965
8652.000000;1.270542
8651.000000;1.271418
8650.000000;1.272291
8649.000000;1.272871
8648.000000;1.272930
8647.000000;1.272453
8646.000000;1.271638
8645.000000;1.270691
8644.000000;1.269721
8643.000000;1.268871
8642.000000;1.268445
8641.000000;1.268694
8640.000000;1.269500
8639.000000;1.270417
8638.000000;1.271104
8637.000000;1.271590
8636.000000;1.272042
8635.000000;1.272410
8634.000000;1.272466
8633.000000;1.272148
8632.000000;1.271694
8631.000000;1.271403
8630.000000;1.271330
8629.000000;1.271258
8628.000000;1.270942
8627.000000;1.270403
8626.000000;1.269935
8625.000000;1.269774
8624.000000;1.269782
8623.000000;1.269553
8622.000000;1.268849
8621.000000;1.267854
8620.000000;1.267032
8619.000000;1.266851
8618.000000;1.267542
8617.000000;1.268848
8616.000000;1.270001
8615.000000;1.270319
8614.000000;1.269956
8613.000000;1.269713
8612.000000;1.269959
8611.000000;1.270147
8610.000000;1.269683
8609.000000;1.268826
8608.000000;1.268247
8607.000000;1.268058
8606.000000;1.267904
8605.000000;1.267791
8604.000000;1.268066
8603.000000;1.268570
8602.000000;1.268601
8601.000000;1.267989
8600.000000;1.267530
8599.000000;1.267915
8598.000000;1.268751
8597.000000;1.269125
8596.000000;1.268800
8595.000000;1.268265
8594.000000;1.267858
8593.000000;1.267459
8592.000000;1.266998
8591.000000;1.266678
8590.000000;1.266558
8589.000000;1.266377
8588.000000;1.266000
8587.000000;1.265746
8586.000000;1.266023
8585.000000;1.266805
8584.000000;1.267626
8583.000000;1.267970
8582.000000;1.267578
8581.000000;1.266575
8580.000000;1.265514
8579.000000;1.265162
8578.000000;1.265933
8577.000000;1.267451
8576.000000;1.268778
8575.000000;1.269166
8574.000000;1.268603
8573.000000;1.267645
8572.000000;1.266857
8571.000000;1.266418
8570.000000;1.266118
8569.000000;1.265638
8568.000000;1.264957
8567.000000;1.264557
8566.000000;1.265055
8565.000000;1.266437
8564.000000;1.267758
8563.000000;1.267909
8562.000000;1.266769
8561.000000;1.265328
8560.000000;1.264601
8559.000000;1.264684
8558.000000;1.264976
8557.000000;1.264977
8556.000000;1.264579
8555.000000;1.263798
8554.000000;1.262684
8553.000000;1.261556
8552.000000;1.260951
8551.000000;1.261121
8550.000000;1.261737
8549.000000;1.262250
8548.000000;1.262460
8547.000000;1.262651
8546.000000;1.263185
8545.000000;1.264003
8544.000000;1.264536
8543.000000;1.264162
8542.000000;1.262850
8541.000000;1.261368
8540.000000;1.260740
8539.000000;1.261443
8538.000000;1.263103
8537.000000;1.264895
8536.000000;1.266089
8535.000000;1.266320
8534.000000;1.265630
8533.000000;1.264451
8532.000000;1.263444
8531.000000;1.263126
8530.000000;1.263536
8529.000000;1.264213
8528.000000;1.264500
8527.000000;1.263926
8526.000000;1.262500
8525.000000;1.260741
8524.000000;1.259361
8523.000000;1.258809
8522.000000;1.259057
8521.000000;1.259774
8520.000000;1.260607
8519.000000;1.261313
8518.000000;1.261778
8517.000000;1.262015
8516.000000;1.262110
8515.000000;1.262114
8514.000000;1.261979
8513.000000;1.261644
8512.000000;1.261129
8511.000000;1.260527
8510.000000;1.259943
8509.000000;1.259450
8508.000000;1.259106
8507.000000;1.258979
8506.000000;1.259168
8505.000000;1.259755
8504.000000;1.260672
8503.000000;1.261659
8502.000000;1.262408
8501.000000;1.262777
8500.000000;1.262827
8499.000000;1.262660
8498.000000;1.262294
8497.000000;1.261730
8496.000000;1.261080
8495.000000;1.260615
8494.000000;1.260622
8493.000000;1.261131
8492.000000;1.261713
8491.000000;1.261728
8490.000000;1.260934
8489.000000;1.259807
8488.000000;1.259080
8487.000000;1.258955
8486.000000;1.258906
8485.000000;1.258273
8484.000000;1.256978
8483.000000;1.255623
8482.000000;1.255005
8481.000000;1.255537
8480.000000;1.256978
8479.000000;1.258581
8478.000000;1.259616
8477.000000;1.259865
8476.000000;1.259640
8475.000000;1.259355
8474.000000;1.259184
8473.000000;1.259101
8472.000000;1.259071
8471.000000;1.259127
8470.000000;1.259312
8469.000000;1.259613
8468.000000;1.259883
8467.000000;1.259884
8466.000000;1.259551
8465.000000;1.259177
8464.000000;1.259096
8463.000000;1.259130
8462.000000;1.258674
8461.000000;1.257509
8460.000000;1.256259
8459.000000;1.255727
8458.000000;1.255984
8457.000000;1.256448
8456.000000;1.256718
8455.000000;1.256847
8454.000000;1.256842
8453.000000;1.256491
8452.000000;1.255893
8451.000000;1.255660
8450.000000;1.256159
8449.000000;1.256892
8448.000000;1.257095
8447.000000;1.256722
8446.000000;1.256313
8445.000000;1.256034
8444.000000;1.255487
8443.000000;1.254594
8442.000000;1.254034
8441.000000;1.254436
8440.000000;1.255526
8439.000000;1.256429
8438.000000;1.256616
8437.000000;1.256233
8436.000000;1.255697
8435.000000;1.255373
8434.000000;1.255533
8433.000000;1.256202
8432.000000;1.256945
8431.000000;1.257130
8430.000000;1.256546
8429.000000;1.255632
8428.000000;1.255008
8427.000000;1.254902
8426.000000;1.255005
8425.000000;1.254788
8424.000000;1.254012
8423.000000;1.253099
8422.000000;1.252868
8421.000000;1.253706
8420.000000;1.255016
8419.000000;1.255735
8418.000000;1.255439
8417.000000;1.254735
8416.000000;1.254512
8415.000000;1.255048
8414.000000;1.255872
8413.000000;1.256252
8412.000000;1.255809
8411.000000;1.254846
8410.000000;1.254133
8409.000000;1.254178
8408.000000;1.254697
8407.000000;1.254946
8406.000000;1.254562
8405.000000;1.253870
8404.000000;1.253351
8403.000000;1.253128
8402.000000;1.253072
8401.000000;1.253080
8400.000000;1.253088
8399.000000;1.253056
8398.000000;1.253113
8397.000000;1.253488
8396.000000;1.254153
8395.000000;1.254772
8394.000000;1.255160
8393.000000;1.255492
8392.000000;1.255829
8391.000000;1.255737
8390.000000;1.254723
8389.000000;1.252935
8388.000000;1.251131
8387.000000;1.250066
8386.000000;1.250088
8385.000000;1.251096
8384.000000;1.252534
8383.000000;1.253563
8382.000000;1.253670
8381.000000;1.253170
8380.000000;1.252813
8379.000000;1.252917
8378.000000;1.253144
8377.000000;1.253085
8376.000000;1.252743
8375.000000;1.252378
8374.000000;1.252174
8373.000000;1.252196
8372.000000;1.252448
8371.000000;1.252760
8370.000000;1.252782
8369.000000;1.252324
8368.000000;1.251683
8367.000000;1.251481
8366.000000;1.252098
8365.000000;1.253233
8364.000000;1.254068
8363.000000;1.253997
8362.000000;1.253206
8361.000000;1.252419
8360.000000;1.252090
8359.000000;1.252059
8358.000000;1.251997
8357.000000;1.251860
8356.000000;1.251702
8355.000000;1.251353
8354.000000;1.250696
8353.000000;1.250110
8352.000000;1.250168
8351.000000;1.250855
8350.000000;1.251466
8349.000000;1.251370
8348.000000;1.250646
8347.000000;1.249846
8346.000000;1.249431
8345.000000;1.249539
8344.000000;1.249996
8343.000000;1.250352
8342.000000;1.250122
8341.000000;1.249269
8340.000000;1.248339
8339.000000;1.247905
8338.000000;1.247961
8337.000000;1.248060
8336.000000;1.247985
8335.000000;1.248064
8334.000000;1.248730
8333.000000;1.249944
8332.000000;1.251176
8331.000000;1.251892
8330.000000;1.251928
8329.000000;1.251402
8328.000000;1.250473
8327.000000;1.249361
8326.000000;1.248494
8325.000000;1.248350
8324.000000;1.248997
8323.000000;1.249927
8322.000000;1.250478
8321.000000;1.250384
8320.000000;1.249824
8319.000000;1.249108
8318.000000;1.248520
8317.000000;1.248364
8316.000000;1.248815
8315.000000;1.249622
8314.000000;1.250116
8313.000000;1.249709
8312.000000;1.248422
8311.000000;1.246959
8310.000000;1.246202
8309.000000;1.246504
8308.000000;1.247330
8307.000000;1.247719
8306.000000;1.247249
8305.000000;1.246483
8304.000000;1.246318
8303.000000;1.247036
8302.000000;1.248148
8301.000000;1.249013
8300.000000;1.249295
8299.000000;1.248913
8298.000000;1.247938
8297.000000;1.246676
8296.000000;1.245571
8295.000000;1.244894
8294.000000;1.244663
8293.000000;1.244849
8292.000000;1.245351
8291.000000;1.245735
8290.000000;1.245429
8289.000000;1.244445
8288.000000;1.243604
8287.000000;1.243670
8286.000000;1.244443
8285.000000;1.245042
8284.000000;1.245003
8283.000000;1.244755
8282.000000;1.244960
8281.000000;1.245707
8280.000000;1.246509
8279.000000;1.246897
8278.000000;1.246809
8277.000000;1.246454
8276.000000;1.245987
8275.000000;1.245361
8274.000000;1.244493
8273.000000;1.243562
8272.000000;1.243046
8271.000000;1.243306
8270.000000;1.244090
8269.000000;1.244641
8268.000000;1.244467
8267.000000;1.243969
8266.000000;1.244055
8265.000000;1.245089
8264.000000;1.246391
8263.000000;1.246921
8262.000000;1.246385
8261.000000;1.245425
8260.000000;1.244780
8259.000000;1.244574
8258.000000;1.244496
8257.000000;1.244375
8256.000000;1.244287
8255.000000;1.244260
8254.000000;1.244194
8253.000000;1.244097
8252.000000;1.244103
8251.000000;1.244165
8250.000000;1.243971
8249.000000;1.243337
8248.000000;1.242562
8247.000000;1.242193
8246.000000;1.242487
8245.000000;1.243219
8244.000000;1.243964
8243.000000;1.244413
8242.000000;1.244430
8241.000000;1.244013
8240.000000;1.243343
8239.000000;1.242770
8238.000000;1.242577
8237.000000;1.242717
8236.000000;1.242896
8235.000000;1.242965
8234.000000;1.243080
8233.000000;1.243394
8232.000000;1.243729
8231.000000;1.243771
8230.000000;1.243527
8229.000000;1.243335
8228.000000;1.243361
8227.000000;1.243375
8226.000000;1.243151
8225.000000;1.242846
8224.000000;1.242759
8223.000000;1.242851
8222.000000;1.242802
8221.000000;1.242465
8220.000000;1.241988
8219.000000;1.241527
8218.000000;1.241121
8217.000000;1.240888
8216.000000;1.241049
8215.000000;1.241578
8214.000000;1.242059
8213.000000;1.242052
8212.000000;1.241503
8211.000000;1.240705
8210.000000;1.240028
8209.000000;1.239798
8208.000000;1.240212
8207.000000;1.241110
8206.000000;1.241925
8205.000000;1.242099
8204.000000;1.241603
8203.000000;1.240936
8202.000000;1.240642
8201.000000;1.240900
8200.000000;1.241502
8199.000000;1.242035
8198.000000;1.242106
8197.000000;1.241590
8196.000000;1.240779
8195.000000;1.240180
8194.000000;1.240073
8193.000000;1.240288
8192.000000;1.240451
8191.000000;1.240371
8190.000000;1.240112
8189.000000;1.239796
8188.000000;1.239504
8187.000000;1.239388
8186.000000;1.239702
8185.000000;1.240521
8184.000000;1.241466
8183.000000;1.241894
8182.000000;1.241463
8181.000000;1.240441
8180.000000;1.239388
8179.000000;1.238642
8178.000000;1.238243
8177.000000;1.238227
8176.000000;1.238717
8175.000000;1.239630
8174.000000;1.240495
8173.000000;1.240780
8172.000000;1.240370
8171.000000;1.239600
8170.000000;1.238861
8169.000000;1.238326
8168.000000;1.238019
8167.000000;1.237939
8166.000000;1.237998
8165.000000;1.237987
8164.000000;1.237757
8163.000000;1.237421
8162.000000;1.237283
8161.000000;1.237599
8160.000000;1.238422
8159.000000;1.239529
8158.000000;1.240379
8157.000000;1.240322
8156.000000;1.239172
8155.000000;1.237552
8154.000000;1.236412
8153.000000;1.236110
8152.000000;1.236200
8151.000000;1.236139
8150.000000;1.235935
8149.000000;1.235892
8148.000000;1.236049
8147.000000;1.236196
8146.000000;1.236269
8145.000000;1.236344
8144.000000;1.236335
8143.000000;1.236113
8142.000000;1.235881
8141.000000;1.236033
8140.000000;1.236557
8139.000000;1.236948
8138.000000;1.236872
8137.000000;1.236545
8136.000000;1.236264
8135.000000;1.235959
8134.000000;1.235555
8133.000000;1.235449
8132.000000;1.236131
8131.000000;1.237414
8130.000000;1.238442
8129.000000;1.238541
8128.000000;1.237793
8127.000000;1.236759
8126.000000;1.235911
8125.000000;1.235439
8124.000000;1.235333
8123.000000;1.235443
8122.000000;1.235580
8121.000000;1.235684
8120.000000;1.235852
8119.000000;1.236152
8118.000000;1.236492
8117.000000;1.236721
8116.000000;1.236800
8115.000000;1.236839
8114.000000;1.236972
8113.000000;1.237210
8112.000000;1.237384
8111.000000;1.237308
8110.000000;1.237036
8109.000000;1.236854
8108.000000;1.236882
8107.000000;1.236800
8106.000000;1.236191
8105.000000;1.235167
8104.000000;1.234399
8103.000000;1.234451
8102.000000;1.235229
8101.000000;1.236145
8100.000000;1.236656
8099.000000;1.236555
8098.000000;1.235937
8097.000000;1.235126
8096.000000;1.234545
8095.000000;1.234463
8094.000000;1.234767
8093.000000;1.235051
8092.000000;1.234999
8091.000000;1.234660
8090.000000;1.234360
8089.000000;1.234386
8088.000000;1.234747
8087.000000;1.235196
8086.000000;1.235421
8085.000000;1.235232
8084.000000;1.234609
8083.000000;1.233693
8082.000000;1.232775
8081.000000;1.232225
8080.000000;1.232265
8079.000000;1.232752
8078.000000;1.233276
8077.000000;1.233561
8076.000000;1.233724
8075.000000;1.234043
8074.000000;1.234511
8073.000000;1.234754
8072.000000;1.234497
8071.000000;1.233970
8070.000000;1.233692
8069.000000;1.233830
8068.000000;1.233960
8067.000000;1.233585
8066.000000;1.232810
8065.000000;1.232277
8064.000000;1.232425
8063.000000;1.232992
8062.000000;1.233329
8061.000000;1.233077
8060.000000;1.232416
8059.000000;1.231746
8058.000000;1.231331
8057.000000;1.231244
8056.000000;1.231499
8055.000000;1.232093
8054.000000;1.232929
8053.000000;1.233758
8052.000000;1.234289
8051.000000;1.234389
8050.000000;1.234194
8049.000000;1.233957
8048.000000;1.233786
8047.000000;1.233591
8046.000000;1.233303
8045.000000;1.233023
8044.000000;1.232877
8043.000000;1.232794
8042.000000;1.232584
8041.000000;1.232192
8040.000000;1.231793
8039.000000;1.231615
8038.000000;1.231745
8037.000000;1.232095
8036.000000;1.232484
8035.000000;1.232739
8034.000000;1.232779
8033.000000;1.232628
8032.000000;1.232318
8031.000000;1.231816
8030.000000;1.231119
8029.000000;1.230384
8028.000000;1.229873
8027.000000;1.229726
8026.000000;1.229854
8025.000000;1.230081
8024.000000;1.230361
8023.000000;1.230760
8022.000000;1.231218
8021.000000;1.231427
8020.000000;1.231064
8019.000000;1.230183
8018.000000;1.229275
8017.000000;1.228871
8016.000000;1.229121
8015.000000;1.229772
8014.000000;1.230454
8013.000000;1.230907
8012.000000;1.231040
8011.000000;1.230960
8010.000000;1.230928
8009.000000;1.231096
8008.000000;1.231291
8007.000000;1.231232
8006.000000;1.231000
8005.000000;1.231048
8004.000000;1.231609
8003.000000;1.232302
8002.000000;1.232481
8001.000000;1.231909
8000.000000;1.230903
7999.000000;1.229945
7998.000000;1.229341
7997.000000;1.229205
7996.000000;1.229532
7995.000000;1.230225
7994.000000;1.231076
7993.000000;1.231723
7992.000000;1.231725
7991.000000;1.230901
7990.000000;1.229722
7989.000000;1.229130
7988.000000;1.229689
7987.000000;1.230954
7986.000000;1.231868
7985.000000;1.231795
7984.000000;1.231019
7983.000000;1.230267
7982.000000;1.230001
7981.000000;1.230190
7980.000000;1.230540
7979.000000;1.230786
7978.000000;1.230821
7977.000000;1.230673
7976.000000;1.230410
7975.000000;1.230083
7974.000000;1.229773
7973.000000;1.229590
7972.000000;1.229573
7971.000000;1.229650
7970.000000;1.229755
7969.000000;1.229901
7968.000000;1.230056
7967.000000;1.230055
7966.000000;1.229792
7965.000000;1.229409
7964.000000;1.229150
7963.000000;1.229071
7962.000000;1.229014
7961.000000;1.228824
7960.000000;1.228475
7959.000000;1.228095
7958.000000;1.227988
7957.000000;1.228488
7956.000000;1.229542
7955.000000;1.230559
7954.000000;1.230939
7953.000000;1.230733
7952.000000;1.230490
7951.000000;1.230506
7950.000000;1.230578
7949.000000;1.230497
7948.000000;1.230379
7947.000000;1.230368
7946.000000;1.230338
7945.000000;1.230154
7944.000000;1.229978
7943.000000;1.230059
7942.000000;1.230339
7941.000000;1.230502
7940.000000;1.230326
7939.000000;1.229832
7938.000000;1.229182
7937.000000;1.228600
7936.000000;1.228301
7935.000000;1.228357
7934.000000;1.228648
7933.000000;1.229011
7932.000000;1.229339
7931.000000;1.229494
7930.000000;1.229322
7929.000000;1.228909
7928.000000;1.228606
7927.000000;1.228605
7926.000000;1.228647
7925.000000;1.228404
7924.000000;1.228032
7923.000000;1.228023
7922.000000;1.228540
7921.000000;1.229218
7920.000000;1.229656
7919.000000;1.229825
7918.000000;1.229890
7917.000000;1.229883
7916.000000;1.229753
7915.000000;1.229561
7914.000000;1.229424
7913.000000;1.229338
7912.000000;1.229203
7911.000000;1.229008
7910.000000;1.228872
7909.000000;1.228913
7908.000000;1.229160
7907.000000;1.229569
7906.000000;1.230041
7905.000000;1.230440
7904.000000;1.230652
7903.000000;1.230633
7902.000000;1.230374
7901.000000;1.229851
7900.000000;1.229115
7899.000000;1.228432
7898.000000;1.228194
7897.000000;1.228582
7896.000000;1.229327
7895.000000;1.229898
7894.000000;1.229973
7893.000000;1.229663
7892.000000;1.229267
7891.000000;1.228898
7890.000000;1.228478
7889.000000;1.228035
7888.000000;1.227796
7887.000000;1.227921
7886.000000;1.228278
7885.000000;1.228623
7884.000000;1.228928
7883.000000;1.229322
7882.000000;1.229760
7881.000000;1.229953
7880.000000;1.229742
7879.000000;1.229373
7878.000000;1.229227
7877.000000;1.229377
7876.000000;1.229566
7875.000000;1.229580
7874.000000;1.229487
7873.000000;1.229457
7872.000000;1.229503
7871.000000;1.229503
7870.000000;1.229396
7869.000000;1.229233
7868.000000;1.229065
7867.000000;1.228890
7866.000000;1.228701
7865.000000;1.228537
7864.000000;1.228443
7863.000000;1.228425
7862.000000;1.228468
7861.000000;1.228579
7860.000000;1.228803
7859.000000;1.229172
7858.000000;1.229621
7857.000000;1.229952
7856.000000;1.229997
7855.000000;1.229856
7854.000000;1.229885
7853.000000;1.230321
7852.000000;1.230929
7851.000000;1.231150
7850.000000;1.230670
7849.000000;1.229782
7848.000000;1.229142
7847.000000;1.229226
7846.000000;1.229965
7845.000000;1.230821
7844.000000;1.231198
7843.000000;1.230891
7842.000000;1.230234
7841.000000;1.229762
7840.000000;1.229709
7839.000000;1.229870
7838.000000;1.229940
7837.000000;1.229864
7836.000000;1.229813
7835.000000;1.229930
7834.000000;1.230229
7833.000000;1.230636
7832.000000;1.231004
7831.000000;1.231120
7830.000000;1.230884
7829.000000;1.230499
7828.000000;1.230350
7827.000000;1.230613
7826.000000;1.231065
7825.000000;1.231301
7824.000000;1.231124
7823.000000;1.230676
7822.000000;1.230267
7821.000000;1.230137
7820.000000;1.230341
7819.000000;1.230763
7818.000000;1.231204
7817.000000;1.231491
7816.000000;1.231579
7815.000000;1.231569
7814.000000;1.231601
7813.000000;1.231691
7812.000000;1.231675
7811.000000;1.231383
7810.000000;1.230878
7809.000000;1.230437
7808.000000;1.230280
7807.000000;1.230384
7806.000000;1.230601
7805.000000;1.230847
7804.000000;1.231094
7803.000000;1.231250
7802.000000;1.231214
7801.000000;1.231022
7800.000000;1.230847
7799.000000;1.230818
7798.000000;1.230958
7797.000000;1.231277
7796.000000;1.231797
7795.000000;1.232393
7794.000000;1.232747
7793.000000;1.232581
7792.000000;1.231946
7791.000000;1.231227
7790.000000;1.230842
7789.000000;1.230963
7788.000000;1.231471
7787.000000;1.232131
7786.000000;1.232766
7785.000000;1.233318
7784.000000;1.233788
7783.000000;1.234152
7782.000000;1.234327
7781.000000;1.234206
7780.000000;1.233733
7779.000000;1.233018
7778.000000;1.232369
7777.000000;1.232118
7776.000000;1.232336
7775.000000;1.232753
7774.000000;1.233054
7773.000000;1.233197
7772.000000;1.233356
7771.000000;1.233609
7770.000000;1.233846
7769.000000;1.233990
7768.000000;1.234103
7767.000000;1.234175
7766.000000;1.233982
7765.000000;1.233378
7764.000000;1.232650
7763.000000;1.232371
7762.000000;1.232801
7761.000000;1.233559
7760.000000;1.233976
7759.000000;1.233731
7758.000000;1.233118
7757.000000;1.232726
7756.000000;1.232959
7755.000000;1.233797
7754.000000;1.234895
7753.000000;1.235841
7752.000000;1.236376
7751.000000;1.236491
7750.000000;1.236366
7749.000000;1.236207
7748.000000;1.236095
7747.000000;1.235943
7746.000000;1.235630
7745.000000;1.235187
7744.000000;1.234856
7743.000000;1.234928
7742.000000;1.235474
7741.000000;1.236225
7740.000000;1.236744
7739.000000;1.236755
7738.000000;1.236346
7737.000000;1.235862
7736.000000;1.235592
7735.000000;1.235540
7734.000000;1.235467
7733.000000;1.235181
7732.000000;1.234765
7731.000000;1.234519
7730.000000;1.234666
7729.000000;1.235153
7728.000000;1.235720
7727.000000;1.236126
7726.000000;1.236267
7725.000000;1.236149
7724.000000;1.235850
7723.000000;1.235529
7722.000000;1.235377
7721.000000;1.235488
7720.000000;1.235786
7719.000000;1.236136
7718.000000;1.236477
7717.000000;1.236817
7716.000000;1.237131
7715.000000;1.237343
7714.000000;1.237410
7713.000000;1.237349
7712.000000;1.237187
7711.000000;1.236932
7710.000000;1.236644
7709.000000;1.236492
7708.000000;1.236660
7707.000000;1.237130
7706.000000;1.237606
7705.000000;1.237734
7704.000000;1.237487
7703.000000;1.237269
7702.000000;1.237523
7701.000000;1.238256
7700.000000;1.239044
7699.000000;1.239535
7698.000000;1.239766
7697.000000;1.239908
7696.000000;1.239892
7695.000000;1.239516
7694.000000;1.238872
7693.000000;1.238402
7692.000000;1.238459
7691.000000;1.238944
7690.000000;1.239446
7689.000000;1.239649
7688.000000;1.239560
7687.000000;1.239422
7686.000000;1.239510
7685.000000;1.239955
7684.000000;1.240711
7683.000000;1.241659
7682.000000;1.242694
7681.000000;1.243649
7680.000000;1.244247
7679.000000;1.244288
7678.000000;1.243890
7677.000000;1.243396
7676.000000;1.242991
7675.000000;1.242572
7674.000000;1.242042
7673.000000;1.241571
7672.000000;1.241439
7671.000000;1.241690
7670.000000;1.242053
7669.000000;1.242194
7668.000000;1.241982
7667.000000;1.241586
7666.000000;1.241348
7665.000000;1.241514
7664.000000;1.242008
7663.000000;1.242515
7662.000000;1.242807
7661.000000;1.242934
7660.000000;1.243076
7659.000000;1.243316
7658.000000;1.243617
7657.000000;1.243945
7656.000000;1.244315
7655.000000;1.244752
7654.000000;1.245259
7653.000000;1.245768
7652.000000;1.246100
7651.000000;1.246091
7650.000000;1.245827
7649.000000;1.245648
7648.000000;1.245831
7647.000000;1.246332
7646.000000;1.246870
7645.000000;1.247182
7644.000000;1.247125
7643.000000;1.246710
7642.000000;1.246165
7641.000000;1.245870
7640.000000;1.246027
7639.000000;1.246455
7638.000000;1.246820
7637.000000;1.247033
7636.000000;1.247275
7635.000000;1.247691
7634.000000;1.248234
7633.000000;1.248785
7632.000000;1.249229
7631.000000;1.249427
7630.000000;1.249260
7629.000000;1.248796
7628.000000;1.248280
7627.000000;1.247950
7626.000000;1.247923
7625.000000;1.248248
7624.000000;1.248895
7623.000000;1.249658
7622.000000;1.250215
7621.000000;1.250390
7620.000000;1.250292
7619.000000;1.250140
7618.000000;1.250053
7617.000000;1.250057
7616.000000;1.250188
7615.000000;1.250464
7614.000000;1.250796
7613.000000;1.251046
7612.000000;1.251190
7611.000000;1.251359
7610.000000;1.251685
7609.000000;1.252146
7608.000000;1.252562
7607.000000;1.252770
7606.000000;1.252799
7605.000000;1.252878
7604.000000;1.253228
7603.000000;1.253845
7602.000000;1.254493
7601.000000;1.254911
7600.000000;1.255024
7599.000000;1.254977
7598.000000;1.255014
7597.000000;1.255262
7596.000000;1.255591
7595.000000;1.255715
7594.000000;1.255494
7593.000000;1.255116
7592.000000;1.254948
7591.000000;1.255211
7590.000000;1.255840
7589.000000;1.256596
7588.000000;1.257238
7587.000000;1.257622
7586.000000;1.257750
7585.000000;1.257751
7584.000000;1.257771
7583.000000;1.257878
7582.000000;1.258087
7581.000000;1.258431
7580.000000;1.258884
7579.000000;1.259261
7578.000000;1.259355
7577.000000;1.259214
7576.000000;1.259152
7575.000000;1.259415
7574.000000;1.259935
7573.000000;1.260504
7572.000000;1.261034
7571.000000;1.261530
7570.000000;1.261879
7569.000000;1.261922
7568.000000;1.261746
7567.000000;1.261706
7566.000000;1.262055
7565.000000;1.262666
7564.000000;1.263264
7563.000000;1.263803
7562.000000;1.264413
7561.000000;1.265038
7560.000000;1.265377
7559.000000;1.265295
7558.000000;1.265088
7557.000000;1.265166
7556.000000;1.265581
7555.000000;1.266026
7554.000000;1.266267
7553.000000;1.266366
7552.000000;1.266492
7551.000000;1.266682
7550.000000;1.266866
7549.000000;1.267005
7548.000000;1.267141
7547.000000;1.267357
7546.000000;1.267743
7545.000000;1.268321
7544.000000;1.268993
7543.000000;1.269612
7542.000000;1.270107
7541.000000;1.270467
7540.000000;1.270634
7539.000000;1.270597
7538.000000;1.270562
7537.000000;1.270832
7536.000000;1.271415
7535.000000;1.271931
7534.000000;1.272072
7533.000000;1.272001
7532.000000;1.272135
7531.000000;1.272625
7530.000000;1.273226
7529.000000;1.273606
7528.000000;1.273644
7527.000000;1.273489
7526.000000;1.273463
7525.000000;1.273850
7524.000000;1.274631
7523.000000;1.275432
7522.000000;1.275871
7521.000000;1.275951
7520.000000;1.275999
7519.000000;1.276271
7518.000000;1.276748
7517.000000;1.277285
7516.000000;1.277772
7515.000000;1.278161
7514.000000;1.278488
7513.000000;1.278895
7512.000000;1.279486
7511.000000;1.280146
7510.000000;1.280616
7509.000000;1.280772
7508.000000;1.280724
7507.000000;1.280654
7506.000000;1.280707
7505.000000;1.281029
7504.000000;1.281703
7503.000000;1.282512
7502.000000;1.283098
7501.000000;1.283262
7500.000000;1.283197
7499.000000;1.283239
7498.000000;1.283526
7497.000000;1.283991
7496.000000;1.284566
7495.000000;1.285231
7494.000000;1.285902
7493.000000;1.286439
7492.000000;1.286795
7491.000000;1.287075
7490.000000;1.287388
7489.000000;1.287692
7488.000000;1.287846
7487.000000;1.287820
7486.000000;1.287827
7485.000000;1.288197
7484.000000;1.289048
7483.000000;1.290089
7482.000000;1.290815
7481.000000;1.290937
7480.000000;1.290646
7479.000000;1.290429
7478.000000;1.290673
7477.000000;1.291401
7476.000000;1.292326
7475.000000;1.293105
7474.000000;1.293603
7473.000000;1.293969
7472.000000;1.294454
7471.000000;1.295158
7470.000000;1.295935
7469.000000;1.296540
7468.000000;1.296829
7467.000000;1.296842
7466.000000;1.296721
7465.000000;1.296604
7464.000000;1.296594
7463.000000;1.296789
7462.000000;1.297282
7461.000000;1.298070
7460.000000;1.299008
7459.000000;1.299893
7458.000000;1.300615
7457.000000;1.301156
7456.000000;1.301509
7455.000000;1.301662
7454.000000;1.301697
7453.000000;1.301778
7452.000000;1.302000
7451.000000;1.302309
7450.000000;1.302614
7449.000000;1.302898
7448.000000;1.303195
7447.000000;1.303528
7446.000000;1.303895
7445.000000;1.304267
7444.000000;1.304575
7443.000000;1.304783
7442.000000;1.304987
7441.000000;1.305322
7440.000000;1.305770
7439.000000;1.306189
7438.000000;1.306585
7437.000000;1.307125
7436.000000;1.307831
7435.000000;1.308445
7434.000000;1.308759
7433.000000;1.308886
7432.000000;1.309027
7431.000000;1.309152
7430.000000;1.309130
7429.000000;1.309055
7428.000000;1.309183
7427.000000;1.309627
7426.000000;1.310318
7425.000000;1.311193
7424.000000;1.312142
7423.000000;1.312818
7422.000000;1.312831
7421.000000;1.312263
7420.000000;1.311733
7419.000000;1.311818
7418.000000;1.312506
7417.000000;1.313312
7416.000000;1.313822
7415.000000;1.314074
7414.000000;1.314441
7413.000000;1.315146
7412.000000;1.315930
7411.000000;1.316308
7410.000000;1.316172
7409.000000;1.315952
7408.000000;1.316026
7407.000000;1.316200
7406.000000;1.316080
7405.000000;1.315752
7404.000000;1.315669
7403.000000;1.315970
7402.000000;1.316313
7401.000000;1.316360
7400.000000;1.316121
7399.000000;1.315800
7398.000000;1.315539
7397.000000;1.315389
7396.000000;1.315345
7395.000000;1.315353
7394.000000;1.315447
7393.000000;1.315761
7392.000000;1.316270
7391.000000;1.316693
7390.000000;1.316877
7389.000000;1.317045
7388.000000;1.317404
7387.000000;1.317659
7386.000000;1.317397
7385.000000;1.316814
7384.000000;1.316415
7383.000000;1.316047
7382.000000;1.315061
7381.000000;1.313654
7380.000000;1.313204
7379.000000;1.314589
7378.000000;1.316887
7377.000000;1.318455
7376.000000;1.318854
7375.000000;1.319114
7374.000000;1.320335
7373.000000;1.322510
7372.000000;1.324660
7371.000000;1.325716
7370.000000;1.325279
7369.000000;1.323850
7368.000000;1.322399
7367.000000;1.321528
7366.000000;1.321189
7365.000000;1.321313
7364.000000;1.322087
7363.000000;1.323234
7362.000000;1.323819
7361.000000;1.323409
7360.000000;1.322927
7359.000000;1.323437
7358.000000;1.324545
7357.000000;1.324722
7356.000000;1.323230
7355.000000;1.320999
7354.000000;1.319578
7353.000000;1.319632
7352.000000;1.320500
7351.000000;1.320732
7350.000000;1.319244
7349.000000;1.316527
7348.000000;1.314449
7347.000000;1.314282
7346.000000;1.315351
7345.000000;1.316278
7344.000000;1.316935
7343.000000;1.318054
7342.000000;1.319480
7341.000000;1.320223
7340.000000;1.320460
7339.000000;1.321830
7338.000000;1.325221
7337.000000;1.329547
7336.000000;1.333184
7335.000000;1.335340
7334.000000;1.335973
7333.000000;1.335500
7332.000000;1.334832
7331.000000;1.334580
7330.000000;1.334012
7329.000000;1.332050
7328.000000;1.329608
7327.000000;1.329503
7326.000000;1.333103
7325.000000;1.338367
7324.000000;1.342325
7323.000000;1.344340
7322.000000;1.345943
7321.000000;1.348154
7320.000000;1.350255
7319.000000;1.350983
7318.000000;1.349799
7317.000000;1.347224
7316.000000;1.344717
7315.000000;1.343739
7314.000000;1.344209
7313.000000;1.344394
7312.000000;1.343229
7311.000000;1.341979
7310.000000;1.342522
7309.000000;1.344635
7308.000000;1.346363
7307.000000;1.346739
7306.000000;1.346832
7305.000000;1.347943
7304.000000;1.350045
7303.000000;1.352429
7302.000000;1.354461
7301.000000;1.355451
7300.000000;1.355120
7299.000000;1.354640
7298.000000;1.355853
7297.000000;1.358862
7296.000000;1.361592
7295.000000;1.362391
7294.000000;1.362209
7293.000000;1.363314
7292.000000;1.366385
7291.000000;1.369969
7290.000000;1.372498
7289.000000;1.373741
7288.000000;1.374471
7287.000000;1.375472
7286.000000;1.377087
7285.000000;1.379113
7284.000000;1.380966
7283.000000;1.382271
7282.000000;1.383251
7281.000000;1.384398
7280.000000;1.385844
7279.000000;1.387300
7278.000000;1.388508
7277.000000;1.389489
7276.000000;1.390347
7275.000000;1.391110
7274.000000;1.391871
7273.000000;1.392899
7272.000000;1.394446
7271.000000;1.396462
7270.000000;1.398519
7269.000000;1.400065
7268.000000;1.400922
7267.000000;1.401545
7266.000000;1.402560
7265.000000;1.403989
7264.000000;1.405231
7263.000000;1.405942
7262.000000;1.406618
7261.000000;1.408059
7260.000000;1.410375
7259.000000;1.412950
7258.000000;1.415265
7257.000000;1.417228
7256.000000;1.418640
7255.000000;1.418995
7254.000000;1.418119
7253.000000;1.416802
7252.000000;1.416429
7251.000000;1.417621
7250.000000;1.419505
7249.000000;1.420746
7248.000000;1.421197
7247.000000;1.422050
7246.000000;1.423989
7245.000000;1.425765
7244.000000;1.425569
7243.000000;1.423822
7242.000000;1.423572
7241.000000;1.427302
7240.000000;1.433952
7239.000000;1.440194
7238.000000;1.444022
7237.000000;1.446079
7236.000000;1.447853
7235.000000;1.449636
7234.000000;1.450526
7233.000000;1.450198
7232.000000;1.450239
7231.000000;1.452963
7230.000000;1.458902
7229.000000;1.466186
7228.000000;1.472426
7227.000000;1.476664
7226.000000;1.479729
7225.000000;1.483057
7224.000000;1.487228
7223.000000;1.491577
7222.000000;1.495045
7221.000000;1.497278
7220.000000;1.499066
7219.000000;1.501739
7218.000000;1.505961
7217.000000;1.511088
7216.000000;1.515834
7215.000000;1.519643
7214.000000;1.523103
7213.000000;1.526906
7212.000000;1.530876
7211.000000;1.534409
7210.000000;1.537492
7209.000000;1.540681
7208.000000;1.544144
7207.000000;1.547337
7206.000000;1.549837
7205.000000;1.552201
7204.000000;1.555591
7203.000000;1.560642
7202.000000;1.566954
7201.000000;1.573599
7200.000000;1.579807
7199.000000;1.585275
7198.000000;1.590053
7197.000000;1.594322
7196.000000;1.598275
7195.000000;1.602164
7194.000000;1.606201
7193.000000;1.610282
7192.000000;1.614003
7191.000000;1.617251
7190.000000;1.620583
7189.000000;1.624510
7188.000000;1.628676
7187.000000;1.632360
7186.000000;1.635721
7185.000000;1.639716
7184.000000;1.644697
7183.000000;1.649961
7182.000000;1.655034
7181.000000;1.660659
7180.000000;1.667778
7179.000000;1.676000
7178.000000;1.683793
7177.000000;1.689971
7176.000000;1.694495
7175.000000;1.698095
7174.000000;1.701446
7173.000000;1.704680
7172.000000;1.707397
7171.000000;1.709372
7170.000000;1.711395
7169.000000;1.714851
7168.000000;1.720277
7167.000000;1.726819
7166.000000;1.733481
7165.000000;1.740196
7164.000000;1.747094
7163.000000;1.753577
7162.000000;1.759136
7161.000000;1.764661
7160.000000;1.771680
7159.000000;1.780187
7158.000000;1.788365
7157.000000;1.794734
7156.000000;1.799565
7155.000000;1.804122
7154.000000;1.809255
7153.000000;1.814933
7152.000000;1.820636
7151.000000;1.825952
7150.000000;1.830914
7149.000000;1.835823
7148.000000;1.840636
7147.000000;1.844708
7146.000000;1.847610
7145.000000;1.850220
7144.000000;1.854325
7143.000000;1.860785
7142.000000;1.868428
7141.000000;1.875157
7140.000000;1.880067
7139.000000;1.884208
7138.000000;1.889288
7137.000000;1.895983
7136.000000;1.903576
7135.000000;1.911038
7134.000000;1.918129
7133.000000;1.925276
7132.000000;1.932486
7131.000000;1.938817
7130.000000;1.943202
7129.000000;1.945654
7128.000000;1.947406
7127.000000;1.949916
7126.000000;1.953778
7125.000000;1.958310
7124.000000;1.962205
7123.000000;1.964981
7122.000000;1.967919
7121.000000;1.972914
7120.000000;1.980005
7119.000000;1.986847
7118.000000;1.991461
7117.000000;1.994904
7116.000000;1.999986
7115.000000;2.007649
7114.000000;2.015957
7113.000000;2.022538
7112.000000;2.026783
7111.000000;2.029522
7110.000000;2.031708
7109.000000;2.033912
7108.000000;2.036316
7107.000000;2.038860
7106.000000;2.041821
7105.000000;2.046163
7104.000000;2.052629
7103.000000;2.060360
7102.000000;2.067215
7101.000000;2.071787
7100.000000;2.074482
7099.000000;2.076376
7098.000000;2.077906
7097.000000;2.079239
7096.000000;2.081156
7095.000000;2.084586
7094.000000;2.089488
7093.000000;2.094916
7092.000000;2.100118
7091.000000;2.104998
7090.000000;2.109694
7089.000000;2.114255
7088.000000;2.118529
7087.000000;2.121945
7086.000000;2.123677
7085.000000;2.123720
7084.000000;2.123691
7083.000000;2.125834
7082.000000;2.130898
7081.000000;2.137290
7080.000000;2.142452
7079.000000;2.145020
7078.000000;2.145620
7077.000000;2.145810
7076.000000;2.146661
7075.000000;2.148320
7074.000000;2.150441
7073.000000;2.152652
7072.000000;2.154739
7071.000000;2.156749
7070.000000;2.159002
7069.000000;2.161856
7068.000000;2.165312
7067.000000;2.168979
7066.000000;2.172481
7065.000000;2.175704
7064.000000;2.178622
7063.000000;2.181296
7062.000000;2.184235
7061.000000;2.188202
7060.000000;2.193162
7059.000000;2.197776
7058.000000;2.200566
7057.000000;2.201467
7056.000000;2.201654
7055.000000;2.201982
7054.000000;2.202289
7053.000000;2.202193
7052.000000;2.201928
7051.000000;2.202205
7050.000000;2.203596
7049.000000;2.206029
7048.000000;2.208532
7047.000000;2.209679
7046.000000;2.208906
7045.000000;2.207330
7044.000000;2.206827
7043.000000;2.208596
7042.000000;2.212796
7041.000000;2.218556
7040.000000;2.223660
7039.000000;2.225416
7038.000000;2.223362
7037.000000;2.220688
7036.000000;2.221460
7035.000000;2.226496
7034.000000;2.232958
7033.000000;2.237864
7032.000000;2.240727
7031.000000;2.242309
7030.000000;2.242632
7029.000000;2.241632
7028.000000;2.240479
7027.000000;2.240522
7026.000000;2.241409
7025.000000;2.241560
7024.000000;2.240450
7023.000000;2.239358
7022.000000;2.239655
7021.000000;2.241212
7020.000000;2.242872
7019.000000;2.244012
7018.000000;2.245184
7017.000000;2.247166
7016.000000;2.249670
7015.000000;2.251388
7014.000000;2.251534
7013.000000;2.250954
7012.000000;2.251256
7011.000000;2.253096
7010.000000;2.255719
7009.000000;2.257959
7008.000000;2.259181
7007.000000;2.259392
7006.000000;2.259022
7005.000000;2.258603
7004.000000;2.258124
7003.000000;2.256985
7002.000000;2.255235
7001.000000;2.254324
7000.000000;2.255667
6999.000000;2.258653
6998.000000;2.261043
6997.000000;2.261703
6996.000000;2.261856
6995.000000;2.263017
6994.000000;2.264967
6993.000000;2.266502
6992.000000;2.267248
6991.000000;2.267751
6990.000000;2.268296
6989.000000;2.268562
6988.000000;2.268201
6987.000000;2.267153
6986.000000;2.265769
6985.000000;2.265099
6984.000000;2.266365
6983.000000;2.269427
6982.000000;2.272289
6981.000000;2.273052
6980.000000;2.272161
6979.000000;2.271617
6978.000000;2.272048
6977.000000;2.271712
6976.000000;2.268701
6975.000000;2.263416
6974.000000;2.258386
6973.000000;2.256121
6972.000000;2.257457
6971.000000;2.261435
6970.000000;2.266305
6969.000000;2.270692
6968.000000;2.273991
6967.000000;2.275978
6966.000000;2.276584
6965.000000;2.276137
6964.000000;2.275312
6963.000000;2.274388
6962.000000;2.273059
6961.000000;2.271593
6960.000000;2.271443
6959.000000;2.273682
6958.000000;2.276969
6957.000000;2.278047
6956.000000;2.275029
6955.000000;2.269689
6954.000000;2.265701
6953.000000;2.264937
6952.000000;2.265985
6951.000000;2.266170
6950.000000;2.264723
6949.000000;2.263562
6948.000000;2.264950
6947.000000;2.268875
6946.000000;2.273005
6945.000000;2.275099
6944.000000;2.275052
6943.000000;2.274391
6942.000000;2.274432
6941.000000;2.275498
6940.000000;2.277272
6939.000000;2.279051
6938.000000;2.279713
6937.000000;2.278324
6936.000000;2.275328
6935.000000;2.272628
6934.000000;2.271820
6933.000000;2.272510
6932.000000;2.272762
6931.000000;2.271136
6930.000000;2.267992
6929.000000;2.264799
6928.000000;2.262733
6927.000000;2.262180
6926.000000;2.262998
6925.000000;2.264482
6924.000000;2.265272
6923.000000;2.264296
6922.000000;2.262263
6921.000000;2.261446
6920.000000;2.263228
6919.000000;2.266300
6918.000000;2.268118
6917.000000;2.267956
6916.000000;2.267323
6915.000000;2.267162
6914.000000;2.266232
6913.000000;2.263296
6912.000000;2.259875
6911.000000;2.259183
6910.000000;2.262418
6909.000000;2.267230
6908.000000;2.270274
6907.000000;2.270699
6906.000000;2.270230
6905.000000;2.270236
6904.000000;2.270015
6903.000000;2.268117
6902.000000;2.264494
6901.000000;2.260724
6900.000000;2.258457
6899.000000;2.258186
6898.000000;2.259268
6897.000000;2.260606
6896.000000;2.261338
6895.000000;2.261196
6894.000000;2.260386
6893.000000;2.259166
6892.000000;2.257644
6891.000000;2.255962
6890.000000;2.254399
6889.000000;2.253098
6888.000000;2.252001
6887.000000;2.251361
6886.000000;2.251817
6885.000000;2.253277
6884.000000;2.254089
6883.000000;2.252417
6882.000000;2.248681
6881.000000;2.245624
6880.000000;2.245543
6879.000000;2.248103
6878.000000;2.251117
6877.000000;2.252939
6876.000000;2.253578
6875.000000;2.253902
6874.000000;2.254563
6873.000000;2.255651
6872.000000;2.256756
6871.000000;2.257135
6870.000000;2.256014
6869.000000;2.252975
6868.000000;2.248329
6867.000000;2.243339
6866.000000;2.239962
6865.000000;2.239733
6864.000000;2.242456
6863.000000;2.246185
6862.000000;2.248780
6861.000000;2.249404
6860.000000;2.248462
6859.000000;2.246642
6858.000000;2.244423
6857.000000;2.242091
6856.000000;2.239809
6855.000000;2.237885
6854.000000;2.237041
6853.000000;2.237831
6852.000000;2.239562
6851.000000;2.240515
6850.000000;2.239781
6849.000000;2.238144
6848.000000;2.236542
6847.000000;2.234604
6846.000000;2.231671
6845.000000;2.228500
6844.000000;2.226685
6843.000000;2.226707
6842.000000;2.227592
6841.000000;2.228348
6840.000000;2.228743
6839.000000;2.228647
6838.000000;2.227710
6837.000000;2.225968
6836.000000;2.223851
6835.000000;2.221411
6834.000000;2.218417
6833.000000;2.215319
6832.000000;2.213161
6831.000000;2.212323
6830.000000;2.212186
6829.000000;2.212215
6828.000000;2.212471
6827.000000;2.212693
6826.000000;2.211925
6825.000000;2.209818
6824.000000;2.207500
6823.000000;2.206284
6822.000000;2.205959
6821.000000;2.205146
6820.000000;2.203106
6819.000000;2.200460
6818.000000;2.198221
6817.000000;2.196756
6816.000000;2.195745
6815.000000;2.194723
6814.000000;2.193514
6813.000000;2.192294
6812.000000;2.191331
6811.000000;2.190685
6810.000000;2.190078
6809.000000;2.188997
6808.000000;2.186889
6807.000000;2.183557
6806.000000;2.179731
6805.000000;2.177058
6804.000000;2.176848
6803.000000;2.178525
6802.000000;2.179733
6801.000000;2.178458
6800.000000;2.174896
6799.000000;2.170906
6798.000000;2.167999
6797.000000;2.166293
6796.000000;2.165097
6795.000000;2.163878
6794.000000;2.162571
6793.000000;2.161328
6792.000000;2.160252
6791.000000;2.159370
6790.000000;2.158710
6789.000000;2.158267
6788.000000;2.157785
6787.000000;2.156669
6786.000000;2.154343
6785.000000;2.150800
6784.000000;2.146701
6783.000000;2.142879
6782.000000;2.139816
6781.000000;2.137510
6780.000000;2.135617
6779.000000;2.133672
6778.000000;2.131390
6777.000000;2.128883
6776.000000;2.126537
6775.000000;2.124641
6774.000000;2.123187
6773.000000;2.121930
6772.000000;2.120586
6771.000000;2.119150
6770.000000;2.118040
6769.000000;2.117685
6768.000000;2.117791
6767.000000;2.117307
6766.000000;2.115461
6765.000000;2.112621
6764.000000;2.109745
6763.000000;2.107240
6762.000000;2.104806
6761.000000;2.102189
6760.000000;2.099432
6759.000000;2.096408
6758.000000;2.092887
6757.000000;2.089178
6756.000000;2.086075
6755.000000;2.083919
6754.000000;2.082260
6753.000000;2.080607
6752.000000;2.078984
6751.000000;2.077482
6750.000000;2.075829
6749.000000;2.073798
6748.000000;2.071666
6747.000000;2.069837
6746.000000;2.068240
6745.000000;2.066488
6744.000000;2.064447
6743.000000;2.062286
6742.000000;2.060117
6741.000000;2.057983
6740.000000;2.056027
6739.000000;2.054269
6738.000000;2.052342
6737.000000;2.049884
6736.000000;2.047117
6735.000000;2.044621
6734.000000;2.042554
6733.000000;2.040515
6732.000000;2.038170
6731.000000;2.035596
6730.000000;2.032925
6729.000000;2.030108
6728.000000;2.027253
6727.000000;2.024880
6726.000000;2.023482
6725.000000;2.022947
6724.000000;2.022564
6723.000000;2.021524
6722.000000;2.019347
6721.000000;2.016123
6720.000000;2.012562
6719.000000;2.009626
6718.000000;2.007747
6717.000000;2.006335
6716.000000;2.004384
6715.000000;2.001611
6714.000000;1.998789
6713.000000;1.996874
6712.000000;1.995981
6711.000000;1.995179
6710.000000;1.993403
6709.000000;1.990330
6708.000000;1.986618
6707.000000;1.983435
6706.000000;1.981405
6705.000000;1.980092
6704.000000;1.978432
6703.000000;1.975867
6702.000000;1.972906
6701.000000;1.970521
6700.000000;1.969175
6699.000000;1.968606
6698.000000;1.968225
6697.000000;1.967396
6696.000000;1.965497
6695.000000;1.962274
6694.000000;1.958313
6693.000000;1.954789
6692.000000;1.952557
6691.000000;1.951564
6690.000000;1.951138
6689.000000;1.950569
6688.000000;1.949403
6687.000000;1.947480
6686.000000;1.944945
6685.000000;1.942106
6684.000000;1.939199
6683.000000;1.936421
6682.000000;1.934188
6681.000000;1.932949
6680.000000;1.932453
6679.000000;1.931564
6678.000000;1.929264
6677.000000;1.925773
6676.000000;1.922325
6675.000000;1.919911
6674.000000;1.918521
6673.000000;1.917468
6672.000000;1.916050
6671.000000;1.913921
6670.000000;1.911209
6669.000000;1.908448
6668.000000;1.906219
6667.000000;1.904635
6666.000000;1.903219
6665.000000;1.901357
6664.000000;1.898856
6663.000000;1.896073
6662.000000;1.893596
6661.000000;1.891767
6660.000000;1.890434
6659.000000;1.889120
6658.000000;1.887490
6657.000000;1.885640
6656.000000;1.883839
6655.000000;1.882102
6654.000000;1.880177
6653.000000;1.877932
6652.000000;1.875578
6651.000000;1.873481
6650.000000;1.871835
6649.000000;1.870536
6648.000000;1.869285
6647.000000;1.867819
6646.000000;1.866079
6645.000000;1.864140
6644.000000;1.862048
6643.000000;1.859836
6642.000000;1.857665
6641.000000;1.855711
6640.000000;1.853889
6639.000000;1.851947
6638.000000;1.849953
6637.000000;1.848321
6636.000000;1.847129
6635.000000;1.845751
6634.000000;1.843576
6633.000000;1.840870
6632.000000;1.838393
6631.000000;1.836308
6630.000000;1.834084
6629.000000;1.831491
6628.000000;1.829079
6627.000000;1.827366
6626.000000;1.826039
6625.000000;1.824377
6624.000000;1.822196
6623.000000;1.819966
6622.000000;1.818151
6621.000000;1.816807
6620.000000;1.815725
6619.000000;1.814604
6618.000000;1.813111
6617.000000;1.811090
6616.000000;1.808817
6615.000000;1.806812
6614.000000;1.805283
6613.000000;1.803930
6612.000000;1.802377
6611.000000;1.800624
6610.000000;1.798934
6609.000000;1.797429
6608.000000;1.795953
6607.000000;1.794316
6606.000000;1.792484
6605.000000;1.790546
6604.000000;1.788630
6603.000000;1.786883
6602.000000;1.785379
6601.000000;1.783915
6600.000000;1.782046
6599.000000;1.779532
6598.000000;1.776714
6597.000000;1.774286
6596.000000;1.772625
6595.000000;1.771507
6594.000000;1.770505
6593.000000;1.769436
6592.000000;1.768260
6591.000000;1.766766
6590.000000;1.764710
6589.000000;1.762266
6588.000000;1.760036
6587.000000;1.758482
6586.000000;1.757494
6585.000000;1.756607
6584.000000;1.755494
6583.000000;1.754130
6582.000000;1.752620
6581.000000;1.751038
6580.000000;1.749406
6579.000000;1.747711
6578.000000;1.745913
6577.000000;1.744035
6576.000000;1.742260
6575.000000;1.740865
6574.000000;1.739972
6573.000000;1.739343
6572.000000;1.738458
6571.000000;1.736906
6570.000000;1.734761
6569.000000;1.732523
6568.000000;1.730612
6567.000000;1.728938
6566.000000;1.727060
6565.000000;1.724764
6564.000000;1.722374
6563.000000;1.720435
6562.000000;1.719161
6561.000000;1.718236
6560.000000;1.717132
6559.000000;1.715593
6558.000000;1.713819
6557.000000;1.712230
6556.000000;1.711031
6555.000000;1.710047
6554.000000;1.708983
6553.000000;1.707775
6552.000000;1.706553
6551.000000;1.705311
6550.000000;1.703818
6549.000000;1.701941
6548.000000;1.699893
6547.000000;1.698032
6546.000000;1.696475
6545.000000;1.695071
6544.000000;1.693694
6543.000000;1.692388
6542.000000;1.691185
6541.000000;1.689936
6540.000000;1.688458
6539.000000;1.686804
6538.000000;1.685251
6537.000000;1.684017
6536.000000;1.683037
6535.000000;1.682054
6534.000000;1.680897
6533.000000;1.679628
6532.000000;1.678431
6531.000000;1.677367
6530.000000;1.676276
6529.000000;1.674926
6528.000000;1.673249
6527.000000;1.671407
6526.000000;1.669623
6525.000000;1.667982
6524.000000;1.666440
6523.000000;1.664995
6522.000000;1.663739
6521.000000;1.662695
6520.000000;1.661682
6519.000000;1.660459
6518.000000;1.659006
6517.000000;1.657540
6516.000000;1.656230
6515.000000;1.654964
6514.000000;1.653508
6513.000000;1.651846
6512.000000;1.650273
6511.000000;1.649100
6510.000000;1.648340
6509.000000;1.647712
6508.000000;1.646919
6507.000000;1.645864
6506.000000;1.644625
6505.000000;1.643315
6504.000000;1.641990
6503.000000;1.640660
6502.000000;1.639309
6501.000000;1.637907
6500.000000;1.636445
6499.000000;1.634968
6498.000000;1.633578
6497.000000;1.632359
6496.000000;1.631298
6495.000000;1.630266
6494.000000;1.629088
6493.000000;1.627676
6492.000000;1.626122
6491.000000;1.624635
6490.000000;1.623343
6489.000000;1.622179
6488.000000;1.621006
6487.000000;1.619820
6486.000000;1.618755
6485.000000;1.617861
6484.000000;1.617001
6483.000000;1.616006
6482.000000;1.614875
6481.000000;1.613729
6480.000000;1.612606
6479.000000;1.611414
6478.000000;1.610085
6477.000000;1.608710
6476.000000;1.607477
6475.000000;1.606479
6474.000000;1.605613
6473.000000;1.604657
6472.000000;1.603499
6471.000000;1.602264
6470.000000;1.601190
6469.000000;1.600368
6468.000000;1.599664
6467.000000;1.598896
6466.000000;1.597981
6465.000000;1.596884
6464.000000;1.595584
6463.000000;1.594197
6462.000000;1.592994
6461.000000;1.592137
6460.000000;1.591430
6459.000000;1.590508
6458.000000;1.589233
6457.000000;1.587794
6456.000000;1.586427
6455.000000;1.585219
6454.000000;1.584184
6453.000000;1.583341
6452.000000;1.582607
6451.000000;1.581750
6450.000000;1.580588
6449.000000;1.579221
6448.000000;1.577967
6447.000000;1.577066
6446.000000;1.576468
6445.000000;1.575880
6444.000000;1.575012
6443.000000;1.573807
6442.000000;1.572448
6441.000000;1.571163
6440.000000;1.570046
6439.000000;1.569080
6438.000000;1.568235
6437.000000;1.567446
6436.000000;1.566583
6435.000000;1.565560
6434.000000;1.564469
6433.000000;1.563497
6432.000000;1.562707
6431.000000;1.561997
6430.000000;1.561265
6429.000000;1.560487
6428.000000;1.559639
6427.000000;1.558678
6426.000000;1.557621
6425.000000;1.556552
6424.000000;1.555499
6423.000000;1.554405
6422.000000;1.553256
6421.000000;1.552127
6420.000000;1.551083
6419.000000;1.550125
6418.000000;1.549256
6417.000000;1.548496
6416.000000;1.547784
6415.000000;1.546989
6414.000000;1.546077
6413.000000;1.545166
6412.000000;1.544352
6411.000000;1.543577
6410.000000;1.542742
6409.000000;1.541866
6408.000000;1.541040
6407.000000;1.540279
6406.000000;1.539524
6405.000000;1.538725
6404.000000;1.537878
6403.000000;1.536974
6402.000000;1.535995
6401.000000;1.534935
6400.000000;1.533837
6399.000000;1.532812
6398.000000;1.531992
6397.000000;1.531400
6396.000000;1.530866
6395.000000;1.530169
6394.000000;1.529261
6393.000000;1.528284
6392.000000;1.527367
6391.000000;1.526508
6390.000000;1.525660
6389.000000;1.524805
6388.000000;1.523919
6387.000000;1.523001
6386.000000;1.522156
6385.000000;1.521538
6384.000000;1.521161
6383.000000;1.520857
6382.000000;1.520473
6381.000000;1.519981
6380.000000;1.519360
6379.000000;1.518553
6378.000000;1.517608
6377.000000;1.516711
6376.000000;1.515939
6375.000000;1.515118
6374.000000;1.514078
6373.000000;1.512931
6372.000000;1.511930
6371.000000;1.511136
6370.000000;1.510404
6369.000000;1.509645
6368.000000;1.508946
6367.000000;1.508390
6366.000000;1.507908
6365.000000;1.507334
6364.000000;1.506561
6363.000000;1.505627
6362.000000;1.504697
6361.000000;1.503934
6360.000000;1.503359
6359.000000;1.502836
6358.000000;1.502233
6357.000000;1.501539
6356.000000;1.500811
6355.000000;1.500084
6354.000000;1.499366
6353.000000;1.498667
6352.000000;1.497960
6351.000000;1.497197
6350.000000;1.496427
6349.000000;1.495799
6348.000000;1.495361
6347.000000;1.494933
6346.000000;1.494285
6345.000000;1.493392
6344.000000;1.492409
6343.000000;1.491466
6342.000000;1.490598
6341.000000;1.489822
6340.000000;1.489131
6339.000000;1.488453
6338.000000;1.487736
6337.000000;1.487073
6336.000000;1.486613
6335.000000;1.486344
6334.000000;1.486041
6333.000000;1.485474
6332.000000;1.484609
6331.000000;1.483614
6330.000000;1.482715
6329.000000;1.482038
6328.000000;1.481541
6327.000000;1.481104
6326.000000;1.480698
6325.000000;1.480393
6324.000000;1.480167
6323.000000;1.479826
6322.000000;1.479227
6321.000000;1.478483
6320.000000;1.477788
6319.000000;1.477112
6318.000000;1.476260
6317.000000;1.475230
6316.000000;1.474303
6315.000000;1.473717
6314.000000;1.473404
6313.000000;1.473142
6312.000000;1.472837
6311.000000;1.472535
6310.000000;1.472218
6309.000000;1.471749
6308.000000;1.471029
6307.000000;1.470138
6306.000000;1.469270
6305.000000;1.468573
6304.000000;1.468042
6303.000000;1.467571
6302.000000;1.467103
6301.000000;1.466683
6300.000000;1.466360
6299.000000;1.466044
6298.000000;1.465536
6297.000000;1.464720
6296.000000;1.463697
6295.000000;1.462708
6294.000000;1.461923
6293.000000;1.461316
6292.000000;1.460724
6291.000000;1.460019
6290.000000;1.459242
6289.000000;1.458554
6288.000000;1.458069
6287.000000;1.457751
6286.000000;1.457487
6285.000000;1.457218
6284.000000;1.456944
6283.000000;1.456625
6282.000000;1.456156
6281.000000;1.455475
6280.000000;1.454678
6279.000000;1.453967
6278.000000;1.453465
6277.000000;1.453093
6276.000000;1.452669
6275.000000;1.452133
6274.000000;1.451614
6273.000000;1.451264
6272.000000;1.451056
6271.000000;1.450832
6270.000000;1.450495
6269.000000;1.450078
6268.000000;1.449621
6267.000000;1.449100
6266.000000;1.448507
6265.000000;1.447908
6264.000000;1.447362
6263.000000;1.446844
6262.000000;1.446294
6261.000000;1.445702
6260.000000;1.445094
6259.000000;1.444508
6258.000000;1.443991
6257.000000;1.443570
6256.000000;1.443172
6255.000000;1.442666
6254.000000;1.442042
6253.000000;1.441463
6252.000000;1.441087
6251.000000;1.440884
6250.000000;1.440687
6249.000000;1.440371
6248.000000;1.439900
6247.000000;1.439280
6246.000000;1.438558
6245.000000;1.437843
6244.000000;1.437250
6243.000000;1.436830
6242.000000;1.436566
6241.000000;1.436387
6240.000000;1.436146
6239.000000;1.435698
6238.000000;1.435070
6237.000000;1.434478
6236.000000;1.434076
6235.000000;1.433775
6234.000000;1.433412
6233.000000;1.433012
6232.000000;1.432719
6231.000000;1.432548
6230.000000;1.432357
6229.000000;1.432063
6228.000000;1.431721
6227.000000;1.431374
6226.000000;1.430980
6225.000000;1.430515
6224.000000;1.430021
6223.000000;1.429509
6222.000000;1.428922
6221.000000;1.428247
6220.000000;1.427568
6219.000000;1.426963
6218.000000;1.426460
6217.000000;1.426098
6216.000000;1.425912
6215.000000;1.425800
6214.000000;1.425525
6213.000000;1.424973
6212.000000;1.424329
6211.000000;1.423885
6210.000000;1.423726
6209.000000;1.423691
6208.000000;1.423590
6207.000000;1.423347
6206.000000;1.422972
6205.000000;1.422510
6204.000000;1.422042
6203.000000;1.421642
6202.000000;1.421307
6201.000000;1.420959
6200.000000;1.420555
6199.000000;1.420136
6198.000000;1.419744
6197.000000;1.419340
6196.000000;1.418862
6195.000000;1.418332
6194.000000;1.417862
6193.000000;1.417545
6192.000000;1.417355
6191.000000;1.417183
6190.000000;1.416947
6189.000000;1.416638
6188.000000;1.416280
6187.000000;1.415879
6186.000000;1.415418
6185.000000;1.414874
6184.000000;1.414246
6183.000000;1.413582
6182.000000;1.412979
6181.000000;1.412537
6180.000000;1.412269
6179.000000;1.412083
6178.000000;1.411851
6177.000000;1.411525
6176.000000;1.411161
6175.000000;1.410857
6174.000000;1.410642
6173.000000;1.410442
6172.000000;1.410149
6171.000000;1.409744
6170.000000;1.409335
6169.000000;1.409045
6168.000000;1.408884
6167.000000;1.408783
6166.000000;1.408707
6165.000000;1.408672
6164.000000;1.408620
6163.000000;1.408397
6162.000000;1.407890
6161.000000;1.407169
6160.000000;1.406427
6159.000000;1.405833
6158.000000;1.405458
6157.000000;1.405277
6156.000000;1.405172
6155.000000;1.404982
6154.000000;1.404638
6153.000000;1.404240
6152.000000;1.403938
6151.000000;1.403749
6150.000000;1.403553
6149.000000;1.403265
6148.000000;1.402937
6147.000000;1.402674
6146.000000;1.402488
6145.000000;1.402293
6144.000000;1.402005
6143.000000;1.401644
6142.000000;1.401329
6141.000000;1.401170
6140.000000;1.401160
6139.000000;1.401172
6138.000000;1.401066
6137.000000;1.400782
6136.000000;1.400351
6135.000000;1.399849
6134.000000;1.399376
6133.000000;1.399017
6132.000000;1.398758
6131.000000;1.398479
6130.000000;1.398076
6129.000000;1.397584
6128.000000;1.397125
6127.000000;1.396773
6126.000000;1.396500
6125.000000;1.396263
6124.000000;1.396052
6123.000000;1.395880
6122.000000;1.395754
6121.000000;1.395688
6120.000000;1.395674
6119.000000;1.395635
6118.000000;1.395468
6117.000000;1.395149
6116.000000;1.394767
6115.000000;1.394408
6114.000000;1.394060
6113.000000;1.393654
6112.000000;1.393209
6111.000000;1.392868
6110.000000;1.392765
6109.000000;1.392866
6108.000000;1.392947
6107.000000;1.392769
6106.000000;1.392290
6105.000000;1.391708
6104.000000;1.391286
6103.000000;1.391122
6102.000000;1.391082
6101.000000;1.390930
6100.000000;1.390539
6099.000000;1.389991
6098.000000;1.389486
6097.000000;1.389159
6096.000000;1.388989
6095.000000;1.388882
6094.000000;1.388808
6093.000000;1.388806
6092.000000;1.388868
6091.000000;1.388885
6090.000000;1.388748
6089.000000;1.388457
6088.000000;1.388113
6087.000000;1.387817
6086.000000;1.387603
6085.000000;1.387432
6084.000000;1.387230
6083.000000;1.386952
6082.000000;1.386636
6081.000000;1.386371
6080.000000;1.386194
6079.000000;1.386047
6078.000000;1.385852
6077.000000;1.385593
6076.000000;1.385300
6075.000000;1.384986
6074.000000;1.384637
6073.000000;1.384242
6072.000000;1.383824
6071.000000;1.383461
6070.000000;1.383268
6069.000000;1.383298
6068.000000;1.383431
6067.000000;1.383447
6066.000000;1.383254
6065.000000;1.382982
6064.000000;1.382798
6063.000000;1.382706
6062.000000;1.382594
6061.000000;1.382423
6060.000000;1.382246
6059.000000;1.382078
6058.000000;1.381865
6057.000000;1.381601
6056.000000;1.381366
6055.000000;1.381225
6054.000000;1.381155
6053.000000;1.381095
6052.000000;1.381021
6051.000000;1.380920
6050.000000;1.380767
6049.000000;1.380547
6048.000000;1.380279
6047.000000;1.379986
6046.000000;1.379683
6045.000000;1.379391
6044.000000;1.379133
6043.000000;1.378913
6042.000000;1.378725
6041.000000;1.378602
6040.000000;1.378598
6039.000000;1.378684
6038.000000;1.378728
6037.000000;1.378620
6036.000000;1.378389
6035.000000;1.378170
6034.000000;1.378062
6033.000000;1.378041
6032.000000;1.378001
6031.000000;1.377841
6030.000000;1.377539
6029.000000;1.377171
6028.000000;1.376868
6027.000000;1.376722
6026.000000;1.376705
6025.000000;1.376678
6024.000000;1.376518
6023.000000;1.376252
6022.000000;1.376048
6021.000000;1.376043
6020.000000;1.376191
6019.000000;1.376318
6018.000000;1.376333
6017.000000;1.376304
6016.000000;1.376307
6015.000000;1.376267
6014.000000;1.376043
6013.000000;1.375646
6012.000000;1.375276
6011.000000;1.375130
6010.000000;1.375221
6009.000000;1.375411
6008.000000;1.375548
6007.000000;1.375540
6006.000000;1.375376
6005.000000;1.375112
6004.000000;1.374842
6003.000000;1.374635
6002.000000;1.374503
6001.000000;1.374430
6000.000000;1.374396
5999.000000;1.374352
5998.000000;1.374232
5997.000000;1.374023
5996.000000;1.373808
5995.000000;1.373681
5994.000000;1.373637
5993.000000;1.373579
5992.000000;1.373450
5991.000000;1.373288
5990.000000;1.373156
5989.000000;1.373053
5988.000000;1.372944
5987.000000;1.372846
5986.000000;1.372825
5985.000000;1.372911
5984.000000;1.373041
5983.000000;1.373110
5982.000000;1.373062
5981.000000;1.372912
5980.000000;1.372717
5979.000000;1.372549
5978.000000;1.372475
5977.000000;1.372515
5976.000000;1.372590
5975.000000;1.372579
5974.000000;1.372448
5973.000000;1.372304
5972.000000;1.372280
5971.000000;1.372378
5970.000000;1.372475
5969.000000;1.372467
5968.000000;1.372369
5967.000000;1.372255
5966.000000;1.372168
5965.000000;1.372103
5964.000000;1.372068
5963.000000;1.372103
5962.000000;1.372215
5961.000000;1.372332
5960.000000;1.372324
5959.000000;1.372098
5958.000000;1.371703
5957.000000;1.371329
5956.000000;1.371188
5955.000000;1.371349
5954.000000;1.371691
5953.000000;1.372019
5952.000000;1.372224
5951.000000;1.372306
5950.000000;1.372291
5949.000000;1.372169
5948.000000;1.371946
5947.000000;1.371696
5946.000000;1.371529
5945.000000;1.371499
5944.000000;1.371565
5943.000000;1.371631
5942.000000;1.371625
5941.000000;1.371536
5940.000000;1.371414
5939.000000;1.371324
5938.000000;1.371288
5937.000000;1.371282
5936.000000;1.371290
5935.000000;1.371334
5934.000000;1.371428
5933.000000;1.371533
5932.000000;1.371604
5931.000000;1.371659
5930.000000;1.371753
5929.000000;1.371887
5928.000000;1.372016
5927.000000;1.372132
5926.000000;1.372266
5925.000000;1.372389
5924.000000;1.372385
5923.000000;1.372200
5922.000000;1.371937
5921.000000;1.371751
5920.000000;1.371678
5919.000000;1.371638
5918.000000;1.371584
5917.000000;1.371555
5916.000000;1.371586
5915.000000;1.371668
5914.000000;1.371796
5913.000000;1.371993
5912.000000;1.372243
5911.000000;1.372464
5910.000000;1.372580
5909.000000;1.372598
5908.000000;1.372577
5907.000000;1.372561
5906.000000;1.372573
5905.000000;1.372634
5904.000000;1.372742
5903.000000;1.372876
5902.000000;1.373028
5901.000000;1.373212
5900.000000;1.373410
5899.000000;1.373545
5898.000000;1.373574
5897.000000;1.373572
5896.000000;1.373657
5895.000000;1.373836
5894.000000;1.373988
5893.000000;1.374024
5892.000000;1.374004
5891.000000;1.374052
5890.000000;1.374189
5889.000000;1.374334
5888.000000;1.374441
5887.000000;1.374554
5886.000000;1.374698
5885.000000;1.374794
5884.000000;1.374751
5883.000000;1.374620
5882.000000;1.374567
5881.000000;1.374690
5880.000000;1.374925
5879.000000;1.375148
5878.000000;1.375301
5877.000000;1.375390
5876.000000;1.375401
5875.000000;1.375304
5874.000000;1.375117
5873.000000;1.374934
5872.000000;1.374871
5871.000000;1.375012
5870.000000;1.375373
5869.000000;1.375872
5868.000000;1.376361
5867.000000;1.376718
5866.000000;1.376934
5865.000000;1.377088
5864.000000;1.377240
5863.000000;1.377384
5862.000000;1.377478
5861.000000;1.377498
5860.000000;1.377459
5859.000000;1.377423
5858.000000;1.377478
5857.000000;1.377673
5856.000000;1.377975
5855.000000;1.378303
5854.000000;1.378584
5853.000000;1.378778
5852.000000;1.378860
5851.000000;1.378859
5850.000000;1.378885
5849.000000;1.379056
5848.000000;1.379380
5847.000000;1.379748
5846.000000;1.380052
5845.000000;1.380274
5844.000000;1.380444
5843.000000;1.380573
5842.000000;1.380653
5841.000000;1.380707
5840.000000;1.380781
5839.000000;1.380919
5838.000000;1.381150
5837.000000;1.381501
5836.000000;1.381968
5835.000000;1.382501
5834.000000;1.383017
5833.000000;1.383456
5832.000000;1.383808
5831.000000;1.384090
5830.000000;1.384311
5829.000000;1.384473
5828.000000;1.384591
5827.000000;1.384706
5826.000000;1.384859
5825.000000;1.385064
5824.000000;1.385312
5823.000000;1.385594
5822.000000;1.385908
5821.000000;1.386242
5820.000000;1.386560
5819.000000;1.386828
5818.000000;1.387035
5817.000000;1.387223
5816.000000;1.387486
5815.000000;1.387922
5814.000000;1.388527
5813.000000;1.389161
5812.000000;1.389652
5811.000000;1.389946
5810.000000;1.390105
5809.000000;1.390189
5808.000000;1.390219
5807.000000;1.390266
5806.000000;1.390459
5805.000000;1.390853
5804.000000;1.391339
5803.000000;1.391749
5802.000000;1.392028
5801.000000;1.392243
5800.000000;1.392481
5799.000000;1.392785
5798.000000;1.393174
5797.000000;1.393643
5796.000000;1.394145
5795.000000;1.394609
5794.000000;1.394983
5793.000000;1.395247
5792.000000;1.395429
5791.000000;1.395616
5790.000000;1.395915
5789.000000;1.396350
5788.000000;1.396836
5787.000000;1.397285
5786.000000;1.397698
5785.000000;1.398113
5784.000000;1.398516
5783.000000;1.398875
5782.000000;1.399214
5781.000000;1.399585
5780.000000;1.400005
5779.000000;1.400469
5778.000000;1.401005
5777.000000;1.401626
5776.000000;1.402263
5775.000000;1.402817
5774.000000;1.403273
5773.000000;1.403677
5772.000000;1.404053
5771.000000;1.404391
5770.000000;1.404721
5769.000000;1.405091
5768.000000;1.405492
5767.000000;1.405886
5766.000000;1.406296
5765.000000;1.406791
5764.000000;1.407352
5763.000000;1.407878
5762.000000;1.408323
5761.000000;1.408764
5760.000000;1.409291
5759.000000;1.409896
5758.000000;1.410501
5757.000000;1.411069
5756.000000;1.411639
5755.000000;1.412287
5754.000000;1.413058
5753.000000;1.413891
5752.000000;1.414635
5751.000000;1.415174
5750.000000;1.415565
5749.000000;1.415967
5748.000000;1.416465
5747.000000;1.417006
5746.000000;1.417534
5745.000000;1.418084
5744.000000;1.418717
5743.000000;1.419409
5742.000000;1.420055
5741.000000;1.420580
5740.000000;1.421009
5739.000000;1.421434
5738.000000;1.421933
5737.000000;1.422505
5736.000000;1.423102
5735.000000;1.423697
5734.000000;1.424301
5733.000000;1.424896
5732.000000;1.425412
5731.000000;1.425829
5730.000000;1.426247
5729.000000;1.426795
5728.000000;1.427468
5727.000000;1.428145
5726.000000;1.428749
5725.000000;1.429325
5724.000000;1.429970
5723.000000;1.430718
5722.000000;1.431523
5721.000000;1.432282
5720.000000;1.432915
5719.000000;1.433447
5718.000000;1.433998
5717.000000;1.434656
5716.000000;1.435380
5715.000000;1.436094
5714.000000;1.436803
5713.000000;1.437548
5712.000000;1.438293
5711.000000;1.438950
5710.000000;1.439529
5709.000000;1.440145
5708.000000;1.440880
5707.000000;1.441711
5706.000000;1.442586
5705.000000;1.443470
5704.000000;1.444327
5703.000000;1.445131
5702.000000;1.445905
5701.000000;1.446666
5700.000000;1.447362
5699.000000;1.447938
5698.000000;1.448490
5697.000000;1.449198
5696.000000;1.450087
5695.000000;1.450957
5694.000000;1.451634
5693.000000;1.452180
5692.000000;1.452794
5691.000000;1.453563
5690.000000;1.454405
5689.000000;1.455201
5688.000000;1.455910
5687.000000;1.456568
5686.000000;1.457245
5685.000000;1.457990
5684.000000;1.458799
5683.000000;1.459620
5682.000000;1.460409
5681.000000;1.461161
5680.000000;1.461895
5679.000000;1.462636
5678.000000;1.463400
5677.000000;1.464163
5676.000000;1.464881
5675.000000;1.465554
5674.000000;1.466271
5673.000000;1.467103
5672.000000;1.468007
5671.000000;1.468875
5670.000000;1.469683
5669.000000;1.470474
5668.000000;1.471236
5667.000000;1.471892
5666.000000;1.472452
5665.000000;1.473057
5664.000000;1.473831
5663.000000;1.474745
5662.000000;1.475670
5661.000000;1.476503
5660.000000;1.477202
5659.000000;1.477767
5658.000000;1.478249
5657.000000;1.478738
5656.000000;1.479319
5655.000000;1.480034
5654.000000;1.480881
5653.000000;1.481792
5652.000000;1.482632
5651.000000;1.483306
5650.000000;1.483857
5649.000000;1.484397
5648.000000;1.484967
5647.000000;1.485539
5646.000000;1.486153
5645.000000;1.486908
5644.000000;1.487790
5643.000000;1.488632
5642.000000;1.489309
5641.000000;1.489872
5640.000000;1.490457
5639.000000;1.491118
5638.000000;1.491818
5637.000000;1.492497
5636.000000;1.493076
5635.000000;1.493482
5634.000000;1.493751
5633.000000;1.494047
5632.000000;1.494516
5631.000000;1.495156
5630.000000;1.495868
5629.000000;1.496579
5628.000000;1.497227
5627.000000;1.497718
5626.000000;1.497988
5625.000000;1.498120
5624.000000;1.498299
5623.000000;1.498655
5622.000000;1.499184
5621.000000;1.499813
5620.000000;1.500480
5619.000000;1.501154
5618.000000;1.501803
5617.000000;1.502393
5616.000000;1.502902
5615.000000;1.503346
5614.000000;1.503778
5613.000000;1.504242
5612.000000;1.504730
5611.000000;1.505192
5610.000000;1.505572
5609.000000;1.505834
5608.000000;1.505982
5607.000000;1.506082
5606.000000;1.506233
5605.000000;1.506480
5604.000000;1.506797
5603.000000;1.507172
5602.000000;1.507654
5601.000000;1.508239
5600.000000;1.508799
5599.000000;1.509199
5598.000000;1.509467
5597.000000;1.509717
5596.000000;1.509967
5595.000000;1.510132
5594.000000;1.510199
5593.000000;1.510257
5592.000000;1.510365
5591.000000;1.510506
5590.000000;1.510705
5589.000000;1.511046
5588.000000;1.511510
5587.000000;1.511914
5586.000000;1.512079
5585.000000;1.511989
5584.000000;1.511752
5583.000000;1.511510
5582.000000;1.511410
5581.000000;1.511574
5580.000000;1.511996
5579.000000;1.512525
5578.000000;1.512993
5577.000000;1.513320
5576.000000;1.513497
5575.000000;1.513560
5574.000000;1.513609
5573.000000;1.513776
5572.000000;1.514102
5571.000000;1.514479
5570.000000;1.514757
5569.000000;1.514857
5568.000000;1.514783
5567.000000;1.514609
5566.000000;1.514471
5565.000000;1.514498
5564.000000;1.514690
5563.000000;1.514927
5562.000000;1.515103
5561.000000;1.515193
5560.000000;1.515198
5559.000000;1.515105
5558.000000;1.514937
5557.000000;1.514747
5556.000000;1.514541
5555.000000;1.514275
5554.000000;1.513960
5553.000000;1.513703
5552.000000;1.513605
5551.000000;1.513685
5550.000000;1.513926
5549.000000;1.514307
5548.000000;1.514742
5547.000000;1.515093
5546.000000;1.515281
5545.000000;1.515328
5544.000000;1.515258
5543.000000;1.515033
5542.000000;1.514666
5541.000000;1.514307
5540.000000;1.514122
5539.000000;1.514112
5538.000000;1.514140
5537.000000;1.514134
5536.000000;1.514163
5535.000000;1.514306
5534.000000;1.514520
5533.000000;1.514670
5532.000000;1.514658
5531.000000;1.514508
5530.000000;1.514342
5529.000000;1.514274
5528.000000;1.514298
5527.000000;1.514308
5526.000000;1.514212
5525.000000;1.513994
5524.000000;1.513702
5523.000000;1.513416
5522.000000;1.513265
5521.000000;1.513397
5520.000000;1.513828
5519.000000;1.514329
5518.000000;1.514550
5517.000000;1.514321
5516.000000;1.513852
5515.000000;1.513510
5514.000000;1.513395
5513.000000;1.513268
5512.000000;1.512916
5511.000000;1.512437
5510.000000;1.512095
5509.000000;1.512013
5508.000000;1.512165
5507.000000;1.512592
5506.000000;1.513377
5505.000000;1.514355
5504.000000;1.515101
5503.000000;1.515236
5502.000000;1.514705
5501.000000;1.513731
5500.000000;1.512518
5499.000000;1.511146
5498.000000;1.509723
5497.000000;1.508439
5496.000000;1.507405
5495.000000;1.506551
5494.000000;1.505875
5493.000000;1.505742
5492.000000;1.506680
5491.000000;1.508719
5490.000000;1.511193
5489.000000;1.513352
5488.000000;1.515045
5487.000000;1.516566
5486.000000;1.517837
5485.000000;1.518078
5484.000000;1.516660
5483.000000;1.513964
5482.000000;1.511036
5481.000000;1.508683
5480.000000;1.507262
5479.000000;1.507059
5478.000000;1.508101
5477.000000;1.509729
5476.000000;1.511160
5475.000000;1.512480
5474.000000;1.514312
5473.000000;1.516536
5472.000000;1.518159
5471.000000;1.518367
5470.000000;1.517235
5469.000000;1.515495
5468.000000;1.513914
5467.000000;1.512967
5466.000000;1.512824
5465.000000;1.513376
5464.000000;1.514409
5463.000000;1.515804
5462.000000;1.517514
5461.000000;1.519452
5460.000000;1.521454
5459.000000;1.523277
5458.000000;1.524631
5457.000000;1.525277
5456.000000;1.525102
5455.000000;1.524156
5454.000000;1.522730
5453.000000;1.521222
5452.000000;1.519792
5451.000000;1.518184
5450.000000;1.516286
5449.000000;1.514714
5448.000000;1.514267
5447.000000;1.514998
5446.000000;1.516395
5445.000000;1.518191
5444.000000;1.520440
5443.000000;1.522890
5442.000000;1.524936
5441.000000;1.526410
5440.000000;1.527840
5439.000000;1.529496
5438.000000;1.530833
5437.000000;1.531232
5436.000000;1.530777
5435.000000;1.530257
5434.000000;1.530642
5433.000000;1.532361
5432.000000;1.535033
5431.000000;1.537810
5430.000000;1.540193
5429.000000;1.542694
5428.000000;1.546224
5427.000000;1.550842
5426.000000;1.555662
5425.000000;1.559723
5424.000000;1.562493
5423.000000;1.563833
5422.000000;1.563889
5421.000000;1.562906
5420.000000;1.561126
5419.000000;1.558862
5418.000000;1.556649
5417.000000;1.555070
5416.000000;1.554305
5415.000000;1.554342
5414.000000;1.555667
5413.000000;1.559083
5412.000000;1.564498
5411.000000;1.570614
5410.000000;1.576212
5409.000000;1.581177
5408.000000;1.585905
5407.000000;1.590289
5406.000000;1.593796
5405.000000;1.596323
5404.000000;1.598279
5403.000000;1.599859
5402.000000;1.601020
5401.000000;1.601893
5400.000000;1.602736
5399.000000;1.603694
5398.000000;1.604986
5397.000000;1.607050
5396.000000;1.609931
5395.000000;1.613089
5394.000000;1.616241
5393.000000;1.619785
5392.000000;1.624130
5391.000000;1.628918
5390.000000;1.633497
5389.000000;1.637854
5388.000000;1.642384
5387.000000;1.646926
5386.000000;1.650931
5385.000000;1.654469
5384.000000;1.658082
5383.000000;1.661835
5382.000000;1.665304
5381.000000;1.668503
5380.000000;1.672066
5379.000000;1.676378
5378.000000;1.681270
5377.000000;1.686955
5376.000000;1.694206
5375.000000;1.703092
5374.000000;1.712439
5373.000000;1.720946
5372.000000;1.728243
5371.000000;1.734659
5370.000000;1.740572
5369.000000;1.746310
5368.000000;1.752309
5367.000000;1.758843
5366.000000;1.765819
5365.000000;1.773099
5364.000000;1.780607
5363.000000;1.788072
5362.000000;1.795047
5361.000000;1.801342
5360.000000;1.807210
5359.000000;1.812944
5358.000000;1.818868
5357.000000;1.825594
5356.000000;1.833551
5355.000000;1.842210
5354.000000;1.850663
5353.000000;1.858978
5352.000000;1.868052
5351.000000;1.878223
5350.000000;1.888823
5349.000000;1.899216
5348.000000;1.909597
5347.000000;1.920443
5346.000000;1.931682
5345.000000;1.943204
5344.000000;1.955680
5343.000000;1.969711
5342.000000;1.984610
5341.000000;1.999084
5340.000000;2.012702
5339.000000;2.026340
5338.000000;2.041329
5337.000000;2.057905
5336.000000;2.074967
5335.000000;2.091376
5334.000000;2.106947
5333.000000;2.122184
5332.000000;2.137540
5331.000000;2.153245
5330.000000;2.169510
5329.000000;2.186420
5328.000000;2.203756
5327.000000;2.221472
5326.000000;2.239904
5325.000000;2.259105
5324.000000;2.278344
5323.000000;2.296717
5322.000000;2.314124
5321.000000;2.331180
5320.000000;2.348235
5319.000000;2.365037
5318.000000;2.381436
5317.000000;2.397666
5316.000000;2.413762
5315.000000;2.429179
5314.000000;2.443246
5313.000000;2.455768
5312.000000;2.467117
5311.000000;2.478131
5310.000000;2.489992
5309.000000;2.503682
5308.000000;2.519285
5307.000000;2.535917
5306.000000;2.552268
5305.000000;2.567082
5304.000000;2.579421
5303.000000;2.589138
5302.000000;2.597189
5301.000000;2.604809
5300.000000;2.612172
5299.000000;2.618550
5298.000000;2.623719
5297.000000;2.628221
5296.000000;2.632349
5295.000000;2.635942
5294.000000;2.639279
5293.000000;2.643181
5292.000000;2.648014
5291.000000;2.653490
5290.000000;2.659586
5289.000000;2.666520
5288.000000;2.673374
5287.000000;2.677932
5286.000000;2.678768
5285.000000;2.676892
5284.000000;2.674633
5283.000000;2.673389
5282.000000;2.673228
5281.000000;2.674224
5280.000000;2.676972
5279.000000;2.681654
5278.000000;2.687091
5277.000000;2.691010
5276.000000;2.691387
5275.000000;2.688076
5274.000000;2.683191
5273.000000;2.679415
5272.000000;2.677607
5271.000000;2.676236
5270.000000;2.673543
5269.000000;2.669852
5268.000000;2.667169
5267.000000;2.666730
5266.000000;2.667751
5265.000000;2.668513
5264.000000;2.668224
5263.000000;2.667661
5262.000000;2.668187
5261.000000;2.670695
5260.000000;2.674991
5259.000000;2.679565
5258.000000;2.682245
5257.000000;2.682171
5256.000000;2.680975
5255.000000;2.681065
5254.000000;2.682368
5253.000000;2.682075
5252.000000;2.678638
5251.000000;2.674385
5250.000000;2.672916
5249.000000;2.675070
5248.000000;2.678425
5247.000000;2.680399
5246.000000;2.680754
5245.000000;2.680447
5244.000000;2.679853
5243.000000;2.679354
5242.000000;2.680047
5241.000000;2.682525
5240.000000;2.685672
5239.000000;2.687559
5238.000000;2.687211
5237.000000;2.685306
5236.000000;2.683426
5235.000000;2.682859
5234.000000;2.683740
5233.000000;2.684823
5232.000000;2.684455
5231.000000;2.682355
5230.000000;2.680141
5229.000000;2.679594
5228.000000;2.680843
5227.000000;2.682809
5226.000000;2.684803
5225.000000;2.686630
5224.000000;2.687521
5223.000000;2.686526
5222.000000;2.684282
5221.000000;2.682850
5220.000000;2.683386
5219.000000;2.685048
5218.000000;2.686399
5217.000000;2.686791
5216.000000;2.685842
5215.000000;2.682880
5214.000000;2.678032
5213.000000;2.672852
5212.000000;2.668934
5211.000000;2.666697
5210.000000;2.666103
5209.000000;2.667499
5208.000000;2.670898
5207.000000;2.675039
5206.000000;2.678218
5205.000000;2.679965
5204.000000;2.681152
5203.000000;2.682517
5202.000000;2.683884
5201.000000;2.684830
5200.000000;2.685459
5199.000000;2.686199
5198.000000;2.687211
5197.000000;2.688288
5196.000000;2.689041
5195.000000;2.689057
5194.000000;2.688078
5193.000000;2.686046
5192.000000;2.683144
5191.000000;2.680097
5190.000000;2.678258
5189.000000;2.678618
5188.000000;2.680487
5187.000000;2.681838
5186.000000;2.681318
5185.000000;2.679617
5184.000000;2.678474
5183.000000;2.678544
5182.000000;2.678811
5181.000000;2.678076
5180.000000;2.676555
5179.000000;2.675829
5178.000000;2.677366
5177.000000;2.681146
5176.000000;2.685684
5175.000000;2.689362
5174.000000;2.691544
5173.000000;2.692193
5172.000000;2.690996
5171.000000;2.687933
5170.000000;2.684502
5169.000000;2.682935
5168.000000;2.683741
5167.000000;2.684956
5166.000000;2.684476
5165.000000;2.682512
5164.000000;2.681006
5163.000000;2.681263
5162.000000;2.683078
5161.000000;2.685684
5160.000000;2.688324
5159.000000;2.690026
5158.000000;2.690007
5157.000000;2.688593
5156.000000;2.687025
5155.000000;2.686034
5154.000000;2.685067
5153.000000;2.683274
5152.000000;2.680884
5151.000000;2.679269
5150.000000;2.680030
5149.000000;2.684079
5148.000000;2.690941
5147.000000;2.698411
5146.000000;2.703329
5145.000000;2.703675
5144.000000;2.700212
5143.000000;2.695778
5142.000000;2.692978
5141.000000;2.692583
5140.000000;2.693550
5139.000000;2.694151
5138.000000;2.693182
5137.000000;2.690553
5136.000000;2.687064
5135.000000;2.683822
5134.000000;2.681819
5133.000000;2.681611
5132.000000;2.682999
5131.000000;2.685126
5130.000000;2.687018
5129.000000;2.688074
5128.000000;2.688284
5127.000000;2.688144
5126.000000;2.688205
5125.000000;2.688446
5124.000000;2.688225
5123.000000;2.687122
5122.000000;2.685687
5121.000000;2.684897
5120.000000;2.684841
5119.000000;2.684492
5118.000000;2.683132
5117.000000;2.681451
5116.000000;2.680740
5115.000000;2.681488
5114.000000;2.683023
5113.000000;2.684097
5112.000000;2.683773
5111.000000;2.682112
5110.000000;2.680119
5109.000000;2.678763
5108.000000;2.677948
5107.000000;2.676903
5106.000000;2.675724
5105.000000;2.675753
5104.000000;2.677859
5103.000000;2.680975
5102.000000;2.683059
5101.000000;2.683319
5100.000000;2.682764
5099.000000;2.682637
5098.000000;2.683100
5097.000000;2.683524
5096.000000;2.683378
5095.000000;2.682599
5094.000000;2.681435
5093.000000;2.680033
5092.000000;2.678144
5091.000000;2.675596
5090.000000;2.673257
5089.000000;2.672998
5088.000000;2.676024
5087.000000;2.681285
5086.000000;2.685992
5085.000000;2.687821
5084.000000;2.686389
5083.000000;2.682894
5082.000000;2.679042
5081.000000;2.676064
5080.000000;2.674044
5079.000000;2.672393
5078.000000;2.671284
5077.000000;2.672094
5076.000000;2.675661
5075.000000;2.680456
5074.000000;2.683557
5073.000000;2.683569
5072.000000;2.681586
5071.000000;2.679159
5070.000000;2.676685
5069.000000;2.674228
5068.000000;2.672541
5067.000000;2.672164
5066.000000;2.672201
5065.000000;2.671124
5064.000000;2.668637
5063.000000;2.666007
5062.000000;2.664676
5061.000000;2.665146
5060.000000;2.667048
5059.000000;2.669602
5058.000000;2.671832
5057.000000;2.673042
5056.000000;2.673377
5055.000000;2.673589
5054.000000;2.674073
5053.000000;2.674236
5052.000000;2.673146
5051.000000;2.670732
5050.000000;2.668091
5049.000000;2.666580
5048.000000;2.666633
5047.000000;2.667469
5046.000000;2.667924
5045.000000;2.667503
5044.000000;2.666599
5043.000000;2.665851
5042.000000;2.665464
5041.000000;2.665072
5040.000000;2.664182
5039.000000;2.662833
5038.000000;2.661782
5037.000000;2.661799
5036.000000;2.662714
5035.000000;2.663501
5034.000000;2.663521
5033.000000;2.663211
5032.000000;2.663093
5031.000000;2.662723
5030.000000;2.661457
5029.000000;2.659897
5028.000000;2.659483
5027.000000;2.660607
5026.000000;2.662117
5025.000000;2.662936
5024.000000;2.663209
5023.000000;2.663241
5022.000000;2.662212
5021.000000;2.659052
5020.000000;2.654355
5019.000000;2.650446
5018.000000;2.649403
5017.000000;2.651397
5016.000000;2.654782
5015.000000;2.657460
5014.000000;2.658373
5013.000000;2.657998
5012.000000;2.657337
5011.000000;2.656533
5010.000000;2.654941
5009.000000;2.652591
5008.000000;2.650806
5007.000000;2.650892
5006.000000;2.652592
5005.000000;2.654571
5004.000000;2.655894
5003.000000;2.656336
5002.000000;2.655621
5001.000000;2.653495
5000.000000;2.650690
4999.000000;2.648636
4998.000000;2.647741
4997.000000;2.646804
4996.000000;2.644668
4995.000000;2.641811
4994.000000;2.639676
4993.000000;2.638865
4992.000000;2.638748
4991.000000;2.638573
4990.000000;2.638124
4989.000000;2.637334
4988.000000;2.636016
4987.000000;2.634189
4986.000000;2.632288
4985.000000;2.630788
4984.000000;2.629897
4983.000000;2.629698
4982.000000;2.630134
4981.000000;2.630628
4980.000000;2.630075
4979.000000;2.627832
4978.000000;2.624654
4977.000000;2.622236
4976.000000;2.621672
4975.000000;2.622492
4974.000000;2.623147
4973.000000;2.622234
4972.000000;2.619441
4971.000000;2.615676
4970.000000;2.612472
4969.000000;2.610884
4968.000000;2.610512
4967.000000;2.609655
4966.000000;2.606951
4965.000000;2.602985
4964.000000;2.599839
4963.000000;2.598904
4962.000000;2.599553
4961.000000;2.600017
4960.000000;2.599254
4959.000000;2.597680
4958.000000;2.596227
4957.000000;2.595312
4956.000000;2.594764
4955.000000;2.594176
4954.000000;2.593082
4953.000000;2.591074
4952.000000;2.588153
4951.000000;2.584822
4950.000000;2.581679
4949.000000;2.579024
4948.000000;2.577004
4947.000000;2.575892
4946.000000;2.575781
4945.000000;2.576057
4944.000000;2.575573
4943.000000;2.573505
4942.000000;2.569908
4941.000000;2.565582
4940.000000;2.561649
4939.000000;2.559133
4938.000000;2.558324
4937.000000;2.558223
4936.000000;2.557168
4935.000000;2.554505
4934.000000;2.551379
4933.000000;2.549519
4932.000000;2.549402
4931.000000;2.549912
4930.000000;2.549633
4929.000000;2.548040
4928.000000;2.545499
4927.000000;2.542687
4926.000000;2.540160
4925.000000;2.538125
4924.000000;2.536438
4923.000000;2.534938
4922.000000;2.533628
4921.000000;2.532336
4920.000000;2.530497
4919.000000;2.527734
4918.000000;2.524455
4917.000000;2.521315
4916.000000;2.518227
4915.000000;2.514635
4914.000000;2.510771
4913.000000;2.507774
4912.000000;2.506184
4911.000000;2.505071
4910.000000;2.503114
4909.000000;2.500043
4908.000000;2.496488
4907.000000;2.492894
4906.000000;2.489420
4905.000000;2.486577
4904.000000;2.484961
4903.000000;2.484362
4902.000000;2.483892
4901.000000;2.483148
4900.000000;2.482485
4899.000000;2.481864
4898.000000;2.480176
4897.000000;2.476438
4896.000000;2.471297
4895.000000;2.466639
4894.000000;2.463797
4893.000000;2.462579
4892.000000;2.461927
4891.000000;2.461016
4890.000000;2.459543
4889.000000;2.457421
4888.000000;2.454699
4887.000000;2.451704
4886.000000;2.448812
4885.000000;2.445903
4884.000000;2.442340
4883.000000;2.437729
4882.000000;2.432603
4881.000000;2.428105
4880.000000;2.424972
4879.000000;2.423039
4878.000000;2.421685
4877.000000;2.420483
4876.000000;2.419221
4875.000000;2.417600
4874.000000;2.415322
4873.000000;2.412522
4872.000000;2.409820
4871.000000;2.407767
4870.000000;2.406291
4869.000000;2.404730
4868.000000;2.402353
4867.000000;2.398920
4866.000000;2.394844
4865.000000;2.390875
4864.000000;2.387576
4863.000000;2.384994
4862.000000;2.382721
4861.000000;2.380236
4860.000000;2.377277
4859.000000;2.374001
4858.000000;2.370831
4857.000000;2.368064
4856.000000;2.365552
4855.000000;2.362768
4854.000000;2.359278
4853.000000;2.355203
4852.000000;2.351222
4851.000000;2.348042
4850.000000;2.345765
4849.000000;2.343726
4848.000000;2.341067
4847.000000;2.337629
4846.000000;2.334150
4845.000000;2.331449
4844.000000;2.329517
4843.000000;2.327599
4842.000000;2.325044
4841.000000;2.321816
4840.000000;2.318269
4839.000000;2.314813
4838.000000;2.311868
4837.000000;2.309712
4836.000000;2.308127
4835.000000;2.306449
4834.000000;2.304232
4833.000000;2.301676
4832.000000;2.299210
4831.000000;2.296854
4830.000000;2.294261
4829.000000;2.291200
4828.000000;2.287707
4827.000000;2.283893
4826.000000;2.279959
4825.000000;2.276333
4824.000000;2.273454
4823.000000;2.271367
4822.000000;2.269691
4821.000000;2.267982
4820.000000;2.265966
4819.000000;2.263448
4818.000000;2.260267
4817.000000;2.256469
4816.000000;2.252432
4815.000000;2.248746
4814.000000;2.245953
4813.000000;2.244155
4812.000000;2.242802
4811.000000;2.240978
4810.000000;2.238111
4809.000000;2.234413
4808.000000;2.230478
4807.000000;2.226704
4806.000000;2.223201
4805.000000;2.220033
4804.000000;2.217190
4803.000000;2.214450
4802.000000;2.211650
4801.000000;2.209022
4800.000000;2.206896
4799.000000;2.205048
4798.000000;2.202731
4797.000000;2.199548
4796.000000;2.195994
4795.000000;2.192925
4794.000000;2.190669
4793.000000;2.188811
4792.000000;2.186650
4791.000000;2.183765
4790.000000;2.180296
4789.000000;2.176829
4788.000000;2.173872
4787.000000;2.171339
4786.000000;2.168676
4785.000000;2.165584
4784.000000;2.162422
4783.000000;2.159770
4782.000000;2.157785
4781.000000;2.156147
4780.000000;2.154457
4779.000000;2.152430
4778.000000;2.149843
4777.000000;2.146622
4776.000000;2.143050
4775.000000;2.139692
4774.000000;2.136961
4773.000000;2.134778
4772.000000;2.132667
4771.000000;2.130171
4770.000000;2.127220
4769.000000;2.124187
4768.000000;2.121540
4767.000000;2.119379
4766.000000;2.117314
4765.000000;2.114873
4764.000000;2.111965
4763.000000;2.108872
4762.000000;2.105865
4761.000000;2.102990
4760.000000;2.100214
4759.000000;2.097566
4758.000000;2.095013
4757.000000;2.092347
4756.000000;2.089374
4755.000000;2.086203
4754.000000;2.083224
4753.000000;2.080769
4752.000000;2.078844
4751.000000;2.077164
4750.000000;2.075345
4749.000000;2.073103
4748.000000;2.070416
4747.000000;2.067564
4746.000000;2.064903
4745.000000;2.062508
4744.000000;2.060134
4743.000000;2.057549
4742.000000;2.054791
4741.000000;2.051996
4740.000000;2.049141
4739.000000;2.046162
4738.000000;2.043235
4737.000000;2.040706
4736.000000;2.038765
4735.000000;2.037354
4734.000000;2.036325
4733.000000;2.035396
4732.000000;2.033973
4731.000000;2.031454
4730.000000;2.027955
4729.000000;2.024409
4728.000000;2.021681
4727.000000;2.019772
4726.000000;2.018070
4725.000000;2.016149
4724.000000;2.014000
4723.000000;2.011663
4722.000000;2.009113
4721.000000;2.006538
4720.000000;2.004329
4719.000000;2.002632
4718.000000;2.001109
4717.000000;1.999281
4716.000000;1.996935
4715.000000;1.994144
4714.000000;1.991103
4713.000000;1.988106
4712.000000;1.985526
4711.000000;1.983624
4710.000000;1.982341
4709.000000;1.981323
4708.000000;1.980130
4707.000000;1.978472
4706.000000;1.976369
4705.000000;1.974082
4704.000000;1.971827
4703.000000;1.969603
4702.000000;1.967339
4701.000000;1.965117
4700.000000;1.963090
4699.000000;1.961237
4698.000000;1.959411
4697.000000;1.957574
4696.000000;1.955767
4695.000000;1.953881
4694.000000;1.951750
4693.000000;1.949525
4692.000000;1.947651
4691.000000;1.946315
4690.000000;1.945141
4689.000000;1.943620
4688.000000;1.941680
4687.000000;1.939639
4686.000000;1.937767
4685.000000;1.936111
4684.000000;1.934628
4683.000000;1.933278
4682.000000;1.931999
4681.000000;1.930710
4680.000000;1.929305
4679.000000;1.927601
4678.000000;1.925423
4677.000000;1.922850
4676.000000;1.920222
4675.000000;1.917770
4674.000000;1.915402
4673.000000;1.913036
4672.000000;1.910930
4671.000000;1.909402
4670.000000;1.908296
4669.000000;1.907078
4668.000000;1.905496
4667.000000;1.903847
4666.000000;1.902481
4665.000000;1.901307
4664.000000;1.899995
4663.000000;1.898483
4662.000000;1.897036
4661.000000;1.895833
4660.000000;1.894722
4659.000000;1.893457
4658.000000;1.892029
4657.000000;1.890652
4656.000000;1.889431
4655.000000;1.888171
4654.000000;1.886600
4653.000000;1.884731
4652.000000;1.882893
4651.000000;1.881390
4650.000000;1.880195
4649.000000;1.879017
4648.000000;1.877622
4647.000000;1.876031
4646.000000;1.874441
4645.000000;1.873035
4644.000000;1.871828
4643.000000;1.870639
4642.000000;1.869223
4641.000000;1.867513
4640.000000;1.865727
4639.000000;1.864193
4638.000000;1.863071
4637.000000;1.862272
4636.000000;1.861571
4635.000000;1.860714
4634.000000;1.859484
4633.000000;1.857818
4632.000000;1.855939
4631.000000;1.854262
4630.000000;1.853071
4629.000000;1.852290
4628.000000;1.851569
4627.000000;1.850556
4626.000000;1.849065
4625.000000;1.847110
4624.000000;1.844903
4623.000000;1.842835
4622.000000;1.841309
4621.000000;1.840484
4620.000000;1.840162
4619.000000;1.839971
4618.000000;1.839621
4617.000000;1.838957
4616.000000;1.837856
4615.000000;1.836268
4614.000000;1.834433
4613.000000;1.832872
4612.000000;1.831948
4611.000000;1.831453
4610.000000;1.830786
4609.000000;1.829570
4608.000000;1.827983
4607.000000;1.826458
4606.000000;1.825219
4605.000000;1.824193
4604.000000;1.823230
4603.000000;1.822318
4602.000000;1.821566
4601.000000;1.821058
4600.000000;1.820673
4599.000000;1.820061
4598.000000;1.818945
4597.000000;1.817502
4596.000000;1.816305
4595.000000;1.815731
4594.000000;1.815489
4593.000000;1.814904
4592.000000;1.813664
4591.000000;1.812141
4590.000000;1.810926
4589.000000;1.810170
4588.000000;1.809472
4587.000000;1.808369
4586.000000;1.806844
4585.000000;1.805327
4584.000000;1.804224
4583.000000;1.803523
4582.000000;1.802938
4581.000000;1.802332
4580.000000;1.801835
4579.000000;1.801501
4578.000000;1.801074
4577.000000;1.800307
4576.000000;1.799369
4575.000000;1.798690
4574.000000;1.798408
4573.000000;1.798184
4572.000000;1.797632
4571.000000;1.796730
4570.000000;1.795718
4569.000000;1.794734
4568.000000;1.793713
4567.000000;1.792574
4566.000000;1.791411
4565.000000;1.790464
4564.000000;1.789939
4563.000000;1.789749
4562.000000;1.789428
4561.000000;1.788449
4560.000000;1.786776
4559.000000;1.785026
4558.000000;1.783918
4557.000000;1.783582
4556.000000;1.783520
4555.000000;1.783210
4554.000000;1.782614
4553.000000;1.782043
4552.000000;1.781684
4551.000000;1.781367
4550.000000;1.780751
4549.000000;1.779700
4548.000000;1.778487
4547.000000;1.777623
4546.000000;1.777412
4545.000000;1.777646
4544.000000;1.777796
4543.000000;1.777511
4542.000000;1.776859
4541.000000;1.776086
4540.000000;1.775321
4539.000000;1.774600
4538.000000;1.774000
4537.000000;1.773551
4536.000000;1.773083
4535.000000;1.772358
4534.000000;1.771357
4533.000000;1.770262
4532.000000;1.769201
4531.000000;1.768184
4530.000000;1.767317
4529.000000;1.766824
4528.000000;1.766791
4527.000000;1.767039
4526.000000;1.767356
4525.000000;1.767672
4524.000000;1.767906
4523.000000;1.767842
4522.000000;1.767374
4521.000000;1.766719
4520.000000;1.766151
4519.000000;1.765626
4518.000000;1.764915
4517.000000;1.764078
4516.000000;1.763513
4515.000000;1.763475
4514.000000;1.763753
4513.000000;1.763938
4512.000000;1.763821
4511.000000;1.763451
4510.000000;1.762966
4509.000000;1.762528
4508.000000;1.762312
4507.000000;1.762383
4506.000000;1.762609
4505.000000;1.762790
4504.000000;1.762850
4503.000000;1.762811
4502.000000;1.762642
4501.000000;1.762286
4500.000000;1.761808
4499.000000;1.761418
4498.000000;1.761286
4497.000000;1.761412
4496.000000;1.761677
4495.000000;1.761949
4494.000000;1.762121
4493.000000;1.762139
4492.000000;1.762052
4491.000000;1.762004
4490.000000;1.762122
4489.000000;1.762403
4488.000000;1.762754
4487.000000;1.763111
4486.000000;1.763461
4485.000000;1.763746
4484.000000;1.763834
4483.000000;1.763670
4482.000000;1.763418
4481.000000;1.763385
4480.000000;1.763741
4479.000000;1.764359
4478.000000;1.764910
4477.000000;1.765141
4476.000000;1.765033
4475.000000;1.764783
4474.000000;1.764642
4473.000000;1.764738
4472.000000;1.765009
4471.000000;1.765342
4470.000000;1.765730
4469.000000;1.766247
4468.000000;1.766865
4467.000000;1.767413
4466.000000;1.767793
4465.000000;1.768156
4464.000000;1.768716
4463.000000;1.769424
4462.000000;1.769952
4461.000000;1.770057
4460.000000;1.769935
4459.000000;1.770118
4458.000000;1.770980
4457.000000;1.772323
4456.000000;1.773522
4455.000000;1.774144
4454.000000;1.774377
4453.000000;1.774700
4452.000000;1.775218
4451.000000;1.775561
4450.000000;1.775500
4449.000000;1.775392
4448.000000;1.775818
4447.000000;1.776902
4446.000000;1.778198
4445.000000;1.779167
4444.000000;1.779624
4443.000000;1.779799
4442.000000;1.780170
4441.000000;1.781152
4440.000000;1.782721
4439.000000;1.784318
4438.000000;1.785308
4437.000000;1.785591
4436.000000;1.785628
4435.000000;1.785897
4434.000000;1.786448
4433.000000;1.786953
4432.000000;1.787020
4431.000000;1.786540
4430.000000;1.785918
4429.000000;1.785902
4428.000000;1.786903
4427.000000;1.788475
4426.000000;1.789729
4425.000000;1.790324
4424.000000;1.790756
4423.000000;1.791615
4422.000000;1.792883
4421.000000;1.794169
4420.000000;1.795305
4419.000000;1.796348
4418.000000;1.797209
4417.000000;1.797748
4416.000000;1.798244
4415.000000;1.799418
4414.000000;1.801782
4413.000000;1.805020
4412.000000;1.808081
4411.000000;1.809845
4410.000000;1.809865
4409.000000;1.808705
4408.000000;1.807615
4407.000000;1.807680
4406.000000;1.809067
4405.000000;1.811014
4404.000000;1.812559
4403.000000;1.813305
4402.000000;1.813515
4401.000000;1.813671
4400.000000;1.814074
4399.000000;1.814766
4398.000000;1.815617
4397.000000;1.816437
4396.000000;1.817147
4395.000000;1.817943
4394.000000;1.819184
4393.000000;1.821000
4392.000000;1.823014
4391.000000;1.824548
4390.000000;1.825215
4389.000000;1.825268
4388.000000;1.825317
4387.000000;1.825709
4386.000000;1.826239
4385.000000;1.826465
4384.000000;1.826281
4383.000000;1.826129
4382.000000;1.826636
4381.000000;1.828057
4380.000000;1.830083
4379.000000;1.832131
4378.000000;1.833734
4377.000000;1.834703
4376.000000;1.835157
4375.000000;1.835458
4374.000000;1.835952
4373.000000;1.836668
4372.000000;1.837377
4371.000000;1.838034
4370.000000;1.838952
4369.000000;1.840364
4368.000000;1.842025
4367.000000;1.843484
4366.000000;1.844517
4365.000000;1.844985
4364.000000;1.844579
4363.000000;1.843369
4362.000000;1.842424
4361.000000;1.843033
4360.000000;1.845132
4359.000000;1.847200
4358.000000;1.848140
4357.000000;1.848654
4356.000000;1.850112
4355.000000;1.852598
4354.000000;1.854862
4353.000000;1.856030
4352.000000;1.856570
4351.000000;1.857402
4350.000000;1.858724
4349.000000;1.860058
4348.000000;1.861062
4347.000000;1.861917
4346.000000;1.862928
4345.000000;1.863976
4344.000000;1.864520
4343.000000;1.864277
4342.000000;1.863829
4341.000000;1.864238
4340.000000;1.865935
4339.000000;1.868224
4338.000000;1.869998
4337.000000;1.870721
4336.000000;1.870618
4335.000000;1.870289
4334.000000;1.870443
4333.000000;1.871618
4332.000000;1.873666
4331.000000;1.875628
4330.000000;1.876479
4329.000000;1.876040
4328.000000;1.875026
4327.000000;1.874424
4326.000000;1.874948
4325.000000;1.876629
4324.000000;1.878568
4323.000000;1.879584
4322.000000;1.879570
4321.000000;1.879715
4320.000000;1.880805
4319.000000;1.881867
4318.000000;1.881313
4317.000000;1.879092
4316.000000;1.876761
4315.000000;1.875622
4314.000000;1.875767
4313.000000;1.876813
4312.000000;1.878567
4311.000000;1.880668
4310.000000;1.882410
4309.000000;1.883336
4308.000000;1.883509
4307.000000;1.883049
4306.000000;1.881982
4305.000000;1.880734
4304.000000;1.880089
4303.000000;1.880346
4302.000000;1.880946
4301.000000;1.881170
4300.000000;1.880907
4299.000000;1.880606
4298.000000;1.880841
4297.000000;1.882020
4296.000000;1.884085
4295.000000;1.886391
4294.000000;1.888199
4293.000000;1.889164
4292.000000;1.888968
4291.000000;1.886935
4290.000000;1.882861
4289.000000;1.878087
4288.000000;1.874951
4287.000000;1.874795
4286.000000;1.876720
4285.000000;1.878455
4284.000000;1.878246
4283.000000;1.876049
4282.000000;1.873318
4281.000000;1.871609
4280.000000;1.871151
4279.000000;1.870987
4278.000000;1.870682
4277.000000;1.871197
4276.000000;1.873248
4275.000000;1.875579
4274.000000;1.876120
4273.000000;1.874653
4272.000000;1.872844
4271.000000;1.871644
4270.000000;1.870312
4269.000000;1.868182
4268.000000;1.865683
4267.000000;1.863054
4266.000000;1.859632
4265.000000;1.855382
4264.000000;1.851976
4263.000000;1.851136
4262.000000;1.852281
4261.000000;1.852619
4260.000000;1.849565
4259.000000;1.842853
4258.000000;1.834754
4257.000000;1.828615
4256.000000;1.826485
4255.000000;1.827099
4254.000000;1.826516
4253.000000;1.822127
4252.000000;1.815670
4251.000000;1.810991
4250.000000;1.810262
4249.000000;1.812320
4248.000000;1.814044
4247.000000;1.812549
4246.000000;1.806843
4245.000000;1.798252
4244.000000;1.789419
4243.000000;1.782540
4242.000000;1.778269
4241.000000;1.775726
4240.000000;1.773076
4239.000000;1.768629
4238.000000;1.761971
4237.000000;1.753963
4236.000000;1.745416
4235.000000;1.736060
4234.000000;1.725723
4233.000000;1.715522
4232.000000;1.706371
4231.000000;1.697450
4230.000000;1.687700
4229.000000;1.678192
4228.000000;1.671053
4227.000000;1.666125
4226.000000;1.660510
4225.000000;1.651923
4224.000000;1.640927
4223.000000;1.629201
4222.000000;1.617480
4221.000000;1.605869
4220.000000;1.594156
4219.000000;1.581115
4218.000000;1.565507
4217.000000;1.548133
4216.000000;1.530886
4215.000000;1.513329
4214.000000;1.492168
4213.000000;1.465646
4212.000000;1.436274
4211.000000;1.407435
4210.000000;1.379443
4209.000000;1.350249
4208.000000;1.318119
4207.000000;1.281692
4206.000000;1.239082
4205.000000;1.189930
4204.000000;1.137555
4203.000000;1.085675
4202.000000;1.032901
4201.000000;0.974693
4200.000000;0.913698
4199.000000;0.865787
4198.000000;0.849957
4197.000000;0.873508
4196.000000;0.929534
4195.000000;1.001711
4194.000000;1.075180
4193.000000;1.143810
4192.000000;1.206429
4191.000000;1.262663
4190.000000;1.314426
4189.000000;1.365971
4188.000000;1.418938
4187.000000;1.469704
4186.000000;1.514566
4185.000000;1.555186
4184.000000;1.594226
4183.000000;1.627813
4182.000000;1.649769
4181.000000;1.663765
4180.000000;1.681117
4179.000000;1.706826
4178.000000;1.735832
4177.000000;1.762187
4176.000000;1.786850
4175.000000;1.813489
4174.000000;1.840437
4173.000000;1.862383
4172.000000;1.878874
4171.000000;1.894169
4170.000000;1.911282
4169.000000;1.930786
4168.000000;1.951930
4167.000000;1.972602
4166.000000;1.991124
4165.000000;2.009581
4164.000000;2.031098
4163.000000;2.053569
4162.000000;2.070476
4161.000000;2.079987
4160.000000;2.088390
4159.000000;2.100918
4158.000000;2.114486
4157.000000;2.124230
4156.000000;2.132639
4155.000000;2.145162
4154.000000;2.162049
4153.000000;2.180424
4152.000000;2.199803
4151.000000;2.219013
4150.000000;2.230255
4149.000000;2.225901
4148.000000;2.211720
4147.000000;2.203541
4146.000000;2.211563
4145.000000;2.234198
4144.000000;2.264853
4143.000000;2.298321
4142.000000;2.327005
4141.000000;2.340249
4140.000000;2.336022
4139.000000;2.324307
4138.000000;2.314522
4137.000000;2.310744
4136.000000;2.316801
4135.000000;2.336442
4134.000000;2.366112
4133.000000;2.389999
4132.000000;2.394604
4131.000000;2.385873
4130.000000;2.377150
4129.000000;2.372464
4128.000000;2.368198
4127.000000;2.364488
4126.000000;2.368208
4125.000000;2.383351
4124.000000;2.404084
4123.000000;2.420733
4122.000000;2.431601
4121.000000;2.444916
4120.000000;2.469508
4119.000000;2.503367
4118.000000;2.528424
4117.000000;2.527879
4116.000000;2.508409
4115.000000;2.488974
4114.000000;2.486432
4113.000000;2.509696
4112.000000;2.553612
4111.000000;2.599368
4110.000000;2.628012
4109.000000;2.637281
4108.000000;2.637068
4107.000000;2.631859
4106.000000;2.617115
4105.000000;2.595076
4104.000000;2.581960
4103.000000;2.591501
4102.000000;2.622936
4101.000000;2.661580
4100.000000;2.687078
4099.000000;2.688651
4098.000000;2.675591
4097.000000;2.667427
4096.000000;2.677240
4095.000000;2.705999
4094.000000;2.742188
4093.000000;2.766443
4092.000000;2.766939
4091.000000;2.747307
4090.000000;2.720208
4089.000000;2.697751
4088.000000;2.686012
4087.000000;2.686898
4086.000000;2.703221
4085.000000;2.739699
4084.000000;2.792874
4083.000000;2.836713
4082.000000;2.834003
4081.000000;2.784282
4080.000000;2.731013
4079.000000;2.709655
4078.000000;2.724545
4077.000000;2.760826
4076.000000;2.800979
4075.000000;2.834612
4074.000000;2.856419
4073.000000;2.860978
4072.000000;2.847625
4071.000000;2.828194
4070.000000;2.818695
4069.000000;2.825537
4068.000000;2.842978
4067.000000;2.857414
4066.000000;2.858474
4065.000000;2.853078
4064.000000;2.859775
4063.000000;2.884935
4062.000000;2.909996
4061.000000;2.909936
4060.000000;2.889482
4059.000000;2.877557
4058.000000;2.891015
4057.000000;2.924042
4056.000000;2.961262
4055.000000;2.989792
4054.000000;2.994691
4053.000000;2.962143
4052.000000;2.905128
4051.000000;2.861015
4050.000000;2.855509
4049.000000;2.883701
4048.000000;2.917253
4047.000000;2.926719
4046.000000;2.903741
4045.000000;2.861637
4044.000000;2.823210
4043.000000;2.810566
4042.000000;2.834094
4041.000000;2.880959
4040.000000;2.914966
4039.000000;2.914298
4038.000000;2.897898
4037.000000;2.890866
4036.000000;2.904597
4035.000000;2.942012
4034.000000;2.995592
4033.000000;3.046075
4032.000000;3.083471
4031.000000;3.110897
4030.000000;3.111867
4029.000000;3.063126
4028.000000;2.978680
4027.000000;2.901211
4026.000000;2.862586
4025.000000;2.864360
4024.000000;2.881932
4023.000000;2.890432
4022.000000;2.892975
4021.000000;2.909659
4020.000000;2.948626
4019.000000;2.998552
4018.000000;3.045430
4017.000000;3.090555
4016.000000;3.132246
4015.000000;3.142762
4014.000000;3.108032
4013.000000;3.055368
4012.000000;3.017553
4011.000000;3.016913
4010.000000;3.061589
4009.000000;3.111419
4008.000000;3.084062
4007.000000;3.003933
4006.000000;2.945017
4005.000000;2.927454
4004.000000;2.935753
4003.000000;2.941576
4002.000000;2.935502
4001.000000;2.935244
4000.000000;2.956604
3999.000000;2.997102
3998.000000;3.048212
3997.000000;3.109542
3996.000000;3.181684
3995.000000;3.243647
3994.000000;3.258847
3993.000000;3.227926
3992.000000;3.178966
3991.000000;3.137110
3990.000000;3.128223
3989.000000;3.162335
3988.000000;3.220594
3987.000000;3.264677
3986.000000;3.272110
3985.000000;3.254563
3984.000000;3.226433
3983.000000;3.183134
3982.000000;3.122404
3981.000000;3.065162
3980.000000;3.037297
3979.000000;3.052741
3978.000000;3.105830
3977.000000;3.166965
3976.000000;3.219014
3975.000000;3.281468
3974.000000;3.358638
3973.000000;3.420734
3972.000000;3.453405
3971.000000;3.451739
3970.000000;3.394645
3969.000000;3.338629
3968.000000;3.348483
3967.000000;3.402643
3966.000000;3.428805
3965.000000;3.403620
3964.000000;3.352162
3963.000000;3.281910
3962.000000;3.223115
3961.000000;3.204170
3960.000000;3.213881
3959.000000;3.226910
3958.000000;3.234899
3957.000000;3.249426
3956.000000;3.275524
3955.000000;3.290814
3954.000000;3.279479
3953.000000;3.264550
3952.000000;3.269377
3951.000000;3.294812
3950.000000;3.311598
3949.000000;3.303972
3948.000000;3.317375
3947.000000;3.352845
3946.000000;3.338598
3945.000000;3.253255
3944.000000;3.168820
3943.000000;3.141495
3942.000000;3.177384
3941.000000;3.256714
3940.000000;3.357925
3939.000000;3.453889
3938.000000;3.498313
3937.000000;3.496866
3936.000000;3.499243
3935.000000;3.501927
3934.000000;3.459269
3933.000000;3.366138
3932.000000;3.287300
3931.000000;3.285764
3930.000000;3.368679
3929.000000;3.475295
3928.000000;3.527380
3927.000000;3.515953
3926.000000;3.475355
3925.000000;3.421232
3924.000000;3.343940
3923.000000;3.266292
3922.000000;3.254571
3921.000000;3.328804
3920.000000;3.466512
3919.000000;3.608094
3918.000000;3.529784
3917.000000;3.350150
3916.000000;3.263968
3915.000000;3.254192
3914.000000;3.282874
3913.000000;3.323766
3912.000000;3.349064
3911.000000;3.387844
3910.000000;3.475547
3909.000000;3.686899
3908.000000;4.193483
3907.000000;3.978489
3906.000000;3.746507
3905.000000;3.750287
3904.000000;3.663459
3903.000000;3.589499
3902.000000;3.534483
3901.000000;3.499301
3900.000000;3.534070
3899.000000;3.660532
3898.000000;3.898812
3897.000000;4.154554
3896.000000;4.183223
3895.000000;4.081935
3894.000000;3.999269
3893.000000;3.976548
3892.000000;3.847965
3891.000000;3.818015
3890.000000;4.016114
3889.000000;4.247736
3888.000000;4.236211
3887.000000;4.244895
3886.000000;4.415427
3885.000000;4.370827
3884.000000;4.154025
3883.000000;3.949101
3882.000000;3.885870
3881.000000;3.894857
3880.000000;3.819290
3879.000000;3.847730
3878.000000;3.908823
3877.000000;3.814767
3876.000000;3.735163
3875.000000;3.852802
3874.000000;4.185708
3873.000000;4.487051
3872.000000;4.193896
3871.000000;3.813170
3870.000000;3.761581
3869.000000;3.893266
3868.000000;3.942491
3867.000000;3.829478
3866.000000;3.672386
3865.000000;3.589272
3864.000000;3.588906
3863.000000;3.657754
3862.000000;3.804122
3861.000000;4.045782
3860.000000;4.310045
3859.000000;4.043012
3858.000000;3.795892
3857.000000;3.708685
3856.000000;3.580817
3855.000000;3.443563
3854.000000;3.398548
3853.000000;3.455272
3852.000000;3.545733
3851.000000;3.605700
3850.000000;3.666177
3849.000000;3.784558
3848.000000;3.965850
3847.000000;4.121732
3846.000000;4.135773
3845.000000;4.051247
3844.000000;3.982264
3843.000000;3.978943
3842.000000;4.011051
3841.000000;4.155601
3840.000000;4.491522
3839.000000;4.052967
3838.000000;3.774452
3837.000000;3.757123
3836.000000;3.841919
3835.000000;3.993255
3834.000000;4.096742
3833.000000;3.999252
3832.000000;3.915540
3831.000000;3.993076
3830.000000;4.119420
3829.000000;4.152020
3828.000000;4.129471
3827.000000;4.006574
3826.000000;4.012020
3825.000000;4.234328
3824.000000;4.564478
3823.000000;4.380515
3822.000000;4.080608
3821.000000;3.996916
3820.000000;3.989261
3819.000000;3.931280
3818.000000;3.780664
3817.000000;3.676120
3816.000000;3.751259
3815.000000;4.063793
3814.000000;4.031305
3813.000000;3.753125
3812.000000;3.742338
3811.000000;3.853582
3810.000000;3.951111
3809.000000;4.030054
3808.000000;4.004974
3807.000000;3.926937
3806.000000;3.952658
3805.000000;4.001946
3804.000000;3.940746
3803.000000;3.913543
3802.000000;3.788956
3801.000000;3.670126
3800.000000;3.635353
3799.000000;3.581066
3798.000000;3.526331
3797.000000;3.536966
3796.000000;3.617579
3795.000000;3.742764
3794.000000;3.890163
3793.000000;4.287031
3792.000000;4.490424
3791.000000;4.477698
3790.000000;4.697559
3789.000000;4.005084
3788.000000;3.771110
3787.000000;3.663861
3786.000000;3.650600
3785.000000;3.776247
3784.000000;3.951792
3783.000000;4.133701
3782.000000;4.240408
3781.000000;4.242127
3780.000000;3.950140
3779.000000;3.671127
3778.000000;3.563100
3777.000000;3.564157
3776.000000;3.634840
3775.000000;3.710665
3774.000000;3.733351
3773.000000;3.727227
3772.000000;3.765935
3771.000000;4.005157
3770.000000;4.157683
3769.000000;3.993141
3768.000000;3.920333
3767.000000;3.860727
3766.000000;3.855531
3765.000000;3.933503
3764.000000;4.045447
3763.000000;4.149797
3762.000000;4.253909
3761.000000;4.291376
3760.000000;4.140570
3759.000000;4.089398
3758.000000;4.272552
3757.000000;4.558828
3756.000000;4.725419
3755.000000;4.446072
3754.000000;4.077227
3753.000000;3.816214
3752.000000;3.615950
3751.000000;3.484332
3750.000000;3.468321
3749.000000;3.618326
3748.000000;3.981720
3747.000000;4.426423
3746.000000;4.063713
3745.000000;4.048108
3744.000000;4.502878
3743.000000;4.339248
3742.000000;3.898859
3741.000000;3.728476
3740.000000;3.788079
3739.000000;3.983163
3738.000000;4.189454
3737.000000;4.230201
3736.000000;4.389178
3735.000000;4.235420
3734.000000;3.807572
3733.000000;3.629942
3732.000000;3.542745
3731.000000;3.490132
3730.000000;3.493242
3729.000000;3.525564
3728.000000;3.578667
3727.000000;3.666930
3726.000000;3.811552
3725.000000;3.932801
3724.000000;3.934114
3723.000000;3.912066
3722.000000;3.950982
3721.000000;3.947273
3720.000000;3.926601
3719.000000;3.991523
3718.000000;3.911088
3717.000000;3.821728
3716.000000;3.897014
3715.000000;4.018953
3714.000000;4.073140
3713.000000;4.026483
3712.000000;4.008945
3711.000000;4.092979
3710.000000;4.182031
3709.000000;4.094239
3708.000000;3.950062
3707.000000;3.825069
3706.000000;3.697166
3705.000000;3.596219
3704.000000;3.499291
3703.000000;3.432103
3702.000000;3.487907
3701.000000;3.659226
3700.000000;3.873797
3699.000000;4.093212
3698.000000;3.947787
3697.000000;3.868803
3696.000000;4.097603
3695.000000;4.330449
3694.000000;4.234274
3693.000000;4.230887
3692.000000;4.364415
3691.000000;3.917862
3690.000000;3.545417
3689.000000;3.577663
3688.000000;4.079702
3687.000000;4.131154
3686.000000;4.073119
3685.000000;4.299293
3684.000000;4.053166
3683.000000;4.252921
3682.000000;4.238470
3681.000000;3.925994
3680.000000;3.940382
3679.000000;4.007255
3678.000000;3.849652
3677.000000;3.802918
3676.000000;3.837616
3675.000000;3.716925
3674.000000;3.759585
3673.000000;3.969997
3672.000000;4.062330
3671.000000;3.818902
3670.000000;3.738533
3669.000000;3.776316
3668.000000;3.791913
3667.000000;3.797953
3666.000000;3.864871
3665.000000;4.430776
3664.000000;4.055985
3663.000000;3.640282
3662.000000;3.584248
3661.000000;3.704835
3660.000000;3.853657
3659.000000;3.979973
3658.000000;3.869172
3657.000000;3.976584
3656.000000;4.265663
3655.000000;3.874591
3654.000000;3.892818
3653.000000;4.059924
3652.000000;4.170707
3651.000000;4.299895
3650.000000;4.269884
3649.000000;4.237789
3648.000000;4.200367
3647.000000;4.112987
3646.000000;4.069491
3645.000000;3.875008
3644.000000;3.687062
3643.000000;3.620042
3642.000000;3.626825
3641.000000;3.631284
3640.000000;3.592288
3639.000000;3.568009
3638.000000;3.594936
3637.000000;3.646760
3636.000000;3.760531
3635.000000;3.934730
3634.000000;4.185325
3633.000000;4.273597
3632.000000;3.839952
3631.000000;3.564527
3630.000000;3.547132
3629.000000;3.929816
3628.000000;4.057809
3627.000000;3.561358
3626.000000;3.352602
3625.000000;3.302544
3624.000000;3.417705
3623.000000;3.717809
3622.000000;4.042680
3621.000000;3.819978
3620.000000;3.623014
3619.000000;3.679670
3618.000000;3.869108
3617.000000;3.900293
3616.000000;3.709053
3615.000000;3.791675
3614.000000;4.122495
3613.000000;3.728451
3612.000000;3.591519
3611.000000;3.730972
3610.000000;3.901215
3609.000000;3.917220
3608.000000;3.729176
3607.000000;3.652017
3606.000000;3.684951
3605.000000;3.748034
3604.000000;3.758398
3603.000000;3.726542
3602.000000;3.727118
3601.000000;3.822371
3600.000000;4.110003
3599.000000;4.056391
3598.000000;3.641426
3597.000000;3.452026
3596.000000;3.385286
3595.000000;3.436058
3594.000000;3.793480
3593.000000;4.082756
3592.000000;3.734230
3591.000000;3.769797
3590.000000;4.027734
3589.000000;3.883872
3588.000000;3.525173
3587.000000;3.388549
3586.000000;3.384159
3585.000000;3.511756
3584.000000;3.759376
3583.000000;3.640461
3582.000000;3.476710
3581.000000;3.485428
3580.000000;3.581472
3579.000000;3.670267
3578.000000;3.683832
3577.000000;3.651373
3576.000000;3.677875
3575.000000;3.738010
3574.000000;3.620214
3573.000000;3.516589
3572.000000;3.538118
3571.000000;3.677996
3570.000000;4.000439
3569.000000;3.997666
3568.000000;3.732328
3567.000000;3.727545
3566.000000;3.927968
3565.000000;4.076950
3564.000000;3.770783
3563.000000;3.547819
3562.000000;3.511973
3561.000000;3.628308
3560.000000;3.834890
3559.000000;3.742356
3558.000000;3.584913
3557.000000;3.590563
3556.000000;3.697081
3555.000000;3.853959
3554.000000;3.959033
3553.000000;3.934862
3552.000000;3.771369
3551.000000;3.831005
3550.000000;4.046567
3549.000000;3.615451
3548.000000;3.370436
3547.000000;3.282759
3546.000000;3.257792
3545.000000;3.268236
3544.000000;3.284410
3543.000000;3.319050
3542.000000;3.386926
3541.000000;3.515416
3540.000000;3.704153
3539.000000;3.978905
3538.000000;4.547080
3537.000000;4.401529
3536.000000;3.906333
3535.000000;3.669118
3534.000000;3.560985
3533.000000;3.555806
3532.000000;3.552823
3531.000000;3.473331
3530.000000;3.359173
3529.000000;3.310503
3528.000000;3.396236
3527.000000;3.578844
3526.000000;3.680719
3525.000000;3.660046
3524.000000;3.614646
3523.000000;3.660337
3522.000000;3.823870
3521.000000;3.962449
3520.000000;3.902220
3519.000000;4.022892
3518.000000;4.149231
3517.000000;3.671974
3516.000000;3.484838
3515.000000;3.507511
3514.000000;3.651748
3513.000000;3.868789
3512.000000;4.042146
3511.000000;3.908700
3510.000000;3.706658
3509.000000;3.599009
3508.000000;3.574426
3507.000000;3.650232
3506.000000;3.849335
3505.000000;4.383558
3504.000000;4.201234
3503.000000;3.708838
3502.000000;3.521951
3501.000000;3.478101
3500.000000;3.524199
3499.000000;3.573249
3498.000000;3.589513
3497.000000;3.580125
3496.000000;3.700223
3495.000000;4.162051
3494.000000;3.894788
3493.000000;3.606695
3492.000000;3.627558
3491.000000;3.784188
3490.000000;3.894157
3489.000000;3.708280
3488.000000;3.508875
3487.000000;3.465346
3486.000000;3.565528
3485.000000;3.921783
3484.000000;4.239499
3483.000000;3.677851
3482.000000;3.442978
3481.000000;3.442326
3480.000000;3.567607
3479.000000;3.644765
3478.000000;3.549651
3477.000000;3.469438
3476.000000;3.509123
3475.000000;3.758362
3474.000000;4.092576
3473.000000;3.865809
3472.000000;3.798182
3471.000000;4.036198
3470.000000;4.342984
3469.000000;3.981453
3468.000000;3.788120
3467.000000;3.819375
3466.000000;4.169729
3465.000000;4.159470
3464.000000;3.852562
3463.000000;3.885956
3462.000000;3.982976
3461.000000;4.241597
3460.000000;4.247680
3459.000000;3.856343
3458.000000;3.756754
3457.000000;3.829464
3456.000000;4.030356
3455.000000;4.392522
3454.000000;4.374937
3453.000000;3.937199
3452.000000;3.713240
3451.000000;3.625661
3450.000000;3.620029
3449.000000;3.662495
3448.000000;3.869481
3447.000000;4.220745
3446.000000;4.088755
3445.000000;4.051028
3444.000000;3.599340
3443.000000;3.329147
3442.000000;3.242624
3441.000000;3.261805
3440.000000;3.329104
3439.000000;3.385220
3438.000000;3.477655
3437.000000;3.540292
3436.000000;3.483423
3435.000000;3.502719
3434.000000;3.716805
3433.000000;4.281360
3432.000000;4.182539
3431.000000;3.772486
3430.000000;3.702921
3429.000000;3.792582
3428.000000;3.926462
3427.000000;3.793449
3426.000000;3.607941
3425.000000;3.517242
3424.000000;3.478186
3423.000000;3.492919
3422.000000;3.490570
3421.000000;3.320270
3420.000000;3.170904
3419.000000;3.134938
3418.000000;3.195524
3417.000000;3.367860
3416.000000;3.636439
3415.000000;3.609917
3414.000000;3.449792
3413.000000;3.416455
3412.000000;3.566118
3411.000000;3.952155
3410.000000;3.820516
3409.000000;3.599726
3408.000000;3.612954
3407.000000;3.774226
3406.000000;4.183994
3405.000000;3.760735
3404.000000;3.387712
3403.000000;3.291987
3402.000000;3.300884
3401.000000;3.388831
3400.000000;3.555639
3399.000000;3.777423
3398.000000;3.987021
3397.000000;3.863133
3396.000000;3.533355
3395.000000;3.363925
3394.000000;3.324245
3393.000000;3.376323
3392.000000;3.527997
3391.000000;3.612142
3390.000000;3.450809
3389.000000;3.321469
3388.000000;3.270291
3387.000000;3.286260
3386.000000;3.374482
3385.000000;3.653059
3384.000000;3.938006
3383.000000;3.519624
3382.000000;3.370369
3381.000000;3.322964
3380.000000;3.321335
3379.000000;3.351165
3378.000000;3.420546
3377.000000;3.518430
3376.000000;3.576058
3375.000000;3.582530
3374.000000;3.596343
3373.000000;3.704278
3372.000000;3.792159
3371.000000;3.884667
3370.000000;4.184067
3369.000000;3.585159
3368.000000;3.330952
3367.000000;3.297114
3366.000000;3.334392
3365.000000;3.382600
3364.000000;3.422326
3363.000000;3.510390
3362.000000;3.768292
3361.000000;4.277230
3360.000000;3.837094
3359.000000;3.610788
3358.000000;3.501289
3357.000000;3.465088
3356.000000;3.591933
3355.000000;3.872291
3354.000000;3.642205
3353.000000;3.452905
3352.000000;3.464102
3351.000000;3.525997
3350.000000;3.535907
3349.000000;3.471218
3348.000000;3.413218
3347.000000;3.367829
3346.000000;3.332691
3345.000000;3.354368
3344.000000;3.481360
3343.000000;3.696434
3342.000000;3.549507
3341.000000;3.403920
3340.000000;3.479933
3339.000000;3.916912
3338.000000;4.124050
3337.000000;3.877452
3336.000000;4.191325
3335.000000;4.177804
3334.000000;3.734272
3333.000000;3.557481
3332.000000;3.438568
3331.000000;3.336974
3330.000000;3.271897
3329.000000;3.283662
3328.000000;3.396218
3327.000000;3.586661
3326.000000;3.715677
3325.000000;3.710682
3324.000000;3.709233
3323.000000;4.009691
3322.000000;4.285947
3321.000000;3.784612
3320.000000;3.561699
3319.000000;3.462970
3318.000000;3.479809
3317.000000;3.688427
3316.000000;3.572914
3315.000000;3.341216
3314.000000;3.264178
3313.000000;3.305587
3312.000000;3.498832
3311.000000;4.013614
3310.000000;4.358625
3309.000000;4.161403
3308.000000;3.926337
3307.000000;3.596797
3306.000000;3.463615
3305.000000;3.493613
3304.000000;3.690239
3303.000000;4.088269
3302.000000;4.609550
3301.000000;4.368711
3300.000000;3.927849
3299.000000;3.561915
3298.000000;3.375975
3297.000000;3.310461
3296.000000;3.302252
3295.000000;3.307418
3294.000000;3.344530
3293.000000;3.458632
3292.000000;3.648249
3291.000000;3.851025
3290.000000;3.975503
3289.000000;3.988515
3288.000000;3.766434
3287.000000;3.588284
3286.000000;3.560191
3285.000000;3.585095
3284.000000;3.550013
3283.000000;3.503680
3282.000000;3.479755
3281.000000;3.560599
3280.000000;3.928378
3279.000000;3.969278
3278.000000;3.758942
3277.000000;3.618131
3276.000000;3.318716
3275.000000;3.202218
3274.000000;3.231445
3273.000000;3.340776
3272.000000;3.400572
3271.000000;3.408320
3270.000000;3.463470
3269.000000;3.606883
3268.000000;3.771773
3267.000000;3.807205
3266.000000;3.756379
3265.000000;3.731933
3264.000000;3.760360
3263.000000;3.809016
3262.000000;4.065348
3261.000000;3.747929
3260.000000;3.444202
3259.000000;3.389740
3258.000000;3.514038
3257.000000;3.712452
3256.000000;3.816597
3255.000000;3.742507
3254.000000;3.736034
3253.000000;3.860251
3252.000000;3.812955
3251.000000;3.690564
3250.000000;3.542436
3249.000000;3.438211
3248.000000;3.407236
3247.000000;3.398772
3246.000000;3.382811
3245.000000;3.440758
3244.000000;3.640683
3243.000000;4.097914
3242.000000;3.973388
3241.000000;3.574870
3240.000000;3.401894
3239.000000;3.352600
3238.000000;3.445626
3237.000000;3.817663
3236.000000;4.164597
3235.000000;3.727145
3234.000000;3.625494
3233.000000;3.848019
3232.000000;4.023720
3231.000000;3.521228
3230.000000;3.305012
3229.000000;3.254794
3228.000000;3.358374
3227.000000;3.633973
3226.000000;3.588527
3225.000000;3.472537
3224.000000;3.517042
3223.000000;3.573737
3222.000000;3.627456
3221.000000;3.723589
3220.000000;3.688338
3219.000000;3.476743
3218.000000;3.305315
3217.000000;3.236906
3216.000000;3.234290
3215.000000;3.250872
3214.000000;3.309173
3213.000000;3.455837
3212.000000;3.789525
3211.000000;4.116028
3210.000000;3.897237
3209.000000;3.712284
3208.000000;3.566284
3207.000000;3.481441
3206.000000;3.519787
3205.000000;3.833410
3204.000000;4.105018
3203.000000;3.703564
3202.000000;3.686646
3201.000000;3.919830
3200.000000;3.650757
3199.000000;3.322391
3198.000000;3.203983
3197.000000;3.222337
3196.000000;3.318901
3195.000000;3.395518
3194.000000;3.497670
3193.000000;3.718263
3192.000000;3.608334
3191.000000;3.428880
3190.000000;3.457981
3189.000000;3.582976
3188.000000;3.598910
3187.000000;3.441670
3186.000000;3.304458
3185.000000;3.237432
3184.000000;3.266755
3183.000000;3.394116
3182.000000;3.552284
3181.000000;3.643214
3180.000000;3.700840
3179.000000;3.595871
3178.000000;3.407653
3177.000000;3.344273
3176.000000;3.425538
3175.000000;3.523281
3174.000000;3.498772
3173.000000;3.535742
3172.000000;3.730020
3171.000000;4.187126
3170.000000;3.812111
3169.000000;3.397034
3168.000000;3.201212
3167.000000;3.119799
3166.000000;3.110585
3165.000000;3.137264
3164.000000;3.172486
3163.000000;3.153465
3162.000000;3.081486
3161.000000;3.069401
3160.000000;3.193147
3159.000000;3.448080
3158.000000;3.458528
3157.000000;3.374219
3156.000000;3.407392
3155.000000;3.445597
3154.000000;3.442356
3153.000000;3.426439
3152.000000;3.452334
3151.000000;3.490808
3150.000000;3.607144
3149.000000;3.860217
3148.000000;3.956008
3147.000000;3.639302
3146.000000;3.406589
3145.000000;3.335888
3144.000000;3.404941
3143.000000;3.582824
3142.000000;3.681500
3141.000000;3.822311
3140.000000;4.190498
3139.000000;3.667957
3138.000000;3.446533
3137.000000;3.431245
3136.000000;3.633473
3135.000000;3.785736
3134.000000;3.491594
3133.000000;3.401016
3132.000000;3.506923
3131.000000;4.127935
3130.000000;3.806440
3129.000000;3.453069
3128.000000;3.413224
3127.000000;3.468814
3126.000000;3.629655
3125.000000;3.834727
3124.000000;4.055784
3123.000000;4.152167
3122.000000;3.965477
3121.000000;3.897800
3120.000000;4.021788
3119.000000;4.220328
3118.000000;4.560655
3117.000000;4.291124
3116.000000;3.857374
3115.000000;3.622972
3114.000000;3.514964
3113.000000;3.476785
3112.000000;3.477750
3111.000000;3.568510
3110.000000;3.912275
3109.000000;4.328454
3108.000000;3.878256
3107.000000;3.945792
3106.000000;4.247699
3105.000000;3.864732
3104.000000;3.643099
3103.000000;3.565831
3102.000000;3.623395
3101.000000;4.230021
3100.000000;3.572776
3099.000000;3.247682
3098.000000;3.137981
3097.000000;3.143000
3096.000000;3.309785
3095.000000;3.989435
3094.000000;3.539809
3093.000000;3.385405
3092.000000;3.479678
3091.000000;3.482782
3090.000000;3.310000
3089.000000;3.199252
3088.000000;3.172056
3087.000000;3.200599
3086.000000;3.240004
3085.000000;3.330024
3084.000000;3.580364
3083.000000;4.171487
3082.000000;4.000587
3081.000000;3.478071
3080.000000;3.282410
3079.000000;3.274902
3078.000000;3.543493
3077.000000;3.775183
3076.000000;3.605788
3075.000000;3.706856
3074.000000;3.912292
3073.000000;3.549390
3072.000000;3.320680
3071.000000;3.243683
3070.000000;3.258035
3069.000000;3.339261
3068.000000;3.427277
3067.000000;3.451079
3066.000000;3.344318
3065.000000;3.181402
3064.000000;3.078485
3063.000000;3.044203
3062.000000;3.049578
3061.000000;3.086051
3060.000000;3.177705
3059.000000;3.361321
3058.000000;3.677209
3057.000000;3.657390
3056.000000;3.334642
3055.000000;3.202892
3054.000000;3.206501
3053.000000;3.320032
3052.000000;3.387695
3051.000000;3.385046
3050.000000;3.490000
3049.000000;3.736253
3048.000000;3.825303
3047.000000;3.877300
3046.000000;4.343287
3045.000000;3.811736
3044.000000;3.479306
3043.000000;3.313922
3042.000000;3.243881
3041.000000;3.268299
3040.000000;3.326636
3039.000000;3.362189
3038.000000;3.436173
3037.000000;3.664583
3036.000000;3.908260
3035.000000;3.755657
3034.000000;3.743233
3033.000000;3.792418
3032.000000;3.727265
3031.000000;3.634846
3030.000000;3.635984
3029.000000;3.911931
3028.000000;4.182311
3027.000000;3.759318
3026.000000;3.550293
3025.000000;3.343343
3024.000000;3.199528
3023.000000;3.193280
3022.000000;3.288546
3021.000000;3.349913
3020.000000;3.372310
3019.000000;3.409424
3018.000000;3.555578
3017.000000;3.956672
3016.000000;3.470352
3015.000000;3.247241
3014.000000;3.216625
3013.000000;3.308442
3012.000000;3.653142
3011.000000;3.938032
3010.000000;3.521929
3009.000000;3.657377
3008.000000;4.048682
3007.000000;3.743426
3006.000000;3.714735
3005.000000;3.760992
3004.000000;3.652567
3003.000000;3.504934
3002.000000;3.479565
3001.000000;3.656279
3000.000000;3.791692
2999.000000;3.685993
2998.000000;3.742460
2997.000000;3.975094
2996.000000;4.039586
2995.000000;4.141411
2994.000000;3.781065
2993.000000;3.401123
2992.000000;3.246204
2991.000000;3.229980
2990.000000;3.313806
2989.000000;3.463854
2988.000000;3.551114
2987.000000;3.511640
2986.000000;3.534540
2985.000000;3.629285
2984.000000;3.491444
2983.000000;3.280297
2982.000000;3.201665
2981.000000;3.287962
2980.000000;3.590080
2979.000000;3.664163
2978.000000;3.428866
2977.000000;3.412339
2976.000000;3.741382
2975.000000;4.028360
2974.000000;3.509800
2973.000000;3.463360
2972.000000;3.588873
2971.000000;3.580803
2970.000000;3.503306
2969.000000;3.558633
2968.000000;3.667783
2967.000000;3.582024
2966.000000;3.413293
2965.000000;3.330870
2964.000000;3.323720
2963.000000;3.337585
2962.000000;3.367280
2961.000000;3.399892
2960.000000;3.305381
2959.000000;3.184950
2958.000000;3.175181
2957.000000;3.282395
2956.000000;3.448269
2955.000000;3.539923
2954.000000;3.542247
2953.000000;3.560014
2952.000000;3.592331
2951.000000;3.877415
2950.000000;4.218266
2949.000000;3.636780
2948.000000;3.456104
2947.000000;3.558499
2946.000000;3.928279
2945.000000;3.729449
2944.000000;3.588805
2943.000000;3.491860
2942.000000;3.261023
2941.000000;3.194832
2940.000000;3.283059
2939.000000;3.391556
2938.000000;3.418927
2937.000000;3.641064
2936.000000;4.040920
2935.000000;3.615266
2934.000000;3.605911
2933.000000;3.779236
2932.000000;3.551846
2931.000000;3.461500
2930.000000;3.527694
2929.000000;3.472987
2928.000000;3.336898
2927.000000;3.339502
2926.000000;3.416975
2925.000000;3.409095
2924.000000;3.338890
2923.000000;3.328910
2922.000000;3.710027
2921.000000;3.937190
2920.000000;3.367767
2919.000000;3.267767
2918.000000;3.300645
2917.000000;3.552080
2916.000000;4.051781
2915.000000;3.732380
2914.000000;3.551680
2913.000000;3.468501
2912.000000;3.354569
2911.000000;3.301668
2910.000000;3.309807
2909.000000;3.418517
2908.000000;3.776303
2907.000000;3.774186
2906.000000;3.394563
2905.000000;3.276472
2904.000000;3.285819
2903.000000;3.326785
2902.000000;3.426734
2901.000000;3.671156
2900.000000;3.702670
2899.000000;3.443254
2898.000000;3.313616
2897.000000;3.271597
2896.000000;3.286991
2895.000000;3.333163
2894.000000;3.392696
2893.000000;3.428053
2892.000000;3.383500
2891.000000;3.307883
2890.000000;3.275893
2889.000000;3.261552
2888.000000;3.271781
2887.000000;3.360507
2886.000000;3.608596
2885.000000;4.324578
2884.000000;3.845702
2883.000000;3.774167
2882.000000;4.237009
2881.000000;3.591436
2880.000000;3.476839
2879.000000;3.705304
2878.000000;3.639251
2877.000000;3.450098
2876.000000;3.418797
2875.000000;3.473671
2874.000000;3.627642
2873.000000;3.935063
2872.000000;3.719066
2871.000000;3.395673
2870.000000;3.323665
2869.000000;3.418727
2868.000000;3.877498
2867.000000;4.226514
2866.000000;3.621636
2865.000000;3.357518
2864.000000;3.198815
2863.000000;3.169756
2862.000000;3.313583
2861.000000;3.914390
2860.000000;4.013973
2859.000000;3.622779
2858.000000;3.507520
2857.000000;3.368791
2856.000000;3.311243
2855.000000;3.285342
2854.000000;3.245964
2853.000000;3.194905
2852.000000;3.194781
2851.000000;3.312002
2850.000000;3.632111
2849.000000;3.757529
2848.000000;3.472655
2847.000000;3.390164
2846.000000;3.422180
2845.000000;3.498881
2844.000000;3.564297
2843.000000;3.715191
2842.000000;3.934298
2841.000000;3.760482
2840.000000;3.539404
2839.000000;3.412374
2838.000000;3.370644
2837.000000;3.427083
2836.000000;3.503495
2835.000000;3.479141
2834.000000;3.451356
2833.000000;3.464588
2832.000000;3.437401
2831.000000;3.423806
2830.000000;3.570464
2829.000000;3.732729
2828.000000;3.531952
2827.000000;3.502082
2826.000000;3.585711
2825.000000;3.532218
2824.000000;3.505524
2823.000000;3.369403
2822.000000;3.247071
2821.000000;3.280619
2820.000000;3.413035
2819.000000;3.510988
2818.000000;3.531864
2817.000000;3.511927
2816.000000;3.502171
2815.000000;3.560280
2814.000000;3.679135
2813.000000;3.769909
2812.000000;3.651912
2811.000000;3.565505
2810.000000;3.651286
2809.000000;3.749908
2808.000000;3.621759
2807.000000;3.425982
2806.000000;3.340518
2805.000000;3.342451
2804.000000;3.345217
2803.000000;3.330522
2802.000000;3.353271
2801.000000;3.456579
2800.000000;3.610509
2799.000000;3.640294
2798.000000;3.589037
2797.000000;3.539157
2796.000000;3.442852
2795.000000;3.396564
2794.000000;3.463936
2793.000000;3.579460
2792.000000;3.539498
2791.000000;3.432521
2790.000000;3.415541
2789.000000;3.455101
2788.000000;3.488531
2787.000000;3.509879
2786.000000;3.524939
2785.000000;3.599940
2784.000000;3.700884
2783.000000;3.671677
2782.000000;3.544806
2781.000000;3.507892
2780.000000;3.718026
2779.000000;3.659651
2778.000000;3.377027
2777.000000;3.296783
2776.000000;3.332572
2775.000000;3.371723
2774.000000;3.281121
2773.000000;3.171975
2772.000000;3.160839
2771.000000;3.253857
2770.000000;3.428496
2769.000000;3.598925
2768.000000;3.667839
2767.000000;3.708402
2766.000000;3.641697
2765.000000;3.439177
2764.000000;3.294217
2763.000000;3.265740
2762.000000;3.330030
2761.000000;3.381821
2760.000000;3.456679
2759.000000;3.423620
2758.000000;3.173856
2757.000000;3.020281
2756.000000;2.994554
2755.000000;3.074121
2754.000000;3.262938
2753.000000;3.506677
2752.000000;3.758583
2751.000000;3.946539
2750.000000;3.690612
2749.000000;3.597722
2748.000000;3.972942
2747.000000;3.989152
2746.000000;3.638730
2745.000000;3.577857
2744.000000;3.438010
2743.000000;3.266652
2742.000000;3.180543
2741.000000;3.180590
2740.000000;3.280423
2739.000000;3.447217
2738.000000;3.530850
2737.000000;3.456213
2736.000000;3.401638
2735.000000;3.448003
2734.000000;3.668564
2733.000000;4.119673
2732.000000;3.892026
2731.000000;3.581059
2730.000000;3.505774
2729.000000;3.553239
2728.000000;3.628739
2727.000000;3.613672
2726.000000;3.619422
2725.000000;3.638175
2724.000000;3.559703
2723.000000;3.430612
2722.000000;3.340458
2721.000000;3.336128
2720.000000;3.411838
2719.000000;3.514406
2718.000000;3.564119
2717.000000;3.533132
2716.000000;3.484146
2715.000000;3.498935
2714.000000;3.616262
2713.000000;3.803223
2712.000000;3.744309
2711.000000;3.569928
2710.000000;3.550473
2709.000000;3.758182
2708.000000;4.183639
2707.000000;3.935411
2706.000000;3.638668
2705.000000;3.535061
2704.000000;3.582718
2703.000000;3.801114
2702.000000;3.837456
2701.000000;3.580531
2700.000000;3.416514
2699.000000;3.394610
2698.000000;3.459069
2697.000000;3.584007
2696.000000;3.596672
2695.000000;3.410270
2694.000000;3.314078
2693.000000;3.366502
2692.000000;3.452560
2691.000000;3.506945
2690.000000;3.543625
2689.000000;3.764494
2688.000000;4.323353
2687.000000;3.788972
2686.000000;3.519861
2685.000000;3.446429
2684.000000;3.361579
2683.000000;3.274341
2682.000000;3.263173
2681.000000;3.339359
2680.000000;3.367944
2679.000000;3.354437
2678.000000;3.485064
2677.000000;3.787319
2676.000000;3.626013
2675.000000;3.428228
2674.000000;3.426180
2673.000000;3.455277
2672.000000;3.387172
2671.000000;3.278574
2670.000000;3.250588
2669.000000;3.384595
2668.000000;3.851980
2667.000000;4.006569
2666.000000;3.687003
2665.000000;3.640238
2664.000000;3.642026
2663.000000;3.644908
2662.000000;3.771099
2661.000000;4.233364
2660.000000;3.995931
2659.000000;3.732418
2658.000000;3.867131
2657.000000;3.965725
2656.000000;3.855975
2655.000000;3.642666
2654.000000;3.391409
2653.000000;3.266211
2652.000000;3.229625
2651.000000;3.225127
2650.000000;3.240955
2649.000000;3.285237
2648.000000;3.353605
2647.000000;3.375659
2646.000000;3.367943
2645.000000;3.437389
2644.000000;3.617484
2643.000000;3.829237
2642.000000;3.759958
2641.000000;3.555198
2640.000000;3.439250
2639.000000;3.499983
2638.000000;3.765297
2637.000000;3.638084
2636.000000;3.385704
2635.000000;3.306763
2634.000000;3.313216
2633.000000;3.357655
2632.000000;3.401327
2631.000000;3.450804
2630.000000;3.575323
2629.000000;3.981635
2628.000000;3.862337
2627.000000;3.455704
2626.000000;3.366734
2625.000000;3.400217
2624.000000;3.570121
2623.000000;3.938573
2622.000000;4.071841
2621.000000;3.745856
2620.000000;3.505117
2619.000000;3.433878
2618.000000;3.534794
2617.000000;3.792757
2616.000000;4.095727
2615.000000;4.066702
2614.000000;3.852798
2613.000000;3.716816
2612.000000;3.743362
2611.000000;3.951600
2610.000000;3.820632
2609.000000;3.597578
2608.000000;3.575660
2607.000000;3.695658
2606.000000;3.617399
2605.000000;3.381695
2604.000000;3.308617
2603.000000;3.397915
2602.000000;3.559477
2601.000000;3.484105
2600.000000;3.295968
2599.000000;3.217425
2598.000000;3.241647
2597.000000;3.381392
2596.000000;3.605968
2595.000000;3.632112
2594.000000;3.640077
2593.000000;3.850685
2592.000000;3.722255
2591.000000;3.542031
2590.000000;3.539566
2589.000000;3.555698
2588.000000;3.561246
2587.000000;3.521764
2586.000000;3.450951
2585.000000;3.373769
2584.000000;3.459711
2583.000000;3.690782
2582.000000;3.456866
2581.000000;3.248487
2580.000000;3.212883
2579.000000;3.252709
2578.000000;3.262253
2577.000000;3.215558
2576.000000;3.214273
2575.000000;3.484664
2574.000000;3.875805
2573.000000;3.444256
2572.000000;3.332401
2571.000000;3.444138
2570.000000;3.770380
2569.000000;4.477401
2568.000000;4.379094
2567.000000;3.950436
2566.000000;3.722685
2565.000000;3.721157
2564.000000;3.765202
2563.000000;3.727773
2562.000000;3.635443
2561.000000;3.580421
2560.000000;3.616504
2559.000000;3.762050
2558.000000;4.044473
2557.000000;4.017204
2556.000000;3.983479
2555.000000;4.245251
2554.000000;3.833742
2553.000000;3.520668
2552.000000;3.422844
2551.000000;3.458847
2550.000000;3.685028
2549.000000;3.789369
2548.000000;3.592901
2547.000000;3.501409
2546.000000;3.506379
2545.000000;3.793925
2544.000000;4.115546
2543.000000;3.700318
2542.000000;3.657191
2541.000000;3.977143
2540.000000;3.872752
2539.000000;3.547246
2538.000000;3.448352
2537.000000;3.427634
2536.000000;3.426751
2535.000000;3.383117
2534.000000;3.319443
2533.000000;3.299853
2532.000000;3.321647
2531.000000;3.403080
2530.000000;3.622864
2529.000000;4.104377
2528.000000;4.275341
2527.000000;3.763625
2526.000000;3.509288
2525.000000;3.465836
2524.000000;3.525566
2523.000000;3.610224
2522.000000;3.706868
2521.000000;3.700707
2520.000000;3.596073
2519.000000;3.551578
2518.000000;3.599318
2517.000000;3.705221
2516.000000;3.898492
2515.000000;4.132232
2514.000000;4.085480
2513.000000;3.937309
2512.000000;3.736341
2511.000000;3.635346
2510.000000;3.641251
2509.000000;3.511455
2508.000000;3.354801
2507.000000;3.338994
2506.000000;3.458284
2505.000000;3.797186
2504.000000;4.183504
2503.000000;3.667092
2502.000000;3.420071
2501.000000;3.320321
2500.000000;3.325838
2499.000000;3.384619
2498.000000;3.300855
2497.000000;3.207050
2496.000000;3.212790
2495.000000;3.303011
2494.000000;3.459390
2493.000000;3.704599
2492.000000;4.274470
2491.000000;4.349310
2490.000000;3.918948
2489.000000;3.954927
2488.000000;3.990404
2487.000000;4.032361
2486.000000;3.885489
2485.000000;3.774785
2484.000000;4.191239
2483.000000;4.164309
2482.000000;3.753193
2481.000000;3.668999
2480.000000;3.721685
2479.000000;3.747347
2478.000000;3.656729
2477.000000;3.550469
2476.000000;3.635659
2475.000000;4.148895
2474.000000;3.739189
2473.000000;3.432639
2472.000000;3.435074
2471.000000;3.660852
2470.000000;3.807652
2469.000000;3.532695
2468.000000;3.422768
2467.000000;3.422869
2466.000000;3.491416
2465.000000;3.573647
2464.000000;3.610329
2463.000000;3.601941
2462.000000;3.524875
2461.000000;3.478062
2460.000000;3.529179
2459.000000;3.559851
2458.000000;3.500999
2457.000000;3.477581
2456.000000;3.495003
2455.000000;3.545387
2454.000000;3.695425
2453.000000;4.117720
2452.000000;4.323377
2451.000000;3.853472
2450.000000;3.665931
2449.000000;3.594170
2448.000000;3.513430
2447.000000;3.399184
2446.000000;3.331002
2445.000000;3.346534
2444.000000;3.429309
2443.000000;3.532008
2442.000000;3.573604
2441.000000;3.587423
2440.000000;3.555321
2439.000000;3.420049
2438.000000;3.336423
2437.000000;3.349495
2436.000000;3.350983
2435.000000;3.318280
2434.000000;3.342431
2433.000000;3.359287
2432.000000;3.325115
2431.000000;3.385231
2430.000000;3.536151
2429.000000;3.569551
2428.000000;3.583808
2427.000000;3.676482
2426.000000;3.714986
2425.000000;3.688425
2424.000000;3.713073
2423.000000;3.821133
2422.000000;3.956133
2421.000000;4.109461
2420.000000;4.097012
2419.000000;3.822679
2418.000000;3.670061
2417.000000;3.669354
2416.000000;4.002936
2415.000000;4.395243
2414.000000;3.786826
2413.000000;3.716953
2412.000000;4.123227
2411.000000;4.233329
2410.000000;3.735606
2409.000000;4.073213
2408.000000;4.050006
2407.000000;3.563517
2406.000000;3.512375
2405.000000;3.615542
2404.000000;3.674884
2403.000000;3.610117
2402.000000;3.574331
2401.000000;3.518578
2400.000000;3.442418
2399.000000;3.435158
2398.000000;3.511717
2397.000000;3.599450
2396.000000;3.603000
2395.000000;3.589644
2394.000000;3.742762
2393.000000;3.759313
2392.000000;3.532456
2391.000000;3.528862
2390.000000;3.728309
2389.000000;3.986363
2388.000000;3.775024
2387.000000;3.476217
2386.000000;3.301551
2385.000000;3.198397
2384.000000;3.090856
2383.000000;3.033141
2382.000000;3.034397
2381.000000;3.240142
2380.000000;4.165809
2379.000000;3.796609
2378.000000;3.818728
2377.000000;3.948328
2376.000000;3.982490
2375.000000;3.668325
2374.000000;3.546850
2373.000000;3.502611
2372.000000;3.487857
2371.000000;3.497153
2370.000000;3.521078
2369.000000;3.568952
2368.000000;3.642300
2367.000000;3.793683
2366.000000;4.090548
2365.000000;4.011225
2364.000000;3.868000
2363.000000;3.917407
2362.000000;3.979188
2361.000000;3.974681
2360.000000;3.929488
2359.000000;3.885768
2358.000000;3.914010
2357.000000;4.083652
2356.000000;4.047829
2355.000000;3.810438
2354.000000;3.701247
2353.000000;3.828413
2352.000000;3.872071
2351.000000;3.573610
2350.000000;3.436565
2349.000000;3.498726
2348.000000;4.170639
2347.000000;3.827177
2346.000000;3.438151
2345.000000;3.396897
2344.000000;3.469606
2343.000000;3.608256
2342.000000;3.640298
2341.000000;3.535352
2340.000000;3.409707
2339.000000;3.341863
2338.000000;3.367299
2337.000000;3.495181
2336.000000;3.821541
2335.000000;4.159114
2334.000000;3.774978
2333.000000;3.703080
2332.000000;3.949686
2331.000000;4.442046
2330.000000;3.961366
2329.000000;3.663885
2328.000000;3.503032
2327.000000;3.465385
2326.000000;3.587975
2325.000000;4.025508
2324.000000;3.950252
2323.000000;3.673502
2322.000000;3.691069
2321.000000;3.803689
2320.000000;4.002274
2319.000000;3.921184
2318.000000;3.651033
2317.000000;3.488246
2316.000000;3.456233
2315.000000;3.581263
2314.000000;3.966680
2313.000000;4.978141
2312.000000;4.403786
2311.000000;3.842875
2310.000000;3.659071
2309.000000;3.724747
2308.000000;3.856020
2307.000000;4.053501
2306.000000;4.079325
2305.000000;3.934723
2304.000000;3.845935
2303.000000;3.350572
2302.000000;3.339265
2301.000000;3.573504
2300.000000;3.479376
2299.000000;3.183104
2298.000000;3.117038
2297.000000;3.246007
2296.000000;3.481142
2295.000000;3.257192
2294.000000;3.091559
2293.000000;3.105517
2292.000000;3.221553
2291.000000;3.393118
2290.000000;3.570018
2289.000000;3.787191
2288.000000;4.074843
2287.000000;4.381625
2286.000000;4.752600
2285.000000;4.418082
2284.000000;3.909385
2283.000000;3.696899
2282.000000;3.655526
2281.000000;3.778010
2280.000000;3.966557
2279.000000;3.957717
2278.000000;3.868689
2277.000000;3.685870
2276.000000;3.536756
2275.000000;3.527061
2274.000000;3.612507
2273.000000;3.644567
2272.000000;3.635440
2271.000000;3.735723
2270.000000;4.308772
2269.000000;3.956047
2268.000000;3.596215
2267.000000;3.472576
2266.000000;3.398634
2265.000000;3.451867
2264.000000;3.543008
2263.000000;3.525102
2262.000000;3.573799
2261.000000;3.673957
2260.000000;3.658879
2259.000000;3.646394
2258.000000;3.659311
2257.000000;3.628000
2256.000000;3.597753
2255.000000;3.627389
2254.000000;3.666804
2253.000000;3.780201
2252.000000;3.989617
2251.000000;4.015706
2250.000000;3.942725
2249.000000;3.706998
2248.000000;3.523231
2247.000000;3.477901
2246.000000;3.509127
2245.000000;3.580322
2244.000000;3.686182
2243.000000;4.220139
2242.000000;4.110250
2241.000000;3.831928
2240.000000;3.953949
2239.000000;4.073413
2238.000000;3.946482
2237.000000;3.837775
2236.000000;3.815621
2235.000000;3.723662
2234.000000;3.559880
2233.000000;3.441983
2232.000000;3.423507
2231.000000;3.514099
2230.000000;3.704539
2229.000000;3.906960
2228.000000;3.901677
2227.000000;3.751761
2226.000000;3.627583
2225.000000;3.562227
2224.000000;3.605338
2223.000000;3.702535
2222.000000;3.535868
2221.000000;3.369296
2220.000000;3.379827
2219.000000;3.527137
2218.000000;3.689959
2217.000000;3.637514
2216.000000;3.527765
2215.000000;3.483619
2214.000000;3.467257
2213.000000;3.436788
2212.000000;3.424149
2211.000000;3.497093
2210.000000;3.718010
2209.000000;3.952345
2208.000000;3.772235
2207.000000;3.654640
2206.000000;3.616454
2205.000000;3.614218
2204.000000;3.663832
2203.000000;3.802724
2202.000000;4.081810
2201.000000;4.061053
2200.000000;3.720796
2199.000000;3.603127
2198.000000;3.660828
2197.000000;3.902597
2196.000000;4.245094
2195.000000;4.208355
2194.000000;4.226059
2193.000000;4.040582
2192.000000;3.695816
2191.000000;3.632625
2190.000000;3.755223
2189.000000;3.823341
2188.000000;3.783999
2187.000000;3.828003
2186.000000;3.946363
2185.000000;4.294112
2184.000000;4.388146
2183.000000;3.981692
2182.000000;3.880800
2181.000000;4.258135
2180.000000;3.969113
2179.000000;3.588820
2178.000000;3.493528
2177.000000;3.547166
2176.000000;3.668292
2175.000000;3.747772
2174.000000;3.788835
2173.000000;3.827711
2172.000000;4.087716
2171.000000;4.595348
2170.000000;3.921686
2169.000000;3.712082
2168.000000;3.676300
2167.000000;3.780613
2166.000000;4.100449
2165.000000;4.104251
2164.000000;3.771304
2163.000000;3.690578
2162.000000;3.742400
2161.000000;4.291919
2160.000000;4.247842
2159.000000;3.995322
2158.000000;3.772831
2157.000000;3.504163
2156.000000;3.421780
2155.000000;3.510978
2154.000000;3.836392
2153.000000;4.149591
2152.000000;3.708101
2151.000000;3.592791
2150.000000;3.642159
2149.000000;3.782054
2148.000000;3.757917
2147.000000;3.676921
2146.000000;3.688715
2145.000000;3.779407
2144.000000;3.943439
2143.000000;4.146393
2142.000000;4.127073
2141.000000;3.872420
2140.000000;3.699004
2139.000000;3.669815
2138.000000;3.791965
2137.000000;4.013629
2136.000000;4.021417
2135.000000;3.909076
2134.000000;3.891107
2133.000000;3.955604
2132.000000;4.160032
2131.000000;4.257725
2130.000000;4.011706
2129.000000;3.809781
2128.000000;3.714875
2127.000000;3.762294
2126.000000;3.970512
2125.000000;4.717307
2124.000000;4.075720
2123.000000;3.748273
2122.000000;3.669730
2121.000000;3.846361
2120.000000;4.395884
2119.000000;4.372003
2118.000000;4.160268
2117.000000;4.217807
2116.000000;4.330458
2115.000000;3.910027
2114.000000;3.888011
2113.000000;4.223690
2112.000000;3.758406
2111.000000;3.465173
2110.000000;3.450340
2109.000000;3.686883
2108.000000;4.097039
2107.000000;3.670688
2106.000000;3.498195
2105.000000;3.565848
2104.000000;3.808813
2103.000000;4.431986
2102.000000;4.235619
2101.000000;4.279646
2100.000000;4.730978
2099.000000;4.076058
2098.000000;3.878555
2097.000000;3.819880
2096.000000;3.923130
2095.000000;4.251767
2094.000000;4.770896
2093.000000;4.195202
2092.000000;3.789620
2091.000000;3.681870
2090.000000;3.746915
2089.000000;4.021080
2088.000000;4.136032
2087.000000;3.807266
2086.000000;3.680484
2085.000000;3.626969
2084.000000;3.547258
2083.000000;3.438757
2082.000000;3.393467
2081.000000;3.466315
2080.000000;3.736666
2079.000000;3.894783
2078.000000;3.712921
2077.000000;3.662160
2076.000000;3.745570
2075.000000;3.907695
2074.000000;4.028335
2073.000000;3.989842
2072.000000;3.938354
2071.000000;3.986500
2070.000000;3.928391
2069.000000;3.762091
2068.000000;3.660302
2067.000000;3.561112
2066.000000;3.452495
2065.000000;3.394655
2064.000000;3.421254
2063.000000;3.534586
2062.000000;3.712130
2061.000000;3.894422
2060.000000;4.016207
2059.000000;4.040796
2058.000000;3.941248
2057.000000;3.822419
2056.000000;3.786917
2055.000000;3.866983
2054.000000;4.067856
2053.000000;4.420788
2052.000000;4.434566
2051.000000;4.467366
2050.000000;4.727471
2049.000000;4.137002
2048.000000;3.899038
2047.000000;3.825815
2046.000000;3.822351
2045.000000;3.890232
2044.000000;4.120098
2043.000000;4.373090
2042.000000;3.925342
2041.000000;3.766348
2040.000000;3.693133
2039.000000;3.637485
2038.000000;3.662488
2037.000000;3.894104
2036.000000;4.496015
2035.000000;4.411720
2034.000000;4.010007
2033.000000;3.881872
2032.000000;3.952481
2031.000000;3.971319
2030.000000;3.832053
2029.000000;3.819744
2028.000000;4.057194
2027.000000;4.072452
2026.000000;3.777846
2025.000000;3.685443
2024.000000;3.766188
2023.000000;3.988605
2022.000000;4.247229
2021.000000;4.283574
2020.000000;4.013337
2019.000000;3.760390
2018.000000;3.609178
2017.000000;3.577000
2016.000000;3.648154
2015.000000;3.700575
2014.000000;3.638518
2013.000000;3.599668
2012.000000;3.614990
2011.000000;3.635953
2010.000000;3.613549
2009.000000;3.551009
2008.000000;3.503598
2007.000000;3.521742
2006.000000;3.591677
2005.000000;3.595641
2004.000000;3.506535
2003.000000;3.441136
2002.000000;3.450234
2001.000000;3.526703
2000.000000;3.655681
1999.000000;3.885033
1998.000000;4.390796
1997.000000;4.591706
1996.000000;4.080739
1995.000000;3.730322
1994.000000;3.539495
1993.000000;3.479631
1992.000000;3.538515
1991.000000;3.681522
1990.000000;3.785170
1989.000000;3.773560
1988.000000;3.676103
1987.000000;3.596623
1986.000000;3.584256
1985.000000;3.617648
1984.000000;3.717149
1983.000000;3.922409
1982.000000;4.149490
1981.000000;4.259684
1980.000000;4.218558
1979.000000;3.920037
1978.000000;3.712729
1977.000000;3.708351
1976.000000;3.871746
1975.000000;4.373487
1974.000000;4.655770
1973.000000;4.358400
1972.000000;4.149386
1971.000000;3.746690
1970.000000;3.503680
1969.000000;3.405681
1968.000000;3.421479
1967.000000;3.537702
1966.000000;3.725959
1965.000000;3.919055
1964.000000;4.007129
1963.000000;3.964790
1962.000000;3.872747
1961.000000;3.820580
1960.000000;3.840008
1959.000000;4.051040
1958.000000;4.441300
1957.000000;3.945064
1956.000000;3.689546
1955.000000;3.606382
1954.000000;3.641328
1953.000000;3.771900
1952.000000;3.901496
1951.000000;3.942717
1950.000000;3.973977
1949.000000;3.985539
1948.000000;3.930006
1947.000000;3.888454
1946.000000;3.919615
1945.000000;4.006865
1944.000000;3.980557
1943.000000;3.869763
1942.000000;3.906669
1941.000000;4.139543
1940.000000;3.962534
1939.000000;3.813933
1938.000000;3.821441
1937.000000;3.863879
1936.000000;4.125753
1935.000000;4.837758
1934.000000;4.046121
1933.000000;3.970849
1932.000000;4.174265
1931.000000;4.471528
1930.000000;4.008097
1929.000000;3.781314
1928.000000;3.763253
1927.000000;3.932604
1926.000000;4.041739
1925.000000;3.861906
1924.000000;3.784532
1923.000000;3.840026
1922.000000;4.091854
1921.000000;4.193790
1920.000000;3.976496
1919.000000;3.879839
1918.000000;4.043060
1917.000000;4.266654
1916.000000;3.832167
1915.000000;3.670928
1914.000000;3.710177
1913.000000;3.871805
1912.000000;4.139731
1911.000000;3.845345
1910.000000;3.709912
1909.000000;3.754280
1908.000000;3.759977
1907.000000;3.674944
1906.000000;3.614558
1905.000000;3.622151
1904.000000;3.681211
1903.000000;3.722993
1902.000000;3.669416
1901.000000;3.608498
1900.000000;3.636800
1899.000000;3.761416
1898.000000;3.924240
1897.000000;3.992599
1896.000000;3.942546
1895.000000;3.903836
1894.000000;3.961587
1893.000000;4.097397
1892.000000;4.090863
1891.000000;3.968210
1890.000000;3.869642
1889.000000;3.804113
1888.000000;3.767792
1887.000000;3.790371
1886.000000;3.954422
1885.000000;4.353407
1884.000000;4.488846
1883.000000;4.061157
1882.000000;3.824280
1881.000000;3.926764
1880.000000;4.340623
1879.000000;3.875330
1878.000000;3.715929
1877.000000;3.797298
1876.000000;3.998751
1875.000000;4.058422
1874.000000;3.964459
1873.000000;3.933953
1872.000000;3.869046
1871.000000;3.783187
1870.000000;3.768961
1869.000000;3.976949
1868.000000;4.309580
1867.000000;4.034626
1866.000000;3.890767
1865.000000;3.968716
1864.000000;4.008016
1863.000000;3.916650
1862.000000;3.798652
1861.000000;3.710892
1860.000000;3.710487
1859.000000;3.800263
1858.000000;3.885777
1857.000000;3.908085
1856.000000;3.928857
1855.000000;3.977807
1854.000000;4.002770
1853.000000;3.989366
1852.000000;3.947182
1851.000000;3.891971
1850.000000;3.950816
1849.000000;4.033647
1848.000000;3.822828
1847.000000;3.645233
1846.000000;3.586999
1845.000000;3.546752
1844.000000;3.525009
1843.000000;3.597055
1842.000000;3.828035
1841.000000;4.366207
1840.000000;4.513577
1839.000000;4.384703
1838.000000;4.359857
1837.000000;3.954663
1836.000000;3.763239
1835.000000;3.853730
1834.000000;4.039697
1833.000000;3.793063
1832.000000;3.658665
1831.000000;3.814007
1830.000000;4.189517
1829.000000;3.898114
1828.000000;3.770783
1827.000000;3.867103
1826.000000;4.045634
1825.000000;4.229291
1824.000000;4.194049
1823.000000;4.006900
1822.000000;3.848892
1821.000000;3.809738
1820.000000;3.849507
1819.000000;3.902348
1818.000000;3.910567
1817.000000;3.896096
1816.000000;4.128127
1815.000000;4.369537
1814.000000;3.925781
1813.000000;3.743731
1812.000000;3.770968
1811.000000;3.966805
1810.000000;4.302612
1809.000000;4.423404
1808.000000;4.321262
1807.000000;4.107704
1806.000000;4.101241
1805.000000;4.402302
1804.000000;4.200739
1803.000000;3.946276
1802.000000;3.835828
1801.000000;3.796671
1800.000000;3.819162
1799.000000;4.091170
1798.000000;4.424228
1797.000000;3.836492
1796.000000;3.655639
1795.000000;3.617764
1794.000000;3.649514
1793.000000;3.738450
1792.000000;3.870704
1791.000000;4.027176
1790.000000;4.115273
1789.000000;4.087260
1788.000000;4.095281
1787.000000;4.609199
1786.000000;4.708460
1785.000000;4.635242
1784.000000;4.319104
1783.000000;3.782286
1782.000000;3.567342
1781.000000;3.524133
1780.000000;3.630129
1779.000000;3.860358
1778.000000;3.892461
1777.000000;3.696068
1776.000000;3.589676
1775.000000;3.630609
1774.000000;3.745330
1773.000000;3.734546
1772.000000;3.671665
1771.000000;3.689823
1770.000000;3.748306
1769.000000;3.900695
1768.000000;4.315655
1767.000000;4.136847
1766.000000;3.720011
1765.000000;3.594632
1764.000000;3.584020
1763.000000;3.682718
1762.000000;4.157799
1761.000000;4.307799
1760.000000;3.873886
1759.000000;3.933606
1758.000000;4.298825
1757.000000;5.038325
1756.000000;4.428654
1755.000000;3.904825
1754.000000;3.614084
1753.000000;3.428465
1752.000000;3.340339
1751.000000;3.323979
1750.000000;3.324957
1749.000000;3.315239
1748.000000;3.322738
1747.000000;3.361570
1746.000000;3.435384
1745.000000;3.555689
1744.000000;3.721857
1743.000000;4.010868
1742.000000;4.303105
1741.000000;4.340450
1740.000000;4.508561
1739.000000;4.185645
1738.000000;4.022235
1737.000000;4.026802
1736.000000;3.940307
1735.000000;3.882536
1734.000000;3.841056
1733.000000;3.832578
1732.000000;3.844963
1731.000000;3.853266
1730.000000;4.006322
1729.000000;4.115896
1728.000000;4.000436
1727.000000;4.044266
1726.000000;4.025810
1725.000000;3.873411
1724.000000;3.810423
1723.000000;3.867895
1722.000000;3.959652
1721.000000;4.093621
1720.000000;4.384825
1719.000000;3.974754
1718.000000;3.685623
1717.000000;3.747620
1716.000000;4.099598
1715.000000;4.175879
1714.000000;4.238051
1713.000000;4.513227
1712.000000;4.070040
1711.000000;3.983711
1710.000000;4.046281
1709.000000;3.942850
1708.000000;3.823776
1707.000000;3.927542
1706.000000;4.183276
1705.000000;3.895185
1704.000000;3.700096
1703.000000;3.695017
1702.000000;3.727504
1701.000000;3.758478
1700.000000;3.783042
1699.000000;3.784903
1698.000000;3.795518
1697.000000;3.936577
1696.000000;3.911327
1695.000000;3.687872
1694.000000;3.659911
1693.000000;3.820959
1692.000000;3.882913
1691.000000;3.691224
1690.000000;3.526365
1689.000000;3.423841
1688.000000;3.397485
1687.000000;3.483719
1686.000000;3.807810
1685.000000;4.239891
1684.000000;4.197230
1683.000000;4.147938
1682.000000;3.819663
1681.000000;3.737013
1680.000000;3.912412
1679.000000;3.986804
1678.000000;3.951762
1677.000000;4.002938
1676.000000;3.995212
1675.000000;3.944824
1674.000000;3.940985
1673.000000;3.929663
1672.000000;3.880487
1671.000000;3.842456
1670.000000;3.871580
1669.000000;3.962718
1668.000000;4.013472
1667.000000;3.867172
1666.000000;3.710331
1665.000000;3.616726
1664.000000;3.575411
1663.000000;3.610111
1662.000000;3.726279
1661.000000;3.837217
1660.000000;3.812114
1659.000000;3.702390
1658.000000;3.581260
1657.000000;3.516934
1656.000000;3.556489
1655.000000;3.686579
1654.000000;3.818473
1653.000000;3.873750
1652.000000;3.769880
1651.000000;3.667390
1650.000000;3.640114
1649.000000;3.871708
1648.000000;4.261971
1647.000000;3.921953
1646.000000;3.733502
1645.000000;3.890350
1644.000000;4.720001
1643.000000;3.954323
1642.000000;3.641049
1641.000000;3.622709
1640.000000;3.691816
1639.000000;3.887631
1638.000000;4.107434
1637.000000;4.105341
1636.000000;3.839350
1635.000000;3.676469
1634.000000;3.621447
1633.000000;3.653539
1632.000000;3.759393
1631.000000;3.850804
1630.000000;3.975567
1629.000000;4.346469
1628.000000;4.387337
1627.000000;4.289321
1626.000000;4.245707
1625.000000;3.984915
1624.000000;3.800626
1623.000000;3.649431
1622.000000;3.567468
1621.000000;3.562737
1620.000000;3.570580
1619.000000;3.590227
1618.000000;3.651030
1617.000000;3.848830
1616.000000;4.243735
1615.000000;4.214775
1614.000000;4.029913
1613.000000;3.989110
1612.000000;3.973217
1611.000000;4.224934
1610.000000;4.505096
1609.000000;4.058220
1608.000000;3.824359
1607.000000;3.685083
1606.000000;3.659697
1605.000000;3.825645
1604.000000;4.367902
1603.000000;4.374546
1602.000000;3.877291
1601.000000;3.821946
1600.000000;3.888874
1599.000000;4.114172
1598.000000;4.649849
1597.000000;4.226454
1596.000000;3.941911
1595.000000;3.973308
1594.000000;4.048636
1593.000000;4.221100
1592.000000;4.442582
1591.000000;4.168146
1590.000000;4.044044
1589.000000;4.305558
1588.000000;4.759050
1587.000000;4.278600
1586.000000;4.209777
1585.000000;4.138805
1584.000000;3.861228
1583.000000;3.721462
1582.000000;3.704272
1581.000000;3.787652
1580.000000;3.986786
1579.000000;4.315166
1578.000000;4.103182
1577.000000;3.757231
1576.000000;3.597645
1575.000000;3.555386
1574.000000;3.624913
1573.000000;3.760385
1572.000000;3.889654
1571.000000;4.010794
1570.000000;4.130555
1569.000000;4.139526
1568.000000;4.189370
1567.000000;4.374078
1566.000000;4.116000
1565.000000;3.927215
1564.000000;3.988031
1563.000000;3.897707
1562.000000;3.689374
1561.000000;3.613270
1560.000000;3.664790
1559.000000;3.824949
1558.000000;3.920076
1557.000000;3.722290
1556.000000;3.516104
1555.000000;3.428547
1554.000000;3.454997
1553.000000;3.565884
1552.000000;3.647381
1551.000000;3.655482
1550.000000;3.665098
1549.000000;3.680003
1548.000000;3.729001
1547.000000;3.907839
1546.000000;4.116836
1545.000000;4.080496
1544.000000;3.970810
1543.000000;3.853335
1542.000000;3.804809
1541.000000;3.772289
1540.000000;3.691601
1539.000000;3.692208
1538.000000;3.783870
1537.000000;3.804478
1536.000000;3.771524
1535.000000;3.825296
1534.000000;3.961787
1533.000000;4.077198
1532.000000;4.063054
1531.000000;3.959852
1530.000000;3.841046
1529.000000;3.731552
1528.000000;3.649774
1527.000000;3.619202
1526.000000;3.657051
1525.000000;3.747923
1524.000000;3.756742
1523.000000;3.638385
1522.000000;3.592761
1521.000000;3.666480
1520.000000;3.747869
1519.000000;3.757391
1518.000000;3.764292
1517.000000;3.784182
1516.000000;3.918029
1515.000000;4.389312
1514.000000;4.535874
1513.000000;4.171209
1512.000000;4.028875
1511.000000;3.962123
1510.000000;3.943024
1509.000000;3.909125
1508.000000;3.905750
1507.000000;3.897042
1506.000000;3.887242
1505.000000;3.919344
1504.000000;4.211797
1503.000000;4.497665
1502.000000;3.885941
1501.000000;3.667630
1500.000000;3.631585
1499.000000;3.748543
1498.000000;3.961779
1497.000000;3.898845
1496.000000;3.768172
1495.000000;3.748637
1494.000000;3.791712
1493.000000;3.776982
1492.000000;3.749870
1491.000000;3.805289
1490.000000;3.811992
1489.000000;3.740471
1488.000000;3.711684
1487.000000;3.719804
1486.000000;3.764867
1485.000000;3.886281
1484.000000;3.912758
1483.000000;3.758836
1482.000000;3.682168
1481.000000;3.765389
1480.000000;4.029164
1479.000000;4.351046
1478.000000;4.593333
1477.000000;4.154351
1476.000000;3.788128
1475.000000;3.847837
1474.000000;4.220720
1473.000000;4.145511
1472.000000;3.956794
1471.000000;3.843269
1470.000000;3.729491
1469.000000;3.709122
1468.000000;3.775425
1467.000000;3.903534
1466.000000;4.000569
1465.000000;3.887229
1464.000000;3.725579
1463.000000;3.662603
1462.000000;3.732097
1461.000000;3.902585
1460.000000;4.063658
1459.000000;4.192512
1458.000000;4.009942
1457.000000;3.773333
1456.000000;3.781192
1455.000000;4.139603
1454.000000;4.279792
1453.000000;3.915231
1452.000000;3.923514
1451.000000;4.233730
1450.000000;4.345915
1449.000000;4.138110
1448.000000;4.203960
1447.000000;4.481067
1446.000000;4.457712
1445.000000;4.144284
1444.000000;3.955117
1443.000000;3.967862
1442.000000;4.256858
1441.000000;4.216314
1440.000000;3.948619
1439.000000;3.966257
1438.000000;4.142199
1437.000000;4.190989
1436.000000;3.941361
1435.000000;3.775217
1434.000000;3.724922
1433.000000;3.750919
1432.000000;3.841155
1431.000000;3.998776
1430.000000;4.243550
1429.000000;4.264536
1428.000000;4.033926
1427.000000;3.874213
1426.000000;3.783661
1425.000000;3.769213
1424.000000;3.789412
1423.000000;3.954807
1422.000000;4.278688
1421.000000;3.848623
1420.000000;3.558305
1419.000000;3.502729
1418.000000;3.578931
1417.000000;3.689724
1416.000000;3.779762
1415.000000;3.785101
1414.000000;3.638434
1413.000000;3.515912
1412.000000;3.510974
1411.000000;3.641071
1410.000000;3.962390
1409.000000;4.568560
1408.000000;4.265230
1407.000000;3.906608
1406.000000;3.721391
1405.000000;3.629488
1404.000000;3.680034
1403.000000;3.898088
1402.000000;4.122326
1401.000000;4.017098
1400.000000;3.867315
1399.000000;3.710505
1398.000000;3.644657
1397.000000;3.755770
1396.000000;3.807061
1395.000000;3.674058
1394.000000;3.691992
1393.000000;3.903692
1392.000000;4.164084
1391.000000;4.149679
1390.000000;4.166508
1389.000000;4.581465
1388.000000;4.585282
1387.000000;4.130577
1386.000000;3.921842
1385.000000;3.775081
1384.000000;3.750887
1383.000000;3.839366
1382.000000;4.009879
1381.000000;4.079528
1380.000000;4.016905
1379.000000;4.030965
1378.000000;3.962784
1377.000000;3.769124
1376.000000;3.626188
1375.000000;3.603974
1374.000000;3.652457
1373.000000;3.675559
1372.000000;3.759191
1371.000000;4.007887
1370.000000;4.252525
1369.000000;4.175440
1368.000000;4.102966
1367.000000;4.115348
1366.000000;4.270840
1365.000000;4.622040
1364.000000;4.101400
1363.000000;3.700721
1362.000000;3.608180
1361.000000;3.704392
1360.000000;3.998799
1359.000000;4.089948
1358.000000;3.821729
1357.000000;3.712796
1356.000000;3.712801
1355.000000;3.788218
1354.000000;3.872352
1353.000000;3.958868
1352.000000;4.222193
1351.000000;4.232396
1350.000000;3.970749
1349.000000;4.078938
1348.000000;4.357191
1347.000000;3.872009
1346.000000;3.672810
1345.000000;3.626635
1344.000000;3.608438
1343.000000;3.594894
1342.000000;3.575044
1341.000000;3.582893
1340.000000;3.652869
1339.000000;3.819531
1338.000000;4.038674
1337.000000;4.068261
1336.000000;3.968292
1335.000000;3.943848
1334.000000;3.967347
1333.000000;4.020294
1332.000000;4.050082
1331.000000;3.966299
1330.000000;3.841804
1329.000000;3.760399
1328.000000;3.770184
1327.000000;3.914729
1326.000000;4.095762
1325.000000;4.101540
1324.000000;4.129088
1323.000000;4.238517
1322.000000;4.217577
1321.000000;4.066464
1320.000000;3.945603
1319.000000;3.868625
1318.000000;3.793522
1317.000000;3.743931
1316.000000;3.743159
1315.000000;3.777440
1314.000000;3.865606
1313.000000;4.145612
1312.000000;4.650132
1311.000000;4.853097
1310.000000;4.338175
1309.000000;3.807942
1308.000000;3.601640
1307.000000;3.536687
1306.000000;3.572241
1305.000000;3.670565
1304.000000;3.758191
1303.000000;3.909005
1302.000000;4.187983
1301.000000;3.980323
1300.000000;3.790444
1299.000000;3.844869
1298.000000;3.949350
1297.000000;3.906596
1296.000000;3.913364
1295.000000;3.971465
1294.000000;3.872693
1293.000000;3.976331
1292.000000;4.741186
1291.000000;4.220307
1290.000000;4.132392
1289.000000;4.498220
1288.000000;4.567450
1287.000000;4.090490
1286.000000;3.972065
1285.000000;3.923497
1284.000000;3.840661
1283.000000;3.840516
1282.000000;4.028046
1281.000000;4.276435
1280.000000;4.219099
1279.000000;4.120361
1278.000000;3.957259
1277.000000;3.842165
1276.000000;3.848625
1275.000000;3.892875
1274.000000;3.857511
1273.000000;3.872238
1272.000000;4.075709
1271.000000;4.104806
1270.000000;3.962712
1269.000000;3.946025
1268.000000;4.034790
1267.000000;4.273156
1266.000000;4.245308
1265.000000;4.136762
1264.000000;4.332014
1263.000000;4.303815
1262.000000;4.053140
1261.000000;3.914554
1260.000000;3.867031
1259.000000;3.942563
1258.000000;4.172001
1257.000000;4.349929
1256.000000;4.050762
1255.000000;3.853663
1254.000000;3.846893
1253.000000;3.923079
1252.000000;3.825428
1251.000000;3.678375
1250.000000;3.630045
1249.000000;3.653274
1248.000000;3.705210
1247.000000;3.735976
1246.000000;3.727811
1245.000000;3.716856
1244.000000;3.725523
1243.000000;3.686690
1242.000000;3.646815
1241.000000;3.724085
1240.000000;3.955284
1239.000000;4.170487
1238.000000;4.019502
1237.000000;3.820164
1236.000000;3.753762
1235.000000;3.878607
1234.000000;4.313305
1233.000000;4.209760
1232.000000;3.915936
1231.000000;3.871790
1230.000000;3.813485
1229.000000;3.738437
1228.000000;3.760604
1227.000000;3.933738
1226.000000;4.505085
1225.000000;4.521685
1224.000000;4.158715
1223.000000;4.284852
1222.000000;4.368088
1221.000000;4.699158
1220.000000;4.069373
1219.000000;3.739567
1218.000000;3.684412
1217.000000;3.730833
1216.000000;3.774204
1215.000000;3.746447
1214.000000;3.752020
1213.000000;3.928963
1212.000000;4.254112
1211.000000;4.106898
1210.000000;4.296227
1209.000000;4.216731
1208.000000;3.796549
1207.000000;3.595545
1206.000000;3.507093
1205.000000;3.543785
1204.000000;3.713956
1203.000000;4.089300
1202.000000;4.576725
1201.000000;4.243208
1200.000000;4.092154
